Sym0		Asym0		Sym1		Sym2		Sym3		Sym4		Asym1		Asym2		Asym3		Asym4	
424  Points		527  Points		424  Points		406  Points		352  Points		252  Points		455  Points		400  Points		344  Points		207  Points	
Freq (MHz)	Vph (m/ms)	Freq (MHz)	Vph (m/ms)	Freq (MHz)	Vph (m/ms)	Freq (MHz)	Vph (m/ms)	Freq (MHz)	Vph (m/ms)	Freq (MHz)	Vph (m/ms)	Freq (MHz)	Vph (m/ms)	Freq (MHz)	Vph (m/ms)	Freq (MHz)	Vph (m/ms)	Freq (MHz)	Vph (m/ms)
0.27951	694.302	0.000223493	0.0920239	0.279514	307.304	0.449907	11730	0.559017	7552.6	0.838526	2163.61	0.139755	959.938	0.419268	468.484	0.698771	3648.52	0.899815	2235.43
0.27952	209.492	0.000427158	0.127118	0.27953	151.814	0.449913	463.804	0.559024	555.849	0.838531	635.61	0.139799	129.77	0.419285	229.539	0.698776	622.12	0.899819	674.417
0.27954	123.365	0.000695537	0.162053	0.279556	100.815	0.449929	236.588	0.559041	288.551	0.838542	372.528	0.139909	69.6419	0.419314	152.017	0.698786	340.056	0.89983	397.116
0.279572	87.4301	0.00102783	0.196763	0.279594	75.4709	0.449957	158.802	0.55907	194.859	0.838559	263.479	0.140086	47.6372	0.419354	113.645	0.698802	233.979	0.899845	281.412
0.279614	67.7138	0.00142314	0.231201	0.279642	60.3151	0.449995	119.516	0.559111	147.104	0.838582	203.819	0.140328	36.2382	0.419406	90.7466	0.698825	178.349	0.899866	217.922
0.279667	55.2588	0.00188046	0.265335	0.279701	50.2332	0.450044	95.8186	0.559162	118.154	0.838611	166.192	0.140635	29.2742	0.419469	75.5335	0.698853	144.094	0.899891	177.809
0.279731	46.6783	0.00239847	0.299105	0.279771	43.0434	0.450103	79.9683	0.559225	98.7299	0.838645	140.295	0.141006	24.5837	0.419544	64.6934	0.698887	120.879	0.899923	150.17
0.279806	40.4084	0.0029759	0.332484	0.279851	37.6577	0.450174	68.6218	0.559299	84.7951	0.838685	121.383	0.141441	21.2136	0.419631	56.5783	0.698928	104.11	0.899959	129.969
0.279891	35.6271	0.00361145	0.365449	0.279942	33.4734	0.450255	60.0988	0.559384	74.3113	0.838731	106.966	0.141938	18.6781	0.419729	50.276	0.698974	91.428	0.9	114.561
0.279987	31.8608	0.00430345	0.397955	0.280044	30.1291	0.450347	53.4625	0.55948	66.1381	0.838783	95.6116	0.142495	16.7035	0.419839	45.2403	0.699027	81.5023	0.900047	102.42
0.280094	28.8177	0.00505035	0.429978	0.280157	27.3951	0.450449	48.1491	0.559588	59.5879	0.838841	86.4382	0.143112	15.1241	0.41996	41.1246	0.699086	73.5224	0.900099	92.6078
0.280212	26.308	0.00585055	0.461499	0.28028	25.1188	0.450563	43.7992	0.559707	54.2212	0.838904	78.8725	0.143787	13.8334	0.420093	37.6982	0.69915	66.9673	0.900157	84.5125
0.28034	24.2029	0.00670236	0.492495	0.280415	23.1941	0.450687	40.1728	0.559837	49.744	0.838973	72.526	0.144518	12.76	0.420238	34.8015	0.699221	61.4869	0.900219	77.7199
0.280479	22.4121	0.00760401	0.522947	0.28056	21.5457	0.450822	37.1035	0.559978	45.9524	0.839048	67.1261	0.145305	11.8542	0.420394	32.3206	0.699297	56.837	0.900287	71.9392
0.280629	20.8703	0.00855375	0.55284	0.280715	20.1182	0.450967	34.4721	0.56013	42.7002	0.839129	62.4757	0.146144	11.0805	0.420561	30.1723	0.69938	52.8422	0.90036	66.9599
0.28079	19.5291	0.00954987	0.582165	0.280881	18.8701	0.451123	32.1914	0.560294	39.8801	0.839216	58.4291	0.146917	10.4932	0.420741	28.2939	0.699469	49.3733	0.900438	62.6263
0.280961	18.3518	0.0105906	0.610908	0.281058	17.7697	0.45129	30.1958	0.560468	37.4116	0.839308	54.8758	0.147606	10.0458	0.420931	26.6377	0.699564	46.3329	0.900522	58.8205
0.281143	17.3103	0.0116741	0.639067	0.281246	16.7924	0.451468	28.435	0.560654	35.2328	0.839407	51.731	0.148197	9.70784	0.421133	25.1667	0.699664	43.6463	0.90061	55.4517
0.281335	16.3823	0.0127988	0.666635	0.281444	15.9187	0.451656	26.8701	0.560851	33.2957	0.839511	48.928	0.148676	9.45884	0.421347	23.8515	0.699771	41.2551	0.900704	52.4487
0.281538	15.5505	0.0139631	0.693615	0.281653	15.1331	0.451854	25.4701	0.561059	31.5623	0.83962	46.4141	0.149036	9.28515	0.421572	22.6686	0.699884	39.1134	0.900803	49.7551
0.281752	14.8007	0.015165	0.72	0.281873	14.4229	0.452064	24.2105	0.561278	30.0022	0.839736	44.1468	0.149269	9.17791	0.421809	21.5993	0.700003	37.1839	0.900908	47.3255
0.281977	14.1213	0.0164033	0.745798	0.282103	13.7778	0.452284	23.0711	0.561508	28.5906	0.839857	42.0915	0.149608	9.02883	0.422057	20.6278	0.700128	35.4367	0.901017	45.1228
0.282212	13.503	0.0176761	0.77101	0.282344	13.1894	0.452514	22.0356	0.56175	27.3074	0.839985	40.2198	0.149982	8.87324	0.422316	19.7416	0.700258	33.8472	0.901132	43.1168
0.282458	12.938	0.018982	0.795638	0.282596	12.6506	0.452756	21.0904	0.562002	26.136	0.840118	38.5083	0.150501	8.67173	0.422587	18.9298	0.700395	32.3949	0.901252	41.2822
0.282714	12.4198	0.0203197	0.819695	0.282858	12.1553	0.453007	20.2244	0.562265	25.0623	0.840256	36.9372	0.151171	8.43227	0.422869	18.1835	0.700538	31.063	0.901377	39.598
0.282981	11.9427	0.0216875	0.843183	0.283131	11.6987	0.45327	19.428	0.562539	24.0747	0.840401	35.49	0.152003	8.16351	0.423162	17.4952	0.700687	29.8369	0.901508	38.0465
0.283258	11.5021	0.0230842	0.86611	0.283414	11.2763	0.453542	18.6932	0.562825	23.1633	0.840551	34.1526	0.153007	7.87412	0.423467	16.8584	0.700842	28.7047	0.901643	36.6126
0.283547	11.0941	0.0245085	0.88849	0.283708	10.8845	0.453826	18.0132	0.563121	22.3197	0.840707	32.913	0.154197	7.57229	0.423783	16.2676	0.701003	27.6559	0.901784	35.2834
0.283845	10.7152	0.0259591	0.91033	0.284012	10.5201	0.454119	17.382	0.563428	21.5366	0.840869	31.7608	0.155426	7.29867	0.424111	15.7181	0.70117	26.6818	0.901931	34.048
0.284154	10.3624	0.0274347	0.931639	0.284286	10.2228	0.454424	16.7947	0.563746	20.8077	0.841037	30.6873	0.156691	7.04964	0.42445	15.2056	0.701342	25.7745	0.902082	32.8967
0.284474	10.0331	0.0289343	0.952427	0.284526	9.98299	0.454738	16.2469	0.564075	20.1277	0.84121	29.6845	0.15799	6.82215	0.424799	14.7266	0.701521	24.9276	0.902238	31.8212
0.284804	9.72521	0.0304567	0.972709	0.284728	9.79343	0.455063	15.7348	0.564415	19.4918	0.841389	28.7457	0.159324	6.61365	0.425161	14.2779	0.701706	24.1351	0.9024	30.8143
0.285145	9.43662	0.0320009	0.992494	0.284891	9.64885	0.455399	15.2549	0.564765	18.8959	0.841574	27.865	0.160689	6.42195	0.425533	13.8569	0.701897	23.3921	0.902567	29.8697
0.285496	9.16563	0.0335659	1.01179	0.285013	9.54539	0.455745	14.8045	0.565127	18.3364	0.841765	27.0373	0.162085	6.24521	0.425916	13.461	0.702094	22.694	0.902739	28.9818
0.285857	8.91071	0.0351506	1.03062	0.285091	9.4804	0.456101	14.3808	0.565499	17.8101	0.841961	26.2578	0.16351	6.08179	0.426311	13.088	0.702296	22.0369	0.902917	28.1456
0.286229	8.67049	0.0367544	1.04899	0.285205	9.3886	0.456467	13.9816	0.565882	17.3141	0.842163	25.5225	0.164964	5.93034	0.426717	12.7362	0.702505	21.4173	0.903099	27.3568
0.286612	8.44376	0.0383761	1.0669	0.285329	9.29094	0.456844	13.6049	0.566276	16.8459	0.842371	24.8278	0.166444	5.78962	0.427134	12.4037	0.70272	20.8321	0.903287	26.6114
0.287004	8.22944	0.040015	1.08438	0.285501	9.16154	0.457231	13.2488	0.56668	16.4033	0.842585	24.1703	0.167949	5.65861	0.427561	12.089	0.70294	20.2786	0.90348	25.9061
0.287407	8.02657	0.0416705	1.10143	0.285722	9.00328	0.457628	12.9118	0.567095	15.9842	0.842804	23.5473	0.169479	5.53636	0.428	11.7908	0.703167	19.7541	0.903678	25.2375
0.287821	7.83427	0.0433415	1.11807	0.285995	8.81952	0.458036	12.5922	0.567521	15.5869	0.843029	22.956	0.171032	5.42207	0.42845	11.5079	0.7034	19.2566	0.903881	24.603
0.288245	7.65176	0.0450276	1.1343	0.286322	8.61393	0.458454	12.289	0.567957	15.2097	0.84326	22.3942	0.172608	5.31503	0.428911	11.239	0.703638	18.7841	0.90409	24
0.288679	7.47832	0.0467279	1.15014	0.286707	8.39033	0.458881	12.0007	0.568404	14.8511	0.843497	21.8596	0.174204	5.21459	0.429382	10.9832	0.703883	18.3346	0.904303	23.4263
0.289123	7.31331	0.0484418	1.16559	0.287102	8.17889	0.459319	11.7264	0.568861	14.5098	0.843739	21.3503	0.175821	5.1202	0.429865	10.7396	0.704133	17.9065	0.904522	22.8798
0.289577	7.15616	0.0501689	1.18068	0.287507	7.97868	0.459768	11.4652	0.569329	14.1847	0.843987	20.8647	0.177458	5.03134	0.430359	10.5074	0.704389	17.4984	0.904746	22.3585
0.290042	7.00633	0.0519083	1.1954	0.287923	7.78883	0.460226	11.216	0.569808	13.8745	0.844241	20.4011	0.179113	4.94757	0.430797	10.3136	0.704652	17.109	0.904975	21.8608
0.290517	6.86334	0.0536597	1.20978	0.28835	7.6086	0.460694	10.9781	0.570296	13.5784	0.8445	19.958	0.180785	4.86848	0.431178	10.1545	0.70492	16.7369	0.905209	21.3852
0.291003	6.72674	0.0554225	1.22382	0.288786	7.43728	0.461172	10.7509	0.570796	13.2953	0.844765	19.5342	0.182475	4.7937	0.431497	10.0268	0.705194	16.381	0.905449	20.9302
0.291498	6.59613	0.0571961	1.23752	0.289233	7.27424	0.46166	10.5334	0.571305	13.0246	0.845036	19.1283	0.184181	4.72291	0.431752	9.92837	0.705474	16.0404	0.905694	20.4944
0.292003	6.47114	0.0589801	1.2509	0.28969	7.11892	0.462094	10.3516	0.571825	12.7653	0.845313	18.7394	0.185902	4.65582	0.431942	9.8573	0.70576	15.714	0.905943	20.0768
0.292519	6.35143	0.0607742	1.26398	0.290157	6.97081	0.462469	10.2018	0.572355	12.5168	0.845595	18.3663	0.187638	4.59215	0.432064	9.8124	0.706052	15.401	0.906198	19.6762
0.293045	6.23668	0.0625777	1.27675	0.290635	6.82941	0.462784	10.0815	0.572896	12.2784	0.845883	18.0081	0.189388	4.53165	0.43224	9.74862	0.70635	15.1006	0.906458	19.2916
0.293581	6.1266	0.0643904	1.28922	0.291122	6.69431	0.463035	9.98848	0.573447	12.0496	0.846176	17.664	0.191152	4.47411	0.432433	9.68032	0.706654	14.8121	0.906724	18.922
0.294127	6.02093	0.0662118	1.30141	0.29162	6.56511	0.463221	9.92129	0.574008	11.8298	0.846475	17.3331	0.192929	4.41933	0.432697	9.5891	0.706963	14.5347	0.906994	18.5667
0.294682	5.91941	0.0680415	1.31333	0.292128	6.44144	0.463341	9.8788	0.574579	11.6185	0.84678	17.0148	0.194718	4.36712	0.433035	9.47639	0.707279	14.2679	0.907269	18.2247
0.295248	5.82182	0.0698793	1.32497	0.292646	6.32296	0.463515	9.81841	0.57516	11.4152	0.847091	16.7082	0.19652	4.3173	0.433449	9.34393	0.7076	14.011	0.90755	17.8954
0.295824	5.72794	0.0717247	1.33636	0.293175	6.20938	0.463704	9.75367	0.575751	11.2194	0.847407	16.4128	0.198332	4.26973	0.433942	9.19365	0.707927	13.7636	0.907836	17.5781
0.29641	5.63759	0.0735776	1.34749	0.293713	6.1004	0.463964	9.66712	0.576352	11.0309	0.847729	16.128	0.200156	4.22426	0.434518	9.02766	0.708261	13.5251	0.908127	17.2722
0.297006	5.55056	0.0754374	1.35837	0.294261	5.99576	0.464296	9.56003	0.576964	10.8491	0.848056	15.8532	0.20199	4.18076	0.435104	8.86818	0.7086	13.295	0.908423	16.977
0.297612	5.46669	0.0773041	1.36902	0.29482	5.89523	0.464702	9.43395	0.577585	10.6738	0.848389	15.588	0.203834	4.13911	0.435701	8.71485	0.708944	13.073	0.908724	16.692
0.298227	5.38583	0.0791772	1.37943	0.295388	5.79856	0.465185	9.29063	0.578134	10.526	0.848728	15.3317	0.205688	4.09921	0.436309	8.56734	0.709295	12.8585	0.90903	16.4166
0.298853	5.30782	0.0810566	1.38961	0.295966	5.70556	0.465749	9.13197	0.578608	10.4036	0.849072	15.0841	0.207552	4.06093	0.436927	8.42534	0.709652	12.6513	0.909341	16.1505
0.299488	5.23252	0.0829419	1.39958	0.296555	5.61604	0.466323	8.97918	0.579005	10.3047	0.849422	14.8446	0.209424	4.02421	0.437555	8.28854	0.710014	12.4509	0.909658	15.8931
0.300133	5.1598	0.084833	1.40933	0.297153	5.5298	0.466906	8.83196	0.579321	10.2279	0.849778	14.6129	0.211304	3.98893	0.438193	8.15668	0.710382	12.2571	0.909979	15.6441
0.300788	5.08954	0.0867296	1.41888	0.297761	5.44668	0.467498	8.69002	0.579555	10.1723	0.850139	14.3886	0.213193	3.95503	0.438842	8.0295	0.710756	12.0696	0.910306	15.403
0.301453	5.02162	0.0886315	1.42822	0.298379	5.36652	0.468101	8.55309	0.579705	10.137	0.850506	14.1713	0.21509	3.92242	0.439501	7.90677	0.711136	11.8879	0.910637	15.1695
0.302128	4.95594	0.0905385	1.43737	0.299007	5.28919	0.468712	8.42091	0.579922	10.0868	0.850878	13.9608	0.216995	3.89104	0.440171	7.78827	0.711522	11.712	0.910974	14.9431
0.302812	4.89239	0.0924504	1.44633	0.299645	5.21453	0.469334	8.29325	0.580159	10.0329	0.851256	13.7567	0.218906	3.86082	0.44085	7.67379	0.711914	11.5414	0.911316	14.7237
0.303506	4.83089	0.0943669	1.45511	0.300292	5.14242	0.469964	8.16989	0.580483	9.96053	0.85164	13.5587	0.220825	3.8317	0.44154	7.56314	0.712311	11.376	0.911663	14.5109
0.304119	4.77888	0.0962879	1.4637	0.30095	5.07274	0.470605	8.05063	0.580896	9.87069	0.852029	13.3667	0.222751	3.80362	0.44224	7.45614	0.712714	11.2156	0.912015	14.3044
0.304647	4.73567	0.0982133	1.47212	0.301617	5.00538	0.471254	7.93526	0.581401	9.76443	0.852424	13.1802	0.224683	3.77653	0.44295	7.35261	0.713123	11.0599	0.912372	14.1039
0.305087	4.7007	0.100143	1.48037	0.302294	4.94023	0.471913	7.82361	0.582	9.643	0.852824	12.9991	0.226621	3.75038	0.44367	7.2524	0.713538	10.9087	0.912734	13.9091
0.305439	4.67353	0.102077	1.48845	0.302981	4.87719	0.472581	7.71551	0.582697	9.50777	0.85323	12.8232	0.228566	3.72512	0.4444	7.15535	0.713904	10.7804	0.913101	13.7199
0.305698	4.65381	0.104014	1.49637	0.303677	4.81617	0.473258	7.6108	0.583403	9.37674	0.853641	12.6522	0.230516	3.70071	0.445139	7.06133	0.714219	10.6737	0.913473	13.536
0.305865	4.6413	0.105955	1.50414	0.304383	4.75707	0.473945	7.50933	0.584118	9.24973	0.854058	12.486	0.232472	3.67711	0.445889	6.97021	0.714482	10.587	0.91385	13.3572
0.306106	4.62347	0.1079	1.51175	0.305099	4.69983	0.47464	7.41095	0.584843	9.12656	0.85448	12.3243	0.234433	3.65428	0.446649	6.88185	0.714692	10.5196	0.914233	13.1833
0.306368	4.6043	0.109848	1.51922	0.305824	4.64434	0.475345	7.31553	0.585578	9.00706	0.854908	12.167	0.236399	3.63218	0.447418	6.79615	0.714847	10.4706	0.91462	13.014
0.306728	4.57856	0.1118	1.52654	0.306559	4.59056	0.476059	7.22295	0.586321	8.89109	0.855342	12.0138	0.238371	3.61078	0.448197	6.71298	0.714947	10.4395	0.915012	12.8492
0.307185	4.54655	0.113754	1.53371	0.307304	4.53839	0.476782	7.13309	0.587075	8.77848	0.855781	11.8647	0.240347	3.59005	0.448986	6.63224	0.715091	10.3951	0.915409	12.6888
0.307744	4.50863	0.115712	1.54076	0.308058	4.48778	0.477514	7.04582	0.587837	8.66911	0.856225	11.7195	0.242328	3.56996	0.449784	6.55384	0.715248	10.3474	0.915812	12.5325
0.308405	4.46521	0.117421	1.54678	0.308822	4.43866	0.478255	6.96106	0.588609	8.56284	0.856675	11.578	0.244314	3.55048	0.450593	6.47767	0.715462	10.2832	0.916219	12.3803
0.309173	4.41675	0.118879	1.55184	0.309596	4.39098	0.479004	6.87869	0.58939	8.45954	0.85713	11.4401	0.246304	3.53158	0.45141	6.40366	0.715736	10.2032	0.916631	12.2318
0.309951	4.3697	0.120086	1.55597	0.310379	4.34467	0.479763	6.79862	0.59018	8.35909	0.857591	11.3057	0.248298	3.51324	0.452237	6.33171	0.716069	10.1082	0.917048	12.0871
0.310739	4.32401	0.121041	1.5592	0.311171	4.29969	0.48053	6.72077	0.590979	8.2614	0.858058	11.1746	0.250296	3.49544	0.453074	6.26174	0.716465	9.99915	0.917471	11.946
0.311536	4.27961	0.121743	1.56156	0.311973	4.25598	0.481307	6.64503	0.591787	8.16633	0.858469	11.063	0.252298	3.47814	0.45392	6.19368	0.716924	9.87713	0.917898	11.8083
0.312342	4.23647	0.122193	1.56306	0.312785	4.2135	0.482092	6.57134	0.592605	8.07381	0.858822	10.9697	0.254304	3.46134	0.454776	6.12746	0.717388	9.75827	0.91833	11.6739
0.313158	4.19453	0.12284	1.56521	0.313606	4.1722	0.482885	6.49961	0.593431	7.98372	0.859117	10.8938	0.256314	3.445	0.455641	6.063	0.717859	9.64247	0.918767	11.5428
0.313984	4.15375	0.123543	1.56753	0.314437	4.13203	0.483688	6.42978	0.594266	7.89599	0.859351	10.8346	0.258327	3.42912	0.456515	6.00024	0.718335	9.5296	0.919209	11.4147
0.314819	4.11409	0.124501	1.57065	0.315277	4.09296	0.484498	6.36177	0.59511	7.81051	0.859524	10.7915	0.260344	3.41367	0.457398	5.93913	0.718817	9.41957	0.919656	11.2897
0.315663	4.07551	0.125712	1.57457	0.316127	4.05495	0.485318	6.29551	0.595963	7.72722	0.859635	10.7641	0.262364	3.39863	0.458291	5.87959	0.719304	9.31226	0.92005	11.183
0.316517	4.03796	0.127179	1.57924	0.316986	4.01795	0.486146	6.23094	0.596825	7.64603	0.859796	10.725	0.264387	3.384	0.459193	5.82157	0.719797	9.20758	0.920389	11.0938
0.317381	4.00141	0.1289	1.58465	0.317855	3.98194	0.486982	6.16801	0.597695	7.56686	0.859971	10.6829	0.266413	3.36975	0.460104	5.76502	0.720296	9.10544	0.920671	11.0212
0.318254	3.96584	0.130878	1.59074	0.318733	3.94687	0.487827	6.10665	0.598575	7.48965	0.86021	10.6261	0.268442	3.35587	0.461024	5.70989	0.720801	9.00575	0.920895	10.9645
0.319136	3.93119	0.132858	1.59673	0.31962	3.91272	0.48868	6.0468	0.599462	7.41432	0.860514	10.5552	0.270474	3.34234	0.461953	5.65613	0.721311	8.90843	0.921061	10.9232
0.320028	3.89745	0.134841	1.60261	0.320518	3.87946	0.489542	5.98843	0.600359	7.34082	0.860884	10.4709	0.272509	3.32916	0.462891	5.60369	0.721826	8.81338	0.921167	10.8969
0.32093	3.86458	0.136825	1.60838	0.321424	3.84705	0.490412	5.93147	0.601264	7.26907	0.861323	10.3738	0.274546	3.3163	0.463838	5.55253	0.722348	8.72055	0.92132	10.8594
0.321841	3.83255	0.138811	1.61406	0.32234	3.81547	0.49129	5.87587	0.602177	7.19902	0.861831	10.2647	0.276587	3.30376	0.464794	5.5026	0.722875	8.62984	0.921488	10.819
0.322761	3.80134	0.1408	1.61963	0.323266	3.78468	0.492176	5.8216	0.603099	7.13062	0.862344	10.1581	0.278629	3.29153	0.465758	5.45387	0.723408	8.5412	0.921716	10.7644
0.323691	3.77091	0.14279	1.6251	0.324201	3.75468	0.493071	5.76861	0.604029	7.06381	0.862863	10.0539	0.280674	3.27959	0.466732	5.40628	0.723946	8.45455	0.922007	10.6963
0.324631	3.74125	0.144782	1.63049	0.325146	3.72542	0.493973	5.71685	0.604968	6.99853	0.863388	9.95194	0.282722	3.26794	0.467714	5.35982	0.72449	8.36983	0.922361	10.6152
0.32558	3.71233	0.146776	1.63577	0.3261	3.69689	0.494884	5.66629	0.605915	6.93474	0.863917	9.85224	0.284772	3.25656	0.468705	5.31443	0.725039	8.28698	0.922779	10.5217
0.326539	3.68412	0.148771	1.64097	0.327064	3.66906	0.495802	5.61689	0.60687	6.87239	0.864453	9.7547	0.286824	3.24545	0.469705	5.27009	0.725594	8.20594	0.923264	10.4166
0.327507	3.65661	0.150768	1.64608	0.328038	3.64192	0.496729	5.56861	0.607833	6.81143	0.864993	9.65925	0.288878	3.23459	0.470713	5.22677	0.726155	8.12665	0.923754	10.3137
0.328485	3.62977	0.152766	1.65111	0.329021	3.61544	0.497663	5.52142	0.608804	6.75182	0.865539	9.56582	0.290934	3.22398	0.47173	5.18442	0.726721	8.04906	0.924249	10.213
0.329472	3.60358	0.154766	1.65605	0.330014	3.5896	0.498606	5.47528	0.609784	6.69352	0.86609	9.47435	0.292992	3.21361	0.472755	5.14303	0.727293	7.97312	0.924748	10.1144
0.330469	3.57802	0.156768	1.6609	0.331016	3.56438	0.499556	5.43015	0.610772	6.63649	0.866646	9.38479	0.295052	3.20347	0.473789	5.10256	0.72787	7.89877	0.925253	10.0178
0.331476	3.55308	0.15877	1.66568	0.332028	3.53976	0.500514	5.38602	0.611767	6.58069	0.867208	9.29707	0.297114	3.19356	0.474831	5.06298	0.728453	7.82597	0.925762	9.92322
0.332493	3.52874	0.160774	1.67038	0.33305	3.51574	0.50148	5.34285	0.612771	6.52608	0.867775	9.21114	0.299178	3.18385	0.475882	5.02427	0.729041	7.75467	0.926277	9.83056
0.333519	3.50498	0.16278	1.675	0.334082	3.49228	0.502453	5.3006	0.613782	6.47263	0.868347	9.12696	0.301244	3.17436	0.47694	4.9864	0.729635	7.68483	0.926796	9.73976
0.334556	3.48178	0.164786	1.67955	0.335124	3.46938	0.503434	5.25926	0.614801	6.42029	0.868925	9.04446	0.303311	3.16507	0.478008	4.94934	0.730235	7.6164	0.92732	9.65077
0.335602	3.45912	0.166794	1.68402	0.336175	3.44702	0.504423	5.21879	0.615829	6.36905	0.869508	8.9636	0.30538	3.15598	0.479083	4.91308	0.73084	7.54935	0.927848	9.56355
0.336658	3.437	0.168803	1.68842	0.337237	3.42518	0.505419	5.17917	0.616863	6.31887	0.870096	8.88433	0.30745	3.14707	0.480167	4.87759	0.73145	7.48363	0.928382	9.47803
0.337724	3.4154	0.170813	1.69275	0.338308	3.40385	0.506423	5.14038	0.617906	6.26971	0.870689	8.80661	0.309522	3.13835	0.481259	4.84285	0.732066	7.41921	0.92892	9.39417
0.3388	3.3943	0.172825	1.69701	0.33939	3.38302	0.507434	5.10239	0.618956	6.22155	0.871288	8.73039	0.311595	3.12981	0.482359	4.80883	0.732687	7.35605	0.929464	9.31192
0.339886	3.37369	0.174837	1.70121	0.340482	3.36268	0.508453	5.06518	0.620014	6.17436	0.871892	8.65564	0.31367	3.12143	0.483467	4.77552	0.733314	7.29411	0.930012	9.23124
0.340983	3.35356	0.17685	1.70534	0.341584	3.3428	0.509479	5.02873	0.621079	6.12811	0.872501	8.5823	0.315746	3.11323	0.484583	4.7429	0.733946	7.23337	0.930565	9.15209
0.342089	3.33389	0.178864	1.7094	0.342696	3.32339	0.510512	4.99301	0.622152	6.08278	0.873116	8.51035	0.317824	3.10519	0.485706	4.71094	0.734584	7.17378	0.931122	9.07443
0.343206	3.31468	0.180879	1.7134	0.343819	3.30442	0.511553	4.95801	0.623232	6.03833	0.873735	8.43975	0.319903	3.09731	0.486838	4.67963	0.735227	7.11532	0.931685	8.9982
0.344334	3.29592	0.182895	1.71734	0.344952	3.28589	0.5126	4.9237	0.62432	5.99476	0.87436	8.37045	0.321983	3.08957	0.487978	4.64895	0.735876	7.05796	0.932252	8.92339
0.345472	3.27758	0.184912	1.72122	0.346096	3.26778	0.513655	4.89008	0.625415	5.95202	0.87499	8.30243	0.324064	3.08199	0.489126	4.61888	0.73653	7.00166	0.932824	8.84994
0.346621	3.25967	0.18693	1.72504	0.347251	3.25009	0.514718	4.85711	0.626517	5.91011	0.875625	8.23565	0.326146	3.07455	0.490281	4.58942	0.737189	6.94641	0.9334	8.77782
0.347781	3.24216	0.188948	1.7288	0.348416	3.23281	0.515787	4.82478	0.627627	5.869	0.876265	8.17008	0.32823	3.06725	0.491444	4.56053	0.737854	6.89216	0.933982	8.707
0.348951	3.22507	0.190967	1.73251	0.349593	3.21593	0.516863	4.79307	0.628744	5.82866	0.876911	8.10569	0.330314	3.06009	0.492615	4.53221	0.738524	6.83891	0.934568	8.63744
0.350133	3.20836	0.192987	1.73616	0.35078	3.19943	0.517946	4.76197	0.629868	5.78908	0.877561	8.04244	0.3324	3.05305	0.493794	4.50444	0.7392	6.78661	0.935159	8.56911
0.351325	3.19204	0.195008	1.73976	0.351979	3.18331	0.519037	4.73147	0.630999	5.75023	0.878217	7.98031	0.334486	3.04615	0.49498	4.47721	0.73988	6.73525	0.935754	8.50199
0.352529	3.17609	0.197029	1.7433	0.353189	3.16757	0.520134	4.70154	0.632137	5.71211	0.878878	7.91927	0.336573	3.03937	0.496174	4.4505	0.740567	6.6848	0.936355	8.43603
0.353745	3.16051	0.199051	1.74679	0.354411	3.15219	0.521238	4.67217	0.633282	5.67468	0.879544	7.85929	0.338662	3.03271	0.497375	4.4243	0.741258	6.63524	0.93696	8.37121
0.354972	3.14529	0.201074	1.75023	0.355645	3.13716	0.522349	4.64335	0.634435	5.63793	0.880215	7.80034	0.340751	3.02617	0.498584	4.3986	0.741955	6.58654	0.93757	8.30751
0.356211	3.13043	0.203097	1.75362	0.356891	3.12249	0.523466	4.61506	0.635594	5.60185	0.880892	7.74241	0.34284	3.01975	0.4998	4.37338	0.742657	6.5387	0.938184	8.24489
0.357462	3.11591	0.205121	1.75696	0.358148	3.10816	0.524591	4.5873	0.63676	5.56642	0.881573	7.68546	0.344931	3.01343	0.501024	4.34864	0.743365	6.49167	0.938803	8.18332
0.358726	3.10173	0.207145	1.76025	0.359418	3.09416	0.525722	4.56003	0.637932	5.53162	0.882259	7.62948	0.347023	3.00723	0.502255	4.32435	0.744078	6.44546	0.939427	8.12279
0.360001	3.08789	0.20917	1.76349	0.360701	3.08049	0.52686	4.53327	0.639112	5.49744	0.882951	7.57443	0.349115	3.00112	0.503493	4.30052	0.744796	6.40003	0.940055	8.06327
0.36129	3.07437	0.211195	1.76669	0.361996	3.06715	0.528004	4.50698	0.640298	5.46385	0.883647	7.5203	0.351208	2.99513	0.504739	4.27712	0.745519	6.35536	0.940688	8.00473
0.362591	3.06117	0.213221	1.76985	0.363304	3.05412	0.529155	4.48117	0.641491	5.43085	0.884349	7.46706	0.353301	2.98923	0.505992	4.25415	0.746248	6.31144	0.941326	7.94715
0.363905	3.04829	0.215247	1.77295	0.364626	3.04141	0.530312	4.45582	0.642691	5.39843	0.885056	7.4147	0.355395	2.98343	0.507252	4.2316	0.746982	6.26826	0.941969	7.89051
0.365233	3.03572	0.217274	1.77602	0.365961	3.02901	0.531476	4.43091	0.643897	5.36656	0.885767	7.36319	0.35749	2.97772	0.508519	4.20945	0.747721	6.22579	0.942616	7.83478
0.366574	3.02345	0.219301	1.77904	0.367309	3.01691	0.532647	4.40644	0.64511	5.33524	0.886484	7.31251	0.359585	2.97211	0.509793	4.1877	0.748465	6.18401	0.943267	7.77995
0.367929	3.01149	0.221329	1.78202	0.368672	3.0051	0.533823	4.38239	0.646329	5.30445	0.887205	7.26265	0.361681	2.96659	0.511075	4.16634	0.749215	6.14292	0.943923	7.72599
0.369298	2.99982	0.223357	1.78496	0.370049	2.99359	0.535006	4.35877	0.647555	5.27418	0.887932	7.21358	0.363777	2.96115	0.512363	4.14536	0.74997	6.10249	0.944584	7.67289
0.370682	2.98844	0.225385	1.78786	0.371441	2.98237	0.536196	4.33555	0.648787	5.24442	0.888664	7.16529	0.365873	2.9558	0.513659	4.12475	0.75073	6.06271	0.94525	7.62062
0.37208	2.97735	0.227414	1.79071	0.372847	2.97143	0.537391	4.31273	0.650025	5.21515	0.8894	7.11776	0.36797	2.95053	0.514961	4.1045	0.751495	6.02357	0.94592	7.56917
0.373493	2.96654	0.229443	1.79353	0.374269	2.96078	0.538593	4.29029	0.65127	5.18637	0.890142	7.07097	0.370068	2.94535	0.516271	4.08461	0.752266	5.98505	0.946594	7.51851
0.374922	2.95601	0.231472	1.79631	0.375706	2.9504	0.539801	4.26824	0.652521	5.15806	0.890889	7.02491	0.372166	2.94024	0.517587	4.06505	0.753041	5.94714	0.947274	7.46864
0.376366	2.94576	0.233502	1.79906	0.377159	2.9403	0.541015	4.24655	0.653778	5.13022	0.89164	6.97955	0.374264	2.93521	0.51891	4.04584	0.753822	5.90982	0.947957	7.41952
0.377826	2.93578	0.235532	1.80176	0.378628	2.93047	0.542236	4.22523	0.655042	5.10283	0.892396	6.9349	0.376362	2.93026	0.52024	4.02696	0.754608	5.87308	0.948646	7.37116
0.379303	2.92607	0.237562	1.80443	0.380113	2.9209	0.543462	4.20427	0.656311	5.07588	0.893158	6.89092	0.378461	2.92538	0.521577	4.0084	0.755399	5.83691	0.949338	7.32352
0.380796	2.91663	0.239593	1.80707	0.381616	2.9116	0.544694	4.18364	0.657587	5.04936	0.893924	6.84761	0.38056	2.92057	0.52292	3.99015	0.756195	5.8013	0.950036	7.2766
0.382306	2.90745	0.241624	1.80967	0.383135	2.90256	0.545933	4.16336	0.658869	5.02326	0.894695	6.80495	0.382659	2.91583	0.52427	3.97221	0.756996	5.76623	0.950738	7.23038
0.383833	2.89852	0.243655	1.81223	0.384672	2.89377	0.547177	4.14341	0.660156	4.99758	0.895471	6.76293	0.384759	2.91116	0.525627	3.95458	0.757803	5.73169	0.951444	7.18485
0.385378	2.88986	0.245686	1.81477	0.386226	2.88525	0.548427	4.12378	0.66145	4.9723	0.896252	6.72153	0.386858	2.90656	0.52699	3.93723	0.758614	5.69768	0.952155	7.13998
0.386941	2.88144	0.247717	1.81726	0.387798	2.87697	0.549683	4.10447	0.66275	4.94742	0.897038	6.68074	0.388958	2.90202	0.52836	3.92018	0.759431	5.66418	0.95287	7.09577
0.388521	2.87328	0.249749	1.81973	0.389389	2.86894	0.550944	4.08547	0.664055	4.92293	0.897828	6.64055	0.391058	2.89755	0.529737	3.90341	0.760252	5.63117	0.95359	7.0522
0.39012	2.86536	0.251781	1.82217	0.390998	2.86115	0.552212	4.06677	0.665366	4.89881	0.898624	6.60095	0.393158	2.89313	0.53112	3.88692	0.761079	5.59866	0.954314	7.00926
0.391738	2.85769	0.253813	1.82457	0.392626	2.85361	0.553485	4.04837	0.666684	4.87507	0.899424	6.56192	0.395258	2.88878	0.532509	3.87069	0.761911	5.56663	0.955043	6.96694
0.393375	2.85025	0.255845	1.82694	0.394273	2.84631	0.554764	4.03026	0.668006	4.85169	0.900229	6.52345	0.397358	2.88449	0.533905	3.85474	0.762748	5.53506	0.955776	6.92522
0.39503	2.84306	0.257877	1.82928	0.39594	2.83924	0.556048	4.01243	0.669335	4.82866	0.901039	6.48553	0.399459	2.88025	0.535307	3.83904	0.763589	5.50396	0.956514	6.88409
0.396706	2.8361	0.259909	1.83159	0.397625	2.8324	0.557338	3.99488	0.670669	4.80598	0.901854	6.44815	0.401559	2.87608	0.536716	3.82359	0.764436	5.47331	0.957256	6.84354
0.3984	2.82936	0.261942	1.83388	0.39933	2.8258	0.558634	3.97761	0.672009	4.78365	0.902673	6.4113	0.403659	2.87195	0.538131	3.80839	0.765288	5.44309	0.958003	6.80356
0.400114	2.82286	0.263975	1.83613	0.401055	2.81941	0.559935	3.9606	0.673354	4.76164	0.903497	6.37497	0.405759	2.86789	0.539552	3.79344	0.766145	5.41332	0.958753	6.76414
0.401848	2.81658	0.266007	1.83836	0.402799	2.81325	0.561242	3.94385	0.674705	4.73997	0.904326	6.33915	0.407859	2.86387	0.54098	3.77872	0.767006	5.38396	0.959509	6.72526
0.403601	2.81051	0.26804	1.84055	0.404564	2.8073	0.562554	3.92736	0.676061	4.71861	0.90516	6.30382	0.409959	2.85991	0.542414	3.76424	0.767873	5.35502	0.960268	6.68692
0.405374	2.80466	0.270073	1.84272	0.406348	2.80157	0.563871	3.91111	0.677423	4.69757	0.905999	6.26899	0.412059	2.85599	0.543854	3.74999	0.768745	5.32649	0.961033	6.6491
0.407167	2.79903	0.272106	1.84487	0.408151	2.79605	0.565194	3.89512	0.67879	4.67683	0.906842	6.23463	0.414159	2.85213	0.5453	3.73596	0.769621	5.29836	0.961801	6.6118
0.40898	2.79359	0.274139	1.84698	0.409974	2.79072	0.566522	3.87936	0.680163	4.6564	0.90769	6.20074	0.416259	2.84831	0.546752	3.72215	0.770503	5.27063	0.962574	6.575
0.410812	2.78836	0.276172	1.84907	0.411817	2.7856	0.567856	3.86384	0.681541	4.63626	0.908543	6.16731	0.418358	2.84455	0.548211	3.70855	0.771389	5.24327	0.963351	6.53869
0.412663	2.78333	0.278205	1.85114	0.413679	2.78067	0.569195	3.84855	0.682924	4.61641	0.9094	6.13433	0.420458	2.84082	0.549675	3.69517	0.772281	5.2163	0.964133	6.50287
0.414534	2.77849	0.280239	1.85318	0.41556	2.77593	0.570539	3.83349	0.684312	4.59684	0.910262	6.1018	0.422557	2.83715	0.551145	3.68199	0.773177	5.18969	0.964919	6.46753
0.416424	2.77383	0.282272	1.8552	0.41746	2.77137	0.571888	3.81865	0.685706	4.57755	0.911129	6.0697	0.424656	2.83351	0.552622	3.66902	0.774078	5.16345	0.965709	6.43266
0.418332	2.76936	0.284305	1.85719	0.419379	2.76699	0.573242	3.80403	0.687104	4.55854	0.912	6.03803	0.426755	2.82993	0.554104	3.65625	0.774984	5.13757	0.966503	6.39824
0.420259	2.76506	0.286338	1.85915	0.421315	2.76279	0.574601	3.78962	0.688508	4.53979	0.912876	6.00678	0.428853	2.82638	0.555593	3.64367	0.775895	5.11203	0.967302	6.36428
0.422204	2.76093	0.288372	1.8611	0.42327	2.75875	0.575966	3.77542	0.689917	4.52131	0.913757	5.97594	0.430951	2.82287	0.557087	3.63128	0.776811	5.08684	0.968105	6.33075
0.424167	2.75697	0.290405	1.86302	0.425242	2.75488	0.577335	3.76142	0.691331	4.50308	0.914642	5.9455	0.433049	2.81941	0.558587	3.61908	0.777732	5.06198	0.968913	6.29766
0.426147	2.75316	0.292438	1.86491	0.427231	2.75116	0.57871	3.74763	0.69275	4.4851	0.915532	5.91546	0.435147	2.81598	0.560093	3.60706	0.778657	5.03746	0.969724	6.265
0.428144	2.74951	0.294471	1.86679	0.429237	2.74759	0.580089	3.73403	0.694174	4.46737	0.916427	5.88581	0.437244	2.8126	0.561604	3.59522	0.779587	5.01326	0.97054	6.23275
0.430157	2.74601	0.296505	1.86864	0.431259	2.74417	0.581473	3.72063	0.695603	4.44989	0.917326	5.85654	0.439341	2.80925	0.563122	3.58356	0.780522	4.98938	0.97136	6.20092
0.432187	2.74266	0.298538	1.87047	0.433297	2.74089	0.582863	3.70742	0.697037	4.43264	0.918229	5.82764	0.441437	2.80594	0.564645	3.57208	0.781462	4.96581	0.972185	6.16949
0.434232	2.73944	0.300571	1.87228	0.435351	2.73774	0.584257	3.69439	0.698475	4.41563	0.919138	5.79912	0.443533	2.80266	0.566174	3.56076	0.782407	4.94255	0.973013	6.13845
0.436292	2.73635	0.302604	1.87407	0.437419	2.73472	0.585656	3.68155	0.699919	4.39884	0.920051	5.77095	0.445629	2.79942	0.567709	3.54962	0.783356	4.91959	0.973846	6.10781
0.438366	2.73339	0.304637	1.87584	0.439501	2.73183	0.587059	3.66888	0.701367	4.38228	0.920968	5.74314	0.447724	2.79622	0.569249	3.53863	0.78431	4.89693	0.974683	6.07754
0.440455	2.73055	0.30667	1.87758	0.441598	2.72906	0.588468	3.65639	0.70282	4.36594	0.92189	5.71568	0.449819	2.79305	0.570795	3.52781	0.785269	4.87456	0.975524	6.04765
0.442558	2.72783	0.308703	1.87931	0.443707	2.7264	0.589881	3.64408	0.704278	4.34982	0.922816	5.68857	0.451913	2.78991	0.572346	3.51714	0.786233	4.85248	0.97637	6.01814
0.444673	2.72522	0.310736	1.88102	0.44583	2.72384	0.591299	3.63193	0.70574	4.33392	0.923747	5.66179	0.454007	2.78681	0.573903	3.50664	0.787201	4.83068	0.97722	5.98898
0.446801	2.72272	0.312769	1.8827	0.447965	2.7214	0.592721	3.61995	0.707207	4.31822	0.924683	5.63534	0.4561	2.78374	0.575466	3.49628	0.788174	4.80915	0.978073	5.96018
0.448942	2.72031	0.314802	1.88437	0.450112	2.71905	0.594148	3.60814	0.708678	4.30273	0.925623	5.60922	0.458193	2.7807	0.577034	3.48607	0.789152	4.7879	0.978931	5.93173
0.451094	2.71801	0.316834	1.88602	0.45227	2.7168	0.59558	3.59648	0.710154	4.28743	0.926567	5.58342	0.460286	2.77769	0.578607	3.47601	0.790134	4.76692	0.979793	5.90362
0.453257	2.7158	0.318867	1.88765	0.454439	2.71463	0.597016	3.58499	0.711635	4.27234	0.927516	5.55793	0.462377	2.77472	0.580186	3.4661	0.791121	4.74619	0.98066	5.87586
0.455431	2.71368	0.320899	1.88926	0.456619	2.71256	0.598457	3.57365	0.71312	4.25744	0.928469	5.53276	0.464469	2.77177	0.581771	3.45633	0.792113	4.72573	0.98153	5.84842
0.457616	2.71164	0.322932	1.89086	0.458809	2.71056	0.599902	3.56246	0.714609	4.24274	0.929427	5.50788	0.466559	2.76885	0.583361	3.44669	0.793109	4.70552	0.982405	5.82132
0.45981	2.70968	0.324964	1.89243	0.461008	2.70865	0.601352	3.55142	0.716103	4.22822	0.930389	5.48331	0.468649	2.76596	0.584956	3.4372	0.79411	4.68556	0.983283	5.79453
0.462014	2.7078	0.326996	1.89399	0.463217	2.70681	0.602806	3.54052	0.717602	4.21388	0.931356	5.45903	0.470739	2.7631	0.586556	3.42784	0.795116	4.66584	0.984166	5.76807
0.464227	2.706	0.329029	1.89553	0.465435	2.70504	0.604264	3.52977	0.719104	4.19973	0.932327	5.43504	0.472828	2.76026	0.588162	3.41861	0.796126	4.64637	0.985053	5.74191
0.466448	2.70426	0.33106	1.89706	0.467661	2.70334	0.605727	3.51916	0.720611	4.18575	0.933302	5.41134	0.474916	2.75746	0.589773	3.40951	0.797141	4.62713	0.985943	5.71606
0.468678	2.70259	0.333092	1.89856	0.469895	2.70171	0.607194	3.5087	0.722123	4.17195	0.934282	5.38791	0.477003	2.75468	0.591389	3.40053	0.798161	4.60812	0.986838	5.69051
0.470916	2.70098	0.335124	1.90005	0.472137	2.70013	0.608666	3.49836	0.723638	4.15833	0.935267	5.36477	0.47909	2.75192	0.593011	3.39169	0.799185	4.58935	0.987737	5.66526
0.473161	2.69943	0.337156	1.90153	0.474386	2.69862	0.610142	3.48817	0.725158	4.14487	0.936255	5.34189	0.481176	2.74919	0.594637	3.38296	0.800213	4.5708	0.98864	5.64029
0.475414	2.69794	0.339187	1.90299	0.476643	2.69716	0.611622	3.4781	0.726682	4.13158	0.937248	5.31928	0.483262	2.74649	0.596269	3.37436	0.801247	4.55248	0.989547	5.61562
0.477674	2.69651	0.341218	1.90443	0.478906	2.69575	0.613106	3.46817	0.72821	4.11845	0.938245	5.29693	0.485347	2.74381	0.597906	3.36588	0.802284	4.53437	0.990458	5.59123
0.47994	2.69513	0.34325	1.90585	0.481175	2.6944	0.614594	3.45836	0.729742	4.10548	0.939247	5.27484	0.487431	2.74115	0.599548	3.35751	0.803327	4.51648	0.991373	5.56711
0.482212	2.69379	0.345281	1.90726	0.483451	2.69309	0.616087	3.44868	0.731278	4.09267	0.940253	5.253	0.489514	2.73852	0.601195	3.34926	0.804373	4.4988	0.992293	5.54327
0.484491	2.69251	0.347312	1.90866	0.485733	2.69183	0.617583	3.43912	0.732818	4.08001	0.941263	5.23141	0.491597	2.73591	0.602848	3.34112	0.805425	4.48132	0.993216	5.5197
0.486775	2.69127	0.349342	1.91004	0.48802	2.69061	0.619084	3.42968	0.734362	4.06751	0.942278	5.21007	0.493679	2.73332	0.604505	3.3331	0.80648	4.46406	0.994143	5.49639
0.489065	2.69007	0.351373	1.91141	0.490313	2.68944	0.620589	3.42036	0.73591	4.05516	0.943296	5.18897	0.49576	2.73076	0.606167	3.32518	0.807541	4.44699	0.995074	5.47335
0.49136	2.68891	0.353404	1.91276	0.492611	2.6883	0.622098	3.41116	0.737462	4.04296	0.944319	5.16812	0.49784	2.72821	0.607834	3.31737	0.808606	4.43013	0.996009	5.45056
0.49366	2.6878	0.355434	1.91409	0.494913	2.6872	0.623611	3.40208	0.739018	4.0309	0.945347	5.14749	0.499919	2.72569	0.609506	3.30967	0.809675	4.41346	0.996947	5.42802
0.495964	2.68672	0.357464	1.91542	0.49722	2.68614	0.625127	3.39311	0.740578	4.01898	0.946378	5.1271	0.501998	2.72319	0.611184	3.30207	0.810748	4.39698	0.99789	5.40573
0.498274	2.68567	0.359494	1.91672	0.499532	2.68512	0.626648	3.38425	0.742142	4.00721	0.947414	5.10693	0.504076	2.72071	0.612866	3.29457	0.811827	4.38069	0.998837	5.38369
0.500588	2.68466	0.361524	1.91802	0.501848	2.68413	0.628173	3.3755	0.74371	3.99557	0.948454	5.08699	0.506153	2.71826	0.614552	3.28718	0.812909	4.36459	0.999788	5.36188
0.502905	2.68368	0.363553	1.9193	0.504168	2.68316	0.629701	3.36686	0.745281	3.98407	0.949499	5.06727	0.508229	2.71582	0.616244	3.27988	0.813996	4.34867	1.00074	5.34032
0.505227	2.68274	0.365583	1.92057	0.506492	2.68223	0.631234	3.35832	0.746856	3.97271	0.950547	5.04777	0.510304	2.7134	0.617941	3.27268	0.815087	4.33293		
0.507553	2.68182	0.367612	1.92182	0.50882	2.68133	0.63277	3.34989	0.748435	3.96147	0.9516	5.02848	0.512379	2.711	0.619642	3.26558	0.816183	4.31738		
0.509882	2.68093	0.369641	1.92306	0.511151	2.68045	0.63431	3.34156	0.750018	3.95037	0.952657	5.0094	0.514452	2.70862	0.621348	3.25857	0.817283	4.30199		
0.512215	2.68006	0.37167	1.92429	0.513486	2.67961	0.635854	3.33333	0.751604	3.93939	0.953718	4.99053	0.516525	2.70625	0.623059	3.25165	0.818388	4.28678		
0.514551	2.67923	0.373699	1.9255	0.515824	2.67878	0.637402	3.32521	0.753194	3.92854	0.954783	4.97186	0.518597	2.70391	0.624774	3.24483	0.819497	4.27175		
0.516891	2.67841	0.375727	1.92671	0.518165	2.67798	0.638953	3.31718	0.754787	3.91781	0.955852	4.9534	0.520668	2.70158	0.626495	3.23809	0.82061	4.25687		
0.519233	2.67762	0.377756	1.9279	0.520509	2.6772	0.640509	3.30924	0.756384	3.9072	0.956925	4.93513	0.522738	2.69927	0.628219	3.23145	0.821727	4.24217		
0.521578	2.67686	0.379784	1.92908	0.522856	2.67645	0.642067	3.3014	0.757985	3.89672	0.958003	4.91707	0.524807	2.69698	0.629949	3.22489	0.822849	4.22763		
0.523926	2.67611	0.381812	1.93024	0.525205	2.67571	0.64363	3.29366	0.759589	3.88635	0.959085	4.89919	0.526875	2.69471	0.631683	3.21842	0.823975	4.21324		
0.526277	2.67539	0.383839	1.9314	0.527557	2.675	0.645196	3.28601	0.761196	3.8761	0.960171	4.8815	0.528942	2.69245	0.633422	3.21203	0.825106	4.19902		
0.52863	2.67468	0.385867	1.93254	0.529912	2.67431	0.646766	3.27845	0.762807	3.86596	0.961261	4.864	0.531008	2.69021	0.635165	3.20572	0.826241	4.18495		
0.530986	2.674	0.387894	1.93367	0.532269	2.67363	0.648339	3.27097	0.764422	3.85593	0.962355	4.84669	0.533074	2.68799	0.636913	3.1995	0.82738	4.17104		
0.533344	2.67333	0.389921	1.93479	0.534628	2.67297	0.649916	3.26359	0.76604	3.84602	0.963453	4.82956	0.535138	2.68578	0.638665	3.19335	0.828523	4.15728		
0.535704	2.67268	0.391948	1.9359	0.53699	2.67233	0.651497	3.25629	0.767661	3.83622	0.964555	4.81261	0.537201	2.68359	0.640422	3.18729	0.829671	4.14366		
0.538067	2.67204	0.393975	1.93699	0.539353	2.6717	0.653081	3.24908	0.769286	3.82652	0.965661	4.79583	0.539264	2.68141	0.642183	3.1813	0.830823	4.1302		
0.540431	2.67142	0.396002	1.93808	0.541719	2.67109	0.654668	3.24195	0.770913	3.81693	0.966771	4.77923	0.541325	2.67925	0.643949	3.17539	0.831979	4.11688		
0.542797	2.67082	0.398028	1.93915	0.544086	2.6705	0.656259	3.2349	0.772545	3.80744	0.967885	4.7628	0.543386	2.6771	0.645719	3.16956	0.833139	4.1037		
0.545166	2.67023	0.400054	1.94022	0.546455	2.66992	0.657854	3.22794	0.774179	3.79805	0.969004	4.74654	0.545445	2.67497	0.647493	3.1638	0.834303	4.09066		
0.547536	2.66966	0.40208	1.94127	0.548826	2.66935	0.659452	3.22105	0.775817	3.78877	0.970126	4.73045	0.547503	2.67285	0.649272	3.15812	0.835472	4.07776		
0.549907	2.66909	0.404106	1.94231	0.551199	2.66879	0.661053	3.21425	0.777458	3.77959	0.971252	4.71453	0.549561	2.67074	0.651055	3.1525	0.836645	4.065		
0.552281	2.66855	0.406131	1.94335	0.553573	2.66825	0.662658	3.20752	0.779102	3.7705	0.972382	4.69876	0.551617	2.66865	0.652842	3.14696	0.837822	4.05238		
0.554655	2.66801	0.408156	1.94437	0.555948	2.66772	0.664266	3.20087	0.780749	3.76151	0.973516	4.68316	0.553672	2.66658	0.654634	3.14149	0.839003	4.03989		
0.557032	2.66749	0.410181	1.94538	0.558325	2.66721	0.665877	3.19429	0.7824	3.75262	0.974655	4.66771	0.555727	2.66452	0.65643	3.13608	0.840189	4.02752		
0.559409	2.66697	0.412206	1.94638	0.560704	2.6667	0.667492	3.18779	0.784053	3.74382	0.975797	4.65242	0.55778	2.66247	0.65823	3.13075	0.841378	4.01529		
0.561789	2.66647	0.41423	1.94737	0.563084	2.6662	0.66911	3.18136	0.78571	3.73511	0.976943	4.63729	0.559832	2.66043	0.660034	3.12548	0.842572	4.00319		
0.564169	2.66598	0.416255	1.94836	0.565465	2.66572	0.670732	3.17501	0.787369	3.7265	0.978093	4.6223	0.561883	2.65841	0.661843	3.12028	0.84377	3.99121		
0.566551	2.6655	0.418279	1.94933	0.567847	2.66524	0.672356	3.16872	0.789032	3.71797	0.979247	4.60747	0.563934	2.6564	0.663655	3.11514	0.844972	3.97936		
0.568933	2.66503	0.420303	1.95029	0.57023	2.66477	0.673984	3.16251	0.790698	3.70954	0.980404	4.59279	0.565983	2.6544	0.665472	3.11007	0.846178	3.96763		
0.571317	2.66457	0.422326	1.95125	0.572615	2.66432	0.675615	3.15636	0.792366	3.70119	0.981566	4.57825	0.568031	2.65242	0.667293	3.10506	0.847388	3.95602		
0.573702	2.66411	0.42435	1.95219	0.575	2.66387	0.67725	3.15029	0.794038	3.69292	0.982732	4.56385	0.570078	2.65044	0.669118	3.10011	0.848602	3.94454		
0.576088	2.66367	0.426373	1.95313	0.577387	2.66343	0.678887	3.14428	0.795712	3.68474	0.983901	4.54959	0.572124	2.64848	0.670947	3.09522	0.84982	3.93316		
0.578475	2.66323	0.428396	1.95406	0.579774	2.663	0.680528	3.13833	0.79739	3.67665	0.985074	4.53548	0.574168	2.64653	0.67278	3.09039	0.851043	3.92191		
0.580863	2.6628	0.430418	1.95497	0.582163	2.66257	0.682172	3.13246	0.79907	3.66864	0.986252	4.5215	0.576212	2.6446	0.674617	3.08562	0.852269	3.91077		
0.583252	2.66238	0.432441	1.95588	0.584552	2.66216	0.683819	3.12664	0.800753	3.66071	0.987433	4.50766	0.578255	2.64267	0.676457	3.08092	0.853499	3.89974		
0.585641	2.66197	0.434463	1.95678	0.586942	2.66175	0.68547	3.12089	0.802439	3.65285	0.988617	4.49396	0.580296	2.64076	0.678302	3.07626	0.854734	3.88883		
0.588032	2.66156	0.436485	1.95768	0.589333	2.66134	0.687123	3.11521	0.804128	3.64508	0.989806	4.48039	0.582337	2.63886	0.680151	3.07167	0.855972	3.87803		
0.590423	2.66116	0.438507	1.95856	0.591724	2.66095	0.688779	3.10958	0.805819	3.63739	0.990999	4.46695	0.584377	2.63697	0.682003	3.06713	0.857215	3.86733		
0.592815	2.66077	0.440528	1.95943	0.594116	2.66056	0.690439	3.10402	0.807514	3.62977	0.992195	4.45363	0.586415	2.63509	0.68386	3.06265	0.858461	3.85674		
0.595207	2.66038	0.442549	1.9603	0.596509	2.66017	0.692101	3.09851	0.809211	3.62223	0.993395	4.44045	0.588452	2.63322	0.68572	3.05822	0.859712	3.84626		
0.5976	2.66	0.44457	1.96116	0.598903	2.6598	0.693767	3.09307	0.810911	3.61476	0.994599	4.42739	0.590489	2.63136	0.687584	3.05384	0.860966	3.83588		
0.599994	2.65963	0.446591	1.96201	0.601297	2.65942	0.695436	3.08768	0.812613	3.60737	0.995806	4.41446	0.592524	2.62951	0.689452	3.04952	0.862224	3.82561		
0.602388	2.65926	0.448611	1.96285	0.603691	2.65906	0.697107	3.08235	0.814318	3.60005	0.997018	4.40165	0.594558	2.62767	0.691323	3.04525	0.863487	3.81544		
0.604783	2.65889	0.450632	1.96368	0.606086	2.6587	0.698782	3.07708	0.816026	3.5928	0.998233	4.38896	0.596591	2.62584	0.693199	3.04103	0.864753	3.80537		
0.607178	2.65853	0.452652	1.96451	0.608482	2.65834	0.70046	3.07187	0.817736	3.58562	0.999452	4.37639	0.598623	2.62403	0.695078	3.03686	0.866023	3.7954		
0.609574	2.65818	0.454671	1.96533	0.610878	2.65799	0.702141	3.06671	0.819449	3.57851	1.00067	4.36394	0.600654	2.62222	0.69696	3.03274	0.867297	3.78552		
0.61197	2.65783	0.456691	1.96614	0.613274	2.65764	0.703824	3.0616	0.821165	3.57148			0.602684	2.62042	0.698846	3.02866	0.868575	3.77575		
0.614367	2.65749	0.45871	1.96694	0.615671	2.6573	0.705511	3.05655	0.822883	3.5645			0.604713	2.61864	0.700736	3.02464	0.869857	3.76607		
0.616763	2.65714	0.460729	1.96774	0.618068	2.65696	0.7072	3.05155	0.824604	3.5576			0.60674	2.61686	0.70263	3.02067	0.871143	3.75648		
0.619161	2.65681	0.462748	1.96853	0.620465	2.65663	0.708893	3.04661	0.826327	3.55076			0.608767	2.61509	0.704526	3.01674	0.872433	3.74699		
0.621558	2.65647	0.464766	1.96931	0.622863	2.6563	0.710588	3.04171	0.828052	3.54399			0.610793	2.61333	0.706427	3.01286	0.873726	3.73759		
0.623956	2.65615	0.466784	1.97008	0.625261	2.65597	0.712286	3.03687	0.829781	3.53728			0.612817	2.61159	0.708331	3.00902	0.875024	3.72828		
0.626354	2.65582	0.468802	1.97085	0.627659	2.65565	0.713988	3.03208	0.831511	3.53063			0.61484	2.60985	0.710238	3.00523	0.876325	3.71906		
0.628752	2.6555	0.47082	1.97161	0.630057	2.65533	0.715692	3.02734	0.833244	3.52405			0.616863	2.60812	0.712149	3.00148	0.87763	3.70993		
0.631151	2.65518	0.472837	1.97236	0.632456	2.65501	0.717398	3.02265	0.834979	3.51753			0.618884	2.6064	0.714063	2.99778	0.878939	3.70089		
0.633549	2.65487	0.474855	1.97311	0.634854	2.6547	0.719108	3.018	0.836717	3.51107			0.620905	2.60468	0.715981	2.99412	0.880252	3.69193		
0.635948	2.65455	0.476872	1.97385	0.637253	2.65438	0.720821	3.01341	0.838457	3.50467			0.622924	2.60298	0.717902	2.9905	0.881569	3.68306		
0.638347	2.65424	0.478888	1.97458	0.639652	2.65408	0.722536	3.00886	0.8402	3.49833			0.624942	2.60129	0.719826	2.98692	0.882889	3.67428		
0.640745	2.65394	0.480905	1.97531	0.642051	2.65377	0.724255	3.00436	0.841945	3.49205			0.626959	2.5996	0.721754	2.98338	0.884213	3.66557		
0.643144	2.65363	0.482921	1.97603	0.64445	2.65347	0.725976	2.99991	0.843692	3.48582			0.628975	2.59793	0.723685	2.97989	0.885541	3.65695		
0.645543	2.65333	0.484937	1.97674	0.646849	2.65317	0.7277	2.9955	0.845441	3.47965			0.63099	2.59626	0.725619	2.97643	0.886873	3.64842		
0.647942	2.65303	0.486952	1.97744	0.649248	2.65287	0.729426	2.99113	0.847193	3.47354			0.633005	2.5946	0.727556	2.97302	0.888209	3.63996		
0.650341	2.65273	0.488968	1.97814	0.651647	2.65257	0.731156	2.98681	0.848946	3.46749			0.635018	2.59295	0.729496	2.96964	0.889548	3.63158		
0.65274	2.65244	0.490983	1.97884	0.654045	2.65228	0.732888	2.98254	0.850702	3.46149			0.63703	2.5913	0.73144	2.9663	0.890891	3.62328		
0.655139	2.65215	0.492997	1.97953	0.656444	2.65199	0.734623	2.97831	0.852461	3.45554			0.639041	2.58967	0.733387	2.963	0.892238	3.61506		
0.657538	2.65185	0.495012	1.98021	0.658843	2.6517	0.736361	2.97412	0.854221	3.44965			0.641051	2.58804	0.735336	2.95974	0.893588	3.60692		
0.659936	2.65156	0.497026	1.98088	0.661241	2.65141	0.738102	2.96997	0.855984	3.44381			0.64306	2.58643	0.737289	2.95651	0.894943	3.59885		
0.662335	2.65128	0.49904	1.98155	0.66364	2.65112	0.739846	2.96587	0.857748	3.43802			0.645068	2.58482	0.739245	2.95332	0.896301	3.59086		
0.664733	2.65099	0.501054	1.98221	0.666038	2.65083	0.741592	2.96181	0.859515	3.43229			0.647075	2.58322	0.741204	2.95017	0.897662	3.58294		
0.667131	2.6507	0.503068	1.98287	0.668436	2.65055	0.743341	2.95779	0.861284	3.4266			0.649081	2.58162	0.743166	2.94705	0.899028	3.57509		
0.669529	2.65042	0.505081	1.98352	0.670833	2.65027	0.745092	2.95381	0.863055	3.42097			0.651086	2.58004	0.745131	2.94396	0.900397	3.56732		
0.671926	2.65014	0.507094	1.98417	0.673231	2.64998	0.746847	2.94987	0.864828	3.41538			0.65309	2.57846	0.747098	2.94091	0.901769	3.55962		
0.674324	2.64985	0.509107	1.98481	0.675628	2.6497	0.748604	2.94597	0.866603	3.40985			0.655094	2.57689	0.749069	2.93789	0.903146	3.55199		
0.676721	2.64957	0.511119	1.98544	0.678025	2.64942	0.750364	2.94211	0.868381	3.40436			0.657096	2.57533	0.751042	2.93491	0.904526	3.54443		
0.679117	2.64929	0.513131	1.98607	0.680421	2.64914	0.752127	2.93828	0.87016	3.39892			0.659097	2.57377	0.753019	2.93196	0.90591	3.53694		
0.681514	2.64901	0.515143	1.98669	0.682818	2.64886	0.753892	2.9345	0.871941	3.39353			0.661098	2.57222	0.754998	2.92904	0.907297	3.52952		
0.68391	2.64873	0.517155	1.98731	0.685213	2.64858	0.755661	2.93075	0.873724	3.38818			0.663097	2.57069	0.75698	2.92615	0.908688	3.52216		
0.686305	2.64845	0.519166	1.98792	0.687609	2.6483	0.757432	2.92705	0.875509	3.38288			0.665095	2.56915	0.758964	2.92329	0.910082	3.51487		
0.6887	2.64818	0.521177	1.98853	0.690004	2.64802	0.759205	2.92337	0.877296	3.37763			0.667093	2.56763	0.760951	2.92046	0.911481	3.50765		
0.691095	2.6479	0.523188	1.98913	0.692398	2.64775	0.760982	2.91974	0.879085	3.37242			0.66909	2.56611	0.762941	2.91767	0.912882	3.5005		
0.693489	2.64762	0.525199	1.98973	0.694792	2.64747	0.762761	2.91614	0.880876	3.36725			0.671086	2.5646	0.764934	2.9149	0.914288	3.4934		
0.695883	2.64734	0.527209	1.99032	0.697186	2.64719	0.764543	2.91258	0.882669	3.36213			0.67308	2.5631	0.766929	2.91217	0.915697	3.48638		
0.698276	2.64706	0.529219	1.9909	0.699578	2.64691	0.766328	2.90905	0.884463	3.35705			0.675074	2.5616	0.768927	2.90946	0.917109	3.47941		
0.700669	2.64679	0.531229	1.99148	0.701971	2.64663	0.768115	2.90556	0.88626	3.35202			0.677068	2.56012	0.770927	2.90678	0.918526	3.47251		
0.703061	2.64651	0.533238	1.99206	0.704363	2.64636	0.769905	2.90211	0.888058	3.34702			0.67906	2.55864	0.77293	2.90413	0.919945	3.46567		
0.705453	2.64623	0.535248	1.99263	0.706754	2.64608	0.771699	2.89869	0.889858	3.34207			0.681051	2.55716	0.774936	2.90151	0.921369	3.45889		
0.707843	2.64595	0.537257	1.99319	0.709144	2.6458	0.773494	2.8953	0.89166	3.33716			0.683042	2.5557	0.776944	2.89891	0.922796	3.45217		
0.710234	2.64567	0.539265	1.99375	0.711534	2.64552	0.775293	2.89194	0.893464	3.33229			0.685032	2.55424	0.778954	2.89635	0.924226	3.44552		
0.712623	2.64539	0.541274	1.99431	0.713923	2.64524	0.777094	2.88863	0.895269	3.32747			0.687021	2.55278	0.780967	2.89381	0.92566	3.43892		
0.715012	2.64511	0.543282	1.99486	0.716311	2.64496	0.778898	2.88534	0.897076	3.32268			0.689009	2.55134	0.782982	2.89129	0.927097	3.43238		
0.7174	2.64483	0.54529	1.99541	0.718699	2.64467	0.780705	2.88209	0.898885	3.31793			0.690996	2.5499	0.784999	2.8888	0.928538	3.42589		
0.719787	2.64455	0.547297	1.99595	0.721086	2.64439	0.782515	2.87886	0.900696	3.31322			0.692983	2.54847	0.787019	2.88634	0.929983	3.41947		
0.722173	2.64426	0.549305	1.99649	0.723472	2.64411	0.784328	2.87568	0.902508	3.30854			0.694968	2.54705	0.789041	2.8839	0.931431	3.4131		
0.724559	2.64398	0.551312	1.99702	0.725857	2.64382	0.786143	2.87252	0.904322	3.30391			0.696953	2.54563	0.791066	2.88149	0.932882	3.40679		
0.726944	2.64369	0.553319	1.99755	0.728241	2.64353	0.787961	2.86939	0.906138	3.29931			0.698937	2.54422	0.793092	2.8791	0.934337	3.40053		
0.729328	2.6434	0.555325	1.99807	0.730624	2.64325	0.789782	2.8663	0.907955	3.29475			0.700921	2.54281	0.795121	2.87673	0.935796	3.39433		
0.731711	2.64311	0.557332	1.99859	0.733007	2.64296	0.791606	2.86324	0.909774	3.29023			0.702903	2.54141	0.797152	2.87439	0.937258	3.38818		
0.734092	2.64282	0.559338	1.9991	0.735388	2.64267	0.793433	2.86021	0.911594	3.28574			0.704885	2.54002	0.799185	2.87207	0.938723	3.38209		
0.736473	2.64253	0.561343	1.99961	0.737768	2.64237	0.795263	2.85721	0.913417	3.28129			0.706866	2.53864	0.80122	2.86978	0.940192	3.37605		
0.738853	2.64224	0.563349	2.00012	0.740148	2.64208	0.797096	2.85424	0.91524	3.27687			0.708847	2.53726	0.803258	2.86751	0.941665	3.37006		
0.741232	2.64194	0.565354	2.00062	0.742526	2.64178	0.798931	2.8513	0.917066	3.27249			0.710826	2.53589	0.805297	2.86526	0.94314	3.36413		
0.74361	2.64164	0.567359	2.00112	0.744903	2.64148	0.80077	2.84839	0.918893	3.26814			0.712805	2.53453	0.807338	2.86303	0.94462	3.35824		
0.745986	2.64134	0.569364	2.00161	0.747279	2.64118	0.802611	2.84551	0.920721	3.26383			0.714784	2.53317	0.809382	2.86082	0.946102	3.35241		
0.748362	2.64104	0.571368	2.0021	0.749654	2.64088	0.804456	2.84266	0.922551	3.25955			0.716761	2.53182	0.811427	2.85864	0.947588	3.34663		
0.750736	2.64074	0.573372	2.00258	0.752027	2.64057	0.806303	2.83984	0.924382	3.25531			0.718738	2.53047	0.813474	2.85648	0.949078	3.34089		
0.753109	2.64043	0.575376	2.00306	0.754399	2.64026	0.808154	2.83705	0.926215	3.2511			0.720714	2.52913	0.815524	2.85433	0.950571	3.33521		
0.75548	2.64012	0.57738	2.00354	0.75677	2.63995	0.810007	2.83428	0.92805	3.24692			0.72269	2.5278	0.817575	2.85221	0.952067	3.32958		
0.75785	2.63981	0.579383	2.00401	0.75914	2.63964	0.811864	2.83155	0.929886	3.24277			0.724665	2.52648	0.819628	2.85011	0.953567	3.32399		
0.760219	2.6395	0.581386	2.00448	0.761508	2.63932	0.813723	2.82884	0.931723	3.23865			0.726639	2.52516	0.821683	2.84803	0.95507	3.31845		
0.762587	2.63918	0.583389	2.00495	0.763874	2.639	0.815586	2.82616	0.933562	3.23457			0.728613	2.52384	0.823739	2.84597	0.956577	3.31296		
0.764953	2.63886	0.585391	2.00541	0.766239	2.63868	0.817452	2.82351	0.935402	3.23052			0.730586	2.52254	0.825798	2.84392	0.958087	3.30752		
0.767317	2.63853	0.587393	2.00587	0.768603	2.63836	0.819321	2.82089	0.937244	3.2265			0.732558	2.52124	0.827858	2.8419	0.9596	3.30212		
0.76968	2.63821	0.589395	2.00632	0.770965	2.63803	0.821194	2.8183	0.939087	3.22251			0.73453	2.51994	0.82992	2.8399	0.961117	3.29677		
0.772041	2.63788	0.591397	2.00677	0.773326	2.6377	0.823069	2.81573	0.940931	3.21854			0.736501	2.51866	0.831983	2.83791	0.962637	3.29147		
0.774401	2.63754	0.593399	2.00721	0.775684	2.63736	0.824948	2.81319	0.942777	3.21461			0.738472	2.51737	0.834048	2.83594	0.96416	3.28621		
0.776759	2.63721	0.5954	2.00766	0.778041	2.63702	0.82683	2.81068	0.944624	3.21071			0.740442	2.5161	0.836115	2.83399	0.965687	3.28099		
0.779115	2.63686	0.597401	2.00809	0.780397	2.63668	0.828716	2.8082	0.946472	3.20684			0.742411	2.51483	0.838183	2.83206	0.967217	3.27582		
0.78147	2.63652	0.599401	2.00853	0.78275	2.63633	0.830605	2.80574	0.948322	3.203			0.74438	2.51357	0.840254	2.83014	0.968751	3.2707		
0.783822	2.63617	0.601402	2.00896	0.785102	2.63598	0.832497	2.80331	0.950173	3.19918			0.746349	2.51231	0.842325	2.82824	0.970287	3.26561		
0.786173	2.63582	0.603402	2.00939	0.787451	2.63562	0.834392	2.8009	0.952026	3.19539			0.748316	2.51106	0.844398	2.82636	0.971828	3.26057		
0.788522	2.63546	0.605402	2.00981	0.789799	2.63526	0.836291	2.79853	0.953879	3.19163			0.750284	2.50981	0.846473	2.8245	0.973371	3.25557		
0.790868	2.6351	0.607401	2.01023	0.792145	2.6349	0.838194	2.79617	0.955734	3.1879			0.752251	2.50857	0.848549	2.82265	0.974918	3.25062		
0.793213	2.63473	0.6094	2.01065	0.794488	2.63453	0.8401	2.79385	0.95759	3.1842			0.754217	2.50734	0.850626	2.82082	0.976468	3.2457		
0.795556	2.63436	0.611399	2.01106	0.79683	2.63415	0.84201	2.79155	0.959448	3.18052			0.756183	2.50611	0.852705	2.819	0.978022	3.24083		
0.797896	2.63398	0.613398	2.01147	0.799169	2.63378	0.843923	2.78928	0.961306	3.17687			0.758148	2.50489	0.854785	2.8172	0.979578	3.236		
0.800234	2.6336	0.615397	2.01188	0.801506	2.63339	0.84584	2.78703	0.963166	3.17325			0.760113	2.50368	0.856867	2.81542	0.981138	3.23121		
0.80257	2.63321	0.617395	2.01228	0.803841	2.633	0.847761	2.78481	0.965028	3.16965			0.762077	2.50247	0.85895	2.81365	0.982702	3.22646		
0.804904	2.63282	0.619393	2.01268	0.806173	2.63261	0.849686	2.78262	0.96689	3.16608			0.764041	2.50126	0.861034	2.81189	0.984269	3.22174		
0.807235	2.63243	0.621391	2.01308	0.808503	2.63221	0.851614	2.78045	0.968753	3.16253			0.766005	2.50007	0.863119	2.81015	0.985838	3.21707		
0.809564	2.63202	0.623388	2.01347	0.81083	2.6318	0.853546	2.77831	0.970618	3.15901			0.767968	2.49887	0.865206	2.80843	0.987412	3.21244		
0.81189	2.63161	0.625385	2.01386	0.813155	2.63139	0.855482	2.77619	0.972484	3.15551			0.76993	2.49769	0.867294	2.80672	0.988988	3.20784		
0.814214	2.6312	0.627382	2.01425	0.815477	2.63097	0.857422	2.7741	0.974351	3.15204			0.771892	2.49651	0.869383	2.80502	0.990568	3.20329		
0.816535	2.63078	0.629379	2.01463	0.817797	2.63055	0.859366	2.77203	0.976219	3.1486			0.773854	2.49533	0.871473	2.80334	0.992151	3.19877		
0.818853	2.63035	0.631375	2.01501	0.820113	2.63012	0.861314	2.76999	0.978088	3.14517			0.775816	2.49416	0.873564	2.80167	0.993737	3.19429		
0.821169	2.62992	0.633371	2.01539	0.822427	2.62968	0.863267	2.76797	0.979958	3.14178			0.777776	2.493	0.875657	2.80001	0.995327	3.18985		
0.823481	2.62948	0.635367	2.01577	0.824739	2.62924	0.865223	2.76598	0.98183	3.1384			0.779737	2.49184	0.877751	2.79837	0.99692	3.18544		
0.825791	2.62903	0.637363	2.01614	0.827047	2.62879	0.867183	2.76402	0.983702	3.13505			0.781697	2.49069	0.879845	2.79674	0.998516	3.18107		
0.828098	2.62858	0.639358	2.01651	0.829352	2.62833	0.869148	2.76208	0.985576	3.13172			0.783657	2.48955	0.881941	2.79512	1.00012	3.17674		
0.830402	2.62812	0.641353	2.01687	0.831654	2.62787	0.871117	2.76016	0.987451	3.12842			0.785616	2.48841	0.884037	2.79352				
0.832702	2.62766	0.643348	2.01724	0.833953	2.6274	0.873091	2.75827	0.989326	3.12513			0.787575	2.48727	0.886135	2.79193				
0.835	2.62718	0.645343	2.0176	0.836249	2.62692	0.875069	2.75641	0.991203	3.12187			0.789534	2.48614	0.888234	2.79035				
0.837294	2.6267	0.647337	2.01795	0.838541	2.62643	0.877051	2.75457	0.993081	3.11864			0.791493	2.48502	0.890333	2.78878				
0.839585	2.62621	0.649331	2.01831	0.84083	2.62594	0.879038	2.75276	0.99496	3.11542			0.793451	2.4839	0.892434	2.78723				
0.841873	2.62571	0.651325	2.01866	0.843116	2.62544	0.881029	2.75097	0.996839	3.11223			0.795408	2.48279	0.894535	2.78568				
0.844157	2.62521	0.653318	2.01901	0.845398	2.62493	0.883025	2.7492	0.99872	3.10906			0.797366	2.48168	0.896637	2.78415				
0.846437	2.6247	0.655311	2.01935	0.847677	2.62442	0.885026	2.74746	1.0006	3.10591			0.799323	2.48058	0.89874	2.78263				
0.848715	2.62418	0.657304	2.0197	0.849952	2.62389	0.887032	2.74574					0.80128	2.47948	0.900844	2.78112				
0.850988	2.62365	0.659297	2.02004	0.852224	2.62336	0.889042	2.74405					0.803236	2.47839	0.902948	2.77963				
0.853258	2.62311	0.661289	2.02037	0.854491	2.62282	0.891057	2.74239					0.805193	2.47731	0.905054	2.77814				
0.855524	2.62257	0.663282	2.02071	0.856755	2.62227	0.893077	2.74074					0.807149	2.47623	0.90716	2.77666				
0.857786	2.62201	0.665274	2.02104	0.859015	2.62171	0.895102	2.73913					0.809104	2.47515	0.909266	2.7752				
0.860044	2.62145	0.667265	2.02137	0.861272	2.62114	0.897132	2.73753					0.81106	2.47408	0.911374	2.77374				
0.862299	2.62088	0.669257	2.02169	0.863524	2.62056	0.899168	2.73597					0.813015	2.47302	0.913482	2.77229				
0.864549	2.6203	0.671248	2.02202	0.865772	2.61998	0.901208	2.73442					0.81497	2.47196	0.91559	2.77086				
0.866796	2.61971	0.673239	2.02234	0.868016	2.61939	0.903253	2.7329					0.816925	2.4709	0.9177	2.76943				
0.869038	2.61911	0.675229	2.02266	0.870257	2.61878	0.905303	2.73141					0.818879	2.46986	0.919809	2.76802				
0.871276	2.6185	0.67722	2.02298	0.872493	2.61817	0.907359	2.72993					0.820834	2.46881	0.92192	2.76661				
0.87351	2.61789	0.67921	2.02329	0.874724	2.61755	0.90942	2.72849					0.822788	2.46777	0.924031	2.76522				
0.87574	2.61726	0.6812	2.0236	0.876952	2.61692	0.911486	2.72706					0.824741	2.46674	0.926142	2.76383				
0.877966	2.61663	0.683189	2.02391	0.879175	2.61628	0.913558	2.72566					0.826695	2.46571	0.928254	2.76245				
0.880187	2.61598	0.685179	2.02422	0.881394	2.61563	0.915635	2.72429					0.828649	2.46469	0.930366	2.76108				
0.882404	2.61533	0.687168	2.02452	0.883608	2.61497	0.917717	2.72293					0.830602	2.46367	0.932479	2.75972				
0.884617	2.61467	0.689157	2.02482	0.885819	2.6143	0.919804	2.7216					0.832555	2.46266	0.934592	2.75837				
0.886825	2.614	0.691145	2.02512	0.888024	2.61363	0.921897	2.7203					0.834508	2.46165	0.936706	2.75702				
0.889028	2.61332	0.693134	2.02542	0.890226	2.61294	0.923996	2.71901					0.836461	2.46065	0.938819	2.75569				
0.891228	2.61263	0.695122	2.02571	0.892423	2.61225	0.9261	2.71775					0.838413	2.45965	0.940934	2.75436				
0.893423	2.61193	0.69711	2.026	0.894615	2.61154	0.928209	2.71652					0.840366	2.45866	0.943048	2.75304				
0.895613	2.61122	0.699097	2.02629	0.896803	2.61083	0.930324	2.7153					0.842318	2.45767	0.945163	2.75173				
0.897799	2.6105	0.701085	2.02658	0.898986	2.6101	0.932444	2.71411					0.84427	2.45669	0.947278	2.75043				
0.89998	2.60977	0.703072	2.02687	0.901165	2.60937	0.93457	2.71294					0.846222	2.45571	0.949393	2.74914				
0.902157	2.60904	0.705058	2.02715	0.90334	2.60863	0.936701	2.71179					0.848174	2.45474	0.951509	2.74785				
0.90433	2.60829	0.707045	2.02743	0.90551	2.60788	0.938838	2.71067					0.850126	2.45377	0.953625	2.74657				
0.906498	2.60754	0.709031	2.02771	0.907675	2.60712	0.94098	2.70956					0.852078	2.45281	0.955741	2.7453				
0.908661	2.60677	0.711018	2.02798	0.909836	2.60635	0.943127	2.70848					0.854029	2.45185	0.957857	2.74403				
0.91082	2.606	0.713003	2.02826	0.911993	2.60558	0.94528	2.70742					0.855981	2.4509	0.959973	2.74277				
0.912975	2.60522	0.714989	2.02853	0.914145	2.60479	0.947438	2.70638					0.857932	2.44995	0.962089	2.74152				
0.915125	2.60443	0.716974	2.0288	0.916293	2.604	0.949601	2.70536					0.859883	2.44901	0.964206	2.74028				
0.917271	2.60364	0.718959	2.02907	0.918436	2.6032	0.95177	2.70436					0.861834	2.44807	0.966322	2.73904				
0.919412	2.60283	0.720944	2.02933	0.920575	2.60239	0.953944	2.70338					0.863785	2.44713	0.968439	2.73781				
0.921549	2.60202	0.722929	2.0296	0.92271	2.60157	0.956123	2.70242					0.865736	2.4462	0.970555	2.73658				
0.923682	2.6012	0.724913	2.02986	0.924841	2.60075	0.958307	2.70148					0.867687	2.44528	0.972672	2.73537				
0.92581	2.60037	0.726897	2.03012	0.926967	2.59991	0.960497	2.70056					0.869638	2.44436	0.974788	2.73415				
0.927935	2.59953	0.728881	2.03038	0.929089	2.59907	0.962692	2.69965					0.871589	2.44344	0.976905	2.73295				
0.930055	2.59869	0.730865	2.03063	0.931207	2.59823	0.964891	2.69877					0.87354	2.44253	0.979021	2.73175				
0.932171	2.59784	0.732848	2.03088	0.933321	2.59737	0.967096	2.69791					0.875491	2.44163	0.981138	2.73056				
0.934283	2.59698	0.734831	2.03114	0.935431	2.59651	0.969305	2.69706					0.877441	2.44072	0.983254	2.72937				
0.936391	2.59612	0.736814	2.03139	0.937537	2.59564	0.971519	2.69623					0.879392	2.43983	0.98537	2.72819				
0.938495	2.59525	0.738797	2.03163	0.939639	2.59477	0.973738	2.69542					0.881343	2.43893	0.987486	2.72701				
0.940596	2.59437	0.740779	2.03188	0.941737	2.59389	0.975962	2.69463					0.883293	2.43805	0.989602	2.72584				
0.942692	2.59349	0.742761	2.03212	0.943831	2.59301	0.97819	2.69385					0.885244	2.43716	0.991718	2.72467				
0.944785	2.5926	0.744743	2.03236	0.945922	2.59211	0.980423	2.69309					0.887194	2.43628	0.993833	2.72352				
0.946873	2.59171	0.746725	2.0326	0.948009	2.59122	0.982661	2.69234					0.889145	2.43541	0.995948	2.72236				
0.948959	2.59081	0.748706	2.03284	0.950092	2.59032	0.984902	2.69162					0.891095	2.43454	0.998063	2.72121				
0.951041	2.5899	0.750687	2.03308	0.952172	2.58941	0.987148	2.6909					0.893046	2.43367	1.00018	2.72007				
0.953119	2.58899	0.752668	2.03331	0.954248	2.5885	0.989399	2.6902					0.894996	2.43281						
0.955194	2.58808	0.754649	2.03354	0.956321	2.58758	0.991653	2.68952					0.896947	2.43195						
0.957265	2.58716	0.75663	2.03378	0.958391	2.58666	0.993912	2.68885					0.898897	2.4311						
0.959333	2.58624	0.75861	2.034	0.960457	2.58573	0.996175	2.6882					0.900848	2.43025						
0.961398	2.58531	0.76059	2.03423	0.962521	2.58481	0.998441	2.68756					0.902798	2.42941						
0.96346	2.58438	0.76257	2.03446	0.964581	2.58387	1.00071	2.68693					0.904749	2.42857						
0.965519	2.58345	0.764549	2.03468	0.966638	2.58294							0.906699	2.42773						
0.967575	2.58251	0.766528	2.0349	0.968692	2.582							0.90865	2.4269						
0.969628	2.58157	0.768507	2.03512	0.970744	2.58106							0.910601	2.42607						
0.971678	2.58063	0.770486	2.03534	0.972792	2.58011							0.912551	2.42525						
0.973725	2.57968	0.772465	2.03556	0.974838	2.57916							0.914502	2.42443						
0.97577	2.57873	0.774443	2.03577	0.976881	2.57822							0.916453	2.42362						
0.977812	2.57778	0.776421	2.03599	0.978922	2.57726							0.918403	2.42281						
0.979851	2.57683	0.778399	2.0362	0.98096	2.57631							0.920354	2.422						
0.981888	2.57587	0.780377	2.03641	0.982995	2.57535							0.922305	2.4212						
0.983922	2.57492	0.782354	2.03662	0.985028	2.5744							0.924256	2.4204						
0.985954	2.57396	0.784331	2.03682	0.987059	2.57344							0.926207	2.41961						
0.987984	2.573	0.786308	2.03703	0.989088	2.57248							0.928158	2.41881						
0.990012	2.57204	0.788285	2.03723	0.991114	2.57152							0.930109	2.41803						
0.992037	2.57108	0.790261	2.03743	0.993139	2.57056							0.932061	2.41725						
0.994061	2.57012	0.792238	2.03763	0.995161	2.56959							0.934012	2.41647						
0.996082	2.56915	0.794213	2.03783	0.997181	2.56863							0.935963	2.41569						
0.998101	2.56819	0.796189	2.03803	0.999199	2.56767							0.937915	2.41492						
1.00012	2.56723	0.798165	2.03823	1.00122	2.5667							0.939866	2.41416						
		0.80014	2.03842									0.941818	2.41339						
		0.802115	2.03861									0.94377	2.41264						
		0.80409	2.03881									0.945722	2.41188						
		0.806065	2.039									0.947674	2.41113						
		0.808039	2.03918									0.949626	2.41038						
		0.810013	2.03937									0.951578	2.40964						
		0.811987	2.03956									0.95353	2.4089						
		0.813961	2.03974									0.955482	2.40816						
		0.815935	2.03992									0.957435	2.40743						
		0.817908	2.04011									0.959387	2.4067						
		0.819881	2.04029									0.96134	2.40598						
		0.821854	2.04046									0.963293	2.40526						
		0.823827	2.04064									0.965246	2.40454						
		0.825799	2.04082									0.967199	2.40382						
		0.827771	2.04099									0.969152	2.40311						
		0.829743	2.04116									0.971105	2.40241						
		0.831715	2.04134									0.973059	2.4017						
		0.833686	2.04151									0.975012	2.401						
		0.835658	2.04168									0.976966	2.40031						
		0.837629	2.04184									0.97892	2.39962						
		0.8396	2.04201									0.980874	2.39893						
		0.84157	2.04218									0.982828	2.39824						
		0.843541	2.04234									0.984782	2.39756						
		0.845511	2.0425									0.986737	2.39688						
		0.847481	2.04266									0.988691	2.39621						
		0.849451	2.04282									0.990646	2.39553						
		0.85142	2.04298									0.992601	2.39487						
		0.85339	2.04314									0.994556	2.3942						
		0.855359	2.0433									0.996511	2.39354						
		0.857328	2.04345									0.998466	2.39288						
		0.859297	2.04361									1.00042	2.39223						
		0.861265	2.04376																
		0.863234	2.04391																
		0.865202	2.04406																
		0.86717	2.04421																
		0.869137	2.04436																
		0.871105	2.04451																
		0.873072	2.04466																
		0.875039	2.0448																
		0.877006	2.04494																
		0.878973	2.04509																
		0.880939	2.04523																
		0.882906	2.04537																
		0.884872	2.04551																
		0.886837	2.04565																
		0.888803	2.04579																
		0.890769	2.04592																
		0.892734	2.04606																
		0.894699	2.04619																
		0.896664	2.04633																
		0.898628	2.04646																
		0.900593	2.04659																
		0.902557	2.04672																
		0.904521	2.04685																
		0.906485	2.04698																
		0.908449	2.0471																
		0.910412	2.04723																
		0.912375	2.04736																
		0.914339	2.04748																
		0.916301	2.0476																
		0.918264	2.04773																
		0.920227	2.04785																
		0.922189	2.04797																
		0.924151	2.04809																
		0.926113	2.04821																
		0.928075	2.04833																
		0.930036	2.04844																
		0.931998	2.04856																
		0.933959	2.04867																
		0.93592	2.04879																
		0.937881	2.0489																
		0.939841	2.04901																
		0.941802	2.04913																
		0.943762	2.04924																
		0.945722	2.04935																
		0.947682	2.04946																
		0.949642	2.04956																
		0.951601	2.04967																
		0.95356	2.04978																
		0.95552	2.04989																
		0.957479	2.04999																
		0.959437	2.05009																
		0.961396	2.0502																
		0.963354	2.0503																
		0.965313	2.0504																
		0.967271	2.0505																
		0.969229	2.0506																
		0.971186	2.0507																
		0.973144	2.0508																
		0.975101	2.0509																
		0.977058	2.051																
		0.979015	2.05109																
		0.980972	2.05119																
		0.982929	2.05129																
		0.984886	2.05138																
		0.986842	2.05147																
		0.988798	2.05157																
		0.990754	2.05166																
		0.99271	2.05175																
		0.994665	2.05184																
		0.996621	2.05193																
		0.998576	2.05202																
		1.00053	2.05211																
