Sym0		Asym0		Sym1		Sym2		Sym3		Sym4		Asym1		Asym2		Asym3		Asym4	
425  Points		527  Points		424  Points		406  Points		352  Points		252  Points		455  Points		401  Points		345  Points		207  Points	
Freq (MHz)	Vph (m/ms)	Freq (MHz)	Vph (m/ms)	Freq (MHz)	Vph (m/ms)	Freq (MHz)	Vph (m/ms)	Freq (MHz)	Vph (m/ms)	Freq (MHz)	Vph (m/ms)	Freq (MHz)	Vph (m/ms)	Freq (MHz)	Vph (m/ms)	Freq (MHz)	Vph (m/ms)	Freq (MHz)	Vph (m/ms)
0.279509	704.403	0.000230479	0.093424	0.279514	307.423	0.449903	11800.6	0.559017	7615.52	0.838526	2167.17	0.139755	961.827	0.419268	468.755	0.698771	3660.08	0.899806	2237.29
0.279519	210.403	0.000436813	0.128523	0.27953	151.843	0.449909	463.909	0.559024	556.187	0.838531	635.917	0.139799	129.804	0.419285	229.604	0.698776	622.455	0.899811	674.581
0.27954	123.68	0.000707771	0.163442	0.279556	100.828	0.449925	236.614	0.559041	288.642	0.838542	372.634	0.139909	69.6518	0.419314	152.045	0.698786	340.157	0.899821	397.171
0.279572	87.5882	0.00104261	0.198135	0.279594	75.4781	0.449953	158.814	0.55907	194.901	0.838559	263.532	0.140085	47.6418	0.419354	113.661	0.698802	234.026	0.899836	281.439
0.279614	67.8085	0.00144037	0.23255	0.279642	60.3197	0.449991	119.522	0.55911	147.127	0.838582	203.851	0.140327	36.2408	0.419406	90.7567	0.698825	178.376	0.899857	217.938
0.279667	55.3217	0.00189997	0.266644	0.279701	50.2364	0.45004	95.8224	0.559162	118.169	0.838611	166.213	0.140634	29.2758	0.419469	75.5405	0.698853	144.111	0.899883	177.819
0.279731	46.7232	0.00242034	0.300395	0.27977	43.0456	0.450099	79.9708	0.559225	98.7406	0.838645	140.31	0.141006	24.5848	0.419544	64.6985	0.698887	120.892	0.899914	150.177
0.279805	40.442	0.00300002	0.333748	0.279851	37.6595	0.45017	68.6235	0.559299	84.803	0.838685	121.394	0.14144	21.2144	0.419631	56.5823	0.698928	104.119	0.89995	129.975
0.27989	35.6532	0.00363771	0.366683	0.279942	33.4747	0.450251	60.1	0.559384	74.3173	0.838731	106.974	0.141937	18.6787	0.419729	50.279	0.698974	91.4352	0.899992	114.565
0.279986	31.8816	0.00433179	0.399159	0.280044	30.1301	0.450343	53.4634	0.55948	66.1429	0.838783	95.6186	0.142494	16.7039	0.419838	45.2428	0.699027	81.508	0.900039	102.423
0.280093	28.8347	0.00508076	0.431158	0.280156	27.396	0.450445	48.1498	0.559588	59.5917	0.83884	86.4439	0.143111	15.1244	0.41996	41.1266	0.699085	73.527	0.900091	92.6102
0.28021	26.3221	0.00588289	0.462649	0.28028	25.1195	0.450558	43.7998	0.559706	54.2243	0.838904	78.8772	0.143785	13.8336	0.420093	37.6999	0.69915	66.9712	0.900148	84.5143
0.280339	24.2148	0.00673649	0.493611	0.280414	23.1947	0.450682	40.1733	0.559836	49.7467	0.838973	72.53	0.144516	12.7601	0.420237	34.8029	0.69922	61.4902	0.900211	77.7214
0.280477	22.4223	0.0076399	0.524033	0.280558	21.5462	0.450817	37.1038	0.559977	45.9546	0.839048	67.1294	0.145302	11.8543	0.420393	32.3219	0.699297	56.8398	0.900278	71.9404
0.280627	20.8791	0.00859139	0.553899	0.280714	20.1186	0.450963	34.4724	0.56013	42.7021	0.839129	62.4786	0.146141	11.0805	0.42056	30.1733	0.69938	52.8446	0.900351	66.9609
0.280787	19.5368	0.00958904	0.583188	0.28088	18.8705	0.451119	32.1916	0.560293	39.8818	0.839215	58.4316	0.146914	10.4932	0.42074	28.2948	0.699468	49.3754	0.900429	62.6272
0.280958	18.3586	0.0106313	0.611902	0.281057	17.77	0.451286	30.1959	0.560467	37.4131	0.839308	54.8781	0.147603	10.0458	0.42093	26.6385	0.699563	46.3347	0.900513	58.8213
0.28114	17.3162	0.0117163	0.640029	0.281244	16.7927	0.451463	28.4351	0.560653	35.2341	0.839406	51.733	0.148193	9.70779	0.421132	25.1674	0.699664	43.6479	0.900602	55.4523
0.281332	16.3877	0.0128424	0.66757	0.281442	15.9189	0.451651	26.8702	0.56085	33.2969	0.83951	48.9298	0.148672	9.45878	0.421346	23.8521	0.69977	41.2566	0.900695	52.4493
0.281535	15.5553	0.0140079	0.694517	0.281651	15.1332	0.45185	25.4702	0.561058	31.5634	0.83962	46.4157	0.149032	9.28508	0.42157	22.6692	0.699883	39.1146	0.900795	49.7556
0.281749	14.8049	0.015211	0.720871	0.281871	14.423	0.452059	24.2105	0.561277	30.0031	0.839735	44.1482	0.149265	9.17783	0.421807	21.5997	0.700002	37.185	0.900899	47.3259
0.281973	14.1252	0.0164505	0.746641	0.282101	13.7779	0.452279	23.0711	0.561507	28.5914	0.839856	42.0928	0.149604	9.02874	0.422055	20.6283	0.700126	35.4378	0.901009	45.1231
0.282208	13.5066	0.0177244	0.771823	0.282341	13.1895	0.45251	22.0356	0.561748	27.3082	0.839984	40.221	0.149978	8.87314	0.422314	19.7419	0.700257	33.8481	0.901123	43.117
0.282453	12.9413	0.0190313	0.796423	0.282592	12.6506	0.452751	21.0904	0.562	26.1366	0.840116	38.5093	0.150496	8.67162	0.422584	18.9301	0.700394	32.3958	0.901243	41.2824
0.282709	12.4227	0.0203699	0.820451	0.282854	12.1554	0.453003	20.2244	0.562263	25.0629	0.840255	36.9382	0.151166	8.43215	0.422866	18.1838	0.700537	31.0637	0.901369	39.5982
0.282976	11.9454	0.0217386	0.843911	0.283127	11.6987	0.453265	19.428	0.562537	24.0753	0.840399	35.4909	0.151998	8.16337	0.42316	17.4955	0.700685	29.8376	0.901499	38.0467
0.283253	11.5046	0.0231362	0.866814	0.28341	11.2763	0.453538	18.6932	0.562822	23.1638	0.84055	34.1534	0.153002	7.87396	0.423464	16.8587	0.70084	28.7053	0.901635	36.6127
0.283541	11.0964	0.0245612	0.889165	0.283703	10.8845	0.453821	18.0131	0.563118	22.3201	0.840706	32.9137	0.154192	7.57212	0.42378	16.2678	0.701001	27.6565	0.901776	35.2836
0.283839	10.7173	0.0260126	0.91098	0.284007	10.5201	0.454115	17.382	0.563425	21.537	0.840867	31.7615	0.15542	7.29848	0.424107	15.7182	0.701168	26.6823	0.901922	34.0481
0.284147	10.3643	0.0274889	0.932262	0.284281	10.2228	0.454419	16.7947	0.563743	20.808	0.841035	30.6879	0.156684	7.04943	0.424446	15.2057	0.70134	25.775	0.902073	32.8968
0.284467	10.0349	0.0289891	0.953029	0.28452	9.98292	0.454733	16.2469	0.564072	20.128	0.841208	29.685	0.157983	6.82193	0.424795	14.7267	0.701519	24.928	0.90223	31.8213
0.284797	9.72687	0.0305121	0.973286	0.284723	9.79336	0.455058	15.7347	0.564412	19.4921	0.841387	28.7462	0.159316	6.61342	0.425156	14.278	0.701704	24.1355	0.902391	30.8144
0.285137	9.43816	0.0320569	0.99305	0.284885	9.64877	0.455394	15.2549	0.564762	18.8962	0.841572	27.8655	0.160681	6.42171	0.425528	13.8569	0.701894	23.3925	0.902558	29.8698
0.285487	9.16706	0.0336224	1.01233	0.285007	9.54531	0.45574	14.8044	0.565123	18.3366	0.841762	27.0378	0.162077	6.24495	0.425912	13.461	0.702091	22.6943	0.90273	28.9819
0.285848	8.91203	0.0352077	1.03113	0.285085	9.48031	0.456096	14.3807	0.565495	17.8103	0.841959	26.2582	0.163502	6.08153	0.426306	13.0881	0.702293	22.0372	0.902908	28.1457
0.28622	8.67172	0.0368118	1.04948	0.285199	9.38851	0.456462	13.9816	0.565878	17.3143	0.842161	25.5229	0.164954	5.93006	0.426711	12.7362	0.702502	21.4176	0.90309	27.3568
0.286602	8.44491	0.038434	1.06737	0.285323	9.29085	0.456839	13.6048	0.566271	16.8461	0.842369	24.8282	0.166434	5.78933	0.427128	12.4037	0.702717	20.8324	0.903278	26.6114
0.286994	8.23052	0.0400733	1.08483	0.285495	9.16144	0.457226	13.2488	0.566676	16.4035	0.842582	24.1707	0.167939	5.65831	0.427555	12.0891	0.702937	20.2788	0.903471	25.906
0.287397	8.02757	0.041729	1.10186	0.285716	9.00317	0.457623	12.9117	0.56709	15.9844	0.842801	23.5476	0.169468	5.53605	0.427994	11.7908	0.703163	19.7544	0.903669	25.2375
0.28781	7.8352	0.0434004	1.11848	0.285988	8.8194	0.458031	12.5922	0.567516	15.587	0.843026	22.9563	0.171021	5.42176	0.428444	11.5079	0.703396	19.2569	0.903872	24.603
0.288233	7.65262	0.0450867	1.13469	0.286314	8.6138	0.458448	12.2889	0.567952	15.2098	0.843257	22.3945	0.172596	5.31471	0.428904	11.239	0.703634	18.7843	0.904081	24
0.288666	7.47912	0.0467873	1.15051	0.286699	8.39019	0.458876	12.0006	0.568399	14.8512	0.843493	21.8598	0.174192	5.21426	0.429375	10.9832	0.703879	18.3347	0.904294	23.4263
0.28911	7.31407	0.0485015	1.16595	0.287094	8.17875	0.459314	11.7264	0.568856	14.5099	0.843735	21.3506	0.175808	5.11986	0.429858	10.7396	0.704129	17.9067	0.904513	22.8797
0.289564	7.15686	0.0502288	1.18102	0.287499	7.97852	0.459762	11.4651	0.569323	14.1848	0.843983	20.865	0.177444	5.031	0.430351	10.5073	0.704385	17.4986	0.904737	22.3585
0.290029	7.00698	0.0519685	1.19573	0.287915	7.78867	0.46022	11.2159	0.569801	13.8746	0.844237	20.4013	0.179099	4.94722	0.430789	10.3136	0.704647	17.1091	0.904966	21.8608
0.290503	6.86394	0.05372	1.21009	0.28834	7.60843	0.460688	10.9781	0.57029	13.5784	0.844496	19.9582	0.180771	4.86812	0.43117	10.1544	0.704915	16.737	0.9052	21.3851
0.290988	6.7273	0.0554829	1.22411	0.288776	7.4371	0.461166	10.7508	0.570789	13.2954	0.844761	19.5344	0.18246	4.79334	0.431489	10.0268	0.705189	16.3811	0.90544	20.9301
0.291483	6.59665	0.0572567	1.2378	0.289223	7.27405	0.461654	10.5334	0.571298	13.0246	0.845032	19.1285	0.184165	4.72255	0.431744	9.92829	0.705469	16.0405	0.905684	20.4944
0.291988	6.47162	0.0590409	1.25117	0.289679	7.11873	0.462087	10.3515	0.571818	12.7653	0.845308	18.7395	0.185886	4.65545	0.431933	9.85722	0.705755	15.7141	0.905934	20.0767
0.292503	6.35187	0.060835	1.26423	0.290146	6.9706	0.462463	10.2017	0.572348	12.5168	0.84559	18.3664	0.187621	4.59177	0.432055	9.81231	0.706046	15.4011	0.906189	19.6761
0.293028	6.23709	0.0626387	1.27699	0.290623	6.8292	0.462777	10.0814	0.572888	12.2784	0.845877	18.0082	0.189371	4.53127	0.432231	9.74853	0.706344	15.1007	0.906449	19.2915
0.293563	6.12698	0.0644514	1.28946	0.291111	6.6941	0.463029	9.98839	0.573439	12.0496	0.846171	17.6641	0.191135	4.47373	0.432423	9.68023	0.706647	14.8121	0.906714	18.922
0.294109	6.02127	0.0662729	1.30163	0.291608	6.56489	0.463215	9.9212	0.573999	11.8298	0.84647	17.3332	0.192911	4.41894	0.432688	9.589	0.706957	14.5348	0.906985	18.5666
0.294664	5.91972	0.0681027	1.31354	0.292116	6.44121	0.463335	9.87871	0.57457	11.6184	0.846774	17.0149	0.1947	4.36672	0.433025	9.47629	0.707272	14.2679	0.90726	18.2247
0.295229	5.82211	0.0699405	1.32517	0.292633	6.32273	0.463508	9.81832	0.575151	11.4151	0.847085	16.7083	0.1965	4.3169	0.433439	9.34383	0.707593	14.0111	0.907541	17.8954
0.295805	5.7282	0.071786	1.33654	0.293161	6.20913	0.463698	9.75358	0.575742	11.2194	0.847401	16.4129	0.198312	4.26932	0.433932	9.19354	0.70792	13.7636	0.907826	17.5781
0.29639	5.63782	0.0736389	1.34766	0.293699	6.10015	0.463957	9.66703	0.576343	11.0308	0.847722	16.1281	0.200136	4.22385	0.434508	9.02753	0.708253	13.5251	0.908117	17.2721
0.296985	5.55077	0.0754988	1.35854	0.294247	5.99551	0.464289	9.55994	0.576954	10.8491	0.84805	15.8533	0.201969	4.18035	0.435094	8.86805	0.708592	13.295	0.908413	16.9769
0.29759	5.46688	0.0773655	1.36917	0.294804	5.89496	0.464695	9.43386	0.577574	10.6737	0.848382	15.588	0.203813	4.1387	0.43569	8.71472	0.708936	13.073	0.908714	16.6919
0.298205	5.386	0.0792386	1.37957	0.295372	5.79829	0.465179	9.29054	0.578124	10.526	0.848721	15.3318	0.205666	4.09879	0.436297	8.5672	0.709287	12.8585	0.90902	16.4165
0.29883	5.30796	0.081118	1.38975	0.29595	5.70529	0.465742	9.13187	0.578598	10.4035	0.849065	15.0841	0.207529	4.06051	0.436915	8.42519	0.709643	12.6513	0.909331	16.1504
0.299465	5.23264	0.0830033	1.39971	0.296538	5.61576	0.466316	8.97908	0.578994	10.3046	0.849415	14.8446	0.2094	4.02378	0.437542	8.28838	0.710005	12.4509	0.909648	15.893
0.30011	5.1599	0.0848943	1.40945	0.297136	5.52951	0.466899	8.83186	0.579309	10.2278	0.84977	14.6129	0.21128	3.9885	0.438181	8.15652	0.710373	12.2571	0.909969	15.644
0.300764	5.08962	0.0867909	1.41899	0.297743	5.44639	0.467491	8.68992	0.579543	10.1722	0.850131	14.3886	0.213169	3.95459	0.438829	8.02933	0.710747	12.0695	0.910296	15.4029
0.301428	5.02169	0.0886928	1.42833	0.298361	5.36623	0.468093	8.55299	0.579693	10.1369	0.850498	14.1713	0.215065	3.92198	0.439488	7.9066	0.711127	11.8879	0.910627	15.1694
0.302102	4.95599	0.0905997	1.43747	0.298988	5.28888	0.468705	8.42081	0.57991	10.0867	0.85087	13.9608	0.216969	3.8906	0.440157	7.78809	0.711512	11.7119	0.910964	14.9431
0.302786	4.89242	0.0925115	1.44642	0.299625	5.21422	0.469326	8.29315	0.580147	10.0328	0.851248	13.7567	0.21888	3.86037	0.440836	7.67361	0.711903	11.5414	0.911306	14.7236
0.303479	4.8309	0.094428	1.45519	0.300272	5.14211	0.469956	8.16979	0.580471	9.96043	0.851631	13.5587	0.220798	3.83125	0.441525	7.56295	0.7123	11.376	0.911653	14.5108
0.304091	4.77888	0.096349	1.46377	0.300929	5.07242	0.470596	8.05052	0.580884	9.87059	0.85202	13.3667	0.222723	3.80317	0.442224	7.45594	0.712703	11.2155	0.912005	14.3043
0.304619	4.73567	0.0982744	1.47219	0.301596	5.00506	0.471246	7.93515	0.581389	9.76433	0.852414	13.1802	0.224655	3.77607	0.442934	7.35241	0.713112	11.0598	0.912362	14.1038
0.305059	4.70069	0.100204	1.48043	0.302272	4.9399	0.471904	7.8235	0.581988	9.64289	0.852814	12.9991	0.226593	3.74992	0.443653	7.25219	0.713526	10.9086	0.912724	13.9091
0.30541	4.6735	0.102137	1.48851	0.302958	4.87686	0.472572	7.7154	0.582684	9.50765	0.85322	12.8232	0.228536	3.72466	0.444383	7.15514	0.713892	10.7804	0.913091	13.7198
0.305669	4.65377	0.104075	1.49642	0.303654	4.81583	0.473249	7.61069	0.583389	9.37662	0.853631	12.6522	0.230486	3.70025	0.445122	7.06112	0.714207	10.6736	0.913463	13.5359
0.305836	4.64126	0.106016	1.50418	0.304359	4.75673	0.473936	7.50922	0.584105	9.2496	0.854047	12.486	0.232441	3.67664	0.445871	6.96999	0.71447	10.587	0.91384	13.3571
0.306076	4.62343	0.107961	1.51179	0.305075	4.69948	0.474631	7.41083	0.584829	9.12643	0.854469	12.3243	0.234402	3.65381	0.44663	6.88163	0.71468	10.5195	0.914222	13.1832
0.306339	4.60426	0.109909	1.51925	0.305799	4.64399	0.475336	7.31542	0.585563	9.00693	0.854897	12.1669	0.236368	3.63171	0.447399	6.79591	0.714835	10.4705	0.914609	13.0139
0.306698	4.57851	0.11186	1.52656	0.306534	4.5902	0.476049	7.22283	0.586307	8.89095	0.85533	12.0138	0.238339	3.61031	0.448178	6.71274	0.714934	10.4394	0.915001	12.8492
0.307155	4.54649	0.113815	1.53373	0.307278	4.53803	0.476772	7.13297	0.58706	8.77834	0.855769	11.8647	0.240315	3.58958	0.448966	6.632	0.715078	10.395	0.915399	12.6887
0.307713	4.50856	0.115772	1.54077	0.308032	4.48742	0.477504	7.0457	0.587822	8.66896	0.856213	11.7195	0.242295	3.56949	0.449764	6.55359	0.715235	10.3473	0.915801	12.5324
0.308374	4.46513	0.117481	1.54679	0.308795	4.43829	0.478244	6.96094	0.588593	8.56268	0.856662	11.578	0.24428	3.55	0.450572	6.47742	0.715449	10.2831	0.916208	12.3802
0.309142	4.41666	0.118939	1.55185	0.309568	4.39061	0.478994	6.87857	0.589374	8.45938	0.857118	11.4401	0.246269	3.5311	0.451389	6.4034	0.715723	10.2031	0.91662	12.2317
0.309919	4.3696	0.120146	1.55598	0.31035	4.3443	0.479752	6.7985	0.590163	8.35893	0.857578	11.3056	0.248263	3.51276	0.452216	6.33145	0.716056	10.1081	0.917037	12.087
0.310705	4.32389	0.121101	1.55921	0.311142	4.29931	0.48052	6.72064	0.590962	8.26123	0.858044	11.1745	0.25026	3.49495	0.453052	6.26148	0.716451	9.99905	0.91746	11.9459
0.311502	4.27949	0.121803	1.56156	0.311944	4.2556	0.481296	6.6449	0.59177	8.16616	0.858455	11.0629	0.252262	3.47765	0.453898	6.19341	0.716909	9.87701	0.917887	11.8082
0.312308	4.23633	0.122253	1.56306	0.312755	4.21312	0.48208	6.57121	0.592587	8.07363	0.858808	10.9696	0.254267	3.46085	0.454753	6.12719	0.717374	9.75815	0.918319	11.6739
0.313123	4.19438	0.1229	1.56521	0.313575	4.17181	0.482874	6.49948	0.593413	7.98355	0.859102	10.8937	0.256276	3.44451	0.455617	6.06272	0.717844	9.64235	0.918756	11.5427
0.313948	4.15359	0.123603	1.56752	0.314405	4.13164	0.483676	6.42964	0.594248	7.89581	0.859337	10.8345	0.258289	3.42862	0.456491	5.99996	0.71832	9.52948	0.919198	11.4146
0.314782	4.11392	0.124561	1.57065	0.315245	4.09256	0.484486	6.36163	0.595091	7.81033	0.85951	10.7914	0.260305	3.41317	0.457373	5.93884	0.718801	9.41944	0.919645	11.2896
0.315626	4.07533	0.125772	1.57456	0.316094	4.05455	0.485306	6.29537	0.595944	7.72703	0.859621	10.764	0.262324	3.39813	0.458266	5.8793	0.719288	9.31213	0.920038	11.1829
0.316479	4.03777	0.127238	1.57923	0.316953	4.01755	0.486133	6.2308	0.596805	7.64583	0.859781	10.7249	0.264346	3.3835	0.459167	5.82128	0.719781	9.20745	0.920377	11.0937
0.317342	4.00122	0.12896	1.58463	0.317821	3.98153	0.486969	6.16786	0.597675	7.56666	0.859956	10.6828	0.266372	3.36924	0.460077	5.76473	0.720279	9.1053	0.920659	11.0211
0.318214	3.96563	0.130938	1.59073	0.318698	3.94646	0.487814	6.1065	0.598554	7.48945	0.860195	10.626	0.268401	3.35536	0.460997	5.7096	0.720783	9.00561	0.920883	10.9644
0.319096	3.93098	0.132918	1.59671	0.319585	3.91231	0.488667	6.04665	0.599441	7.41412	0.860499	10.5551	0.270432	3.34183	0.461925	5.65583	0.721293	8.90828	0.921049	10.9231
0.319987	3.89723	0.1349	1.60258	0.320482	3.87904	0.489528	5.98827	0.600337	7.34061	0.860869	10.4708	0.272466	3.32865	0.462863	5.60339	0.721809	8.81323	0.921155	10.8968
0.320888	3.86435	0.136884	1.60835	0.321388	3.84663	0.490398	5.93131	0.601242	7.26886	0.861307	10.3737	0.274503	3.31579	0.463809	5.55222	0.72233	8.72039	0.921308	10.8593
0.321798	3.83231	0.138871	1.61402	0.322303	3.81504	0.491276	5.87572	0.602155	7.19881	0.861815	10.2646	0.276543	3.30325	0.464764	5.50229	0.722856	8.62968	0.921476	10.8189
0.322718	3.80109	0.140859	1.61959	0.323228	3.78425	0.492161	5.82144	0.603076	7.1304	0.862328	10.158	0.278585	3.29102	0.465729	5.45355	0.723389	8.54104	0.921704	10.7643
0.323648	3.77066	0.142849	1.62506	0.324163	3.75425	0.493056	5.76845	0.604006	7.06359	0.862847	10.0538	0.280629	3.27908	0.466701	5.40596	0.723927	8.45439	0.921995	10.6962
0.324586	3.74099	0.144841	1.63044	0.325107	3.72499	0.493958	5.71669	0.604944	6.99831	0.863371	9.95182	0.282676	3.26742	0.467683	5.35949	0.72447	8.36966	0.922348	10.6151
0.325535	3.71206	0.146834	1.63573	0.32606	3.69645	0.494868	5.66613	0.605891	6.93451	0.8639	9.85212	0.284725	3.25604	0.468674	5.31411	0.725019	8.28681	0.922767	10.5216
0.326493	3.68384	0.148829	1.64092	0.327024	3.66862	0.495786	5.61673	0.606845	6.87216	0.864435	9.75457	0.286776	3.24493	0.469673	5.26976	0.725574	8.20577	0.923252	10.4165
0.32746	3.65632	0.150826	1.64603	0.327997	3.64148	0.496713	5.56844	0.607808	6.8112	0.864975	9.65911	0.28883	3.23407	0.47068	5.22643	0.726134	8.12647	0.923742	10.3136
0.328437	3.62948	0.152825	1.65105	0.328979	3.61499	0.497647	5.52125	0.608779	6.75159	0.86552	9.56568	0.290885	3.22346	0.471696	5.18409	0.7267	8.04888	0.924236	10.2129
0.329424	3.60328	0.154824	1.65599	0.329971	3.58915	0.498589	5.4751	0.609758	6.69329	0.866071	9.47421	0.292943	3.21308	0.472721	5.14269	0.727271	7.97293	0.924736	10.1143
0.330421	3.57772	0.156826	1.66084	0.330973	3.56393	0.499539	5.42998	0.610746	6.63625	0.866627	9.38464	0.295002	3.20294	0.473754	5.10221	0.727848	7.89858	0.92524	10.0177
0.331427	3.55277	0.158828	1.66562	0.331984	3.53931	0.500496	5.38584	0.611741	6.58045	0.867188	9.29692	0.297064	3.19302	0.474796	5.06263	0.728431	7.82578	0.92575	9.92312
0.332443	3.52842	0.160832	1.67031	0.333006	3.51528	0.501462	5.34267	0.612744	6.52583	0.867755	9.211	0.299127	3.18332	0.475846	5.02392	0.729018	7.75448	0.926264	9.83046
0.333468	3.50465	0.162838	1.67493	0.334037	3.49182	0.502435	5.30042	0.613755	6.47238	0.868327	9.12681	0.301192	3.17382	0.476904	4.98605	0.729612	7.68463	0.926783	9.73966
0.334504	3.48145	0.164844	1.67948	0.335078	3.46892	0.503415	5.25907	0.614774	6.42004	0.868904	9.0443	0.303258	3.16453	0.477971	4.94899	0.730211	7.6162	0.927306	9.65067
0.335549	3.45879	0.166852	1.68395	0.336128	3.44655	0.504404	5.2186	0.6158	6.3688	0.869487	8.96344	0.305327	3.15544	0.479046	4.91273	0.730815	7.54915	0.927835	9.56344
0.336604	3.43666	0.168861	1.68835	0.337189	3.42471	0.505399	5.17898	0.616835	6.31861	0.870075	8.88417	0.307396	3.14653	0.480129	4.87723	0.731425	7.48343	0.928369	9.47792
0.33767	3.41505	0.170871	1.69267	0.33826	3.40338	0.506403	5.14019	0.617877	6.26945	0.870668	8.80645	0.309468	3.13781	0.48122	4.84249	0.732041	7.419	0.928907	9.39406
0.338745	3.39394	0.172882	1.69693	0.339341	3.38255	0.507414	5.1022	0.618926	6.22129	0.871266	8.73023	0.31154	3.12926	0.482319	4.80847	0.732662	7.35584	0.92945	9.31181
0.339831	3.37333	0.174894	1.70113	0.340432	3.3622	0.508432	5.06499	0.619984	6.17409	0.87187	8.65547	0.313614	3.12089	0.483427	4.77515	0.733288	7.2939	0.929998	9.23114
0.340926	3.35319	0.176907	1.70525	0.341533	3.34232	0.509457	5.02853	0.621049	6.12784	0.872478	8.58213	0.31569	3.11268	0.484542	4.74252	0.73392	7.23315	0.930551	9.15199
0.342032	3.33352	0.178921	1.70932	0.342645	3.3229	0.51049	4.99281	0.622121	6.08251	0.873092	8.51018	0.317767	3.10464	0.485665	4.71056	0.734557	7.17356	0.931108	9.07432
0.343148	3.31431	0.180936	1.71332	0.343767	3.30393	0.51153	4.95781	0.623201	6.03806	0.873711	8.43957	0.319845	3.09675	0.486797	4.67925	0.7352	7.1151	0.93167	8.9981
0.344275	3.29554	0.182952	1.71725	0.344899	3.2854	0.512578	4.9235	0.624288	5.99449	0.874336	8.37027	0.321924	3.08902	0.487936	4.64857	0.735848	7.05773	0.932237	8.92328
0.345413	3.2772	0.184968	1.72113	0.346043	3.26729	0.513632	4.88987	0.625383	5.95175	0.874965	8.30225	0.324005	3.08144	0.489083	4.6185	0.736501	7.00143	0.932809	8.84983
0.34656	3.25928	0.186986	1.72495	0.347196	3.2496	0.514694	4.85689	0.626485	5.90983	0.8756	8.23547	0.326086	3.07399	0.490238	4.58903	0.73716	6.94618	0.933386	8.77771
0.347719	3.24177	0.189004	1.72871	0.348361	3.23231	0.515763	4.82456	0.627594	5.86872	0.87624	8.16989	0.328169	3.06669	0.4914	4.56014	0.737825	6.89193	0.933967	8.70689
0.348889	3.22466	0.191023	1.73242	0.349537	3.21542	0.516839	4.79285	0.62871	5.82838	0.876885	8.10549	0.330253	3.05953	0.492571	4.53182	0.738494	6.83867	0.934553	8.63733
0.35007	3.20795	0.193043	1.73607	0.350724	3.19892	0.517921	4.76175	0.629834	5.78879	0.877535	8.04224	0.332338	3.05249	0.493748	4.50405	0.739169	6.78637	0.935144	8.569
0.351262	3.19162	0.195064	1.73966	0.351922	3.1828	0.519011	4.73125	0.630964	5.74995	0.878191	7.98011	0.334423	3.04559	0.494934	4.47682	0.73985	6.73501	0.935739	8.50187
0.352465	3.17567	0.197085	1.7432	0.353131	3.16706	0.520108	4.70131	0.632102	5.71182	0.878851	7.91907	0.33651	3.03881	0.496127	4.45011	0.740536	6.68455	0.936339	8.43592
0.353679	3.16009	0.199107	1.74669	0.354352	3.15167	0.521211	4.67194	0.633247	5.67439	0.879517	7.85909	0.338597	3.03215	0.497328	4.4239	0.741227	6.63499	0.936944	8.3711
0.354906	3.14487	0.201129	1.75013	0.355585	3.13665	0.522322	4.64312	0.634398	5.63764	0.880187	7.80014	0.340686	3.02561	0.498536	4.3982	0.741923	6.5863	0.937554	8.30739
0.356144	3.13	0.203152	1.75352	0.35683	3.12197	0.523439	4.61483	0.635557	5.60156	0.880863	7.74221	0.342775	3.01918	0.499752	4.37298	0.742625	6.53845	0.938168	8.24477
0.357394	3.11547	0.205176	1.75685	0.358087	3.10763	0.524563	4.58706	0.636722	5.56613	0.881544	7.68526	0.344865	3.01286	0.500975	4.34823	0.743332	6.49142	0.938787	8.18321
0.358656	3.10129	0.2072	1.76015	0.359356	3.09363	0.525694	4.5598	0.637895	5.53132	0.88223	7.62927	0.346956	3.00665	0.502205	4.32395	0.744044	6.4452	0.939411	8.12267
0.359931	3.08744	0.209225	1.76339	0.360637	3.07996	0.526831	4.53303	0.639074	5.49714	0.882921	7.57422	0.349047	3.00055	0.503443	4.30011	0.744762	6.39977	0.940039	8.06315
0.361218	3.07391	0.21125	1.76659	0.361932	3.06661	0.527975	4.50674	0.64026	5.46355	0.883617	7.52008	0.351139	2.99455	0.504688	4.27671	0.745485	6.3551	0.940672	8.00461
0.362519	3.06071	0.213276	1.76974	0.363239	3.05359	0.529125	4.48092	0.641452	5.43055	0.884318	7.46684	0.353232	2.98865	0.50594	4.25373	0.746213	6.31118	0.941309	7.94703
0.363832	3.04782	0.215302	1.77284	0.36456	3.04087	0.530282	4.45557	0.642651	5.39812	0.885025	7.41448	0.355325	2.98285	0.507199	4.23118	0.746946	6.26799	0.941951	7.89039
0.365158	3.03525	0.217329	1.77591	0.365894	3.02846	0.531445	4.43066	0.643857	5.36626	0.885736	7.36296	0.357419	2.97714	0.508466	4.20903	0.747685	6.22552	0.942598	7.83466
0.366499	3.02298	0.219356	1.77893	0.367241	3.01636	0.532615	4.40618	0.645069	5.33493	0.886452	7.31228	0.359514	2.97153	0.50974	4.18728	0.748429	6.18374	0.94325	7.77983
0.367853	3.01101	0.221383	1.78191	0.368603	3.00455	0.533791	4.38214	0.646288	5.30414	0.887173	7.26242	0.361609	2.966	0.511021	4.16592	0.749178	6.14264	0.943906	7.72587
0.369221	2.99933	0.223411	1.78485	0.369979	2.99303	0.534974	4.35851	0.647513	5.27387	0.887899	7.21335	0.363704	2.96057	0.512308	4.14493	0.749933	6.10221	0.944566	7.67276
0.370603	2.98795	0.22544	1.78774	0.37137	2.98181	0.536162	4.33529	0.648745	5.24411	0.888631	7.16505	0.3658	2.95522	0.513603	4.12432	0.750692	6.06243	0.945232	7.62049
0.372	2.97685	0.227468	1.7906	0.372775	2.97087	0.537357	4.31246	0.649983	5.21484	0.889367	7.11752	0.367896	2.94995	0.514905	4.10407	0.751457	6.02329	0.945902	7.56904
0.373413	2.96604	0.229497	1.79342	0.374196	2.96021	0.538559	4.29002	0.651227	5.18606	0.890108	7.07073	0.369993	2.94476	0.516214	4.08417	0.752227	5.98477	0.946576	7.51838
0.37484	2.9555	0.231526	1.7962	0.375632	2.94983	0.539766	4.26797	0.652478	5.15775	0.890854	7.02467	0.37209	2.93965	0.517529	4.06462	0.753002	5.94685	0.947255	7.46851
0.376283	2.94525	0.233556	1.79894	0.377084	2.93972	0.54098	4.24628	0.653734	5.1299	0.891605	6.97931	0.374188	2.93462	0.518852	4.0454	0.753782	5.90953	0.947938	7.4194
0.377742	2.93526	0.235586	1.80165	0.378551	2.92988	0.542199	4.22496	0.654997	5.10251	0.892361	6.93466	0.376285	2.92967	0.520181	4.02652	0.754567	5.87279	0.948626	7.37103
0.379217	2.92554	0.237616	1.80432	0.380036	2.92031	0.543425	4.20399	0.656266	5.07555	0.893122	6.89068	0.378384	2.92479	0.521517	4.00795	0.755358	5.83662	0.949319	7.32339
0.380709	2.91609	0.239646	1.80695	0.381537	2.91101	0.544657	4.18336	0.657542	5.04903	0.893887	6.84737	0.380482	2.91998	0.52286	3.98971	0.756153	5.801	0.950016	7.27647
0.382218	2.9069	0.241677	1.80955	0.383055	2.90196	0.545894	4.16308	0.658823	5.02294	0.894658	6.8047	0.38258	2.91524	0.524209	3.97177	0.756954	5.76593	0.950718	7.23025
0.383744	2.89797	0.243708	1.81211	0.38459	2.89317	0.547138	4.14312	0.66011	4.99725	0.895434	6.76268	0.384679	2.91056	0.525565	3.95413	0.75776	5.7314	0.951424	7.18471
0.385287	2.8893	0.245739	1.81465	0.386144	2.88464	0.548387	4.12349	0.661403	4.97197	0.896214	6.72128	0.386778	2.90596	0.526928	3.93679	0.758571	5.69738	0.952135	7.13985
0.386848	2.88088	0.24777	1.81714	0.387715	2.87635	0.549643	4.10418	0.662702	4.94709	0.896999	6.68049	0.388877	2.90142	0.528298	3.91973	0.759387	5.66388	0.95285	7.09563
0.388428	2.87271	0.249802	1.81961	0.389304	2.86832	0.550904	4.08517	0.664007	4.9226	0.897789	6.6403	0.390976	2.89695	0.529673	3.90296	0.760208	5.63087	0.953569	7.05206
0.390025	2.86478	0.251834	1.82204	0.390912	2.86053	0.55217	4.06647	0.665318	4.89848	0.898584	6.60069	0.393076	2.89253	0.531056	3.88646	0.761034	5.59836	0.954293	7.00912
0.391642	2.8571	0.253866	1.82445	0.392539	2.85298	0.553443	4.04807	0.666635	4.87473	0.899384	6.56166	0.395175	2.88818	0.532445	3.87024	0.761865	5.56632	0.955022	6.9668
0.393277	2.84966	0.255898	1.82682	0.394184	2.84567	0.554721	4.02995	0.667957	4.85135	0.900189	6.52319	0.397274	2.88389	0.53384	3.85428	0.762702	5.53475	0.955755	6.92508
0.394931	2.84246	0.25793	1.82916	0.395849	2.8386	0.556005	4.01212	0.669285	4.82832	0.900998	6.48527	0.399374	2.87965	0.535241	3.83858	0.763543	5.50365	0.956492	6.88395
0.396605	2.83549	0.259962	1.83147	0.397533	2.83176	0.557294	3.99457	0.670618	4.80564	0.901812	6.44789	0.401473	2.87547	0.536649	3.82313	0.764389	5.47299	0.957234	6.8434
0.398298	2.82875	0.261994	1.83375	0.399237	2.82514	0.558589	3.97729	0.671958	4.7833	0.902631	6.41104	0.403573	2.87135	0.538064	3.80793	0.76524	5.44278	0.95798	6.80342
0.40001	2.82224	0.264027	1.836	0.40096	2.81875	0.55989	3.96028	0.673302	4.7613	0.903455	6.3747	0.405672	2.86728	0.539484	3.79297	0.766097	5.413	0.958731	6.764
0.401742	2.81595	0.26606	1.83823	0.402703	2.81259	0.561196	3.94353	0.674653	4.73962	0.904284	6.33888	0.407772	2.86326	0.540911	3.77826	0.766958	5.38364	0.959486	6.72512
0.403494	2.80988	0.268092	1.84043	0.404466	2.80663	0.562507	3.92704	0.676009	4.71826	0.905117	6.30355	0.409871	2.8593	0.542344	3.76377	0.767824	5.3547	0.960245	6.68677
0.405266	2.80402	0.270125	1.8426	0.406249	2.80089	0.563824	3.91079	0.67737	4.69722	0.905955	6.26871	0.41197	2.85538	0.543784	3.74952	0.768695	5.32617	0.961009	6.64895
0.407057	2.79838	0.272158	1.84474	0.408051	2.79536	0.565146	3.89479	0.678737	4.67648	0.906798	6.23435	0.414069	2.85152	0.545229	3.73549	0.769571	5.29804	0.961778	6.61165
0.408868	2.79294	0.274191	1.84686	0.409872	2.79004	0.566474	3.87903	0.680109	4.65605	0.907645	6.20046	0.416168	2.8477	0.546681	3.72168	0.770452	5.2703	0.96255	6.57485
0.410699	2.7877	0.276224	1.84895	0.411714	2.78491	0.567806	3.86351	0.681486	4.63591	0.908497	6.16703	0.418267	2.84393	0.548139	3.70808	0.771338	5.24295	0.963327	6.53854
0.412549	2.78266	0.278257	1.85101	0.413574	2.77997	0.569144	3.84822	0.682869	4.61605	0.909354	6.13405	0.420366	2.84021	0.549602	3.6947	0.772229	5.21597	0.964108	6.50273
0.414418	2.77781	0.28029	1.85305	0.415454	2.77522	0.570488	3.83315	0.684256	4.59649	0.910216	6.10151	0.422464	2.83653	0.551072	3.68152	0.773125	5.18936	0.964894	6.46738
0.416306	2.77315	0.282323	1.85507	0.417352	2.77066	0.571836	3.81831	0.685649	4.5772	0.911082	6.06942	0.424562	2.8329	0.552548	3.66854	0.774025	5.16312	0.965684	6.43251
0.418213	2.76867	0.284356	1.85706	0.419269	2.76628	0.57319	3.80369	0.687048	4.55818	0.911953	6.03774	0.42666	2.82931	0.55403	3.65577	0.774931	5.13723	0.966478	6.39809
0.420138	2.76436	0.28639	1.85902	0.421204	2.76207	0.574548	3.78927	0.688451	4.53943	0.912828	6.00649	0.428758	2.82576	0.555517	3.64319	0.775841	5.11169	0.967276	6.36412
0.422081	2.76023	0.288423	1.86097	0.423158	2.75803	0.575912	3.77507	0.689859	4.52094	0.913708	5.97564	0.430856	2.82225	0.557011	3.6308	0.776756	5.0865	0.968079	6.3306
0.424042	2.75626	0.290456	1.86289	0.425128	2.75415	0.577281	3.76107	0.691273	4.50272	0.914593	5.94521	0.432953	2.81879	0.55851	3.61859	0.777676	5.06164	0.968886	6.29751
0.426021	2.75245	0.292489	1.86478	0.427116	2.75042	0.578654	3.74728	0.692691	4.48474	0.915482	5.91516	0.435049	2.81536	0.560015	3.60657	0.778601	5.03712	0.969698	6.26484
0.428016	2.7488	0.294522	1.86666	0.42912	2.74685	0.580033	3.73368	0.694115	4.46701	0.916376	5.88551	0.437146	2.81197	0.561527	3.59474	0.779531	5.01291	0.970513	6.2326
0.430028	2.74529	0.296555	1.86851	0.431141	2.74342	0.581416	3.72027	0.695543	4.44952	0.917275	5.85624	0.439242	2.80862	0.563043	3.58308	0.780465	4.98903	0.971333	6.20076
0.432056	2.74193	0.298589	1.87034	0.433178	2.74014	0.582805	3.70706	0.696976	4.43227	0.918178	5.82734	0.441338	2.80531	0.564566	3.57159	0.781404	4.96546	0.972157	6.16933
0.434099	2.7387	0.300622	1.87215	0.43523	2.73699	0.584198	3.69403	0.698414	4.41526	0.919086	5.79881	0.443433	2.80204	0.566094	3.56027	0.782348	4.9422	0.972986	6.13829
0.436158	2.73561	0.302655	1.87394	0.437296	2.73397	0.585596	3.68118	0.699857	4.39847	0.919998	5.77065	0.445528	2.7988	0.567628	3.54912	0.783297	4.91924	0.973818	6.10764
0.438231	2.73265	0.304688	1.8757	0.439378	2.73107	0.586999	3.66851	0.701305	4.38191	0.920915	5.74283	0.447623	2.79559	0.569168	3.53814	0.784251	4.89658	0.974655	6.07738
0.440319	2.7298	0.306721	1.87745	0.441473	2.72829	0.588407	3.65602	0.702757	4.36557	0.921836	5.71537	0.449717	2.79242	0.570713	3.52731	0.785209	4.87421	0.975496	6.04749
0.44242	2.72708	0.308754	1.87918	0.443581	2.72563	0.589819	3.6437	0.704214	4.34945	0.922762	5.68826	0.45181	2.78928	0.572264	3.51665	0.786172	4.85212	0.976341	6.01797
0.444534	2.72446	0.310786	1.88088	0.445702	2.72307	0.591236	3.63156	0.705676	4.33354	0.923693	5.66148	0.453903	2.78618	0.57382	3.50614	0.78714	4.83032	0.97719	5.98881
0.446661	2.72195	0.312819	1.88257	0.447836	2.72062	0.592658	3.61958	0.707143	4.31784	0.924628	5.63503	0.455996	2.78311	0.575382	3.49578	0.788112	4.8088	0.978044	5.96001
0.4488	2.71955	0.314852	1.88424	0.449981	2.71827	0.594084	3.60776	0.708614	4.30235	0.925567	5.6089	0.458088	2.78007	0.576949	3.48557	0.789089	4.78754	0.978901	5.93156
0.450951	2.71724	0.316884	1.88589	0.452138	2.71601	0.595515	3.5961	0.710089	4.28706	0.926511	5.5831	0.46018	2.77706	0.578522	3.47551	0.790071	4.76655	0.979763	5.90345
0.453113	2.71503	0.318917	1.88752	0.454306	2.71385	0.596951	3.5846	0.711569	4.27196	0.927459	5.55761	0.462271	2.77408	0.580101	3.4656	0.791058	4.74583	0.980629	5.87569
0.455286	2.7129	0.320949	1.88913	0.456485	2.71177	0.598391	3.57326	0.713054	4.25706	0.928412	5.53244	0.464361	2.77113	0.581684	3.45582	0.792049	4.72536	0.981499	5.84825
0.457469	2.71086	0.322982	1.89072	0.458674	2.70977	0.599835	3.56206	0.714543	4.24235	0.929369	5.50756	0.466451	2.76821	0.583273	3.44619	0.793044	4.70515	0.982373	5.82114
0.459662	2.7089	0.325014	1.8923	0.460872	2.70786	0.601284	3.55102	0.716036	4.22783	0.930331	5.48299	0.46854	2.76532	0.584868	3.43669	0.794045	4.68519	0.983251	5.79436
0.461864	2.70702	0.327046	1.89386	0.46308	2.70601	0.602737	3.54012	0.717534	4.2135	0.931297	5.45871	0.470629	2.76246	0.586468	3.42733	0.79505	4.66547	0.984134	5.76789
0.464076	2.70521	0.329078	1.8954	0.465296	2.70424	0.604195	3.52937	0.719036	4.19934	0.932267	5.43472	0.472717	2.75962	0.588073	3.4181	0.79606	4.64599	0.98502	5.74173
0.466296	2.70347	0.33111	1.89692	0.467521	2.70254	0.605657	3.51876	0.720542	4.18537	0.933242	5.41101	0.474805	2.75682	0.589683	3.409	0.797074	4.62675	0.985911	5.71588
0.468525	2.70179	0.333142	1.89843	0.469754	2.7009	0.607124	3.50829	0.722053	4.17157	0.934222	5.38758	0.476892	2.75403	0.591299	3.40002	0.798093	4.60775	0.986805	5.69033
0.470762	2.70019	0.335173	1.89992	0.471995	2.69933	0.608594	3.49796	0.723568	4.15794	0.935205	5.36443	0.478978	2.75128	0.592919	3.39118	0.799116	4.58897	0.987704	5.66507
0.473006	2.69864	0.337205	1.90139	0.474243	2.69781	0.610069	3.48776	0.725087	4.14448	0.936193	5.34155	0.481063	2.74855	0.594546	3.38245	0.800144	4.57042	0.988606	5.64011
0.475257	2.69714	0.339236	1.90285	0.476499	2.69635	0.611548	3.47769	0.72661	4.13119	0.937186	5.31894	0.483148	2.74584	0.596177	3.37385	0.801177	4.5521	0.989513	5.61544
0.477516	2.69571	0.341267	1.90429	0.478761	2.69494	0.613032	3.46775	0.728138	4.11805	0.938182	5.29659	0.485232	2.74316	0.597813	3.36536	0.802214	4.53399	0.990424	5.59104
0.479781	2.69432	0.343299	1.90572	0.481029	2.69358	0.614519	3.45794	0.729669	4.10509	0.939183	5.2745	0.487315	2.74051	0.599454	3.357	0.803256	4.51609	0.991338	5.56693
0.482052	2.69299	0.345329	1.90713	0.483304	2.69227	0.616011	3.44826	0.731205	4.09227	0.940189	5.25266	0.489398	2.73787	0.601101	3.34874	0.804302	4.49841	0.992257	5.54308
0.48433	2.6917	0.34736	1.90852	0.485585	2.69101	0.617507	3.4387	0.732745	4.07962	0.941198	5.23107	0.49148	2.73526	0.602752	3.34061	0.805353	4.48094	0.99318	5.51951
0.486613	2.69046	0.349391	1.9099	0.487871	2.68979	0.619007	3.42926	0.734288	4.06712	0.942212	5.20973	0.493561	2.73267	0.604409	3.33258	0.806408	4.46367	0.994106	5.4962
0.488902	2.68926	0.351422	1.91127	0.490163	2.68862	0.620511	3.41994	0.735836	4.05476	0.94323	5.18863	0.495641	2.73011	0.606071	3.32466	0.807467	4.4466	0.995037	5.47315
0.491196	2.6881	0.353452	1.91262	0.492459	2.68748	0.622019	3.41073	0.737387	4.04256	0.944253	5.16777	0.497721	2.72757	0.607737	3.31685	0.808531	4.42974	0.995971	5.45036
0.493495	2.68698	0.355482	1.91396	0.494761	2.68638	0.623531	3.40165	0.738943	4.0305	0.94528	5.14714	0.4998	2.72505	0.609409	3.30915	0.8096	4.41306	0.99691	5.42782
0.495798	2.6859	0.357512	1.91528	0.497067	2.68532	0.625047	3.39267	0.740502	4.01858	0.946311	5.12675	0.501878	2.72254	0.611085	3.30155	0.810673	4.39658	0.997852	5.40553
0.498107	2.68486	0.359542	1.91659	0.499378	2.6843	0.626567	3.38381	0.742065	4.00681	0.947346	5.10658	0.503955	2.72006	0.612766	3.29405	0.811751	4.38029	0.998799	5.38349
0.50042	2.68384	0.361572	1.91788	0.501693	2.6833	0.62809	3.37506	0.743632	3.99517	0.948386	5.08664	0.506031	2.71761	0.614453	3.28665	0.812833	4.36419	0.999749	5.36169
0.502736	2.68286	0.363601	1.91916	0.504013	2.68234	0.629618	3.36641	0.745203	3.98367	0.949429	5.06692	0.508107	2.71517	0.616144	3.27935	0.813919	4.34827	1.0007	5.34012
0.505057	2.68192	0.365631	1.92043	0.506336	2.68141	0.63115	3.35788	0.746778	3.9723	0.950477	5.04741	0.510181	2.71275	0.617839	3.27215	0.81501	4.33253		
0.507382	2.681	0.36766	1.92168	0.508662	2.6805	0.632685	3.34944	0.748356	3.96107	0.951529	5.02812	0.512255	2.71035	0.61954	3.26505	0.816105	4.31698		
0.509711	2.68011	0.369689	1.92293	0.510993	2.67963	0.634225	3.34111	0.749938	3.94996	0.952585	5.00904	0.514328	2.70796	0.621245	3.25804	0.817204	4.30159		
0.512043	2.67924	0.371718	1.92415	0.513326	2.67878	0.635768	3.33288	0.751524	3.93898	0.953646	4.99017	0.5164	2.7056	0.622956	3.25112	0.818308	4.28638		
0.514378	2.6784	0.373746	1.92537	0.515663	2.67795	0.637314	3.32475	0.753113	3.92813	0.95471	4.9715	0.518471	2.70326	0.62467	3.2443	0.819416	4.27134		
0.516716	2.67759	0.375775	1.92657	0.518004	2.67715	0.638865	3.31672	0.754706	3.9174	0.955779	4.95304	0.520541	2.70093	0.62639	3.23756	0.820529	4.25647		
0.519058	2.6768	0.377803	1.92776	0.520347	2.67637	0.640419	3.30879	0.756302	3.90679	0.956852	4.93477	0.522611	2.69862	0.628114	3.23092	0.821646	4.24176		
0.521402	2.67603	0.379831	1.92894	0.522693	2.67562	0.641977	3.30095	0.757902	3.89631	0.957929	4.9167	0.524679	2.69633	0.629843	3.22436	0.822767	4.22722		
0.523749	2.67528	0.381859	1.93011	0.525041	2.67488	0.643539	3.2932	0.759506	3.88594	0.95901	4.89882	0.526746	2.69406	0.631576	3.21788	0.823893	4.21283		
0.526099	2.67456	0.383887	1.93126	0.527393	2.67417	0.645104	3.28554	0.761113	3.87568	0.960095	4.88114	0.528813	2.6918	0.633314	3.21149	0.825023	4.19861		
0.528451	2.67385	0.385914	1.9324	0.529746	2.67347	0.646673	3.27798	0.762723	3.86555	0.961185	4.86364	0.530878	2.68956	0.635057	3.20518	0.826157	4.18454		
0.530806	2.67317	0.387941	1.93353	0.532102	2.6728	0.648246	3.2705	0.764337	3.85552	0.962278	4.84632	0.532943	2.68733	0.636804	3.19896	0.827295	4.17062		
0.533163	2.6725	0.389968	1.93465	0.534461	2.67214	0.649822	3.26312	0.765955	3.8456	0.963375	4.82919	0.535007	2.68512	0.638556	3.19282	0.828438	4.15686		
0.535523	2.67185	0.391995	1.93576	0.536821	2.6715	0.651401	3.25582	0.767575	3.8358	0.964477	4.81224	0.537069	2.68293	0.640312	3.18675	0.829585	4.14325		
0.537884	2.67121	0.394022	1.93686	0.539184	2.67087	0.652984	3.2486	0.769199	3.8261	0.965583	4.79546	0.539131	2.68075	0.642072	3.18076	0.830736	4.12978		
0.540248	2.67059	0.396048	1.93794	0.541548	2.67026	0.654571	3.24147	0.770826	3.81651	0.966692	4.77886	0.541192	2.67859	0.643837	3.17485	0.831891	4.11646		
0.542613	2.66999	0.398074	1.93902	0.543915	2.66966	0.656161	3.23442	0.772457	3.80702	0.967806	4.76243	0.543251	2.67644	0.645607	3.16902	0.833051	4.10328		
0.544981	2.6694	0.4001	1.94008	0.546283	2.66908	0.657755	3.22746	0.774091	3.79763	0.968923	4.74617	0.54531	2.67431	0.64738	3.16326	0.834215	4.09024		
0.54735	2.66882	0.402126	1.94113	0.548653	2.66851	0.659352	3.22057	0.775728	3.78835	0.970045	4.73007	0.547368	2.67219	0.649158	3.15757	0.835383	4.07734		
0.549721	2.66826	0.404152	1.94218	0.551025	2.66796	0.660952	3.21376	0.777368	3.77916	0.971171	4.71415	0.549425	2.67009	0.650941	3.15196	0.836555	4.06458		
0.552093	2.66771	0.406177	1.94321	0.553398	2.66742	0.662556	3.20703	0.779012	3.77008	0.9723	4.69838	0.55148	2.668	0.652727	3.14641	0.837732	4.05195		
0.554467	2.66718	0.408202	1.94423	0.555773	2.66689	0.664163	3.20038	0.780659	3.76109	0.973434	4.68278	0.553535	2.66592	0.654518	3.14094	0.838912	4.03946		
0.556842	2.66665	0.410227	1.94524	0.558149	2.66637	0.665774	3.1938	0.782308	3.75219	0.974571	4.66733	0.555589	2.66386	0.656314	3.13554	0.840097	4.0271		
0.559219	2.66614	0.412252	1.94625	0.560527	2.66586	0.667388	3.1873	0.783961	3.74339	0.975713	4.65204	0.557641	2.66181	0.658113	3.1302	0.841286	4.01486		
0.561598	2.66564	0.414276	1.94724	0.562906	2.66537	0.669005	3.18087	0.785617	3.73469	0.976858	4.6369	0.559693	2.65977	0.659917	3.12493	0.842479	4.00276		
0.563977	2.66515	0.4163	1.94822	0.565286	2.66488	0.670626	3.17451	0.787276	3.72607	0.978008	4.62192	0.561743	2.65775	0.661724	3.11973	0.843676	3.99078		
0.566358	2.66467	0.418324	1.94919	0.567668	2.6644	0.672249	3.16822	0.788938	3.71754	0.979161	4.60708	0.563793	2.65574	0.663536	3.11459	0.844877	3.97893		
0.56874	2.66419	0.420348	1.95016	0.57005	2.66394	0.673876	3.16201	0.790604	3.70911	0.980318	4.59239	0.565841	2.65374	0.665352	3.10951	0.846083	3.9672		
0.571123	2.66373	0.422372	1.95111	0.572434	2.66348	0.675507	3.15586	0.792272	3.70076	0.981479	4.57785	0.567889	2.65176	0.667172	3.1045	0.847292	3.95559		
0.573507	2.66328	0.424395	1.95206	0.574819	2.66303	0.67714	3.14978	0.793943	3.69249	0.982644	4.56346	0.569935	2.64978	0.668997	3.09955	0.848506	3.9441		
0.575892	2.66283	0.426418	1.95299	0.577205	2.66259	0.678777	3.14377	0.795616	3.68431	0.983813	4.5492	0.57198	2.64782	0.670825	3.09467	0.849723	3.93273		
0.578278	2.6624	0.428441	1.95392	0.579591	2.66216	0.680417	3.13782	0.797293	3.67622	0.984986	4.53508	0.574024	2.64587	0.672657	3.08984	0.850945	3.92147		
0.580666	2.66197	0.430463	1.95484	0.581979	2.66174	0.68206	3.13194	0.798973	3.6682	0.986162	4.52111	0.576068	2.64394	0.674493	3.08507	0.852171	3.91033		
0.583053	2.66155	0.432486	1.95575	0.584367	2.66132	0.683706	3.12613	0.800655	3.66027	0.987343	4.50727	0.57811	2.64201	0.676333	3.08036	0.8534	3.8993		
0.585442	2.66113	0.434508	1.95665	0.586756	2.66091	0.685355	3.12038	0.802341	3.65242	0.988527	4.49356	0.580151	2.6401	0.678178	3.07571	0.854634	3.88839		
0.587832	2.66073	0.43653	1.95754	0.589146	2.66051	0.687008	3.11469	0.804029	3.64464	0.989715	4.47999	0.582191	2.6382	0.680026	3.07111	0.855872	3.87758		
0.590222	2.66033	0.438551	1.95842	0.591537	2.66011	0.688663	3.10906	0.80572	3.63695	0.990907	4.46655	0.58423	2.63631	0.681877	3.06657	0.857114	3.86689		
0.592613	2.65993	0.440573	1.9593	0.593928	2.65972	0.690322	3.10349	0.807414	3.62933	0.992102	4.45323	0.586267	2.63443	0.683733	3.06209	0.85836	3.8563		
0.595005	2.65955	0.442594	1.96016	0.596321	2.65934	0.691984	3.09799	0.80911	3.62179	0.993302	4.44005	0.588304	2.63256	0.685593	3.05765	0.859609	3.84581		
0.597397	2.65917	0.444615	1.96102	0.598713	2.65896	0.693648	3.09254	0.810809	3.61432	0.994505	4.42699	0.59034	2.6307	0.687456	3.05328	0.860863	3.83543		
0.59979	2.65879	0.446635	1.96187	0.601106	2.65859	0.695316	3.08715	0.812511	3.60693	0.995712	4.41406	0.592374	2.62885	0.689323	3.04895	0.862121	3.82516		
0.602184	2.65842	0.448656	1.96271	0.6035	2.65822	0.696987	3.08182	0.814216	3.59961	0.996923	4.40124	0.594408	2.62701	0.691194	3.04468	0.863382	3.81499		
0.604578	2.65806	0.450676	1.96355	0.605894	2.65786	0.698661	3.07655	0.815923	3.59236	0.998137	4.38855	0.59644	2.62519	0.693068	3.04046	0.864648	3.80492		
0.606972	2.6577	0.452696	1.96438	0.608289	2.6575	0.700337	3.07133	0.817633	3.58518	0.999355	4.37599	0.598472	2.62337	0.694947	3.03629	0.865918	3.79494		
0.609367	2.65734	0.454715	1.96519	0.610684	2.65715	0.702017	3.06617	0.819345	3.57807	1.00058	4.36353	0.600502	2.62156	0.696828	3.03217	0.867191	3.78507		
0.611762	2.657	0.456735	1.966	0.61308	2.65681	0.7037	3.06106	0.82106	3.57103			0.602531	2.61977	0.698714	3.0281	0.868468	3.77529		
0.614158	2.65665	0.458754	1.96681	0.615476	2.65646	0.705385	3.05601	0.822777	3.56406			0.60456	2.61798	0.700603	3.02407	0.86975	3.76561		
0.616554	2.65631	0.460773	1.9676	0.617872	2.65612	0.707074	3.05101	0.824497	3.55715			0.606587	2.6162	0.702496	3.0201	0.871035	3.75602		
0.618951	2.65597	0.462791	1.96839	0.620269	2.65579	0.708766	3.04607	0.82622	3.55031			0.608613	2.61443	0.704392	3.01617	0.872324	3.74653		
0.621348	2.65564	0.46481	1.96917	0.622666	2.65546	0.71046	3.04117	0.827945	3.54354			0.610638	2.61268	0.706292	3.01229	0.873617	3.73713		
0.623745	2.65531	0.466828	1.96995	0.625063	2.65513	0.712157	3.03633	0.829672	3.53683			0.612662	2.61093	0.708195	3.00845	0.874914	3.72782		
0.626142	2.65499	0.468846	1.97072	0.62746	2.65481	0.713858	3.03153	0.831402	3.53018			0.614685	2.60919	0.710102	3.00466	0.876214	3.7186		
0.628539	2.65467	0.470863	1.97148	0.629858	2.65449	0.715561	3.02679	0.833135	3.5236			0.616707	2.60746	0.712012	3.00091	0.877519	3.70947		
0.630937	2.65435	0.472881	1.97223	0.632256	2.65417	0.717267	3.0221	0.834869	3.51707			0.618727	2.60574	0.713925	2.9972	0.878827	3.70042		
0.633335	2.65403	0.474898	1.97297	0.634654	2.65386	0.718976	3.01745	0.836607	3.51061			0.620747	2.60403	0.715842	2.99354	0.880139	3.69147		
0.635733	2.65372	0.476915	1.97371	0.637052	2.65355	0.720687	3.01285	0.838346	3.50421			0.622766	2.60232	0.717762	2.98992	0.881455	3.6826		
0.638131	2.65341	0.478931	1.97445	0.63945	2.65324	0.722402	3.0083	0.840088	3.49787			0.624784	2.60063	0.719686	2.98634	0.882775	3.67381		
0.640529	2.6531	0.480947	1.97517	0.641848	2.65294	0.724119	3.0038	0.841832	3.49159			0.6268	2.59895	0.721613	2.98281	0.884098	3.66511		
0.642927	2.6528	0.482963	1.97589	0.644246	2.65263	0.725839	2.99934	0.843578	3.48536			0.628816	2.59727	0.723543	2.97931	0.885426	3.65649		
0.645325	2.6525	0.484979	1.9766	0.646644	2.65233	0.727562	2.99493	0.845327	3.47919			0.63083	2.5956	0.725476	2.97586	0.886757	3.64795		
0.647724	2.6522	0.486995	1.97731	0.649043	2.65203	0.729288	2.99057	0.847078	3.47308			0.632844	2.59394	0.727413	2.97244	0.888092	3.63949		
0.650122	2.6519	0.48901	1.97801	0.651441	2.65174	0.731017	2.98625	0.848831	3.46703			0.634857	2.59229	0.729352	2.96906	0.88943	3.63111		
0.65252	2.65161	0.491025	1.9787	0.653839	2.65144	0.732748	2.98197	0.850587	3.46103			0.636868	2.59065	0.731295	2.96572	0.890773	3.62281		
0.654918	2.65131	0.49304	1.97939	0.656237	2.65115	0.734482	2.97774	0.852344	3.45508			0.638879	2.58902	0.733241	2.96242	0.892119	3.61459		
0.657316	2.65102	0.495054	1.98007	0.658635	2.65086	0.736219	2.97355	0.854104	3.44919			0.640888	2.58739	0.73519	2.95916	0.893469	3.60644		
0.659714	2.65073	0.497068	1.98075	0.661033	2.65057	0.737959	2.9694	0.855866	3.44335			0.642897	2.58577	0.737142	2.95593	0.894822	3.59838		
0.662112	2.65044	0.499082	1.98142	0.66343	2.65029	0.739702	2.9653	0.85763	3.43756			0.644904	2.58416	0.739097	2.95274	0.89618	3.59038		
0.664509	2.65016	0.501096	1.98208	0.665828	2.65	0.741447	2.96123	0.859396	3.43182			0.646911	2.58256	0.741056	2.94958	0.897541	3.58246		
0.666907	2.64987	0.503109	1.98274	0.668225	2.64972	0.743195	2.95721	0.861164	3.42614			0.648916	2.58097	0.743017	2.94646	0.898905	3.57462		
0.669304	2.64959	0.505123	1.98339	0.670622	2.64943	0.744946	2.95323	0.862935	3.4205			0.650921	2.57939	0.744981	2.94337	0.900274	3.56684		
0.671701	2.64931	0.507135	1.98403	0.673019	2.64915	0.746699	2.94929	0.864707	3.41491			0.652925	2.57781	0.746948	2.94032	0.901646	3.55914		
0.674097	2.64902	0.509148	1.98467	0.675415	2.64887	0.748456	2.94538	0.866482	3.40938			0.654928	2.57624	0.748917	2.9373	0.903021	3.55151		
0.676494	2.64874	0.51116	1.98531	0.677811	2.64859	0.750215	2.94152	0.868258	3.40389			0.656929	2.57468	0.75089	2.93432	0.904401	3.54395		
0.678889	2.64846	0.513173	1.98593	0.680207	2.64831	0.751976	2.9377	0.870037	3.39845			0.65893	2.57312	0.752866	2.93137	0.905784	3.53646		
0.681285	2.64818	0.515184	1.98656	0.682603	2.64803	0.753741	2.93391	0.871817	3.39305			0.66093	2.57158	0.754844	2.92845	0.90717	3.52903		
0.68368	2.6479	0.517196	1.98717	0.684998	2.64775	0.755508	2.93017	0.8736	3.38771			0.662929	2.57004	0.756825	2.92556	0.908561	3.52168		
0.686075	2.64763	0.519207	1.98779	0.687392	2.64747	0.757278	2.92646	0.875384	3.38241			0.664927	2.56851	0.758809	2.9227	0.909955	3.51439		
0.68847	2.64735	0.521218	1.98839	0.689787	2.6472	0.759051	2.92278	0.87717	3.37715			0.666924	2.56698	0.760795	2.91987	0.911352	3.50717		
0.690864	2.64707	0.523229	1.98899	0.69218	2.64692	0.760827	2.91915	0.878959	3.37194			0.66892	2.56547	0.762785	2.91708	0.912753	3.50001		
0.693257	2.64679	0.525239	1.98959	0.694574	2.64664	0.762605	2.91555	0.880749	3.36677			0.670916	2.56396	0.764776	2.91431	0.914158	3.49292		
0.695651	2.64652	0.52725	1.99018	0.696966	2.64636	0.764386	2.91198	0.882541	3.36165			0.67291	2.56245	0.766771	2.91157	0.915566	3.48589		
0.698043	2.64624	0.52926	1.99077	0.699359	2.64609	0.76617	2.90846	0.884335	3.35657			0.674904	2.56096	0.768768	2.90886	0.916978	3.47892		
0.700435	2.64596	0.531269	1.99135	0.70175	2.64581	0.767956	2.90496	0.886131	3.35154			0.676897	2.55947	0.770768	2.90619	0.918394	3.47202		
0.702826	2.64568	0.533279	1.99192	0.704141	2.64553	0.769745	2.90151	0.887928	3.34654			0.678889	2.55799	0.77277	2.90353	0.919813	3.46518		
0.705217	2.6454	0.535288	1.99249	0.706532	2.64525	0.771537	2.89808	0.889728	3.34159			0.68088	2.55652	0.774774	2.90091	0.921235	3.4584		
0.707607	2.64513	0.537297	1.99306	0.708922	2.64497	0.773332	2.89469	0.891529	3.33668			0.68287	2.55505	0.776781	2.89832	0.922661	3.45168		
0.709997	2.64485	0.539305	1.99362	0.711311	2.64469	0.77513	2.89134	0.893332	3.33181			0.684859	2.5536	0.778791	2.89575	0.924091	3.44502		
0.712386	2.64457	0.541314	1.99417	0.713699	2.64441	0.77693	2.88802	0.895136	3.32698			0.686848	2.55214	0.780803	2.8932	0.925524	3.43842		
0.714774	2.64429	0.543322	1.99473	0.716087	2.64413	0.778733	2.88473	0.896943	3.32219			0.688835	2.5507	0.782817	2.89069	0.926961	3.43188		
0.717161	2.64401	0.545329	1.99527	0.718474	2.64385	0.780539	2.88148	0.898751	3.31744			0.690822	2.54926	0.784834	2.8882	0.928401	3.4254		
0.719548	2.64372	0.547337	1.99581	0.72086	2.64357	0.782348	2.87825	0.900561	3.31273			0.692808	2.54783	0.786853	2.88574	0.929845	3.41897		
0.721934	2.64344	0.549344	1.99635	0.723246	2.64328	0.78416	2.87506	0.902373	3.30805			0.694793	2.54641	0.788874	2.8833	0.931293	3.4126		
0.724319	2.64316	0.551351	1.99688	0.72563	2.643	0.785974	2.87191	0.904186	3.30342			0.696778	2.54499	0.790898	2.88088	0.932743	3.40629		
0.726703	2.64287	0.553358	1.99741	0.728014	2.64271	0.787791	2.86878	0.906001	3.29882			0.698762	2.54358	0.792924	2.87849	0.934198	3.40003		
0.729086	2.64258	0.555364	1.99793	0.730396	2.64242	0.789612	2.86568	0.907818	3.29426			0.700745	2.54218	0.794952	2.87613	0.935655	3.39383		
0.731468	2.64229	0.55737	1.99845	0.732778	2.64214	0.791435	2.86262	0.909636	3.28974			0.702727	2.54078	0.796982	2.87378	0.937117	3.38768		
0.73385	2.642	0.559376	1.99897	0.735159	2.64184	0.79326	2.85959	0.911456	3.28525			0.704708	2.53939	0.799014	2.87147	0.938582	3.38159		
0.73623	2.64171	0.561382	1.99948	0.737539	2.64155	0.795089	2.85659	0.913277	3.28079			0.706689	2.53801	0.801049	2.86917	0.94005	3.37555		
0.738609	2.64142	0.563387	1.99998	0.739917	2.64126	0.796921	2.85361	0.9151	3.27638			0.708669	2.53663	0.803085	2.8669	0.941521	3.36956		
0.740987	2.64113	0.565392	2.00048	0.742295	2.64096	0.798755	2.85067	0.916925	3.272			0.710649	2.53526	0.805124	2.86465	0.942996	3.36362		
0.743364	2.64083	0.567397	2.00098	0.744671	2.64066	0.800593	2.84776	0.918751	3.26765			0.712627	2.5339	0.807164	2.86242	0.944475	3.35774		
0.74574	2.64053	0.569402	2.00147	0.747047	2.64036	0.802433	2.84488	0.920579	3.26334			0.714605	2.53254	0.809207	2.86021	0.945957	3.3519		
0.748115	2.64023	0.571406	2.00196	0.749421	2.64006	0.804277	2.84203	0.922408	3.25906			0.716582	2.53119	0.811252	2.85803	0.947442	3.34612		
0.750489	2.63992	0.57341	2.00245	0.751794	2.63976	0.806123	2.83921	0.924239	3.25481			0.718559	2.52985	0.813298	2.85586	0.948931	3.34039		
0.752861	2.63962	0.575414	2.00293	0.754165	2.63945	0.807973	2.83641	0.926071	3.2506			0.720535	2.52851	0.815347	2.85372	0.950423	3.3347		
0.755232	2.63931	0.577417	2.00341	0.756536	2.63914	0.809825	2.83365	0.927905	3.24642			0.72251	2.52718	0.817397	2.8516	0.951919	3.32907		
0.757602	2.639	0.57942	2.00388	0.758905	2.63883	0.811681	2.83091	0.92974	3.24227			0.724485	2.52585	0.819449	2.8495	0.953418	3.32348		
0.75997	2.63868	0.581423	2.00435	0.761272	2.63851	0.81354	2.8282	0.931576	3.23815			0.726459	2.52453	0.821503	2.84741	0.954921	3.31794		
0.762337	2.63837	0.583426	2.00481	0.763638	2.63819	0.815401	2.82552	0.933414	3.23407			0.728432	2.52322	0.823559	2.84535	0.956427	3.31245		
0.764703	2.63805	0.585428	2.00527	0.766003	2.63787	0.817266	2.82287	0.935254	3.23001			0.730405	2.52192	0.825617	2.84331	0.957936	3.30701		
0.767066	2.63772	0.587431	2.00573	0.768366	2.63755	0.819134	2.82025	0.937095	3.22599			0.732377	2.52062	0.827676	2.84128	0.959448	3.30161		
0.769429	2.6374	0.589432	2.00618	0.770727	2.63722	0.821006	2.81765	0.938937	3.222			0.734348	2.51932	0.829737	2.83928	0.960964	3.29626		
0.77179	2.63707	0.591434	2.00663	0.773087	2.63689	0.82288	2.81509	0.940781	3.21804			0.736319	2.51804	0.8318	2.83729	0.962484	3.29095		
0.774149	2.63674	0.593435	2.00708	0.775446	2.63655	0.824758	2.81255	0.942626	3.21411			0.738289	2.51676	0.833864	2.83532	0.964007	3.28569		
0.776506	2.6364	0.595436	2.00752	0.777802	2.63621	0.826639	2.81003	0.944472	3.2102			0.740259	2.51548	0.83593	2.83337	0.965533	3.28048		
0.778862	2.63606	0.597437	2.00796	0.780157	2.63587	0.828523	2.80755	0.94632	3.20633			0.742228	2.51421	0.837998	2.83144	0.967062	3.2753		
0.781216	2.63571	0.599438	2.00839	0.78251	2.63552	0.830411	2.80509	0.948169	3.20248			0.744197	2.51295	0.840067	2.82952	0.968595	3.27018		
0.783568	2.63537	0.601438	2.00882	0.784861	2.63517	0.832302	2.80265	0.950019	3.19867			0.746165	2.51169	0.842138	2.82762	0.970131	3.26509		
0.785918	2.63501	0.603438	2.00925	0.78721	2.63482	0.834197	2.80025	0.951871	3.19488			0.748133	2.51044	0.84421	2.82574	0.97167	3.26005		
0.788267	2.63466	0.605438	2.00967	0.789557	2.63446	0.836095	2.79787	0.953724	3.19112			0.7501	2.5092	0.846284	2.82387	0.973213	3.25505		
0.790613	2.6343	0.607437	2.01009	0.791903	2.6341	0.837996	2.79552	0.955578	3.18739			0.752066	2.50796	0.848359	2.82202	0.974759	3.25009		
0.792957	2.63393	0.609436	2.01051	0.794246	2.63373	0.839901	2.79319	0.957434	3.18368			0.754032	2.50673	0.850436	2.82019	0.976309	3.24518		
0.7953	2.63356	0.611435	2.01092	0.796587	2.63335	0.84181	2.79089	0.95929	3.18001			0.755998	2.5055	0.852514	2.81837	0.977861	3.24031		
0.79764	2.63319	0.613434	2.01134	0.798926	2.63298	0.843722	2.78862	0.961148	3.17635			0.757963	2.50428	0.854593	2.81657	0.979418	3.23547		
0.799977	2.6328	0.615432	2.01174	0.801262	2.63259	0.845638	2.78637	0.963007	3.17273			0.759928	2.50307	0.856674	2.81479	0.980977	3.23068		
0.802313	2.63242	0.61743	2.01215	0.803596	2.63221	0.847558	2.78415	0.964868	3.16913			0.761892	2.50186	0.858756	2.81302	0.98254	3.22593		
0.804646	2.63203	0.619428	2.01255	0.805928	2.63181	0.849481	2.78195	0.966729	3.16556			0.763855	2.50066	0.860839	2.81126	0.984106	3.22122		
0.806977	2.63163	0.621426	2.01294	0.808258	2.63141	0.851408	2.77978	0.968592	3.16201			0.765819	2.49946	0.862924	2.80952	0.985675	3.21654		
0.809305	2.63123	0.623423	2.01334	0.810585	2.63101	0.853339	2.77763	0.970456	3.15849			0.767781	2.49827	0.86501	2.8078	0.987247	3.21191		
0.811631	2.63082	0.62542	2.01373	0.812909	2.6306	0.855274	2.77552	0.972321	3.15499			0.769744	2.49709	0.867097	2.80608	0.988823	3.20732		
0.813955	2.63041	0.627417	2.01411	0.815231	2.63018	0.857213	2.77342	0.974187	3.15152			0.771706	2.49591	0.869185	2.80439	0.990402	3.20276		
0.816275	2.62999	0.629413	2.0145	0.81755	2.62976	0.859156	2.77135	0.976055	3.14807			0.773667	2.49473	0.871275	2.8027	0.991985	3.19824		
0.818593	2.62957	0.63141	2.01488	0.819867	2.62933	0.861103	2.76931	0.977923	3.14465			0.775628	2.49357	0.873365	2.80103	0.99357	3.19376		
0.820908	2.62914	0.633406	2.01526	0.82218	2.6289	0.863054	2.76729	0.979793	3.14125			0.777589	2.4924	0.875457	2.79938	0.995159	3.18931		
0.823221	2.6287	0.635401	2.01563	0.824491	2.62845	0.865009	2.7653	0.981663	3.13787			0.779549	2.49125	0.87755	2.79773	0.996751	3.18491		
0.82553	2.62825	0.637397	2.016	0.826799	2.628	0.866968	2.76333	0.983535	3.13452			0.781509	2.4901	0.879644	2.7961	0.998347	3.18054		
0.827837	2.6278	0.639392	2.01637	0.829104	2.62755	0.868932	2.76139	0.985408	3.13119			0.783469	2.48895	0.881738	2.79449	0.999945	3.1762		
0.83014	2.62734	0.641387	2.01674	0.831406	2.62709	0.8709	2.75948	0.987282	3.12789			0.785428	2.48781	0.883834	2.79288	1.00155	3.1719		
0.832441	2.62688	0.643382	2.0171	0.833704	2.62662	0.872872	2.75758	0.989157	3.12461			0.787387	2.48668	0.885931	2.79129				
0.834738	2.6264	0.645376	2.01746	0.836	2.62614	0.874849	2.75572	0.991033	3.12134			0.789346	2.48555	0.888029	2.78971				
0.837032	2.62592	0.64737	2.01782	0.838292	2.62566	0.87683	2.75388	0.99291	3.11811			0.791304	2.48443	0.890128	2.78814				
0.839323	2.62544	0.649364	2.01817	0.840581	2.62517	0.878815	2.75206	0.994788	3.11489			0.793262	2.48331	0.892227	2.78659				
0.84161	2.62494	0.651358	2.01852	0.842867	2.62467	0.880806	2.75027	0.996667	3.1117			0.795219	2.4822	0.894328	2.78504				
0.843894	2.62444	0.653351	2.01887	0.845149	2.62416	0.8828	2.7485	0.998547	3.10852			0.797176	2.48109	0.896429	2.78351				
0.846174	2.62393	0.655344	2.01921	0.847427	2.62364	0.8848	2.74676	1.00043	3.10537			0.799133	2.47999	0.898531	2.78199				
0.848451	2.62341	0.657337	2.01956	0.849702	2.62312	0.886804	2.74504					0.80109	2.4789	0.900634	2.78048				
0.850725	2.62288	0.65933	2.0199	0.851973	2.62259	0.888813	2.74335					0.803046	2.47781	0.902738	2.77898				
0.852994	2.62235	0.661322	2.02023	0.854241	2.62205	0.890827	2.74168					0.805002	2.47672	0.904842	2.77749				
0.85526	2.6218	0.663314	2.02057	0.856505	2.6215	0.892846	2.74004					0.806958	2.47564	0.906948	2.77602				
0.857522	2.62125	0.665306	2.0209	0.858765	2.62094	0.89487	2.73842					0.808914	2.47457	0.909054	2.77455				
0.859781	2.62069	0.667297	2.02123	0.861021	2.62038	0.896898	2.73682					0.810869	2.4735	0.91116	2.7731				
0.862035	2.62012	0.669289	2.02156	0.863273	2.61981	0.898932	2.73525					0.812824	2.47244	0.913267	2.77165				
0.864285	2.61954	0.67128	2.02188	0.865521	2.61922	0.900971	2.7337					0.814779	2.47138	0.915375	2.77021				
0.866532	2.61896	0.67327	2.0222	0.867765	2.61863	0.903015	2.73218					0.816734	2.47033	0.917484	2.76879				
0.868774	2.61836	0.675261	2.02252	0.870005	2.61803	0.905064	2.73069					0.818688	2.46928	0.919593	2.76737				
0.871012	2.61776	0.677251	2.02284	0.872241	2.61742	0.907118	2.72921					0.820642	2.46824	0.921702	2.76596				
0.873246	2.61714	0.679241	2.02315	0.874473	2.6168	0.909178	2.72776					0.822596	2.4672	0.923812	2.76457				
0.875476	2.61652	0.681231	2.02346	0.8767	2.61617	0.911242	2.72634					0.82455	2.46617	0.925923	2.76318				
0.877701	2.61588	0.68322	2.02377	0.878923	2.61553	0.913313	2.72493					0.826503	2.46514	0.928034	2.7618				
0.879922	2.61524	0.685209	2.02408	0.881142	2.61489	0.915388	2.72355					0.828457	2.46412	0.930145	2.76043				
0.882139	2.61459	0.687198	2.02438	0.883357	2.61423	0.917469	2.7222					0.83041	2.46311	0.932257	2.75907				
0.884352	2.61393	0.689187	2.02468	0.885567	2.61356	0.919555	2.72087					0.832363	2.46209	0.93437	2.75772				
0.88656	2.61326	0.691176	2.02498	0.887773	2.61289	0.921647	2.71956					0.834316	2.46109	0.936483	2.75637				
0.888764	2.61258	0.693164	2.02528	0.889974	2.6122	0.923744	2.71827					0.836268	2.46009	0.938596	2.75504				
0.890963	2.61189	0.695152	2.02557	0.892171	2.61151	0.925846	2.71701					0.838221	2.45909	0.940709	2.75371				
0.893158	2.6112	0.697139	2.02586	0.894363	2.61081	0.927954	2.71577					0.840173	2.4581	0.942823	2.75239				
0.895348	2.61049	0.699127	2.02615	0.896551	2.6101	0.930067	2.71456					0.842125	2.45711	0.944937	2.75108				
0.897534	2.60977	0.701114	2.02644	0.898734	2.60937	0.932186	2.71336					0.844077	2.45613	0.947051	2.74978				
0.899716	2.60905	0.703101	2.02673	0.900913	2.60864	0.934311	2.71219					0.846029	2.45516	0.949166	2.74848				
0.901892	2.60831	0.705088	2.02701	0.903088	2.60791	0.93644	2.71104					0.847981	2.45418	0.951281	2.74719				
0.904065	2.60757	0.707074	2.02729	0.905258	2.60716	0.938575	2.70991					0.849933	2.45322	0.953396	2.74591				
0.906233	2.60682	0.70906	2.02757	0.907423	2.6064	0.940716	2.7088					0.851884	2.45226	0.955511	2.74464				
0.908396	2.60606	0.711046	2.02784	0.909584	2.60563	0.942862	2.70772					0.853836	2.4513	0.957626	2.74337				
0.910555	2.60529	0.713032	2.02812	0.911741	2.60486	0.945013	2.70666					0.855787	2.45035	0.959741	2.74211				
0.91271	2.60451	0.715017	2.02839	0.913893	2.60408	0.94717	2.70561					0.857738	2.4494	0.961857	2.74086				
0.91486	2.60372	0.717003	2.02866	0.916041	2.60329	0.949332	2.70459					0.859689	2.44846	0.963973	2.73962				
0.917006	2.60293	0.718988	2.02893	0.918184	2.60249	0.951499	2.70359					0.861641	2.44752	0.966088	2.73838				
0.919147	2.60212	0.720972	2.02919	0.920323	2.60168	0.953672	2.70261					0.863591	2.44659	0.968204	2.73715				
0.921285	2.60131	0.722957	2.02946	0.922458	2.60086	0.95585	2.70165					0.865542	2.44566	0.97032	2.73592				
0.923417	2.60049	0.724941	2.02972	0.924589	2.60004	0.958033	2.7007					0.867493	2.44473	0.972436	2.73471				
0.925546	2.59967	0.726925	2.02998	0.926715	2.59921	0.960221	2.69978					0.869444	2.44382	0.974552	2.73349				
0.92767	2.59883	0.728908	2.03023	0.928837	2.59837	0.962414	2.69888					0.871395	2.4429	0.976667	2.73229				
0.929791	2.59799	0.730892	2.03049	0.930955	2.59753	0.964612	2.69799					0.873346	2.44199	0.978783	2.73109				
0.931907	2.59714	0.732875	2.03074	0.933069	2.59667	0.966815	2.69713					0.875296	2.44109	0.980899	2.72989				
0.934019	2.59629	0.734858	2.03099	0.935178	2.59581	0.969023	2.69628					0.877247	2.44019	0.983014	2.72871				
0.936127	2.59543	0.736841	2.03124	0.937284	2.59495	0.971236	2.69545					0.879197	2.43929	0.985129	2.72752				
0.938231	2.59456	0.738823	2.03149	0.939386	2.59408	0.973454	2.69464					0.881148	2.4384	0.987245	2.72635				
0.940331	2.59368	0.740806	2.03174	0.941484	2.5932	0.975676	2.69384					0.883098	2.43751	0.98936	2.72518				
0.942427	2.5928	0.742788	2.03198	0.943579	2.59231	0.977903	2.69306					0.885049	2.43663	0.991475	2.72401				
0.94452	2.59192	0.744769	2.03222	0.945669	2.59143	0.980135	2.6923					0.886999	2.43575	0.993589	2.72285				
0.946609	2.59102	0.746751	2.03246	0.947756	2.59053	0.982371	2.69155					0.88895	2.43488	0.995704	2.7217				
0.948694	2.59013	0.748732	2.0327	0.949839	2.58963	0.984611	2.69082					0.8909	2.43401	0.997818	2.72055				
0.950776	2.58922	0.750713	2.03294	0.951919	2.58872	0.986856	2.69011					0.892851	2.43314	0.999932	2.7194				
0.952854	2.58831	0.752694	2.03317	0.953995	2.58781	0.989105	2.68941					0.894801	2.43228	1.00205	2.71826				
0.954929	2.5874	0.754674	2.0334	0.956068	2.5869	0.991359	2.68872					0.896752	2.43143						
0.957	2.58649	0.756655	2.03363	0.958138	2.58598	0.993616	2.68805					0.898702	2.43058						
0.959068	2.58556	0.758635	2.03386	0.960204	2.58506	0.995877	2.6874					0.900653	2.42973						
0.961133	2.58464	0.760615	2.03409	0.962268	2.58413	0.998143	2.68676					0.902603	2.42889						
0.963195	2.58371	0.762594	2.03431	0.964328	2.5832	1.00041	2.68613					0.904554	2.42805						
0.965254	2.58278	0.764573	2.03454	0.966385	2.58226							0.906504	2.42721						
0.967309	2.58184	0.766553	2.03476	0.968439	2.58133							0.908455	2.42638						
0.969362	2.5809	0.768531	2.03498	0.97049	2.58038							0.910405	2.42556						
0.971412	2.57996	0.77051	2.0352	0.972538	2.57944							0.912356	2.42473						
0.973459	2.57902	0.772489	2.03541	0.974584	2.5785							0.914307	2.42392						
0.975504	2.57807	0.774467	2.03563	0.976627	2.57755							0.916258	2.4231						
0.977545	2.57712	0.776445	2.03584	0.978667	2.5766							0.918208	2.42229						
0.979585	2.57617	0.778422	2.03605	0.980705	2.57564							0.920159	2.42149						
0.981621	2.57521	0.7804	2.03626	0.98274	2.57469							0.92211	2.42069						
0.983656	2.57426	0.782377	2.03647	0.984773	2.57373							0.924061	2.41989						
0.985688	2.5733	0.784354	2.03668	0.986804	2.57277							0.926012	2.4191						
0.987717	2.57234	0.786331	2.03688	0.988832	2.57182							0.927963	2.41831						
0.989745	2.57138	0.788307	2.03709	0.990859	2.57086							0.929914	2.41752						
0.99177	2.57042	0.790284	2.03729	0.992883	2.5699							0.931866	2.41674						
0.993793	2.56946	0.79226	2.03749	0.994905	2.56893							0.933817	2.41596						
0.995814	2.5685	0.794235	2.03769	0.996925	2.56797							0.935768	2.41519						
0.997833	2.56754	0.796211	2.03789	0.998943	2.56701							0.93772	2.41442						
0.99985	2.56658	0.798186	2.03808	1.00096	2.56605							0.939671	2.41366						
1.00187	2.56561	0.800162	2.03828									0.941623	2.4129						
		0.802137	2.03847									0.943575	2.41214						
		0.804111	2.03866									0.945527	2.41138						
		0.806086	2.03885									0.947478	2.41063						
		0.80806	2.03904									0.949431	2.40989						
		0.810034	2.03923									0.951383	2.40915						
		0.812008	2.03941									0.953335	2.40841						
		0.813981	2.0396									0.955287	2.40767						
		0.815955	2.03978									0.95724	2.40694						
		0.817928	2.03996									0.959192	2.40621						
		0.819901	2.04014									0.961145	2.40549						
		0.821873	2.04032									0.963098	2.40477						
		0.823846	2.04049									0.965051	2.40406						
		0.825818	2.04067									0.967004	2.40334						
		0.82779	2.04085									0.968957	2.40263						
		0.829762	2.04102									0.970911	2.40193						
		0.831734	2.04119									0.972864	2.40123						
		0.833705	2.04136									0.974818	2.40053						
		0.835676	2.04153									0.976772	2.39983						
		0.837647	2.0417									0.978725	2.39914						
		0.839618	2.04186									0.98068	2.39845						
		0.841588	2.04203									0.982634	2.39777						
		0.843558	2.04219									0.984588	2.39709						
		0.845528	2.04236									0.986543	2.39641						
		0.847498	2.04252									0.988497	2.39574						
		0.849468	2.04268									0.990452	2.39507						
		0.851437	2.04284									0.992407	2.3944						
		0.853406	2.04299									0.994362	2.39374						
		0.855376	2.04315									0.996317	2.39308						
		0.857344	2.04331									0.998273	2.39242						
		0.859313	2.04346									1.00023	2.39176						
		0.861281	2.04361																
		0.863249	2.04376																
		0.865217	2.04392																
		0.867185	2.04406																
		0.869153	2.04421																
		0.87112	2.04436																
		0.873087	2.04451																
		0.875054	2.04465																
		0.87702	2.0448																
		0.878987	2.04494																
		0.880953	2.04508																
		0.882919	2.04522																
		0.884885	2.04536																
		0.886851	2.0455																
		0.888816	2.04564																
		0.890782	2.04577																
		0.892747	2.04591																
		0.894712	2.04604																
		0.896676	2.04617																
		0.898641	2.04631																
		0.900605	2.04644																
		0.902569	2.04657																
		0.904533	2.0467																
		0.906497	2.04683																
		0.90846	2.04695																
		0.910423	2.04708																
		0.912386	2.0472																
		0.914349	2.04733																
		0.916312	2.04745																
		0.918275	2.04757																
		0.920237	2.0477																
		0.922199	2.04782																
		0.924161	2.04794																
		0.926123	2.04805																
		0.928084	2.04817																
		0.930046	2.04829																
		0.932007	2.04841																
		0.933968	2.04852																
		0.935928	2.04863																
		0.937889	2.04875																
		0.93985	2.04886																
		0.94181	2.04897																
		0.94377	2.04908																
		0.94573	2.04919																
		0.947689	2.0493																
		0.949649	2.04941																
		0.951608	2.04952																
		0.953567	2.04962																
		0.955526	2.04973																
		0.957485	2.04984																
		0.959444	2.04994																
		0.961402	2.05004																
		0.96336	2.05015																
		0.965318	2.05025																
		0.967276	2.05035																
		0.969234	2.05045																
		0.971191	2.05055																
		0.973149	2.05065																
		0.975106	2.05075																
		0.977063	2.05084																
		0.97902	2.05094																
		0.980976	2.05103																
		0.982933	2.05113																
		0.984889	2.05122																
		0.986845	2.05132																
		0.988801	2.05141																
		0.990757	2.0515																
		0.992713	2.05159																
		0.994668	2.05168																
		0.996623	2.05177																
		0.998578	2.05186																
		1.00053	2.05195																
