Sym0		Asym0		Sym1		Sym2		Sym3		Sym4		Asym1		Asym2		Asym3		Asym4	
421  Points		527  Points		420  Points		403  Points		350  Points		250  Points		453  Points		397  Points		342  Points		206  Points	
Freq (MHz)	Vph (m/ms)	Freq (MHz)	Vph (m/ms)	Freq (MHz)	Vph (m/ms)	Freq (MHz)	Vph (m/ms)	Freq (MHz)	Vph (m/ms)	Freq (MHz)	Vph (m/ms)	Freq (MHz)	Vph (m/ms)	Freq (MHz)	Vph (m/ms)	Freq (MHz)	Vph (m/ms)	Freq (MHz)	Vph (m/ms)
0.279511	496.999	7.31366e-005	0.0528908	0.279514	304.174	0.450036	10035.1	0.559017	6228.39	0.838526	2077.91	0.139755	913.551	0.419268	461.657	0.698771	3379.73	0.900073	2185.35
0.279523	187.085	0.000204746	0.088463	0.27953	151.047	0.450042	460.853	0.559024	547.286	0.838532	628.002	0.1398	128.886	0.419286	227.888	0.698776	613.797	0.900078	669.919
0.279546	115.239	0.000402231	0.123909	0.279558	100.477	0.450059	235.851	0.559042	286.227	0.838543	369.902	0.139912	69.388	0.419315	151.291	0.698786	337.555	0.900088	395.599
0.279581	83.2709	0.000665003	0.159173	0.279597	75.2816	0.450086	158.485	0.559072	193.797	0.83856	262.163	0.140091	47.5196	0.419356	113.24	0.698803	232.792	0.900104	280.673
0.279626	65.1934	0.000992293	0.194203	0.279646	60.1946	0.450125	119.345	0.559113	146.498	0.838584	203.031	0.140336	36.1713	0.419409	90.4882	0.698826	177.659	0.900124	217.492
0.279683	53.5701	0.00138324	0.228966	0.279707	50.1501	0.450174	95.714	0.559165	117.763	0.838613	165.668	0.140647	29.2317	0.419474	75.3548	0.698855	143.643	0.90015	177.532
0.27975	45.4689	0.00183683	0.263422	0.279779	42.9828	0.450234	79.8993	0.559229	98.4572	0.838648	139.921	0.141023	24.555	0.419551	64.5626	0.698891	120.562	0.900182	149.979
0.279829	39.5001	0.00235181	0.297522	0.279862	37.6119	0.450304	68.5738	0.559304	84.5942	0.838689	121.103	0.141463	21.1934	0.419639	56.4787	0.698932	103.875	0.900218	129.832
0.279919	34.9202	0.00292679	0.331222	0.279956	33.4376	0.450386	60.0642	0.559391	74.1572	0.838736	106.749	0.141966	18.6636	0.419739	50.1976	0.69898	91.2469	0.90026	114.458
0.28002	31.2953	0.00356052	0.364507	0.280061	30.1006	0.450478	53.4368	0.559489	66.0164	0.838789	95.4384	0.14253	16.6931	0.419852	45.1772	0.699034	81.3586	0.900307	102.341
0.280132	28.3553	0.00425125	0.397323	0.280178	27.3721	0.450581	48.1298	0.559599	59.4894	0.838848	86.2968	0.143154	15.1166	0.419975	41.0729	0.699093	73.4056	0.900359	92.5456
0.280255	25.923	0.0049976	0.429663	0.280305	25.0999	0.450695	43.7844	0.55972	54.1399	0.838913	78.755	0.143836	13.8282	0.420111	37.6551	0.69916	66.8707	0.900416	84.4628
0.280389	23.8776	0.00579771	0.461486	0.280443	23.1785	0.450819	40.1614	0.559852	49.6759	0.838983	72.4268	0.144576	12.7567	0.420259	34.7651	0.699232	61.4056	0.900479	77.6797
0.280534	22.1338	0.00664994	0.492778	0.280592	21.5327	0.450954	37.0946	0.559995	45.8945	0.83906	67.0412	0.14537	11.8524	0.420418	32.2896	0.69931	56.7678	0.900547	71.9063
0.28069	20.6297	0.00755252	0.523516	0.280753	20.1074	0.4511	34.4652	0.56015	42.6505	0.839142	62.4024	0.146219	11.0799	0.420589	30.1456	0.699395	52.7826	0.90062	66.9328
0.280857	19.3191	0.00850376	0.553695	0.280924	18.8611	0.451257	32.186	0.560316	39.8371	0.839231	58.3651	0.147	10.4936	0.420771	28.2708	0.699486	49.3214	0.900699	62.6038
0.281035	18.167	0.00950171	0.583288	0.281106	17.7623	0.451424	30.1916	0.560494	37.3741	0.839325	54.8196	0.147697	10.0469	0.420966	26.6176	0.699582	46.2874	0.900783	58.8017
0.281224	17.1466	0.0105448	0.612299	0.2813	16.7862	0.451602	28.4319	0.560683	35.1998	0.839425	51.6812	0.148293	9.70948	0.421172	25.1491	0.699686	43.6062	0.900871	55.4359
0.281424	16.2364	0.0116311	0.640716	0.281504	15.9137	0.451791	26.8678	0.560883	33.2666	0.839531	48.8837	0.148778	9.46087	0.42139	23.836	0.699795	41.2195	0.900966	52.4355
0.281635	15.4197	0.0127589	0.668532	0.281719	15.129	0.451991	25.4685	0.561094	31.5364	0.839643	46.3744	0.149141	9.28745	0.421619	22.6551	0.69991	39.0816	0.901065	49.7439
0.281857	14.6829	0.0139266	0.695751	0.281945	14.4197	0.452201	24.2094	0.561317	29.979	0.839761	44.111	0.149377	9.18038	0.421861	21.5873	0.700032	37.1554	0.90117	47.316
0.28209	14.0148	0.0151324	0.722368	0.282182	13.7754	0.452422	23.0704	0.561551	28.5699	0.839885	42.0591	0.14972	9.03153	0.422113	20.6173	0.700159	35.411	0.90128	45.1148
0.282334	13.4064	0.0163748	0.748387	0.28243	13.1877	0.452653	22.0353	0.561796	27.2888	0.840015	40.1905	0.150098	8.87618	0.422378	19.7322	0.700293	33.824	0.901395	43.1101
0.282589	12.85	0.017652	0.773813	0.282689	12.6495	0.452895	21.0906	0.562052	26.1192	0.84015	38.4816	0.150621	8.67499	0.422654	18.9215	0.700433	32.3739	0.901515	41.2766
0.282855	12.3393	0.0189626	0.798647	0.282959	12.1548	0.453148	20.2248	0.56232	25.0472	0.840292	36.9128	0.151298	8.43591	0.422941	18.1763	0.700579	31.0438	0.901641	39.5933
0.283131	11.8689	0.0203052	0.822901	0.28324	11.6987	0.453411	19.4287	0.562598	24.061	0.840439	35.4677	0.152139	8.16757	0.423241	17.4889	0.700731	29.8195	0.901772	38.0426
0.283418	11.4344	0.0216782	0.846577	0.283531	11.2767	0.453685	18.6941	0.562888	23.151	0.840592	34.1321	0.153153	7.87864	0.423551	16.8529	0.70089	28.6887	0.901908	36.6094
0.283716	11.0318	0.0230802	0.869686	0.283833	10.8854	0.453969	18.0142	0.563189	22.3085	0.840752	32.8941	0.154355	7.57731	0.423874	16.2628	0.701054	27.6413	0.902049	35.2809
0.284026	10.6577	0.02451	0.892238	0.284147	10.5215	0.454264	17.3832	0.563501	21.5264	0.840917	31.7435	0.155596	7.30413	0.424207	15.7139	0.701225	26.6684	0.902196	34.046
0.284345	10.3093	0.0259662	0.91424	0.284428	10.2245	0.454569	16.7961	0.563824	20.7985	0.841087	30.6712	0.156873	7.0555	0.424552	15.202	0.701401	25.7623	0.902348	32.8952
0.284676	9.98398	0.0274477	0.935707	0.284675	9.98494	0.454885	16.2484	0.564158	20.1193	0.841264	29.6696	0.158186	6.8284	0.424909	14.7236	0.701584	24.9163	0.902505	31.8201
0.285017	9.67966	0.0289532	0.956647	0.284883	9.79561	0.455212	15.7364	0.564503	19.4842	0.841447	28.732	0.159532	6.62025	0.425277	14.2755	0.701773	24.1248	0.902667	30.8136
0.285369	9.39436	0.0304817	0.977072	0.285051	9.6512	0.455549	15.2566	0.564859	18.8891	0.841635	27.8523	0.16091	6.42889	0.425657	13.8549	0.701968	23.3826	0.902834	29.8694
0.285732	9.12638	0.0320321	0.996994	0.285176	9.54786	0.455896	14.8062	0.565226	18.3303	0.84183	27.0255	0.162319	6.25245	0.426047	13.4595	0.702169	22.6852	0.903007	28.9817
0.286105	8.87422	0.0336034	1.01642	0.285256	9.48294	0.456254	14.3827	0.565604	17.8046	0.84203	26.2469	0.163758	6.08933	0.426449	13.087	0.702376	22.0289	0.903185	28.1458
0.286489	8.63655	0.0351945	1.03537	0.285373	9.39126	0.456622	13.9836	0.565993	17.3092	0.842236	25.5124	0.165225	5.93815	0.426863	12.7355	0.70259	21.4099	0.903368	27.3572
0.286884	8.41218	0.0368047	1.05386	0.285501	9.29371	0.457	13.6069	0.566393	16.8415	0.842448	24.8184	0.166719	5.79769	0.427287	12.4034	0.702809	20.8253	0.903556	26.6121
0.287289	8.20004	0.0384329	1.07188	0.285678	9.16446	0.457389	13.2509	0.566804	16.3994	0.842666	24.1616	0.168238	5.66692	0.427723	12.0891	0.703035	20.2724	0.90375	25.9069
0.287705	7.99919	0.0400784	1.08947	0.285905	9.00639	0.457788	12.9139	0.567225	15.9808	0.842889	23.5392	0.169782	5.54491	0.42817	11.7912	0.703266	19.7485	0.903949	25.2385
0.288132	7.80876	0.0417404	1.10662	0.286185	8.82285	0.458197	12.5944	0.567657	15.5839	0.843119	22.9485	0.171349	5.43084	0.428629	11.5086	0.703504	19.2515	0.904152	24.6041
0.288569	7.628	0.0434181	1.12335	0.286522	8.61751	0.458617	12.2912	0.5681	15.2071	0.843354	22.3872	0.172939	5.32401	0.429098	11.24	0.703748	18.7793	0.904362	24.0013
0.289016	7.4562	0.0451107	1.13967	0.286917	8.39419	0.459047	12.003	0.568554	14.8489	0.843595	21.8531	0.17455	5.22377	0.429579	10.9845	0.703998	18.3303	0.904576	23.4277
0.289474	7.29272	0.0468177	1.15559	0.287323	8.18302	0.459487	11.7288	0.569018	14.508	0.843842	21.3443	0.176181	5.12957	0.43007	10.7412	0.704253	17.9026	0.904796	22.8813
0.289943	7.137	0.0485384	1.17113	0.28774	7.98306	0.459937	11.4675	0.569493	14.1832	0.844095	20.8591	0.177832	5.04089	0.430573	10.5092	0.704515	17.495	0.90502	22.3601
0.290422	6.98852	0.0502721	1.1863	0.288167	7.79346	0.460398	11.2184	0.569979	13.8734	0.844354	20.3959	0.179502	4.9573	0.43102	10.3157	0.704783	17.1058	0.90525	21.8625
0.290911	6.84679	0.0520183	1.20109	0.288605	7.61347	0.460868	10.9806	0.570475	13.5776	0.844618	19.9533	0.181189	4.87837	0.431408	10.1567	0.705058	16.7341	0.905485	21.387
0.291411	6.71138	0.0537763	1.21554	0.289054	7.44237	0.461349	10.7533	0.570981	13.2948	0.844888	19.5298	0.182893	4.80376	0.431733	10.0292	0.705338	16.3785	0.905726	20.932
0.291921	6.5819	0.0555458	1.22964	0.289513	7.27956	0.46184	10.536	0.571499	13.0243	0.845164	19.1243	0.184614	4.73313	0.431993	9.93088	0.705624	16.0382	0.905971	20.4964
0.292441	6.45797	0.057326	1.2434	0.289982	7.12446	0.462275	10.3541	0.572026	12.7653	0.845446	18.7357	0.18635	4.66618	0.432185	9.85989	0.705916	15.7121	0.906222	20.0788
0.292972	6.33927	0.0591168	1.25685	0.290462	6.97655	0.462653	10.2044	0.572564	12.517	0.845734	18.3629	0.188101	4.60265	0.43231	9.81503	0.706214	15.3994	0.906478	19.6783
0.293513	6.22547	0.0609175	1.26997	0.290952	6.83536	0.462969	10.0841	0.573113	12.2789	0.846027	18.0051	0.189867	4.5423	0.432489	9.75133	0.706518	15.0993	0.906739	19.2937
0.294064	6.11629	0.0627276	1.28279	0.291453	6.70046	0.463222	9.99111	0.573672	12.0504	0.846326	17.6612	0.191646	4.48489	0.432685	9.68311	0.706829	14.811	0.907005	18.9242
0.294626	6.01148	0.0645469	1.29532	0.291964	6.57145	0.463409	9.92393	0.574241	11.8308	0.846631	17.3306	0.193438	4.43024	0.432955	9.59199	0.707145	14.5339	0.907276	18.5689
0.295197	5.91078	0.0663749	1.30755	0.292485	6.44797	0.46353	9.88145	0.57482	11.6197	0.846942	17.0125	0.195243	4.37815	0.433299	9.47942	0.707467	14.2673	0.907553	18.227
0.295779	5.81397	0.0682112	1.31951	0.293016	6.32968	0.463704	9.82107	0.57541	11.4166	0.847258	16.7062	0.197059	4.32845	0.43372	9.34712	0.707796	14.0107	0.907834	17.8977
0.296371	5.72083	0.0700554	1.33119	0.293558	6.21627	0.463895	9.75635	0.57601	11.221	0.84758	16.4111	0.198888	4.281	0.434223	9.19702	0.70813	13.7635	0.908121	17.5805
0.296973	5.63118	0.0719074	1.34262	0.29411	6.10747	0.464156	9.66981	0.57662	11.0327	0.847908	16.1265	0.200727	4.23564	0.434809	9.03122	0.70847	13.5252	0.908413	17.2746
0.297586	5.54483	0.0737667	1.35378	0.294673	6.003	0.46449	9.56275	0.57724	10.8511	0.848242	15.852	0.202576	4.19225	0.435406	8.87193	0.708816	13.2953	0.90871	16.9794
0.298208	5.46161	0.075633	1.3647	0.295245	5.90263	0.464898	9.43669	0.57787	10.676	0.848582	15.5869	0.204436	4.15071	0.436014	8.7188	0.709169	13.0734	0.909013	16.6944
0.29884	5.38137	0.077506	1.37537	0.295828	5.80613	0.465385	9.29341	0.578427	10.5283	0.848927	15.3309	0.206306	4.11091	0.436632	8.57147	0.709527	12.8592	0.90932	16.4191
0.299483	5.30395	0.0793855	1.38581	0.296421	5.71329	0.465952	9.13478	0.578908	10.406	0.849278	15.0835	0.208185	4.07274	0.437262	8.42964	0.709891	12.6521	0.909633	16.153
0.300135	5.22921	0.0812711	1.39602	0.297024	5.62392	0.466529	8.98203	0.57931	10.3072	0.849634	14.8442	0.210073	4.03611	0.437901	8.29302	0.710261	12.452	0.90995	15.8956
0.300797	5.15704	0.0831627	1.40601	0.297637	5.53784	0.467115	8.83484	0.579631	10.2305	0.849997	14.6126	0.21197	4.00093	0.438551	8.16132	0.710637	12.2583	0.910273	15.6466
0.301469	5.0873	0.08506	1.41579	0.29826	5.45487	0.467712	8.69294	0.579868	10.175	0.850365	14.3885	0.213875	3.96712	0.439212	8.03431	0.711019	12.0709	0.910601	15.4055
0.302151	5.01989	0.0869628	1.42536	0.298893	5.37486	0.468318	8.55604	0.58002	10.1397	0.850738	14.1714	0.215787	3.9346	0.439883	7.91175	0.711407	11.8894	0.910934	15.172
0.302843	4.95469	0.0888708	1.43472	0.299536	5.29767	0.468934	8.4239	0.58024	10.0896	0.851118	13.9611	0.217708	3.90331	0.440564	7.7934	0.711801	11.7136	0.911272	14.9457
0.303545	4.89161	0.0907838	1.44389	0.300189	5.22315	0.469559	8.29628	0.58048	10.0357	0.851503	13.7571	0.219636	3.87318	0.441256	7.67908	0.712201	11.5432	0.911616	14.7263
0.304257	4.83055	0.0927017	1.45286	0.300852	5.15118	0.470194	8.17296	0.580809	9.96344	0.851894	13.5593	0.221571	3.84414	0.441958	7.56858	0.712607	11.378	0.911964	14.5135
0.304885	4.77892	0.0946242	1.46165	0.301525	5.08164	0.470839	8.05374	0.581229	9.87369	0.85229	13.3674	0.223513	3.81615	0.44267	7.46172	0.713018	11.2177	0.912318	14.307
0.305427	4.73603	0.0965513	1.47026	0.302208	5.01441	0.471492	7.93841	0.581741	9.76755	0.852692	13.1811	0.225461	3.78914	0.443392	7.35833	0.713436	11.0621	0.912676	14.1065
0.305878	4.70131	0.0984826	1.47869	0.302901	4.9494	0.472156	7.8268	0.582348	9.64625	0.8531	13.0002	0.227416	3.76307	0.444125	7.25826	0.713859	10.911	0.91304	13.9118
0.306238	4.67433	0.100418	1.48694	0.303604	4.88649	0.472829	7.71874	0.583054	9.51116	0.853513	12.8244	0.229377	3.73789	0.444868	7.16136	0.714233	10.7829	0.913409	13.7226
0.306504	4.65475	0.102357	1.49504	0.304316	4.82559	0.473511	7.61407	0.58377	9.38027	0.853932	12.6536	0.231344	3.71356	0.44562	7.06748	0.714555	10.6762	0.913782	13.5387
0.306675	4.64233	0.104301	1.50296	0.305039	4.76662	0.474202	7.51264	0.584495	9.25339	0.854357	12.4874	0.233316	3.69003	0.446383	6.97649	0.714824	10.5897	0.914161	13.3599
0.306922	4.62463	0.106247	1.51074	0.305771	4.7095	0.474903	7.41431	0.58523	9.13036	0.854787	12.3259	0.235294	3.66727	0.447156	6.88826	0.715038	10.5223	0.914545	13.186
0.307191	4.6056	0.108198	1.51835	0.306513	4.65414	0.475613	7.31893	0.585975	9.01099	0.855223	12.1687	0.237277	3.64525	0.447939	6.80269	0.715196	10.4734	0.914935	13.0168
0.307559	4.58004	0.110152	1.52582	0.307264	4.60047	0.476333	7.2264	0.586729	8.89515	0.855665	12.0157	0.239265	3.62393	0.448731	6.71964	0.715298	10.4423	0.915329	12.852
0.308028	4.54826	0.112109	1.53315	0.308025	4.54842	0.477061	7.13658	0.587493	8.78267	0.856112	11.8667	0.241259	3.60327	0.449534	6.63903	0.715445	10.398	0.915728	12.6916
0.3086	4.51061	0.114069	1.54033	0.308797	4.49792	0.477799	7.04936	0.588265	8.67341	0.856565	11.7216	0.243256	3.58324	0.450346	6.56075	0.715605	10.3503	0.916132	12.5353
0.309277	4.4675	0.11578	1.54647	0.309577	4.44892	0.478546	6.96464	0.589048	8.56726	0.857023	11.5802	0.245259	3.56383	0.451168	6.48471	0.715824	10.2861	0.916542	12.3831
0.310064	4.41938	0.117239	1.55163	0.310368	4.40135	0.479302	6.88232	0.589839	8.46408	0.857487	11.4424	0.247266	3.545	0.451999	6.41081	0.716103	10.2062	0.916956	12.2346
0.31086	4.37267	0.118448	1.55584	0.311168	4.35515	0.480067	6.8023	0.59064	8.36375	0.857956	11.3081	0.249277	3.52673	0.452841	6.33898	0.716444	10.1113	0.917375	12.09
0.311666	4.32729	0.119404	1.55913	0.311978	4.31028	0.48084	6.72449	0.59145	8.26616	0.858431	11.1771	0.251292	3.50898	0.453692	6.26913	0.716847	10.0024	0.9178	11.9488
0.312482	4.28321	0.120108	1.56153	0.312797	4.26667	0.481623	6.64881	0.592269	8.17121	0.85885	11.0656	0.253312	3.49175	0.454552	6.20118	0.717316	9.88046	0.918229	11.8112
0.313307	4.24037	0.120558	1.56306	0.313626	4.2243	0.482415	6.57516	0.593097	8.07879	0.85921	10.9724	0.255335	3.47501	0.455422	6.13507	0.71779	9.76172	0.918664	11.6768
0.314142	4.19873	0.121206	1.56525	0.314464	4.1831	0.483215	6.50349	0.593935	7.98881	0.85951	10.8966	0.257362	3.45874	0.456302	6.07073	0.71827	9.64602	0.919103	11.5457
0.314987	4.15823	0.121911	1.56761	0.315313	4.14303	0.484025	6.43371	0.594781	7.90117	0.859749	10.8374	0.259392	3.44292	0.457191	6.00808	0.718756	9.53327	0.919548	11.4176
0.315841	4.11885	0.122869	1.57079	0.31617	4.10406	0.484843	6.36575	0.595636	7.8158	0.859925	10.7944	0.261426	3.42753	0.458089	5.94707	0.719248	9.42334	0.919997	11.2926
0.316705	4.08053	0.124082	1.57478	0.317038	4.06614	0.48567	6.29954	0.5965	7.73261	0.860038	10.767	0.263463	3.41255	0.458996	5.88764	0.719746	9.31614	0.920393	11.1859
0.317578	4.04325	0.125551	1.57954	0.317915	4.02924	0.486505	6.23503	0.597373	7.65151	0.860202	10.7279	0.265504	3.39798	0.459913	5.82973	0.720249	9.21157	0.920734	11.0967
0.318461	4.00696	0.127275	1.58504	0.318801	3.99332	0.487349	6.17215	0.598255	7.57244	0.86038	10.6858	0.267548	3.38379	0.460839	5.77328	0.720758	9.10953	0.921017	11.0241
0.319353	3.97163	0.129256	1.59125	0.319697	3.95835	0.488202	6.11084	0.599146	7.49532	0.860623	10.6291	0.269594	3.36996	0.461774	5.71825	0.721273	9.00994	0.921243	10.9674
0.320255	3.93722	0.131239	1.59734	0.320603	3.9243	0.489063	6.05105	0.600045	7.42008	0.860933	10.5583	0.271644	3.35649	0.462719	5.66459	0.721793	8.91271	0.921409	10.9261
0.321167	3.90371	0.133224	1.60332	0.321518	3.89112	0.489933	5.99273	0.600953	7.34667	0.86131	10.474	0.273697	3.34337	0.463672	5.61225	0.72232	8.81777	0.921516	10.8999
0.322088	3.87107	0.135211	1.60919	0.322443	3.8588	0.490811	5.93583	0.60187	7.27501	0.861757	10.377	0.275752	3.33057	0.464635	5.56119	0.722852	8.72503	0.92167	10.8623
0.323018	3.83927	0.1372	1.61496	0.323377	3.82731	0.491698	5.88029	0.602795	7.20505	0.862274	10.268	0.27781	3.31808	0.465606	5.51136	0.723389	8.63441	0.921839	10.8219
0.323959	3.80827	0.139192	1.62063	0.324321	3.79662	0.492593	5.82608	0.603728	7.13673	0.862797	10.1615	0.279871	3.30591	0.466586	5.46271	0.723933	8.54587	0.922068	10.7674
0.324909	3.77806	0.141185	1.62619	0.325275	3.7667	0.493496	5.77315	0.60467	7.07	0.863326	10.0574	0.281934	3.29402	0.467576	5.41523	0.724482	8.45931	0.922361	10.6993
0.325868	3.7486	0.14318	1.63166	0.326238	3.73753	0.494407	5.72145	0.605621	7.00481	0.86386	9.95555	0.283999	3.28243	0.468574	5.36885	0.725037	8.37468	0.922717	10.6182
0.326837	3.71988	0.145176	1.63703	0.327211	3.70908	0.495327	5.67095	0.60658	6.9411	0.864399	9.85594	0.286067	3.2711	0.469581	5.32356	0.725598	8.29192	0.923138	10.5247
0.327816	3.69188	0.147175	1.64231	0.328193	3.68134	0.496255	5.62161	0.607547	6.87883	0.864944	9.75849	0.288137	3.26004	0.470596	5.27931	0.726164	8.21097	0.923626	10.4196
0.328805	3.66456	0.149175	1.6475	0.329185	3.65428	0.497191	5.57339	0.608522	6.81795	0.865495	9.66312	0.290209	3.24923	0.47162	5.23607	0.726736	8.13177	0.924119	10.3167
0.329803	3.63791	0.151176	1.6526	0.330187	3.62788	0.498136	5.52626	0.609506	6.75842	0.86605	9.56978	0.292284	3.23868	0.472653	5.19382	0.727313	8.05426	0.924616	10.216
0.330811	3.61191	0.153179	1.65762	0.331199	3.60212	0.499088	5.48018	0.610498	6.7002	0.866611	9.4784	0.29436	3.22836	0.473695	5.15251	0.727897	7.97841	0.925119	10.1174
0.331829	3.58653	0.155184	1.66255	0.332221	3.57699	0.500048	5.43512	0.611497	6.64324	0.867178	9.38892	0.296439	3.21827	0.474745	5.11213	0.728486	7.90414	0.925627	10.0208
0.332856	3.56177	0.15719	1.66739	0.333252	3.55246	0.501017	5.39105	0.612505	6.58751	0.86775	9.30129	0.298519	3.2084	0.475804	5.07263	0.72908	7.83142	0.926139	9.92627
0.333894	3.5376	0.159197	1.67216	0.334293	3.52851	0.501993	5.34794	0.613521	6.53298	0.868327	9.21544	0.300601	3.19875	0.476871	5.03401	0.72968	7.76021	0.926657	9.83362
0.334941	3.51401	0.161205	1.67684	0.335344	3.50513	0.502977	5.30576	0.614545	6.4796	0.86891	9.13134	0.302685	3.1893	0.477946	4.99622	0.730286	7.69045	0.927179	9.74283
0.335998	3.49098	0.163215	1.68145	0.336405	3.48231	0.503969	5.26448	0.615577	6.42733	0.869498	9.04892	0.304771	3.18006	0.47903	4.95925	0.730897	7.6221	0.927706	9.65386
0.337066	3.4685	0.165226	1.68599	0.337477	3.46003	0.504968	5.22408	0.616616	6.37616	0.870092	8.96814	0.306858	3.17101	0.480122	4.92307	0.731514	7.55513	0.928239	9.56665
0.338143	3.44654	0.167238	1.69045	0.338558	3.43827	0.505976	5.18453	0.617664	6.32605	0.87069	8.88895	0.308947	3.16216	0.481222	4.88766	0.732137	7.48949	0.928776	9.48114
0.33923	3.4251	0.169251	1.69484	0.339649	3.41703	0.506991	5.14581	0.618719	6.27696	0.871295	8.81131	0.311038	3.15348	0.482331	4.85299	0.732765	7.42514	0.929318	9.3973
0.340328	3.40416	0.171266	1.69915	0.340751	3.39627	0.508013	5.10788	0.619782	6.22886	0.871904	8.73517	0.31313	3.14498	0.483448	4.81906	0.733398	7.36206	0.929865	9.31507
0.341436	3.38371	0.173281	1.7034	0.341863	3.37601	0.509044	5.07074	0.620852	6.18174	0.872519	8.66049	0.315223	3.13666	0.484573	4.78582	0.734037	7.3002	0.930416	9.23441
0.342555	3.36373	0.175297	1.70758	0.342985	3.35621	0.510081	5.03436	0.62193	6.13555	0.873139	8.58723	0.317318	3.1285	0.485706	4.75327	0.734682	7.23953	0.930973	9.15527
0.343683	3.34422	0.177315	1.7117	0.344118	3.33688	0.511127	4.99871	0.623016	6.09029	0.873764	8.51535	0.319415	3.12051	0.486847	4.72139	0.735332	7.18002	0.931534	9.07762
0.344823	3.32516	0.179333	1.71575	0.345262	3.31799	0.51218	4.96378	0.624109	6.04591	0.874395	8.44482	0.321512	3.11267	0.487996	4.69016	0.735988	7.12163	0.932101	9.00141
0.345973	3.30655	0.181352	1.71974	0.346416	3.29954	0.51324	4.92954	0.62521	6.00239	0.875031	8.3756	0.323611	3.10498	0.489153	4.65955	0.736649	7.06434	0.932672	8.92661
0.347134	3.28836	0.183372	1.72366	0.347581	3.28151	0.514307	4.89598	0.626318	5.95972	0.875672	8.30765	0.325712	3.09744	0.490317	4.62956	0.737316	7.00812	0.933248	8.85318
0.348306	3.2706	0.185392	1.72753	0.348757	3.26391	0.515382	4.86308	0.627433	5.91787	0.876319	8.24094	0.327813	3.09005	0.49149	4.60016	0.737988	6.95294	0.933829	8.78108
0.349489	3.25324	0.187414	1.73134	0.349944	3.24671	0.516464	4.83082	0.628556	5.87682	0.876971	8.17544	0.329915	3.08279	0.492671	4.57135	0.738666	6.89877	0.934414	8.71027
0.350683	3.23629	0.189436	1.73508	0.351143	3.22991	0.517554	4.79919	0.629686	5.83654	0.877628	8.11111	0.332019	3.07567	0.493859	4.5431	0.739349	6.84558	0.935005	8.64073
0.351888	3.21973	0.191459	1.73877	0.352353	3.2135	0.51865	4.76816	0.630823	5.79702	0.87829	8.04794	0.334123	3.06868	0.495055	4.5154	0.740038	6.79335	0.9356	8.57242
0.353105	3.20356	0.193483	1.74241	0.353574	3.19747	0.519754	4.73773	0.631967	5.75823	0.878957	7.98587	0.336229	3.06182	0.496258	4.48824	0.740732	6.74206	0.9362	8.50531
0.354334	3.18776	0.195507	1.74599	0.354807	3.18181	0.520865	4.70787	0.633118	5.72016	0.87963	7.9249	0.338336	3.05508	0.49747	4.4616	0.741431	6.69168	0.936805	8.43937
0.355574	3.17232	0.197532	1.74952	0.356052	3.16651	0.521983	4.67857	0.634277	5.68279	0.880308	7.86499	0.340443	3.04847	0.498688	4.43546	0.742136	6.64219	0.937414	8.37458
0.356826	3.15725	0.199558	1.75299	0.357309	3.15158	0.523108	4.64983	0.635442	5.6461	0.880991	7.80611	0.342552	3.04197	0.499915	4.40983	0.742846	6.59356	0.938029	8.31089
0.358091	3.14254	0.201584	1.75642	0.358578	3.137	0.524239	4.62161	0.636615	5.61008	0.881679	7.74825	0.344661	3.03558	0.501149	4.38468	0.743562	6.54578	0.938648	8.24829
0.359368	3.12816	0.203611	1.75979	0.35986	3.12276	0.525378	4.59392	0.637794	5.5747	0.882373	7.69136	0.346771	3.02931	0.50239	4.36	0.744283	6.49883	0.939272	8.18674
0.360657	3.11413	0.205638	1.76311	0.361154	3.10885	0.526524	4.56673	0.63898	5.53995	0.883071	7.63544	0.348882	3.02314	0.503639	4.33578	0.745009	6.45268	0.939901	8.12623
0.36196	3.10044	0.207666	1.76639	0.362462	3.09528	0.527676	4.54004	0.640173	5.50582	0.883775	7.58046	0.350993	3.01708	0.504895	4.312	0.745741	6.40731	0.940534	8.06673
0.363275	3.08707	0.209694	1.76962	0.363782	3.08204	0.528835	4.51383	0.641373	5.47229	0.884484	7.52639	0.353106	3.01112	0.506158	4.28867	0.746478	6.36271	0.941172	8.00821
0.364604	3.07402	0.211723	1.7728	0.365116	3.06911	0.530001	4.48809	0.642579	5.43934	0.885198	7.47322	0.355219	3.00527	0.507429	4.26576	0.747221	6.31886	0.941815	7.95065
0.365946	3.06129	0.213752	1.77594	0.366464	3.0565	0.531174	4.46281	0.643792	5.40697	0.885917	7.42092	0.357332	2.9995	0.508707	4.24327	0.747968	6.27573	0.942462	7.89403
0.367303	3.04888	0.215782	1.77903	0.367825	3.04421	0.532353	4.43797	0.645012	5.37515	0.886641	7.36947	0.359446	2.99384	0.509992	4.22118	0.748721	6.23333	0.943115	7.83832
0.368673	3.03676	0.217812	1.78208	0.369201	3.03221	0.533539	4.41358	0.646239	5.34388	0.88737	7.31886	0.361561	2.98826	0.511284	4.19949	0.74948	6.19161	0.943772	7.78351
0.370058	3.02496	0.219843	1.78508	0.370592	3.02052	0.534731	4.38961	0.647471	5.31314	0.888104	7.26905	0.363677	2.98278	0.512583	4.17819	0.750244	6.15058	0.944433	7.72957
0.371457	3.01345	0.221874	1.78805	0.371997	3.00912	0.53593	4.36606	0.648711	5.28292	0.888844	7.22005	0.365793	2.97738	0.51389	4.15727	0.751013	6.11022	0.9451	7.67649
0.372872	3.00223	0.223905	1.79097	0.373417	2.99801	0.537135	4.34291	0.649957	5.25321	0.889588	7.17182	0.367909	2.97207	0.515203	4.13671	0.751787	6.0705	0.945771	7.62424
0.374302	2.9913	0.225936	1.79385	0.374853	2.9872	0.538347	4.32017	0.651209	5.22399	0.890338	7.12434	0.370026	2.96684	0.516524	4.11652	0.752566	6.03142	0.946446	7.57281
0.375747	2.98066	0.227968	1.79669	0.376305	2.97666	0.539565	4.29781	0.652467	5.19525	0.891092	7.07762	0.372143	2.96169	0.517851	4.09668	0.753351	5.99296	0.947127	7.52218
0.377209	2.9703	0.23	1.7995	0.377772	2.96641	0.540789	4.27583	0.653732	5.16699	0.891852	7.03161	0.374261	2.95662	0.519185	4.07718	0.754141	5.9551	0.947812	7.47233
0.378687	2.96022	0.232033	1.80226	0.379257	2.95644	0.54202	4.25422	0.655003	5.1392	0.892616	6.98632	0.376379	2.95163	0.520526	4.05802	0.754936	5.91784	0.948501	7.42324
0.380181	2.95042	0.234066	1.80499	0.380757	2.94674	0.543257	4.23298	0.65628	5.11185	0.893386	6.94172	0.378497	2.94671	0.521874	4.03919	0.755737	5.88117	0.949196	7.3749
0.381692	2.94088	0.236099	1.80768	0.382275	2.9373	0.5445	4.21208	0.657564	5.08494	0.89416	6.89781	0.380616	2.94186	0.523229	4.02069	0.756542	5.84506	0.949894	7.32729
0.383221	2.93161	0.238132	1.81033	0.383811	2.92814	0.545749	4.19154	0.658853	5.05847	0.89494	6.85455	0.382735	2.93709	0.524591	4.00249	0.757353	5.8095	0.950598	7.28039
0.384768	2.92261	0.240166	1.81295	0.385364	2.91924	0.547005	4.17133	0.660149	5.03242	0.895724	6.81195	0.384854	2.93239	0.525959	3.98461	0.758169	5.77449	0.951306	7.23419
0.386332	2.91387	0.242199	1.81553	0.386935	2.9106	0.548266	4.15146	0.661451	5.00678	0.896514	6.76999	0.386973	2.92775	0.527334	3.96702	0.75899	5.74001	0.952019	7.18868
0.387914	2.90539	0.244233	1.81808	0.388525	2.90221	0.549534	4.1319	0.662758	4.98155	0.897308	6.72864	0.389093	2.92318	0.528715	3.94973	0.759817	5.70606	0.952736	7.14384
0.389515	2.89717	0.246268	1.8206	0.390133	2.89408	0.550807	4.11267	0.664072	4.95671	0.898107	6.68791	0.391213	2.91868	0.530103	3.93273	0.760648	5.67261	0.953458	7.09965
0.391135	2.88919	0.248302	1.82308	0.39176	2.88621	0.552087	4.09374	0.665392	4.93226	0.898911	6.64778	0.393333	2.91424	0.531498	3.91601	0.761485	5.63966	0.954184	7.05611
0.392774	2.88147	0.250336	1.82553	0.393406	2.87858	0.553372	4.07512	0.666717	4.90819	0.89972	6.60823	0.395453	2.90986	0.532899	3.89956	0.762326	5.60721	0.954915	7.01319
0.394432	2.87399	0.252371	1.82795	0.395072	2.87119	0.554663	4.0568	0.668048	4.88448	0.900534	6.56925	0.397573	2.90554	0.534307	3.88339	0.763173	5.57523	0.955651	6.9709
0.39611	2.86675	0.254406	1.83034	0.396757	2.86404	0.55596	4.03876	0.669385	4.86114	0.901353	6.53084	0.399693	2.90128	0.535721	3.86748	0.764025	5.54372	0.956391	6.9292
0.397807	2.85975	0.256441	1.83269	0.398462	2.85713	0.557263	4.02101	0.670728	4.83816	0.902177	6.49298	0.401814	2.89708	0.537142	3.85183	0.764882	5.51267	0.957135	6.8881
0.399524	2.85299	0.258476	1.83502	0.400186	2.85046	0.558572	4.00354	0.672076	4.81552	0.903005	6.45565	0.403934	2.89294	0.538569	3.83643	0.765744	5.48207	0.957884	6.84758
0.401261	2.84645	0.260511	1.83731	0.401931	2.84401	0.559886	3.98634	0.67343	4.79323	0.903839	6.41886	0.406055	2.88885	0.540002	3.82127	0.766611	5.45191	0.958638	6.80762
0.403018	2.84015	0.262546	1.83958	0.403696	2.83779	0.561206	3.9694	0.674789	4.77126	0.904677	6.38258	0.408175	2.88481	0.541442	3.80637	0.767483	5.42219	0.959396	6.76823
0.404795	2.83406	0.264582	1.84182	0.405481	2.83179	0.562532	3.95273	0.676155	4.74962	0.90552	6.34681	0.410295	2.88083	0.542887	3.7917	0.76836	5.39289	0.960159	6.72938
0.406592	2.8282	0.266617	1.84403	0.407285	2.82601	0.563863	3.93631	0.677525	4.72831	0.906368	6.31153	0.412416	2.87689	0.54434	3.77726	0.769242	5.364	0.960926	6.69106
0.40841	2.82254	0.268653	1.84621	0.40911	2.82044	0.565199	3.92015	0.678901	4.7073	0.907221	6.27675	0.414536	2.87301	0.545798	3.76305	0.770129	5.33552	0.961697	6.65327
0.410247	2.8171	0.270688	1.84836	0.410955	2.81507	0.566541	3.90423	0.680283	4.68661	0.908078	6.24244	0.416656	2.86918	0.547262	3.74906	0.771022	5.30745	0.962473	6.61599
0.412103	2.81186	0.272724	1.85049	0.412819	2.80991	0.567889	3.88855	0.68167	4.66621	0.908941	6.2086	0.418776	2.86539	0.548733	3.7353	0.771919	5.27976	0.963254	6.57922
0.41398	2.80682	0.27476	1.85259	0.414703	2.80494	0.569242	3.8731	0.683062	4.64611	0.909808	6.17523	0.420896	2.86165	0.55021	3.72174	0.772821	5.25246	0.964039	6.54295
0.415876	2.80197	0.276795	1.85467	0.416606	2.80017	0.5706	3.85789	0.68446	4.6263	0.910679	6.1423	0.423015	2.85796	0.551692	3.7084	0.773728	5.22554	0.964828	6.50716
0.417791	2.79732	0.278831	1.85671	0.418529	2.79558	0.571964	3.8429	0.685862	4.60677	0.911556	6.10982	0.425135	2.85431	0.553181	3.69527	0.77464	5.19898	0.965622	6.47184
0.419725	2.79284	0.280867	1.85874	0.42047	2.79118	0.573333	3.82814	0.687271	4.58752	0.912437	6.07777	0.427254	2.85071	0.554676	3.68234	0.775557	5.17279	0.96642	6.437
0.421677	2.78855	0.282903	1.86074	0.422429	2.78695	0.574708	3.81359	0.688684	4.56854	0.913323	6.04615	0.429373	2.84715	0.556177	3.6696	0.776479	5.14695	0.967223	6.40261
0.423648	2.78442	0.284938	1.86271	0.424406	2.78289	0.576087	3.79925	0.690102	4.54983	0.914214	6.01495	0.431492	2.84363	0.557683	3.65706	0.777406	5.12147	0.96803	6.36867
0.425636	2.78046	0.286974	1.86466	0.426401	2.77899	0.577472	3.78513	0.691526	4.53138	0.915109	5.98415	0.43361	2.84015	0.559196	3.64471	0.778337	5.09632	0.968841	6.33518
0.427642	2.77667	0.28901	1.86659	0.428414	2.77526	0.578862	3.77121	0.692954	4.51319	0.916009	5.95377	0.435728	2.83671	0.560715	3.63255	0.779274	5.07152	0.969657	6.30212
0.429664	2.77303	0.291046	1.8685	0.430443	2.77167	0.580257	3.75749	0.694388	4.49525	0.916914	5.92377	0.437846	2.83332	0.562239	3.62057	0.780215	5.04704	0.970477	6.26948
0.431703	2.76953	0.293082	1.87038	0.432488	2.76823	0.581657	3.74397	0.695827	4.47755	0.917823	5.89417	0.439964	2.82996	0.563769	3.60877	0.781162	5.02289	0.971301	6.23727
0.433759	2.76618	0.295117	1.87224	0.434549	2.76494	0.583062	3.73064	0.69727	4.4601	0.918737	5.86495	0.442081	2.82664	0.565305	3.59715	0.782113	4.99906	0.97213	6.20546
0.435829	2.76297	0.297153	1.87408	0.436626	2.76178	0.584472	3.7175	0.698719	4.44289	0.919656	5.8361	0.444198	2.82335	0.566847	3.5857	0.783069	4.97554	0.972963	6.17406
0.437915	2.75989	0.299189	1.87589	0.438717	2.75875	0.585887	3.70455	0.700172	4.42591	0.920579	5.80762	0.446314	2.8201	0.568394	3.57443	0.78403	4.95233	0.973801	6.14306
0.440015	2.75694	0.301224	1.87769	0.440823	2.75584	0.587307	3.69178	0.70163	4.40916	0.921507	5.77951	0.44843	2.81689	0.569947	3.56332	0.784995	4.92942	0.974642	6.11244
0.44213	2.75411	0.30326	1.87946	0.442942	2.75306	0.588732	3.67918	0.703093	4.39264	0.922439	5.75174	0.450545	2.81371	0.571506	3.55237	0.785966	4.9068	0.975488	6.08221
0.444257	2.7514	0.305295	1.88121	0.445075	2.75039	0.590161	3.66677	0.704561	4.37633	0.923376	5.72433	0.45266	2.81057	0.57307	3.54158	0.786941	4.88448	0.976339	6.05235
0.446398	2.7488	0.307331	1.88294	0.447221	2.74783	0.591596	3.65453	0.706033	4.36024	0.924318	5.69726	0.454775	2.80745	0.57464	3.53095	0.787921	4.86244	0.977193	6.02286
0.448552	2.7463	0.309366	1.88465	0.449379	2.74537	0.593035	3.64245	0.707511	4.34437	0.925264	5.67053	0.456889	2.80438	0.576215	3.52048	0.788906	4.84069	0.978052	5.99374
0.450717	2.74391	0.311401	1.88635	0.451549	2.74302	0.594479	3.63055	0.708992	4.32871	0.926215	5.64413	0.459003	2.80133	0.577796	3.51016	0.789895	4.81921	0.978915	5.96497
0.452894	2.74161	0.313436	1.88802	0.453731	2.74076	0.595928	3.61881	0.710479	4.31325	0.92717	5.61805	0.461116	2.79831	0.579383	3.49999	0.790889	4.798	0.979783	5.93655
0.455083	2.73941	0.315471	1.88967	0.455923	2.73859	0.597381	3.60722	0.71197	4.29799	0.92813	5.5923	0.463228	2.79533	0.580975	3.48996	0.791888	4.77706	0.980654	5.90848
0.457282	2.73729	0.317506	1.89131	0.458126	2.7365	0.59884	3.5958	0.713466	4.28293	0.929094	5.56686	0.46534	2.79237	0.582573	3.48008	0.792892	4.75638	0.98153	5.88075
0.459491	2.73526	0.319541	1.89292	0.460339	2.7345	0.600302	3.58453	0.714966	4.26806	0.930063	5.54172	0.467452	2.78945	0.584175	3.47034	0.7939	4.73596	0.98241	5.85334
0.461709	2.73331	0.321576	1.89452	0.462561	2.73258	0.60177	3.57341	0.71647	4.25339	0.931036	5.5169	0.469562	2.78655	0.585784	3.46074	0.794914	4.7158	0.983295	5.82627
0.463938	2.73143	0.323611	1.8961	0.464793	2.73074	0.603241	3.56244	0.717979	4.2389	0.932014	5.49237	0.471673	2.78368	0.587397	3.45128	0.795931	4.69588	0.984183	5.79952
0.466175	2.72963	0.325645	1.89766	0.467033	2.72896	0.604718	3.55162	0.719493	4.2246	0.932996	5.46813	0.473782	2.78084	0.589016	3.44195	0.796954	4.67621	0.985076	5.77308
0.468421	2.7279	0.32768	1.89921	0.469282	2.72725	0.606199	3.54094	0.72101	4.21047	0.933983	5.44419	0.475891	2.77803	0.590641	3.43275	0.797981	4.65677	0.985973	5.74696
0.470675	2.72623	0.329714	1.90073	0.471539	2.72561	0.607684	3.5304	0.722533	4.19653	0.934974	5.42053	0.477999	2.77524	0.59227	3.42368	0.799012	4.63758	0.986874	5.72114
0.472936	2.72463	0.331748	1.90224	0.473804	2.72403	0.609174	3.52	0.724059	4.18276	0.935969	5.39715	0.480107	2.77248	0.593905	3.41474	0.800049	4.61862	0.987779	5.69563
0.475205	2.72309	0.333783	1.90374	0.476076	2.72251	0.610668	3.50974	0.72559	4.16916	0.936969	5.37404	0.482214	2.76974	0.595545	3.40592	0.80109	4.59989	0.988688	5.67041
0.477482	2.7216	0.335816	1.90521	0.478355	2.72105	0.612166	3.49961	0.727125	4.15574	0.937974	5.35121	0.48432	2.76703	0.59719	3.39723	0.802135	4.58138	0.989602	5.64548
0.479765	2.72017	0.33785	1.90667	0.48064	2.71963	0.613669	3.48962	0.728664	4.14248	0.938983	5.32864	0.486425	2.76435	0.598841	3.38866	0.803185	4.5631	0.990519	5.62084
0.482055	2.71879	0.339884	1.90812	0.482932	2.71827	0.615176	3.47975	0.730207	4.12938	0.939996	5.30633	0.48853	2.76169	0.600496	3.38021	0.80424	4.54503	0.991441	5.59648
0.48435	2.71746	0.341918	1.90955	0.485231	2.71696	0.616687	3.47001	0.731755	4.11644	0.941013	5.28428	0.490634	2.75905	0.602157	3.37187	0.8053	4.52718	0.992367	5.5724
0.486652	2.71617	0.343951	1.91096	0.487535	2.71569	0.618203	3.4604	0.733306	4.10366	0.942035	5.26249	0.492737	2.75643	0.603823	3.36365	0.806363	4.50954	0.993297	5.54859
0.48896	2.71493	0.345984	1.91236	0.489844	2.71447	0.619722	3.45091	0.734862	4.09103	0.943061	5.24094	0.49484	2.75384	0.605493	3.35554	0.807432	4.49211	0.994231	5.52505
0.491273	2.71374	0.348017	1.91374	0.492159	2.71329	0.621246	3.44154	0.736421	4.07856	0.944092	5.21964	0.496941	2.75127	0.607169	3.34754	0.808505	4.47489	0.995169	5.50178
0.493591	2.71258	0.35005	1.91511	0.494479	2.71215	0.622774	3.43229	0.737985	4.06624	0.945127	5.19859	0.499042	2.74873	0.60885	3.33966	0.809582	4.45786	0.996111	5.47877
0.495914	2.71147	0.352083	1.91646	0.496804	2.71105	0.624306	3.42315	0.739553	4.05407	0.946166	5.17777	0.501142	2.7462	0.610536	3.33188	0.810664	4.44103	0.997057	5.45601
0.498241	2.71039	0.354116	1.9178	0.499133	2.70998	0.625843	3.41414	0.741124	4.04204	0.947209	5.15718	0.503241	2.74369	0.612227	3.3242	0.811751	4.4244	0.998007	5.43351
0.500574	2.70934	0.356148	1.91912	0.501467	2.70895	0.627383	3.40523	0.7427	4.03015	0.948257	5.13683	0.505339	2.74121	0.613923	3.31663	0.812842	4.40797	0.998961	5.41126
0.50291	2.70833	0.35818	1.92043	0.503805	2.70795	0.628927	3.39644	0.744279	4.01841	0.949309	5.11671	0.507437	2.73875	0.615623	3.30916	0.813937	4.39172	0.99992	5.38925
0.505251	2.70735	0.360212	1.92172	0.506147	2.70698	0.630475	3.38775	0.745862	4.0068	0.950366	5.0968	0.509533	2.7363	0.617329	3.30179	0.815037	4.37565	1.00088	5.36748
0.507595	2.7064	0.362244	1.92301	0.508493	2.70605	0.632028	3.37918	0.74745	3.99533	0.951426	5.07712	0.511629	2.73388	0.619039	3.29453	0.816141	4.35978		
0.509943	2.70548	0.364276	1.92427	0.510843	2.70514	0.633584	3.3707	0.74904	3.98399	0.952491	5.05766	0.513724	2.73147	0.620755	3.28735	0.81725	4.34408		
0.512295	2.70459	0.366308	1.92553	0.513196	2.70426	0.635144	3.36234	0.750635	3.97278	0.95356	5.03841	0.515818	2.72908	0.622475	3.28028	0.818363	4.32856		
0.514651	2.70373	0.368339	1.92677	0.515553	2.7034	0.636708	3.35407	0.752233	3.96171	0.954633	5.01937	0.517911	2.72672	0.624199	3.2733	0.819481	4.31321		
0.517009	2.70289	0.37037	1.928	0.517912	2.70257	0.638276	3.34591	0.753835	3.95076	0.955711	5.00054	0.520003	2.72437	0.625929	3.26641	0.820603	4.29804		
0.519371	2.70207	0.372401	1.92922	0.520275	2.70177	0.639847	3.33785	0.755441	3.93994	0.956792	4.98191	0.522094	2.72204	0.627663	3.25961	0.821729	4.28304		
0.521735	2.70128	0.374432	1.93042	0.522641	2.70098	0.641423	3.32988	0.75705	3.92924	0.957878	4.96349	0.524184	2.71972	0.629402	3.2529	0.82286	4.26821		
0.524103	2.70051	0.376463	1.93161	0.525009	2.70022	0.643002	3.32201	0.758663	3.91866	0.958968	4.94526	0.526273	2.71742	0.631146	3.24628	0.823995	4.25354		
0.526473	2.69976	0.378493	1.93279	0.527381	2.69948	0.644585	3.31424	0.76028	3.9082	0.960062	4.92723	0.528361	2.71514	0.632894	3.23975	0.825134	4.23903		
0.528846	2.69903	0.380524	1.93396	0.529754	2.69876	0.646171	3.30656	0.7619	3.89786	0.961161	4.90939	0.530448	2.71288	0.634647	3.2333	0.826278	4.22469		
0.531221	2.69833	0.382554	1.93511	0.532131	2.69806	0.647762	3.29897	0.763523	3.88764	0.962263	4.89174	0.532534	2.71063	0.636405	3.22694	0.827426	4.2105		
0.533599	2.69764	0.384583	1.93625	0.534509	2.69738	0.649356	3.29147	0.76515	3.87753	0.96337	4.87428	0.534619	2.7084	0.638167	3.22066	0.828579	4.19647		
0.535979	2.69697	0.386613	1.93738	0.53689	2.69671	0.650953	3.28406	0.766781	3.86753	0.96448	4.85701	0.536703	2.70619	0.639934	3.21446	0.829736	4.18259		
0.538361	2.69631	0.388643	1.9385	0.539273	2.69607	0.652555	3.27673	0.768415	3.85764	0.965595	4.83991	0.538786	2.70399	0.641705	3.20834	0.830897	4.16887		
0.540745	2.69567	0.390672	1.93961	0.541658	2.69543	0.65416	3.26949	0.770052	3.84786	0.966714	4.823	0.540868	2.7018	0.643481	3.2023	0.832062	4.15529		
0.543131	2.69505	0.392701	1.94071	0.544045	2.69482	0.655768	3.26234	0.771693	3.83819	0.967837	4.80626	0.542949	2.69963	0.645261	3.19634	0.833232	4.14186		
0.545519	2.69444	0.39473	1.94179	0.546434	2.69422	0.65738	3.25527	0.773337	3.82863	0.968964	4.78969	0.545029	2.69748	0.647046	3.19046	0.834405	4.12857		
0.547909	2.69385	0.396758	1.94287	0.548824	2.69363	0.658996	3.24829	0.774985	3.81917	0.970095	4.7733	0.547108	2.69534	0.648835	3.18465	0.835584	4.11543		
0.550301	2.69327	0.398787	1.94393	0.551216	2.69306	0.660615	3.24138	0.776636	3.80981	0.97123	4.75708	0.549186	2.69321	0.650628	3.17891	0.836766	4.10243		
0.552694	2.69271	0.400815	1.94498	0.55361	2.6925	0.662237	3.23456	0.77829	3.80055	0.972369	4.74102	0.551262	2.6911	0.652426	3.17325	0.837953	4.08957		
0.555089	2.69216	0.402843	1.94603	0.556006	2.69195	0.663863	3.22781	0.779947	3.7914	0.973512	4.72513	0.553338	2.689	0.654228	3.16767	0.839143	4.07684		
0.557485	2.69162	0.404871	1.94706	0.558403	2.69141	0.665493	3.22114	0.781607	3.78234	0.974659	4.7094	0.555412	2.68692	0.656035	3.16215	0.840338	4.06425		
0.559883	2.69109	0.406898	1.94808	0.560801	2.69089	0.667126	3.21455	0.783271	3.77338	0.975811	4.69383	0.557486	2.68485	0.657846	3.1567	0.841538	4.05179		
0.562282	2.69057	0.408926	1.94909	0.563201	2.69038	0.668762	3.20803	0.784938	3.76451	0.976966	4.67842	0.559558	2.68279	0.659661	3.15132	0.842741	4.03946		
0.564683	2.69006	0.410953	1.9501	0.565602	2.68987	0.670402	3.20159	0.786608	3.75574	0.978125	4.66317	0.561629	2.68075	0.66148	3.14601	0.843948	4.02727		
0.567085	2.68957	0.41298	1.95109	0.568004	2.68938	0.672045	3.19522	0.788281	3.74706	0.979288	4.64807	0.563699	2.67871	0.663304	3.14076	0.84516	4.0152		
0.569487	2.68908	0.415006	1.95207	0.570407	2.6889	0.673691	3.18892	0.789957	3.73847	0.980455	4.63312	0.565768	2.67669	0.665131	3.13559	0.846376	4.00325		
0.571892	2.68861	0.417033	1.95304	0.572812	2.68843	0.67534	3.18269	0.791637	3.72997	0.981626	4.61832	0.567836	2.67469	0.666963	3.13047	0.847596	3.99143		
0.574297	2.68814	0.419059	1.95401	0.575217	2.68796	0.676993	3.17653	0.793319	3.72156	0.982801	4.60367	0.569903	2.67269	0.668799	3.12542	0.84882	3.97974		
0.576703	2.68768	0.421085	1.95496	0.577624	2.68751	0.67865	3.17044	0.795004	3.71324	0.98398	4.58916	0.571968	2.67071	0.67064	3.12044	0.850048	3.96816		
0.57911	2.68723	0.423111	1.9559	0.580032	2.68706	0.680309	3.16442	0.796693	3.705	0.985162	4.5748	0.574033	2.66874	0.672484	3.11551	0.851281	3.95671		
0.581518	2.68679	0.425136	1.95684	0.58244	2.68662	0.681972	3.15847	0.798384	3.69685	0.986349	4.56058	0.576096	2.66678	0.674332	3.11065	0.852517	3.94537		
0.583927	2.68636	0.427161	1.95777	0.584849	2.68619	0.683638	3.15258	0.800078	3.68878	0.98754	4.5465	0.578158	2.66483	0.676185	3.10584	0.853758	3.93415		
0.586337	2.68593	0.429186	1.95868	0.58726	2.68577	0.685307	3.14676	0.801775	3.68079	0.988734	4.53255	0.580219	2.6629	0.678041	3.1011	0.855002	3.92304		
0.588748	2.68551	0.431211	1.95959	0.589671	2.68535	0.686979	3.141	0.803475	3.67289	0.989932	4.51875	0.582278	2.66097	0.679901	3.09641	0.856251	3.91204		
0.591159	2.6851	0.433236	1.96049	0.592082	2.68494	0.688654	3.1353	0.805178	3.66506	0.991134	4.50507	0.584337	2.65906	0.681766	3.09179	0.857503	3.90116		
0.593571	2.68469	0.43526	1.96138	0.594495	2.68454	0.690333	3.12967	0.806884	3.65731	0.99234	4.49153	0.586394	2.65715	0.683634	3.08721	0.85876	3.89039		
0.595984	2.6843	0.437284	1.96227	0.596908	2.68414	0.692015	3.1241	0.808592	3.64965	0.99355	4.47812	0.588451	2.65526	0.685506	3.0827	0.860021	3.87972		
0.598398	2.6839	0.439308	1.96314	0.599321	2.68375	0.6937	3.11859	0.810304	3.64205	0.994764	4.46485	0.590506	2.65338	0.687382	3.07824	0.861286	3.86917		
0.600812	2.68352	0.441332	1.96401	0.601736	2.68337	0.695387	3.11313	0.812018	3.63454	0.995981	4.45169	0.59256	2.65151	0.689262	3.07383	0.862554	3.85872		
0.603226	2.68313	0.443355	1.96486	0.60415	2.68299	0.697078	3.10774	0.813735	3.6271	0.997202	4.43867	0.594612	2.64965	0.691146	3.06948	0.863827	3.84837		
0.605641	2.68276	0.445378	1.96571	0.606566	2.68262	0.698773	3.10241	0.815454	3.61973	0.998427	4.42577	0.596664	2.6478	0.693034	3.06518	0.865104	3.83813		
0.608057	2.68239	0.447401	1.96655	0.608981	2.68225	0.70047	3.09713	0.817177	3.61244	0.999656	4.41299	0.598714	2.64595	0.694925	3.06093	0.866385	3.82799		
0.610473	2.68202	0.449424	1.96739	0.611397	2.68189	0.70217	3.09191	0.818902	3.60521	1.00089	4.40033	0.600763	2.64412	0.69682	3.05673	0.867669	3.81795		
0.612889	2.68166	0.451446	1.96821	0.613814	2.68153	0.703873	3.08675	0.820629	3.59806			0.602812	2.6423	0.698719	3.05259	0.868958	3.808		
0.615306	2.68131	0.453468	1.96903	0.616231	2.68117	0.705579	3.08164	0.82236	3.59098			0.604858	2.64049	0.700621	3.04849	0.870251	3.79816		
0.617723	2.68096	0.45549	1.96984	0.618648	2.68082	0.707288	3.07658	0.824093	3.58396			0.606904	2.63869	0.702528	3.04444	0.871547	3.78841		
0.620141	2.68061	0.457512	1.97065	0.621066	2.68048	0.709001	3.07158	0.825828	3.57702			0.608948	2.6369	0.704437	3.04044	0.872848	3.77876		
0.622559	2.68027	0.459534	1.97144	0.623484	2.68014	0.710716	3.06664	0.827566	3.57014			0.610992	2.63511	0.706351	3.03649	0.874152	3.76921		
0.624977	2.67993	0.461555	1.97223	0.625902	2.6798	0.712434	3.06174	0.829307	3.56332			0.613034	2.63334	0.708268	3.03259	0.87546	3.75974		
0.627395	2.67959	0.463576	1.97301	0.62832	2.67946	0.714155	3.0569	0.83105	3.55658			0.615075	2.63157	0.710188	3.02873	0.876772	3.75037		
0.629813	2.67926	0.465596	1.97378	0.630739	2.67913	0.715879	3.0521	0.832796	3.54989			0.617115	2.62982	0.712112	3.02491	0.878088	3.74109		
0.632232	2.67893	0.467617	1.97455	0.633158	2.6788	0.717606	3.04736	0.834544	3.54327			0.619153	2.62807	0.71404	3.02114	0.879408	3.7319		
0.634651	2.6786	0.469637	1.97531	0.635576	2.67848	0.719335	3.04267	0.836294	3.53672			0.621191	2.62633	0.715971	3.01742	0.880732	3.7228		
0.63707	2.67828	0.471657	1.97606	0.637995	2.67816	0.721068	3.03803	0.838047	3.53022			0.623227	2.6246	0.717906	3.01374	0.882059	3.71379		
0.639489	2.67796	0.473677	1.97681	0.640414	2.67784	0.722804	3.03343	0.839803	3.52378			0.625262	2.62288	0.719843	3.0101	0.883391	3.70486		
0.641908	2.67764	0.475696	1.97755	0.642833	2.67752	0.724542	3.02888	0.841561	3.51741			0.627296	2.62117	0.721785	3.00651	0.884726	3.69602		
0.644327	2.67733	0.477716	1.97828	0.645253	2.67721	0.726283	3.02438	0.843321	3.51109			0.629329	2.61947	0.723729	3.00295	0.886065	3.68726		
0.646746	2.67702	0.479735	1.979	0.647672	2.6769	0.728027	3.01993	0.845084	3.50484			0.631361	2.61777	0.725677	2.99944	0.887408	3.67859		
0.649165	2.67671	0.481753	1.97972	0.650091	2.67659	0.729774	3.01552	0.846849	3.49864			0.633391	2.61609	0.727629	2.99597	0.888755	3.66999		
0.651584	2.6764	0.483772	1.98043	0.65251	2.67628	0.731524	3.01116	0.848616	3.4925			0.635421	2.61441	0.729583	2.99254	0.890105	3.66148		
0.654003	2.6761	0.48579	1.98114	0.654929	2.67598	0.733277	3.00684	0.850385	3.48641			0.637449	2.61274	0.731541	2.98914	0.89146	3.65305		
0.656422	2.67579	0.487808	1.98184	0.657347	2.67568	0.735033	3.00257	0.852157	3.48038			0.639476	2.61107	0.733502	2.98579	0.892818	3.6447		
0.658841	2.67549	0.489826	1.98253	0.659766	2.67538	0.736791	2.99834	0.853931	3.4744			0.641502	2.60942	0.735466	2.98247	0.89418	3.63643		
0.661259	2.67519	0.491843	1.98322	0.662185	2.67508	0.738552	2.99416	0.855708	3.46848			0.643527	2.60777	0.737434	2.9792	0.895545	3.62824		
0.663678	2.67489	0.49386	1.9839	0.664603	2.67478	0.740316	2.99001	0.857486	3.46262			0.645551	2.60613	0.739404	2.97595	0.896915	3.62012		
0.666096	2.6746	0.495877	1.98457	0.667021	2.67448	0.742083	2.98591	0.859267	3.4568			0.647573	2.6045	0.741378	2.97275	0.898288	3.61208		
0.668514	2.6743	0.497894	1.98524	0.669439	2.67419	0.743852	2.98186	0.86105	3.45104			0.649595	2.60288	0.743355	2.96958	0.899665	3.60412		
0.670931	2.674	0.49991	1.98591	0.671857	2.67389	0.745625	2.97784	0.862835	3.44533			0.651615	2.60126	0.745334	2.96645	0.901045	3.59622		
0.673349	2.67371	0.501927	1.98656	0.674274	2.6736	0.7474	2.97386	0.864622	3.43967			0.653635	2.59966	0.747317	2.96335	0.902429	3.5884		
0.675766	2.67342	0.503942	1.98721	0.676691	2.67331	0.749178	2.96993	0.866412	3.43406			0.655653	2.59806	0.749303	2.96029	0.903817	3.58066		
0.678183	2.67313	0.505958	1.98786	0.679108	2.67302	0.750959	2.96603	0.868203	3.4285			0.65767	2.59646	0.751291	2.95726	0.905209	3.57298		
0.680599	2.67284	0.507974	1.9885	0.681524	2.67273	0.752742	2.96218	0.869997	3.42299			0.659686	2.59488	0.753283	2.95427	0.906604	3.56538		
0.683016	2.67255	0.509989	1.98913	0.68394	2.67244	0.754529	2.95836	0.871792	3.41752			0.661701	2.5933	0.755277	2.9513	0.908003	3.55784		
0.685431	2.67226	0.512004	1.98976	0.686355	2.67215	0.756318	2.95458	0.87359	3.41211			0.663715	2.59173	0.757275	2.94837	0.909406	3.55038		
0.687846	2.67197	0.514018	1.99038	0.68877	2.67186	0.75811	2.95084	0.87539	3.40674			0.665728	2.59017	0.759275	2.94548	0.910812	3.54298		
0.690261	2.67168	0.516033	1.991	0.691185	2.67157	0.759904	2.94714	0.877191	3.40142			0.66774	2.58861	0.761278	2.94261	0.912222	3.53565		
0.692675	2.67139	0.518047	1.99161	0.693599	2.67128	0.761702	2.94347	0.878995	3.39614			0.66975	2.58706	0.763283	2.93978	0.913636	3.52839		
0.695089	2.6711	0.520061	1.99222	0.696013	2.67099	0.763502	2.93985	0.880801	3.39091			0.67176	2.58552	0.765292	2.93697	0.915053	3.52119		
0.697502	2.67081	0.522074	1.99282	0.698426	2.6707	0.765305	2.93625	0.882608	3.38573			0.673769	2.58398	0.767303	2.9342	0.916474	3.51406		
0.699915	2.67052	0.524088	1.99341	0.700838	2.67041	0.767111	2.9327	0.884418	3.38059			0.675777	2.58246	0.769317	2.93146	0.917899	3.507		
0.702327	2.67023	0.526101	1.99401	0.70325	2.67012	0.76892	2.92918	0.886229	3.37549			0.677783	2.58094	0.771333	2.92874	0.919327	3.49999		
0.704739	2.66994	0.528114	1.99459	0.705661	2.66983	0.770731	2.9257	0.888043	3.37044			0.679789	2.57942	0.773353	2.92606	0.920758	3.49305		
0.707149	2.66965	0.530126	1.99517	0.708072	2.66954	0.772545	2.92225	0.889858	3.36543			0.681794	2.57792	0.775374	2.9234	0.922194	3.48618		
0.709559	2.66936	0.532139	1.99575	0.710482	2.66925	0.774363	2.91884	0.891675	3.36046			0.683797	2.57642	0.777399	2.92078	0.923633	3.47936		
0.711969	2.66907	0.534151	1.99632	0.712891	2.66896	0.776182	2.91546	0.893494	3.35553			0.6858	2.57492	0.779425	2.91818	0.925075	3.47261		
0.714377	2.66878	0.536163	1.99688	0.715299	2.66867	0.778005	2.91211	0.895315	3.35065			0.687802	2.57344	0.781455	2.9156	0.926521	3.46591		
0.716785	2.66849	0.538174	1.99744	0.717707	2.66838	0.779831	2.9088	0.897138	3.3458			0.689803	2.57196	0.783487	2.91306	0.927971	3.45928		
0.719192	2.66819	0.540186	1.998	0.720113	2.66808	0.781659	2.90552	0.898962	3.341			0.691803	2.57048	0.785521	2.91054	0.929424	3.45271		
0.721599	2.6679	0.542197	1.99855	0.722519	2.66779	0.78349	2.90228	0.900789	3.33623			0.693802	2.56902	0.787558	2.90805	0.930881	3.44619		
0.724004	2.6676	0.544208	1.9991	0.724924	2.66749	0.785325	2.89907	0.902617	3.33151			0.6958	2.56756	0.789597	2.90558	0.932341	3.43973		
0.726408	2.66731	0.546218	1.99964	0.727328	2.66719	0.787162	2.89589	0.904447	3.32682			0.697797	2.5661	0.791638	2.90314	0.933805	3.43333		
0.728812	2.66701	0.548228	2.00018	0.729731	2.66689	0.789002	2.89274	0.906278	3.32217			0.699793	2.56466	0.793682	2.90072	0.935272	3.42699		
0.731214	2.66671	0.550238	2.00071	0.732134	2.66659	0.790844	2.88963	0.908111	3.31756			0.701788	2.56322	0.795728	2.89833	0.936743	3.4207		
0.733616	2.66641	0.552248	2.00124	0.734535	2.66629	0.79269	2.88655	0.909946	3.31299			0.703783	2.56179	0.797776	2.89596	0.938217	3.41446		
0.736016	2.6661	0.554258	2.00176	0.736935	2.66599	0.794539	2.8835	0.911783	3.30845			0.705776	2.56036	0.799827	2.89362	0.939695	3.40829		
0.738416	2.6658	0.556267	2.00228	0.739334	2.66568	0.79639	2.88048	0.913621	3.30395			0.707769	2.55894	0.801879	2.8913	0.941176	3.40216		
0.740814	2.66549	0.558276	2.0028	0.741732	2.66537	0.798245	2.87749	0.915461	3.29949			0.70976	2.55752	0.803934	2.889	0.942661	3.39609		
0.743211	2.66518	0.560285	2.00331	0.744128	2.66506	0.800102	2.87453	0.917303	3.29506			0.711751	2.55612	0.805991	2.88673	0.944149	3.39007		
0.745607	2.66487	0.562293	2.00381	0.746524	2.66475	0.801963	2.8716	0.919146	3.29067			0.713741	2.55472	0.80805	2.88448	0.945641	3.38411		
0.748002	2.66455	0.564302	2.00431	0.748918	2.66443	0.803827	2.8687	0.920991	3.28632			0.715731	2.55332	0.810112	2.88225	0.947136	3.3782		
0.750395	2.66424	0.56631	2.00481	0.751311	2.66412	0.805693	2.86584	0.922838	3.28199			0.717719	2.55193	0.812175	2.88005	0.948635	3.37234		
0.752787	2.66392	0.568317	2.00531	0.753703	2.6638	0.807563	2.863	0.924686	3.2777			0.719707	2.55055	0.81424	2.87786	0.950137	3.36653		
0.755178	2.6636	0.570325	2.00579	0.756093	2.66347	0.809436	2.86019	0.926535	3.27345			0.721693	2.54917	0.816307	2.8757	0.951643	3.36077		
0.757568	2.66327	0.572332	2.00628	0.758482	2.66315	0.811311	2.85741	0.928387	3.26923			0.723679	2.5478	0.818377	2.87356	0.953152	3.35506		
0.759956	2.66295	0.574339	2.00676	0.760869	2.66282	0.81319	2.85466	0.930239	3.26504			0.725665	2.54644	0.820448	2.87144	0.954664	3.3494		
0.762342	2.66262	0.576346	2.00724	0.763255	2.66249	0.815073	2.85194	0.932094	3.26089			0.727649	2.54508	0.822521	2.86934	0.95618	3.34378		
0.764727	2.66228	0.578352	2.00771	0.765639	2.66215	0.816958	2.84925	0.933949	3.25676			0.729633	2.54373	0.824596	2.86726	0.9577	3.33822		
0.767111	2.66195	0.580358	2.00818	0.768022	2.66182	0.818847	2.84659	0.935807	3.25267			0.731616	2.54239	0.826673	2.86519	0.959222	3.3327		
0.769492	2.66161	0.582364	2.00865	0.770403	2.66147	0.820738	2.84395	0.937665	3.24861			0.733598	2.54105	0.828752	2.86315	0.960749	3.32724		
0.771873	2.66126	0.58437	2.00911	0.772783	2.66113	0.822633	2.84135	0.939526	3.24458			0.735579	2.53971	0.830832	2.86113	0.962278	3.32182		
0.774251	2.66091	0.586376	2.00957	0.775161	2.66078	0.824532	2.83877	0.941387	3.24059			0.73756	2.53839	0.832914	2.85913	0.963811	3.31644		
0.776628	2.66056	0.588381	2.01002	0.777537	2.66043	0.826433	2.83622	0.94325	3.23662			0.73954	2.53707	0.834998	2.85714	0.965348	3.31111		
0.779002	2.66021	0.590386	2.01047	0.779911	2.66007	0.828339	2.83369	0.945115	3.23268			0.741519	2.53575	0.837084	2.85518	0.966887	3.30583		
0.781376	2.65985	0.59239	2.01092	0.782283	2.65971	0.830247	2.8312	0.946981	3.22877			0.743498	2.53444	0.839171	2.85323	0.96843	3.30059		
0.783747	2.65949	0.594395	2.01136	0.784653	2.65935	0.832159	2.82873	0.948848	3.2249			0.745476	2.53314	0.84126	2.8513	0.969977	3.2954		
0.786116	2.65912	0.596399	2.0118	0.787022	2.65898	0.834074	2.82629	0.950717	3.22105			0.747453	2.53184	0.84335	2.84939	0.971527	3.29025		
0.788483	2.65875	0.598403	2.01223	0.789388	2.6586	0.835993	2.82388	0.952587	3.21723			0.749429	2.53055	0.845443	2.84749	0.97308	3.28514		
0.790848	2.65837	0.600407	2.01267	0.791752	2.65822	0.837916	2.82149	0.954458	3.21344			0.751405	2.52927	0.847536	2.84562	0.974637	3.28008		
0.793211	2.65799	0.60241	2.01309	0.794114	2.65784	0.839842	2.81913	0.956331	3.20967			0.753381	2.52799	0.849631	2.84375	0.976197	3.27506		
0.795571	2.6576	0.604413	2.01352	0.796474	2.65745	0.841771	2.8168	0.958205	3.20594			0.755355	2.52671	0.851728	2.84191	0.97776	3.27009		
0.79793	2.65721	0.606416	2.01394	0.798832	2.65706	0.843705	2.8145	0.96008	3.20223			0.757329	2.52545	0.853826	2.84008	0.979327	3.26515		
0.800286	2.65681	0.608419	2.01436	0.801187	2.65666	0.845642	2.81222	0.961957	3.19855			0.759303	2.52419	0.855926	2.83827	0.980897	3.26026		
0.80264	2.65641	0.610421	2.01477	0.80354	2.65626	0.847583	2.80997	0.963835	3.1949			0.761275	2.52293	0.858027	2.83647	0.98247	3.25541		
0.804991	2.656	0.612423	2.01519	0.80589	2.65585	0.849528	2.80774	0.965714	3.19127			0.763248	2.52168	0.860129	2.83469	0.984047	3.2506		
0.80734	2.65559	0.614425	2.01559	0.808238	2.65543	0.851476	2.80554	0.967595	3.18767			0.765219	2.52044	0.862233	2.83293	0.985627	3.24583		
0.809686	2.65517	0.616427	2.016	0.810584	2.65501	0.853429	2.80337	0.969476	3.1841			0.76719	2.5192	0.864338	2.83118	0.98721	3.2411		
0.81203	2.65474	0.618428	2.0164	0.812926	2.65458	0.855385	2.80122	0.971359	3.18055			0.769161	2.51796	0.866445	2.82944	0.988797	3.23641		
0.814371	2.65431	0.620429	2.0168	0.815266	2.65415	0.857345	2.7991	0.973244	3.17703			0.771131	2.51674	0.868552	2.82772	0.990387	3.23175		
0.81671	2.65388	0.62243	2.01719	0.817604	2.65371	0.85931	2.79701	0.975129	3.17353			0.7731	2.51551	0.870661	2.82601	0.99198	3.22714		
0.819045	2.65343	0.624431	2.01758	0.819938	2.65326	0.861279	2.79494	0.977015	3.17006			0.775069	2.5143	0.872771	2.82432	0.993577	3.22257		
0.821378	2.65298	0.626431	2.01797	0.822269	2.65281	0.863251	2.7929	0.978903	3.16661			0.777037	2.51309	0.874883	2.82264	0.995177	3.21803		
0.823707	2.65252	0.628431	2.01836	0.824598	2.65235	0.865228	2.79088	0.980792	3.16319			0.779005	2.51188	0.876995	2.82098	0.99678	3.21354		
0.826034	2.65206	0.630431	2.01874	0.826924	2.65188	0.86721	2.78889	0.982682	3.15979			0.780972	2.51068	0.879109	2.81933	0.998386	3.20908		
0.828358	2.65159	0.632431	2.01912	0.829246	2.6514	0.869195	2.78693	0.984574	3.15641			0.782939	2.50949	0.881223	2.81769	0.999996	3.20465		
0.830678	2.65111	0.63443	2.0195	0.831565	2.65092	0.871185	2.78499	0.986466	3.15306			0.784905	2.5083	0.883339	2.81607	1.00161	3.20027		
0.832995	2.65062	0.636429	2.01987	0.833881	2.65043	0.873179	2.78307	0.988359	3.14973			0.786871	2.50712	0.885456	2.81446				
0.835309	2.65013	0.638428	2.02024	0.836194	2.64994	0.875178	2.78118	0.990254	3.14643			0.788837	2.50594	0.887574	2.81286				
0.83762	2.64963	0.640427	2.02061	0.838503	2.64943	0.877182	2.77932	0.99215	3.14315			0.790801	2.50477	0.889692	2.81127				
0.839927	2.64912	0.642425	2.02097	0.840809	2.64892	0.87919	2.77749	0.994047	3.13989			0.792766	2.50361	0.891812	2.8097				
0.842231	2.6486	0.644423	2.02133	0.843111	2.6484	0.881202	2.77567	0.995944	3.13665			0.79473	2.50244	0.893933	2.80814				
0.844531	2.64807	0.646421	2.02169	0.84541	2.64787	0.88322	2.77389	0.997843	3.13344			0.796693	2.50129	0.896055	2.80659				
0.846827	2.64754	0.648419	2.02205	0.847705	2.64733	0.885242	2.77213	0.999743	3.13025			0.798657	2.50014	0.898177	2.80505				
0.84912	2.647	0.650416	2.0224	0.849997	2.64679	0.887269	2.77039	1.00164	3.12708			0.800619	2.49899	0.900301	2.80352				
0.851409	2.64645	0.652414	2.02275	0.852284	2.64624	0.889301	2.76868					0.802582	2.49786	0.902425	2.80201				
0.853695	2.64589	0.65441	2.0231	0.854568	2.64567	0.891337	2.767					0.804544	2.49672	0.90455	2.80051				
0.855976	2.64532	0.656407	2.02344	0.856848	2.6451	0.893379	2.76534					0.806505	2.49559	0.906676	2.79901				
0.858254	2.64475	0.658404	2.02378	0.859124	2.64452	0.895426	2.7637					0.808466	2.49447	0.908802	2.79753				
0.860527	2.64416	0.6604	2.02412	0.861396	2.64393	0.897478	2.76209					0.810427	2.49335	0.91093	2.79606				
0.862797	2.64357	0.662396	2.02446	0.863664	2.64334	0.899535	2.76051					0.812387	2.49224	0.913058	2.7946				
0.865062	2.64296	0.664391	2.02479	0.865928	2.64273	0.901597	2.75895					0.814347	2.49113	0.915186	2.79315				
0.867324	2.64235	0.666387	2.02512	0.868188	2.64211	0.903664	2.75741					0.816307	2.49003	0.917316	2.79171				
0.869581	2.64173	0.668382	2.02545	0.870443	2.64149	0.905736	2.7559					0.818266	2.48893	0.919446	2.79028				
0.871834	2.6411	0.670377	2.02578	0.872695	2.64085	0.907814	2.75441					0.820225	2.48784	0.921576	2.78886				
0.874082	2.64046	0.672372	2.0261	0.874941	2.64021	0.909897	2.75295					0.822184	2.48676	0.923707	2.78745				
0.876326	2.63981	0.674366	2.02642	0.877184	2.63955	0.911986	2.75151					0.824142	2.48567	0.925839	2.78605				
0.878566	2.63915	0.67636	2.02674	0.879422	2.63889	0.914079	2.7501					0.8261	2.4846	0.927971	2.78466				
0.880802	2.63848	0.678354	2.02706	0.881656	2.63822	0.916179	2.74871					0.828058	2.48353	0.930104	2.78328				
0.883033	2.6378	0.680348	2.02737	0.883885	2.63753	0.918283	2.74735					0.830016	2.48246	0.932237	2.78191				
0.885259	2.63711	0.682342	2.02768	0.88611	2.63684	0.920393	2.746					0.831973	2.4814	0.934371	2.78054				
0.887481	2.63641	0.684335	2.02799	0.88833	2.63614	0.922509	2.74469					0.83393	2.48034	0.936505	2.77919				
0.889699	2.6357	0.686328	2.02829	0.890546	2.63543	0.92463	2.74339					0.835886	2.47929	0.93864	2.77784				
0.891912	2.63499	0.688321	2.0286	0.892757	2.63471	0.926756	2.74212					0.837843	2.47825	0.940774	2.77651				
0.89412	2.63426	0.690313	2.0289	0.894964	2.63398	0.928888	2.74087					0.839799	2.47721	0.94291	2.77518				
0.896324	2.63352	0.692305	2.0292	0.897166	2.63324	0.931026	2.73965					0.841755	2.47617	0.945045	2.77386				
0.898523	2.63278	0.694297	2.02949	0.899364	2.63249	0.933169	2.73845					0.84371	2.47514	0.947181	2.77254				
0.900718	2.63202	0.696289	2.02979	0.901557	2.63173	0.935317	2.73727					0.845665	2.47411	0.949317	2.77124				
0.902908	2.63126	0.698281	2.03008	0.903745	2.63097	0.937471	2.73611					0.847621	2.47309	0.951453	2.76994				
0.905094	2.63049	0.700272	2.03037	0.905929	2.63019	0.939631	2.73498					0.849576	2.47208	0.95359	2.76865				
0.907275	2.62971	0.702263	2.03066	0.908108	2.6294	0.941796	2.73386					0.85153	2.47106	0.955727	2.76737				
0.909451	2.62891	0.704254	2.03094	0.910283	2.62861	0.943966	2.73277					0.853485	2.47006	0.957864	2.76609				
0.911623	2.62812	0.706245	2.03123	0.912453	2.62781	0.946142	2.7317					0.855439	2.46906	0.960001	2.76483				
0.913791	2.62731	0.708235	2.03151	0.914619	2.627	0.948323	2.73066					0.857393	2.46806	0.962138	2.76357				
0.915954	2.62649	0.710225	2.03179	0.91678	2.62618	0.950509	2.72963					0.859347	2.46707	0.964276	2.76231				
0.918112	2.62566	0.712215	2.03206	0.918937	2.62535	0.952701	2.72862					0.861301	2.46608	0.966413	2.76107				
0.920266	2.62483	0.714205	2.03234	0.92109	2.62451	0.954898	2.72763					0.863254	2.4651	0.968551	2.75983				
0.922416	2.62399	0.716194	2.03261	0.923238	2.62367	0.9571	2.72667					0.865207	2.46412	0.970689	2.7586				
0.924562	2.62314	0.718184	2.03288	0.925381	2.62281	0.959307	2.72572					0.867161	2.46315	0.972826	2.75737				
0.926703	2.62228	0.720173	2.03315	0.927521	2.62195	0.96152	2.7248					0.869114	2.46218	0.974964	2.75615				
0.92884	2.62142	0.722161	2.03341	0.929656	2.62109	0.963737	2.72389					0.871067	2.46121	0.977102	2.75494				
0.930972	2.62055	0.72415	2.03368	0.931787	2.62021	0.96596	2.723					0.873019	2.46025	0.979239	2.75373				
0.933101	2.61967	0.726138	2.03394	0.933914	2.61933	0.968187	2.72213					0.874972	2.4593	0.981377	2.75253				
0.935225	2.61878	0.728126	2.0342	0.936037	2.61844	0.97042	2.72128					0.876924	2.45835	0.983514	2.75134				
0.937346	2.61789	0.730114	2.03446	0.938156	2.61755	0.972657	2.72044					0.878877	2.4574	0.985651	2.75015				
0.939462	2.61699	0.732102	2.03471	0.940271	2.61665	0.974899	2.71963					0.880829	2.45646	0.987789	2.74896				
0.941575	2.61609	0.734089	2.03497	0.942382	2.61574	0.977146	2.71883					0.882781	2.45553	0.989926	2.74779				
0.943684	2.61518	0.736076	2.03522	0.944489	2.61483	0.979397	2.71805					0.884733	2.4546	0.992063	2.74661				
0.945788	2.61426	0.738063	2.03547	0.946593	2.61391	0.981653	2.71728					0.886685	2.45367	0.994199	2.74545				
0.94789	2.61334	0.74005	2.03572	0.948693	2.61298	0.983913	2.71653					0.888636	2.45274	0.996336	2.74429				
0.949987	2.61241	0.742036	2.03596	0.950789	2.61205	0.986178	2.7158					0.890588	2.45183	0.998472	2.74313				
0.952081	2.61148	0.744022	2.03621	0.952882	2.61112	0.988447	2.71508					0.89254	2.45091	1.00061	2.74198				
0.954172	2.61054	0.746008	2.03645	0.954971	2.61018	0.99072	2.71438					0.894491	2.45						
0.956259	2.6096	0.747994	2.03669	0.957056	2.60924	0.992997	2.71369					0.896443	2.4491						
0.958342	2.60865	0.749979	2.03693	0.959139	2.60829	0.995279	2.71302					0.898394	2.4482						
0.960423	2.6077	0.751965	2.03717	0.961218	2.60734	0.997564	2.71236					0.900345	2.4473						
0.9625	2.60675	0.75395	2.0374	0.963294	2.60638	0.999853	2.71171					0.902296	2.44641						
0.964574	2.60579	0.755935	2.03764	0.965367	2.60542	1.00215	2.71108					0.904247	2.44552						
0.966645	2.60483	0.757919	2.03787	0.967436	2.60446							0.906198	2.44464						
0.968713	2.60386	0.759904	2.0381	0.969503	2.60349							0.908149	2.44376						
0.970778	2.60289	0.761888	2.03833	0.971567	2.60252							0.9101	2.44289						
0.97284	2.60192	0.763872	2.03855	0.973628	2.60155							0.912051	2.44201						
0.974899	2.60095	0.765856	2.03878	0.975686	2.60058							0.914002	2.44115						
0.976956	2.59997	0.767839	2.039	0.977742	2.5996							0.915953	2.44029						
0.97901	2.599	0.769822	2.03922	0.979795	2.59862							0.917904	2.43943						
0.981061	2.59802	0.771805	2.03944	0.981845	2.59764							0.919855	2.43857						
0.98311	2.59703	0.773788	2.03966	0.983893	2.59666							0.921805	2.43773						
0.985156	2.59605	0.775771	2.03987	0.985939	2.59567							0.923756	2.43688						
0.9872	2.59507	0.777753	2.04009	0.987982	2.59469							0.925707	2.43604						
0.989242	2.59408	0.779735	2.0403	0.990023	2.5937							0.927658	2.4352						
0.991282	2.59309	0.781717	2.04051	0.992061	2.59271							0.929608	2.43437						
0.993319	2.5921	0.783699	2.04072	0.994098	2.59173							0.931559	2.43354						
0.995354	2.59111	0.78568	2.04093	0.996132	2.59074							0.93351	2.43271						
0.997387	2.59013	0.787662	2.04114	0.998165	2.58975							0.93546	2.43189						
0.999418	2.58914	0.789643	2.04134	1.0002	2.58876							0.937411	2.43108						
1.00145	2.58815	0.791624	2.04155									0.939362	2.43026						
		0.793604	2.04175									0.941313	2.42945						
		0.795585	2.04195									0.943263	2.42865						
		0.797565	2.04215									0.945214	2.42785						
		0.799545	2.04235									0.947165	2.42705						
		0.801525	2.04254									0.949116	2.42626						
		0.803504	2.04274									0.951067	2.42547						
		0.805483	2.04293									0.953018	2.42468						
		0.807463	2.04312									0.954969	2.4239						
		0.809442	2.04331									0.95692	2.42312						
		0.81142	2.0435									0.958871	2.42235						
		0.813399	2.04369									0.960822	2.42158						
		0.815377	2.04387									0.962773	2.42081						
		0.817355	2.04406									0.964725	2.42005						
		0.819333	2.04424									0.966676	2.41929						
		0.82131	2.04442									0.968627	2.41853						
		0.823288	2.0446									0.970579	2.41778						
		0.825265	2.04478									0.97253	2.41703						
		0.827242	2.04496									0.974482	2.41629						
		0.829219	2.04514									0.976434	2.41554						
		0.831196	2.04531									0.978385	2.41481						
		0.833172	2.04549									0.980337	2.41407						
		0.835148	2.04566									0.982289	2.41334						
		0.837124	2.04583									0.984241	2.41262						
		0.8391	2.046									0.986193	2.41189						
		0.841075	2.04617									0.988145	2.41117						
		0.843051	2.04634									0.990098	2.41046						
		0.845026	2.0465									0.99205	2.40974						
		0.847001	2.04667									0.994002	2.40904						
		0.848976	2.04683									0.995955	2.40833						
		0.85095	2.04699									0.997908	2.40763						
		0.852924	2.04715									0.999861	2.40693						
		0.854899	2.04731									1.00181	2.40623						
		0.856872	2.04747																
		0.858846	2.04763																
		0.86082	2.04779																
		0.862793	2.04794																
		0.864766	2.0481																
		0.866739	2.04825																
		0.868712	2.0484																
		0.870684	2.04855																
		0.872657	2.0487																
		0.874629	2.04885																
		0.876601	2.049																
		0.878573	2.04914																
		0.880544	2.04929																
		0.882515	2.04943																
		0.884487	2.04957																
		0.886458	2.04972																
		0.888428	2.04986																
		0.890399	2.05																
		0.892369	2.05014																
		0.89434	2.05027																
		0.89631	2.05041																
		0.898279	2.05055																
		0.900249	2.05068																
		0.902218	2.05082																
		0.904188	2.05095																
		0.906157	2.05108																
		0.908126	2.05121																
		0.910094	2.05134																
		0.912063	2.05147																
		0.914031	2.0516																
		0.915999	2.05172																
		0.917967	2.05185																
		0.919935	2.05197																
		0.921903	2.0521																
		0.92387	2.05222																
		0.925837	2.05234																
		0.927804	2.05247																
		0.929771	2.05259																
		0.931738	2.05271																
		0.933704	2.05282																
		0.935671	2.05294																
		0.937637	2.05306																
		0.939603	2.05318																
		0.941568	2.05329																
		0.943534	2.05341																
		0.945499	2.05352																
		0.947465	2.05363																
		0.94943	2.05374																
		0.951395	2.05385																
		0.953359	2.05396																
		0.955324	2.05407																
		0.957288	2.05418																
		0.959252	2.05429																
		0.961216	2.0544																
		0.96318	2.0545																
		0.965144	2.05461																
		0.967107	2.05471																
		0.969071	2.05482																
		0.971034	2.05492																
		0.972997	2.05502																
		0.97496	2.05512																
		0.976922	2.05522																
		0.978885	2.05532																
		0.980847	2.05542																
		0.982809	2.05552																
		0.984771	2.05562																
		0.986733	2.05572																
		0.988695	2.05581																
		0.990656	2.05591																
		0.992617	2.056																
		0.994579	2.0561																
		0.99654	2.05619																
		0.9985	2.05628																
		1.00046	2.05638																
