Sym0		Asym0		Sym1		Sym2		Sym3		Sym4		Asym1		Asym2		Asym3		Asym4	
418  Points		525  Points		418  Points		400  Points		348  Points		248  Points		451  Points		395  Points		340  Points		205  Points	
Freq (MHz)	Vph (m/ms)	Freq (MHz)	Vph (m/ms)	Freq (MHz)	Vph (m/ms)	Freq (MHz)	Vph (m/ms)	Freq (MHz)	Vph (m/ms)	Freq (MHz)	Vph (m/ms)	Freq (MHz)	Vph (m/ms)	Freq (MHz)	Vph (m/ms)	Freq (MHz)	Vph (m/ms)	Freq (MHz)	Vph (m/ms)
0.279511	416.795	0.000252083	0.0984255	0.279514	302.202	0.450129	9143.21	0.559017	5602.95	0.838526	2028.12	0.139755	885.721	0.419269	457.396	0.698771	3230.58	0.900259	2152.85
0.279525	174.451	0.000468195	0.134044	0.279531	150.559	0.450135	458.888	0.559024	541.97	0.838532	623.377	0.139801	128.318	0.419286	226.845	0.698776	608.693	0.900264	666.929
0.27955	110.319	0.00074971	0.169443	0.279559	100.261	0.450152	235.359	0.559043	284.766	0.838543	368.293	0.139914	69.2239	0.419316	150.831	0.698787	336.005	0.900274	394.587
0.279587	80.6724	0.00109598	0.204616	0.279599	75.1607	0.45018	158.273	0.559073	193.126	0.838561	261.353	0.140094	47.4434	0.419358	112.982	0.698804	232.054	0.90029	280.18
0.279635	63.5909	0.00150596	0.2395	0.27965	60.1176	0.450218	119.231	0.559114	146.114	0.838585	202.545	0.140342	36.1281	0.419412	90.3238	0.698827	177.229	0.90031	217.207
0.279694	52.4842	0.00197855	0.274052	0.279712	50.097	0.450267	95.6447	0.559167	117.515	0.838614	165.344	0.140656	29.2043	0.419477	75.241	0.698857	143.362	0.900336	177.349
0.279764	44.6851	0.0025125	0.308232	0.279785	42.9441	0.450327	79.8537	0.559232	98.2843	0.83865	139.691	0.141035	24.5365	0.419555	64.4794	0.698893	120.364	0.900368	149.853
0.279845	38.908	0.00310649	0.342011	0.27987	37.5826	0.450398	68.5423	0.559308	84.4668	0.838692	120.931	0.141478	21.1804	0.419645	56.4152	0.698935	103.728	0.900404	129.741
0.279938	34.4574	0.00375905	0.375352	0.279966	33.4148	0.45048	60.0416	0.559396	74.0595	0.838739	106.615	0.141984	18.6543	0.419746	50.1477	0.698983	91.1338	0.900446	114.39
0.280043	30.9238	0.00446852	0.408218	0.280073	30.0824	0.450572	53.4202	0.559495	65.9391	0.838793	95.3314	0.142553	16.6864	0.41986	45.137	0.699038	81.2688	0.900493	102.289
0.280158	28.0507	0.00523329	0.440583	0.280191	27.3574	0.450675	48.1173	0.559606	59.4268	0.838853	86.2095	0.143182	15.1119	0.419986	41.0399	0.699099	73.3327	0.900546	92.5048
0.280285	25.6688	0.00605174	0.47243	0.280321	25.0879	0.450789	43.775	0.559728	54.0883	0.838918	78.6823	0.143869	13.825	0.420123	37.6276	0.699166	66.8103	0.900603	84.4304
0.280423	23.6624	0.006922	0.50373	0.280462	23.1686	0.450914	40.1542	0.559862	49.6327	0.83899	72.3655	0.144614	12.7547	0.420273	34.7419	0.699239	61.3549	0.900666	77.6536
0.280572	21.9494	0.00784239	0.534471	0.280615	21.5245	0.45105	37.089	0.560007	45.8578	0.839067	66.9888	0.145415	11.8514	0.420434	32.2699	0.699319	56.7245	0.900734	71.885
0.280732	20.47	0.00881104	0.564633	0.280778	20.1006	0.451196	34.461	0.560164	42.6191	0.839151	62.3571	0.146269	11.0797	0.420607	30.1286	0.699405	52.7453	0.900807	66.9153
0.280904	19.1795	0.00982624	0.594212	0.280953	18.8555	0.451353	32.1828	0.560332	39.8099	0.839241	58.3257	0.147057	10.494	0.420792	28.2561	0.699497	49.2891	0.900886	62.5894
0.281087	18.0441	0.0108861	0.623192	0.281139	17.7576	0.451521	30.1892	0.560511	37.3503	0.839336	54.7849	0.147758	10.0478	0.420989	26.6049	0.699595	46.2591	0.90097	58.7897
0.281281	17.0376	0.0119889	0.651571	0.281336	16.7824	0.451699	28.4301	0.560702	35.1789	0.839438	51.6505	0.148359	9.7107	0.421198	25.138	0.6997	43.5811	0.901059	55.426
0.281486	16.1392	0.0131329	0.679347	0.281544	15.9106	0.451888	26.8666	0.560904	33.2481	0.839545	48.8563	0.148847	9.46235	0.421419	23.8263	0.699811	41.1973	0.901153	52.4271
0.281703	15.3326	0.0143164	0.706515	0.281764	15.1265	0.452088	25.4677	0.561118	31.52	0.839659	46.3499	0.149212	9.28911	0.421651	22.6465	0.699928	39.0617	0.901253	49.737
0.28193	14.6044	0.0155377	0.733079	0.281994	14.4177	0.452299	24.2089	0.561343	29.9644	0.839778	44.089	0.14945	9.18215	0.421896	21.5797	0.700051	37.1376	0.901358	47.3102
0.282169	13.9438	0.016795	0.759037	0.282236	13.774	0.45252	23.0703	0.56158	28.5568	0.839903	42.0392	0.149795	9.03346	0.422152	20.6106	0.700181	35.395	0.901468	45.11
0.282419	13.3418	0.018087	0.784399	0.282489	13.1867	0.452752	22.0355	0.561827	27.2771	0.840035	40.1724	0.150176	8.87827	0.422419	19.7264	0.700316	33.8095	0.901584	43.1061
0.282679	12.7912	0.0194121	0.809169	0.282753	12.6489	0.452995	21.0909	0.562086	26.1086	0.840172	38.4651	0.150703	8.67728	0.422699	18.9164	0.700458	32.3608	0.901704	41.2733
0.282951	12.2855	0.0207686	0.833351	0.283028	12.1546	0.453248	20.2253	0.562357	25.0376	0.840316	36.8978	0.151385	8.43845	0.42299	18.1718	0.700607	31.0319	0.90183	39.5907
0.283234	11.8197	0.0221553	0.856953	0.283314	11.6988	0.453512	19.4293	0.562638	24.0524	0.840465	35.4539	0.152231	8.1704	0.423293	17.485	0.700761	29.8086	0.901961	38.0405
0.283528	11.3891	0.0235707	0.879987	0.283611	11.2772	0.453786	18.6949	0.562931	23.1432	0.84062	34.1195	0.153252	7.88177	0.423608	16.8495	0.700922	28.6789	0.902097	36.6078
0.283833	10.9901	0.0250134	0.90246	0.283919	10.8862	0.454072	18.0151	0.563235	22.3015	0.840781	32.8826	0.154462	7.58076	0.423934	16.2599	0.701089	27.6323	0.902239	35.2796
0.28415	10.6192	0.0264824	0.924387	0.284238	10.5225	0.454367	17.3843	0.563551	21.52	0.840949	31.7328	0.155711	7.30788	0.424272	15.7114	0.701262	26.6601	0.902386	34.0451
0.284477	10.2737	0.0279763	0.945773	0.284525	10.2258	0.454673	16.7972	0.563877	20.7927	0.841122	30.6614	0.156997	7.05953	0.424622	15.1999	0.701441	25.7547	0.902538	32.8945
0.284815	9.95108	0.0294939	0.966632	0.284776	9.98639	0.45499	16.2496	0.564214	20.1142	0.841301	29.6606	0.158318	6.83268	0.424983	14.7219	0.701627	24.9094	0.902695	31.8198
0.285163	9.64917	0.0310341	0.986975	0.284988	9.7972	0.455317	15.7376	0.564563	19.4796	0.841486	28.7236	0.159672	6.62477	0.425356	14.2741	0.701818	24.1184	0.902858	30.8135
0.285523	9.36607	0.032596	1.00681	0.285159	9.6529	0.455655	15.2579	0.564923	18.8849	0.841677	27.8446	0.16106	6.43363	0.42574	13.8538	0.702016	23.3767	0.903026	29.8695
0.285894	9.1001	0.0341785	1.02616	0.285286	9.54964	0.456003	14.8076	0.565294	18.3265	0.841874	27.0183	0.162478	6.2574	0.426136	13.4587	0.70222	22.6799	0.903199	28.982
0.286275	8.8498	0.0357805	1.04503	0.285368	9.48478	0.456362	14.3841	0.565676	17.8012	0.842076	26.2402	0.163926	6.09447	0.426543	13.0864	0.70243	22.024	0.903377	28.1463
0.286668	8.61383	0.0374014	1.06343	0.285487	9.39316	0.456731	13.985	0.566069	17.3062	0.842285	25.5062	0.165402	5.94347	0.426962	12.7353	0.702647	21.4054	0.903561	27.3578
0.287071	8.39103	0.03904	1.08138	0.285618	9.29569	0.457111	13.6084	0.566472	16.8389	0.8425	24.8126	0.166904	5.80319	0.427392	12.4034	0.70287	20.8212	0.903749	26.6128
0.287485	8.18035	0.0406956	1.09887	0.285798	9.16654	0.457501	13.2525	0.566887	16.3971	0.84272	24.1563	0.168433	5.67258	0.427833	12.0893	0.703098	20.2686	0.903943	25.9077
0.287909	7.98085	0.0423675	1.11595	0.286029	9.0086	0.457901	12.9155	0.567313	15.9788	0.842947	23.5343	0.169987	5.55072	0.428286	11.7917	0.703333	19.7451	0.904142	25.2395
0.288345	7.79169	0.0440549	1.1326	0.286315	8.82521	0.458312	12.5961	0.567749	15.5822	0.843179	22.9439	0.171563	5.4368	0.42875	11.5092	0.703574	19.2484	0.904347	24.6052
0.288791	7.61209	0.045757	1.14884	0.286657	8.62003	0.458733	12.2928	0.568197	15.2056	0.843418	22.383	0.173163	5.33011	0.429225	11.2408	0.703822	18.7765	0.904556	24.0025
0.289248	7.44139	0.0474732	1.16468	0.28706	8.39689	0.459164	12.0047	0.568655	14.8477	0.843662	21.8492	0.174783	5.23001	0.429712	10.9855	0.704075	18.3278	0.904771	23.4289
0.289715	7.27894	0.0492029	1.18014	0.287473	8.1859	0.459605	11.7305	0.569124	14.507	0.843912	21.3407	0.176424	5.13593	0.430209	10.7424	0.704335	17.9004	0.904991	22.8826
0.290193	7.12418	0.0509454	1.19523	0.287898	7.98611	0.460057	11.4693	0.569604	14.1824	0.844168	20.8558	0.178085	5.04738	0.430718	10.5106	0.704601	17.4929	0.905216	22.3615
0.290681	6.9766	0.0527002	1.20995	0.288333	7.79667	0.460519	11.2202	0.570094	13.8728	0.84443	20.3929	0.179765	4.9639	0.431171	10.3172	0.704872	17.104	0.905447	21.864
0.29118	6.83572	0.0544667	1.22432	0.288779	7.61683	0.460991	10.9824	0.570595	13.5772	0.844698	19.9505	0.181462	4.88509	0.431563	10.1584	0.705151	16.7325	0.905683	21.3885
0.29169	6.70111	0.0562444	1.23834	0.289235	7.44589	0.461474	10.7552	0.571107	13.2946	0.844971	19.5272	0.183176	4.81059	0.431892	10.031	0.705435	16.3772	0.905923	20.9336
0.29221	6.57238	0.0580328	1.25203	0.289702	7.28323	0.461966	10.5378	0.57163	13.0243	0.845251	19.122	0.184907	4.74006	0.432155	9.93268	0.705725	16.037	0.906169	20.4979
0.292741	6.44917	0.0598314	1.2654	0.29018	7.12827	0.462403	10.356	0.572162	12.7655	0.845536	18.7336	0.186654	4.67321	0.43235	9.86174	0.706021	15.7111	0.906421	20.0804
0.293282	6.33114	0.0616398	1.27846	0.290668	6.9805	0.462782	10.2063	0.572706	12.5174	0.845828	18.361	0.188415	4.60978	0.432476	9.81693	0.706324	15.3986	0.906677	19.6799
0.293833	6.21798	0.0634576	1.29121	0.291167	6.83945	0.4631	10.086	0.57326	12.2794	0.846125	18.0033	0.190191	4.54952	0.432658	9.75327	0.706632	15.0986	0.906939	19.2954
0.294395	6.10941	0.0652842	1.30366	0.291676	6.70468	0.463354	9.99301	0.573824	12.051	0.846428	17.6597	0.19198	4.4922	0.432856	9.6851	0.706947	14.8105	0.907206	18.9259
0.294967	6.00518	0.0671195	1.31583	0.292196	6.57579	0.463542	9.92583	0.574399	11.8316	0.846736	17.3293	0.193782	4.43763	0.433129	9.59406	0.707268	14.5336	0.907478	18.5706
0.295549	5.90502	0.0689629	1.32772	0.292726	6.45243	0.463663	9.88335	0.574984	11.6206	0.847051	17.0114	0.195597	4.38563	0.433477	9.48158	0.707595	14.2671	0.907755	18.2287
0.296142	5.80874	0.0708142	1.33933	0.293267	6.33427	0.463838	9.82298	0.575579	11.4177	0.847372	16.7052	0.197424	4.33601	0.433904	9.34937	0.707928	14.0107	0.908037	17.8995
0.296745	5.7161	0.072673	1.35069	0.293818	6.22098	0.464029	9.75827	0.576185	11.2223	0.847698	16.4102	0.199263	4.28864	0.434412	9.19939	0.708267	13.7636	0.908325	17.5823
0.297358	5.62692	0.074539	1.36179	0.294379	6.11229	0.464291	9.67175	0.576801	11.034	0.84803	16.1258	0.201113	4.24336	0.435006	9.03372	0.708612	13.5254	0.908618	17.2764
0.297981	5.54103	0.0764119	1.37264	0.294951	6.00794	0.464626	9.56469	0.577427	10.8526	0.848368	15.8514	0.202973	4.20005	0.43561	8.87456	0.708963	13.2957	0.908915	16.9812
0.298615	5.45824	0.0782914	1.38325	0.295533	5.90768	0.465036	9.43866	0.578063	10.6776	0.848712	15.5865	0.204844	4.15858	0.436226	8.72155	0.70932	13.0739	0.909218	16.6962
0.299258	5.37841	0.0801772	1.39363	0.296126	5.81129	0.465525	9.29539	0.578625	10.53	0.849061	15.3306	0.206724	4.11884	0.436851	8.57434	0.709684	12.8598	0.909527	16.421
0.299912	5.30139	0.082069	1.40378	0.296728	5.71856	0.466094	9.13678	0.579111	10.4078	0.849416	15.0833	0.208614	4.08074	0.437488	8.43263	0.710053	12.6529	0.90984	16.1549
0.300576	5.22704	0.0839667	1.41371	0.297341	5.62929	0.466673	8.98405	0.579517	10.309	0.849777	14.8441	0.210512	4.04418	0.438135	8.29612	0.710428	12.4528	0.910159	15.8975
0.30125	5.15523	0.0858701	1.42343	0.297964	5.54331	0.467263	8.83689	0.57984	10.2324	0.850144	14.6127	0.21242	4.00906	0.438793	8.16454	0.71081	12.2593	0.910482	15.6485
0.301933	5.08584	0.0877787	1.43294	0.298597	5.46044	0.467862	8.69501	0.58008	10.1769	0.850517	14.3887	0.214336	3.97532	0.439461	8.03764	0.711197	12.072	0.910811	15.4075
0.302627	5.01877	0.0896925	1.44224	0.299241	5.38053	0.46847	8.55814	0.580234	10.1417	0.850895	14.1717	0.216259	3.94286	0.44014	7.91518	0.711591	11.8906	0.911145	15.174
0.303331	4.9539	0.0916113	1.45135	0.299894	5.30344	0.469089	8.42602	0.580456	10.0916	0.85128	13.9614	0.218191	3.91163	0.44083	7.79694	0.71199	11.7149	0.911484	14.9477
0.304045	4.89113	0.0935347	1.46027	0.300558	5.22902	0.469717	8.29843	0.580698	10.0377	0.85167	13.7576	0.22013	3.88156	0.44153	7.68272	0.712395	11.5446	0.911829	14.7283
0.304768	4.83037	0.0954628	1.469	0.301231	5.15714	0.470355	8.17513	0.58103	9.96551	0.852065	13.5599	0.222076	3.85258	0.44224	7.57232	0.712807	11.3794	0.912178	14.5155
0.305407	4.779	0.0973951	1.47755	0.301915	5.08769	0.471002	8.05593	0.581453	9.87583	0.852467	13.3681	0.224029	3.82464	0.442961	7.46556	0.713224	11.2192	0.912533	14.309
0.305958	4.73632	0.0993318	1.48593	0.302608	5.02055	0.471659	7.94063	0.58197	9.76976	0.852874	13.1819	0.225988	3.79769	0.443692	7.36227	0.713648	11.0637	0.912892	14.1085
0.306417	4.70177	0.101272	1.49414	0.303312	4.95562	0.472326	7.82905	0.582583	9.64854	0.853287	13.0011	0.227954	3.77167	0.444433	7.26229	0.714077	10.9128	0.913257	13.9138
0.306782	4.67492	0.103217	1.50218	0.304025	4.8928	0.473002	7.72101	0.583296	9.51355	0.853705	12.8254	0.229926	3.74654	0.445184	7.16548	0.714456	10.7848	0.913627	13.7246
0.307053	4.65543	0.105165	1.51006	0.304749	4.83199	0.473687	7.61637	0.584019	9.38275	0.854129	12.6546	0.231904	3.72226	0.445946	7.07169	0.714782	10.6781	0.914002	13.5407
0.307227	4.64307	0.107117	1.51778	0.305482	4.77311	0.474382	7.51497	0.584751	9.25597	0.854559	12.4886	0.233888	3.69879	0.446717	6.98079	0.715055	10.5916	0.914382	13.3619
0.307477	4.62546	0.109072	1.52535	0.306225	4.71606	0.475087	7.41666	0.585493	9.13302	0.854995	12.3271	0.235877	3.67608	0.447499	6.89265	0.715272	10.5243	0.914767	13.188
0.307751	4.60652	0.111031	1.53276	0.306978	4.66078	0.4758	7.32131	0.586244	9.01374	0.855436	12.17	0.237871	3.65411	0.448291	6.80716	0.715433	10.4754	0.915158	13.0188
0.308125	4.58109	0.112993	1.54004	0.307741	4.60719	0.476523	7.22881	0.587005	8.89798	0.855883	12.0171	0.239871	3.63283	0.449092	6.7242	0.715536	10.4443	0.915553	12.854
0.308601	4.54946	0.114705	1.54626	0.308514	4.55522	0.477256	7.13902	0.587775	8.78558	0.856336	11.8682	0.241875	3.61222	0.449904	6.64367	0.715685	10.4	0.915954	12.6936
0.309182	4.51199	0.116166	1.55149	0.309296	4.5048	0.477997	7.05183	0.588555	8.67641	0.856794	11.7232	0.243885	3.59225	0.450726	6.56548	0.715847	10.3523	0.916359	12.5373
0.309871	4.46908	0.117375	1.55575	0.310088	4.45587	0.478748	6.96714	0.589345	8.57033	0.857258	11.5819	0.245899	3.57288	0.451557	6.48951	0.716069	10.2882	0.91677	12.3851
0.31067	4.4212	0.118333	1.55908	0.31089	4.40838	0.479508	6.88485	0.590143	8.46722	0.857728	11.4441	0.247917	3.55409	0.452398	6.4157	0.716352	10.2083	0.917186	12.2367
0.311479	4.37471	0.119037	1.56151	0.311701	4.36225	0.480277	6.80486	0.590951	8.36697	0.858203	11.3099	0.24994	3.53586	0.453249	6.34394	0.716697	10.1135	0.917607	12.092
0.312298	4.32955	0.119488	1.56306	0.312523	4.31745	0.481055	6.72708	0.591769	8.26946	0.858684	11.179	0.251967	3.51817	0.454109	6.27417	0.717106	10.0047	0.918033	11.9509
0.313126	4.28568	0.120136	1.56527	0.313354	4.27392	0.481843	6.65143	0.592595	8.17458	0.859108	11.0675	0.253998	3.50098	0.45498	6.2063	0.717581	9.88282	0.918464	11.8132
0.313964	4.24304	0.120841	1.56767	0.314194	4.23161	0.482639	6.57782	0.593431	8.08223	0.859472	10.9744	0.256033	3.48428	0.455859	6.14026	0.718062	9.76415	0.9189	11.6789
0.314812	4.20159	0.1218	1.57089	0.315045	4.19048	0.483444	6.50618	0.594276	7.99232	0.859776	10.8986	0.258071	3.46805	0.456749	6.07599	0.718549	9.64853	0.919341	11.5477
0.315669	4.16129	0.123015	1.57493	0.315905	4.15048	0.484258	6.43643	0.595129	7.90475	0.860018	10.8395	0.260113	3.45227	0.457648	6.01341	0.719042	9.53584	0.919787	11.4197
0.316536	4.12209	0.124484	1.57974	0.316774	4.11158	0.485081	6.36851	0.595992	7.81944	0.860196	10.7964	0.262159	3.43692	0.458556	5.95248	0.71954	9.42599	0.920238	11.2946
0.317412	4.08396	0.12621	1.58531	0.317653	4.07373	0.485913	6.30234	0.596864	7.73631	0.860311	10.7691	0.264208	3.42199	0.459473	5.89312	0.720044	9.31886	0.920635	11.188
0.318299	4.04685	0.128193	1.59159	0.318542	4.03689	0.486753	6.23786	0.597745	7.65528	0.860476	10.73	0.266261	3.40745	0.4604	5.83527	0.720555	9.21435	0.920977	11.0988
0.319194	4.01073	0.130178	1.59775	0.319441	4.00104	0.487603	6.17501	0.598634	7.57627	0.860657	10.6879	0.268316	3.3933	0.461337	5.7789	0.721071	9.11238	0.921262	11.0262
0.3201	3.97556	0.132165	1.6038	0.320349	3.96613	0.488461	6.11374	0.599533	7.49922	0.860903	10.6313	0.270375	3.37952	0.462282	5.72394	0.721592	9.01286	0.921488	10.9695
0.321015	3.94132	0.134154	1.60974	0.321267	3.93213	0.489327	6.05399	0.60044	7.42404	0.861217	10.5605	0.272437	3.36609	0.463237	5.67035	0.72212	8.91569	0.921655	10.9282
0.32194	3.90797	0.136145	1.61557	0.322194	3.89902	0.490203	5.99571	0.601355	7.35069	0.861599	10.4763	0.274501	3.353	0.4642	5.61807	0.722654	8.82081	0.921763	10.902
0.322874	3.87548	0.138138	1.6213	0.323131	3.86676	0.491086	5.93884	0.60228	7.27909	0.86205	10.3793	0.276569	3.34024	0.465173	5.56707	0.723193	8.72814	0.921917	10.8644
0.323818	3.84383	0.140133	1.62692	0.324078	3.83533	0.491979	5.88335	0.603213	7.20919	0.862574	10.2704	0.278639	3.32779	0.466155	5.5173	0.723738	8.63759	0.922086	10.824
0.324772	3.81298	0.14213	1.63245	0.325034	3.8047	0.49288	5.82917	0.604155	7.14093	0.863104	10.1639	0.280711	3.31565	0.467146	5.46873	0.724289	8.5491	0.922317	10.7695
0.325735	3.78291	0.144129	1.63788	0.326	3.77484	0.493789	5.77628	0.605105	7.07425	0.863639	10.0599	0.282787	3.3038	0.468146	5.4213	0.724845	8.4626	0.92261	10.7014
0.326708	3.7536	0.146129	1.64321	0.326976	3.74572	0.494707	5.72462	0.606063	7.00911	0.864179	9.9581	0.284864	3.29224	0.469155	5.37499	0.725408	8.37804	0.922968	10.6203
0.327691	3.72501	0.148131	1.64845	0.327961	3.71734	0.495633	5.67416	0.60703	6.94546	0.864725	9.85855	0.286944	3.28095	0.470173	5.32976	0.725976	8.29534	0.923391	10.5268
0.328683	3.69714	0.150135	1.6536	0.328956	3.68965	0.496567	5.62487	0.608005	6.88324	0.865277	9.76115	0.289027	3.26993	0.471199	5.28557	0.726549	8.21444	0.92388	10.4217
0.329686	3.66995	0.15214	1.65866	0.329961	3.66265	0.49751	5.57669	0.608989	6.82241	0.865834	9.66584	0.291111	3.25916	0.472234	5.24239	0.727129	8.1353	0.924375	10.3188
0.330698	3.64343	0.154146	1.66364	0.330976	3.6363	0.498461	5.5296	0.609981	6.76294	0.866396	9.57256	0.293198	3.24863	0.473278	5.2002	0.727714	8.05785	0.924875	10.2181
0.331719	3.61755	0.156154	1.66853	0.332	3.6106	0.49942	5.48356	0.610981	6.70476	0.866964	9.48123	0.295287	3.23835	0.474331	5.15895	0.728305	7.98205	0.92538	10.1195
0.332751	3.5923	0.158164	1.67334	0.333034	3.58552	0.500387	5.43854	0.611989	6.64786	0.867538	9.39181	0.297377	3.22829	0.475392	5.11862	0.728902	7.90784	0.92589	10.023
0.333793	3.56766	0.160174	1.67807	0.334079	3.56104	0.501362	5.39452	0.613005	6.59218	0.868117	9.30423	0.29947	3.21846	0.476461	5.07919	0.729504	7.83518	0.926404	9.92844
0.334844	3.54361	0.162186	1.68273	0.335133	3.53715	0.502345	5.35145	0.614029	6.53769	0.868701	9.21844	0.301565	3.20884	0.477539	5.04061	0.730112	7.76402	0.926924	9.8358
0.335906	3.52014	0.164199	1.6873	0.336197	3.51383	0.503337	5.30931	0.615062	6.48436	0.869291	9.13439	0.303661	3.19943	0.478626	5.00288	0.730726	7.69431	0.927449	9.74502
0.336977	3.49722	0.166213	1.6918	0.337271	3.49106	0.504336	5.26808	0.616102	6.43214	0.869886	9.05202	0.30576	3.19022	0.479721	4.96597	0.731346	7.62602	0.927978	9.65605
0.338059	3.47485	0.168228	1.69623	0.338356	3.46883	0.505343	5.22772	0.61715	6.38102	0.870487	8.97129	0.30786	3.1812	0.480824	4.92984	0.731971	7.5591	0.928513	9.56885
0.339151	3.453	0.170245	1.70058	0.33945	3.44713	0.506358	5.18822	0.618206	6.33095	0.871093	8.89216	0.309961	3.17238	0.481936	4.89449	0.732601	7.49351	0.929052	9.48335
0.340253	3.43167	0.172262	1.70487	0.340555	3.42593	0.507381	5.14954	0.61927	6.2819	0.871704	8.81456	0.312064	3.16374	0.483056	4.85988	0.733238	7.42922	0.929597	9.39952
0.341365	3.41084	0.17428	1.70908	0.341671	3.40524	0.508411	5.11166	0.620341	6.23386	0.872321	8.73847	0.314169	3.15527	0.484184	4.82599	0.733879	7.36619	0.930146	9.3173
0.342488	3.39049	0.176299	1.71323	0.342796	3.38502	0.509449	5.07456	0.62142	6.18677	0.872943	8.66384	0.316275	3.14698	0.485321	4.79281	0.734527	7.30438	0.9307	9.23664
0.343621	3.37063	0.17832	1.71731	0.343932	3.36528	0.510495	5.03822	0.622507	6.14063	0.873571	8.59064	0.318383	3.13885	0.486465	4.76031	0.73518	7.24376	0.931259	9.15752
0.344765	3.35122	0.180341	1.72133	0.345079	3.346	0.511549	5.00262	0.623601	6.09541	0.874203	8.51881	0.320492	3.13089	0.487617	4.72848	0.735839	7.18429	0.931823	9.07988
0.34592	3.33226	0.182363	1.72529	0.346237	3.32717	0.51261	4.96773	0.624703	6.05107	0.874842	8.44833	0.322603	3.12308	0.488778	4.69729	0.736503	7.12596	0.932392	9.00368
0.347085	3.31375	0.184385	1.72918	0.347405	3.30877	0.513678	4.93354	0.625813	6.0076	0.875485	8.37915	0.324714	3.11542	0.489947	4.66674	0.737173	7.06872	0.932966	8.92889
0.348262	3.29567	0.186409	1.73302	0.348585	3.2908	0.514755	4.90003	0.626929	5.96497	0.876134	8.31125	0.326827	3.10791	0.491123	4.63679	0.737848	7.01254	0.933545	8.85546
0.349449	3.278	0.188433	1.73679	0.349775	3.27325	0.515838	4.86718	0.628053	5.92316	0.876788	8.24459	0.328942	3.10055	0.492307	4.60745	0.738529	6.95741	0.934128	8.78337
0.350648	3.26075	0.190458	1.74051	0.350977	3.25611	0.516929	4.83497	0.629185	5.88215	0.877448	8.17913	0.331057	3.09332	0.493499	4.57868	0.739215	6.90328	0.934717	8.71258
0.351858	3.2439	0.192484	1.74417	0.352191	3.23937	0.518027	4.80338	0.630324	5.84191	0.878113	8.11485	0.333173	3.08623	0.494699	4.55048	0.739907	6.85014	0.93531	8.64305
0.35308	3.22744	0.19451	1.74778	0.353415	3.22301	0.519133	4.7724	0.63147	5.80242	0.878783	8.05172	0.335291	3.07927	0.495907	4.52282	0.740605	6.79796	0.935908	8.57475
0.354313	3.21136	0.196537	1.75133	0.354652	3.20704	0.520246	4.74202	0.632623	5.76368	0.879458	7.9897	0.33741	3.07244	0.497122	4.49571	0.741307	6.74672	0.936511	8.50765
0.355558	3.19566	0.198565	1.75483	0.3559	3.19144	0.521366	4.71221	0.633783	5.72565	0.880139	7.92878	0.339529	3.06573	0.498345	4.46911	0.742016	6.69638	0.937119	8.44173
0.356816	3.18033	0.200593	1.75827	0.357161	3.17621	0.522493	4.68296	0.63495	5.68831	0.880825	7.86891	0.34165	3.05914	0.499576	4.44302	0.74273	6.64693	0.937732	8.37694
0.358085	3.16536	0.202621	1.76167	0.358434	3.16134	0.523627	4.65426	0.636125	5.65166	0.881516	7.81008	0.343771	3.05267	0.500814	4.41743	0.743449	6.59835	0.938349	8.31326
0.359367	3.15074	0.204651	1.76501	0.359719	3.14681	0.524768	4.6261	0.637306	5.61567	0.882212	7.75225	0.345894	3.04631	0.50206	4.39232	0.744174	6.55062	0.938972	8.25067
0.360662	3.13647	0.20668	1.76831	0.361017	3.13264	0.525917	4.59845	0.638495	5.58033	0.882914	7.69542	0.348017	3.04006	0.503313	4.36769	0.744904	6.50371	0.939599	8.18914
0.361969	3.12255	0.208711	1.77156	0.362329	3.1188	0.527072	4.57132	0.63969	5.54562	0.883621	7.63954	0.350141	3.03393	0.504574	4.34351	0.745639	6.4576	0.940231	8.12864
0.36329	3.10895	0.210741	1.77476	0.363653	3.1053	0.528235	4.54467	0.640892	5.51152	0.884332	7.5846	0.352265	3.02789	0.505842	4.31978	0.746381	6.41228	0.940867	8.06915
0.364624	3.09569	0.212773	1.77792	0.364991	3.09212	0.529404	4.51851	0.642101	5.47803	0.88505	7.53057	0.354391	3.02196	0.507117	4.29648	0.747127	6.36772	0.941509	8.01064
0.365972	3.08274	0.214804	1.78103	0.366342	3.07927	0.53058	4.49282	0.643316	5.44512	0.885772	7.47744	0.356517	3.01613	0.5084	4.27362	0.747879	6.32391	0.942155	7.9531
0.367334	3.07012	0.216836	1.78409	0.367708	3.06673	0.531763	4.46759	0.644539	5.41278	0.886499	7.42518	0.358644	3.01039	0.50969	4.25117	0.748636	6.28083	0.942806	7.89649
0.36871	3.05781	0.218869	1.78712	0.369088	3.0545	0.532952	4.44281	0.645768	5.381	0.887232	7.37378	0.360772	3.00475	0.510987	4.22912	0.749398	6.23847	0.943462	7.8408
0.3701	3.0458	0.220901	1.79009	0.370482	3.04258	0.534148	4.41846	0.647003	5.34976	0.88797	7.3232	0.3629	2.9992	0.512291	4.20747	0.750166	6.19679	0.944123	7.786
0.371505	3.03411	0.222934	1.79303	0.371892	3.03096	0.535351	4.39455	0.648245	5.31905	0.888712	7.27344	0.365028	2.99374	0.513603	4.18621	0.750939	6.1558	0.944788	7.73208
0.372926	3.02271	0.224968	1.79593	0.373316	3.01965	0.536561	4.37104	0.649494	5.28887	0.88946	7.22447	0.367157	2.98837	0.514921	4.16532	0.751718	6.11548	0.945458	7.67901
0.374362	3.0116	0.227002	1.79879	0.374756	3.00862	0.537777	4.34795	0.650749	5.25918	0.890214	7.17628	0.369287	2.98309	0.516247	4.14481	0.752502	6.0758	0.946133	7.62678
0.375813	3.00079	0.229036	1.8016	0.376212	2.99789	0.539	4.32526	0.65201	5.23	0.890972	7.12885	0.371417	2.97788	0.517579	4.12465	0.753291	6.03676	0.946812	7.57536
0.377281	2.99026	0.23107	1.80438	0.377684	2.98744	0.540229	4.30295	0.653278	5.2013	0.891735	7.08216	0.373548	2.97276	0.518919	4.10485	0.754085	5.99834	0.947496	7.52474
0.378765	2.98002	0.233105	1.80712	0.379173	2.97727	0.541464	4.28102	0.654552	5.17307	0.892503	7.0362	0.375679	2.96771	0.520265	4.08539	0.754885	5.96053	0.948185	7.4749
0.380266	2.97006	0.235139	1.80983	0.380679	2.96738	0.542706	4.25946	0.655833	5.1453	0.893277	6.99095	0.377811	2.96274	0.521618	4.06627	0.75569	5.92331	0.948879	7.42583
0.381784	2.96037	0.237175	1.81249	0.382201	2.95777	0.543955	4.23827	0.657119	5.11799	0.894055	6.94639	0.379942	2.95785	0.522979	4.04748	0.7565	5.88667	0.949577	7.3775
0.38332	2.95096	0.23921	1.81512	0.383742	2.94843	0.545209	4.21743	0.658412	5.09111	0.894838	6.90251	0.382074	2.95303	0.524346	4.029	0.757316	5.8506	0.95028	7.32991
0.384873	2.94181	0.241245	1.81772	0.3853	2.93936	0.54647	4.19693	0.659711	5.06467	0.895627	6.8593	0.384207	2.94828	0.525719	4.01085	0.758136	5.81509	0.950988	7.28302
0.386444	2.93294	0.243281	1.82028	0.386876	2.93056	0.547737	4.17678	0.661016	5.03865	0.89642	6.81673	0.38634	2.9436	0.5271	3.99299	0.758962	5.78011	0.9517	7.23684
0.388034	2.92432	0.245317	1.8228	0.388471	2.92202	0.549011	4.15695	0.662328	5.01304	0.897219	6.7748	0.388472	2.93899	0.528487	3.97544	0.759793	5.74567	0.952417	7.19135
0.389642	2.91597	0.247353	1.8253	0.390085	2.91374	0.55029	4.13745	0.663645	4.98784	0.898022	6.7335	0.390606	2.93444	0.529881	3.95819	0.76063	5.71176	0.953139	7.14652
0.39127	2.90787	0.249389	1.82776	0.391717	2.90571	0.551575	4.11827	0.664968	4.96303	0.89883	6.6928	0.392739	2.92996	0.531281	3.94122	0.761471	5.67835	0.953865	7.10235
0.392916	2.90003	0.251426	1.83018	0.393369	2.89794	0.552867	4.09939	0.666297	4.9386	0.899644	6.65271	0.394873	2.92554	0.532688	3.92453	0.762318	5.64544	0.954596	7.05882
0.394582	2.89244	0.253462	1.83258	0.395041	2.89041	0.554164	4.08082	0.667632	4.91456	0.900462	6.6132	0.397006	2.92119	0.534102	3.90812	0.76317	5.61302	0.955331	7.01592
0.396268	2.88509	0.255499	1.83494	0.396732	2.88313	0.555468	4.06255	0.668972	4.89089	0.901285	6.57426	0.39914	2.91689	0.535522	3.89198	0.764027	5.58108	0.956071	6.97364
0.397974	2.87799	0.257536	1.83728	0.398443	2.87609	0.556777	4.04457	0.670319	4.86757	0.902113	6.53588	0.401274	2.91265	0.536948	3.8761	0.764889	5.5496	0.956816	6.93197
0.3997	2.87112	0.259573	1.83958	0.400174	2.86929	0.558093	4.02687	0.671671	4.84462	0.902946	6.49805	0.403408	2.90847	0.538381	3.86048	0.765756	5.51859	0.957565	6.89088
0.401446	2.86449	0.26161	1.84186	0.401926	2.86272	0.559414	4.00945	0.673029	4.82201	0.903784	6.46076	0.405542	2.90435	0.53982	3.84511	0.766628	5.48803	0.958319	6.85038
0.403212	2.85809	0.263647	1.8441	0.403697	2.85639	0.560741	3.9923	0.674393	4.79974	0.904627	6.424	0.407676	2.90028	0.541266	3.82999	0.767506	5.45791	0.959077	6.81044
0.404998	2.85192	0.265684	1.84632	0.405489	2.85028	0.562073	3.97541	0.675762	4.7778	0.905475	6.38776	0.40981	2.89627	0.542718	3.81511	0.768388	5.42822	0.95984	6.77106
0.406805	2.84597	0.267721	1.84851	0.407301	2.84439	0.563412	3.95879	0.677137	4.75619	0.906327	6.35202	0.411944	2.8923	0.544176	3.80047	0.769276	5.39895	0.960608	6.73223
0.408631	2.84024	0.269758	1.85067	0.409133	2.83871	0.564756	3.94243	0.678517	4.7349	0.907185	6.31679	0.414078	2.88839	0.545641	3.78606	0.770168	5.3701	0.96138	6.69393
0.410478	2.83472	0.271796	1.8528	0.410986	2.83325	0.566105	3.92631	0.679903	4.71392	0.908047	6.28204	0.416211	2.88453	0.547111	3.77188	0.771066	5.34166	0.962157	6.65616
0.412345	2.82941	0.273833	1.85491	0.412858	2.82799	0.56746	3.91044	0.681294	4.69325	0.908914	6.24776	0.418345	2.88071	0.548588	3.75793	0.771969	5.31362	0.962938	6.6189
0.414232	2.8243	0.27587	1.85699	0.41475	2.82294	0.568821	3.89481	0.682691	4.67288	0.909786	6.21396	0.420479	2.87695	0.550071	3.74419	0.772876	5.28596	0.963723	6.58214
0.416138	2.81938	0.277908	1.85905	0.416662	2.81808	0.570188	3.87942	0.684093	4.65281	0.910663	6.18062	0.422612	2.87323	0.55156	3.73067	0.773789	5.2587	0.964513	6.54589
0.418064	2.81466	0.279945	1.86108	0.418593	2.81341	0.571559	3.86426	0.685501	4.63302	0.911544	6.14773	0.424746	2.86956	0.553055	3.71735	0.774707	5.23181	0.965308	6.51011
0.420008	2.81013	0.281983	1.86308	0.420542	2.80892	0.572936	3.84932	0.686913	4.61352	0.912431	6.11528	0.426879	2.86593	0.554557	3.70425	0.775629	5.20529	0.966107	6.47482
0.421972	2.80578	0.28402	1.86506	0.422511	2.80462	0.574319	3.83461	0.688331	4.59429	0.913322	6.08326	0.429011	2.86234	0.556064	3.69134	0.776557	5.17913	0.966911	6.43999
0.423954	2.8016	0.286058	1.86702	0.424498	2.80049	0.575707	3.82011	0.689754	4.57534	0.914217	6.05167	0.431144	2.8588	0.557577	3.67863	0.777489	5.15333	0.967719	6.40562
0.425953	2.79759	0.288095	1.86895	0.426502	2.79652	0.5771	3.80582	0.691182	4.55665	0.915118	6.0205	0.433276	2.8553	0.559096	3.66612	0.778427	5.12787	0.968531	6.37171
0.42797	2.79374	0.290132	1.87086	0.428524	2.79272	0.578498	3.79175	0.692616	4.53823	0.916023	5.98975	0.435409	2.85184	0.560621	3.6538	0.779369	5.10276	0.969348	6.33823
0.430005	2.79005	0.29217	1.87275	0.430563	2.78907	0.579902	3.77788	0.694054	4.52006	0.916933	5.95939	0.43754	2.84842	0.562152	3.64166	0.780317	5.07799	0.970169	6.30519
0.432056	2.78651	0.294207	1.87461	0.432618	2.78557	0.581311	3.76421	0.695498	4.50214	0.917848	5.92943	0.439672	2.84504	0.563689	3.62971	0.781269	5.05355	0.970995	6.27258
0.434123	2.78312	0.296244	1.87645	0.43469	2.78222	0.582725	3.75074	0.696947	4.48447	0.918767	5.89986	0.441803	2.8417	0.565231	3.61794	0.782226	5.02943	0.971825	6.24038
0.436206	2.77987	0.298281	1.87827	0.436777	2.77901	0.584144	3.73746	0.6984	4.46704	0.919691	5.87067	0.443934	2.8384	0.56678	3.60634	0.783188	5.00563	0.97266	6.2086
0.438304	2.77675	0.300319	1.88007	0.438879	2.77592	0.585568	3.72437	0.699859	4.44986	0.92062	5.84185	0.446064	2.83513	0.568334	3.59492	0.784155	4.98214	0.973499	6.17722
0.440416	2.77376	0.302356	1.88185	0.440995	2.77297	0.586998	3.71147	0.701322	4.4329	0.921553	5.81341	0.448194	2.8319	0.569894	3.58367	0.785127	4.95896	0.974342	6.14623
0.442543	2.7709	0.304393	1.8836	0.443126	2.77014	0.588432	3.69875	0.70279	4.41617	0.922491	5.78532	0.450324	2.8287	0.571459	3.57258	0.786104	4.93608	0.97519	6.11564
0.444684	2.76815	0.30643	1.88534	0.44527	2.76742	0.589871	3.6862	0.704263	4.39967	0.923434	5.75759	0.452453	2.82554	0.57303	3.56166	0.787085	4.9135	0.976042	6.08542
0.446837	2.76552	0.308467	1.88705	0.447427	2.76482	0.591315	3.67384	0.705741	4.38339	0.924381	5.73021	0.454581	2.82241	0.574607	3.55089	0.788071	4.89121	0.976899	6.05559
0.449003	2.76299	0.310503	1.88875	0.449597	2.76232	0.592764	3.66164	0.707224	4.36733	0.925333	5.70317	0.45671	2.81931	0.576189	3.54029	0.789062	4.8692	0.977759	6.02612
0.451182	2.76057	0.31254	1.89042	0.451778	2.75993	0.594218	3.64962	0.708711	4.35147	0.92629	5.67647	0.458837	2.81625	0.577777	3.52984	0.790058	4.84748	0.978625	5.99701
0.453372	2.75825	0.314577	1.89208	0.453971	2.75763	0.595677	3.63776	0.710203	4.33583	0.927251	5.6501	0.460964	2.81322	0.579371	3.51954	0.791059	4.82603	0.979494	5.96827
0.455573	2.75602	0.316613	1.89371	0.456176	2.75543	0.59714	3.62607	0.7117	4.32039	0.928216	5.62405	0.463091	2.81022	0.58097	3.50939	0.792064	4.80485	0.980368	5.93987
0.457785	2.75388	0.31865	1.89533	0.458391	2.75331	0.598608	3.61454	0.713201	4.30516	0.929186	5.59833	0.465217	2.80725	0.582574	3.49939	0.793074	4.78394	0.981246	5.91182
0.460007	2.75182	0.320686	1.89693	0.460616	2.75128	0.600081	3.60316	0.714707	4.29012	0.930161	5.57292	0.467343	2.80431	0.584184	3.48953	0.794089	4.76329	0.982128	5.88411
0.462239	2.74985	0.322722	1.89851	0.46285	2.74932	0.601559	3.59194	0.716217	4.27527	0.93114	5.54782	0.469468	2.8014	0.5858	3.47982	0.795109	4.7429	0.983015	5.85673
0.464481	2.74795	0.324758	1.90008	0.465094	2.74745	0.603041	3.58087	0.717732	4.26062	0.932124	5.52302	0.471592	2.79851	0.587421	3.47024	0.796133	4.72276	0.983906	5.82967
0.466731	2.74613	0.326794	1.90162	0.467347	2.74565	0.604528	3.56994	0.719251	4.24616	0.933112	5.49852	0.473715	2.79566	0.589047	3.4608	0.797162	4.70288	0.984801	5.80294
0.468991	2.74438	0.32883	1.90315	0.469609	2.74391	0.606019	3.55917	0.720775	4.23187	0.934105	5.47432	0.475838	2.79283	0.590678	3.45149	0.798196	4.68323	0.9857	5.77653
0.471258	2.74269	0.330866	1.90466	0.471878	2.74225	0.607515	3.54854	0.722303	4.21777	0.935102	5.4504	0.477961	2.79003	0.592315	3.44231	0.799234	4.66383	0.986604	5.75043
0.473533	2.74107	0.332902	1.90616	0.474155	2.74064	0.609016	3.53805	0.723835	4.20385	0.936104	5.42677	0.480082	2.78726	0.593957	3.43326	0.800277	4.64466	0.987512	5.72463
0.475816	2.73951	0.334937	1.90764	0.47644	2.7391	0.610521	3.5277	0.725372	4.1901	0.93711	5.40342	0.482203	2.78451	0.595605	3.42435	0.801325	4.62573	0.988424	5.69914
0.478106	2.73801	0.336972	1.9091	0.478732	2.73761	0.61203	3.51748	0.726913	4.17653	0.938121	5.38034	0.484324	2.78179	0.597257	3.41555	0.802377	4.60703	0.98934	5.67394
0.480403	2.73656	0.339008	1.91054	0.481031	2.73617	0.613544	3.5074	0.728458	4.16312	0.939136	5.35753	0.486443	2.77909	0.598915	3.40688	0.803434	4.58855	0.990261	5.64904
0.482706	2.73516	0.341043	1.91197	0.483336	2.73479	0.615062	3.49745	0.730008	4.14988	0.940155	5.33499	0.488562	2.77642	0.600578	3.39833	0.804496	4.5703	0.991186	5.62442
0.485015	2.73382	0.343077	1.91339	0.485647	2.73346	0.616584	3.48763	0.731562	4.1368	0.941179	5.31271	0.49068	2.77377	0.602246	3.3899	0.805562	4.55226	0.992115	5.60008
0.487331	2.73252	0.345112	1.91479	0.487964	2.73217	0.618111	3.47794	0.73312	4.12389	0.942207	5.29069	0.492797	2.77114	0.603919	3.38158	0.806633	4.53443	0.993048	5.57602
0.489652	2.73127	0.347147	1.91617	0.490287	2.73093	0.619642	3.46837	0.734682	4.11113	0.94324	5.26893	0.494914	2.76854	0.605598	3.37338	0.807708	4.51682	0.993985	5.55224
0.491979	2.73006	0.349181	1.91754	0.492615	2.72973	0.621178	3.45893	0.736248	4.09852	0.944277	5.24741	0.497029	2.76595	0.607281	3.36529	0.808788	4.49942	0.994926	5.52873
0.494311	2.72889	0.351215	1.91889	0.494948	2.72858	0.622717	3.4496	0.737818	4.08607	0.945319	5.22614	0.499144	2.7634	0.60897	3.35731	0.809873	4.48222	0.995872	5.50548
0.496647	2.72776	0.35325	1.92023	0.497286	2.72746	0.624261	3.4404	0.739392	4.07377	0.946364	5.20511	0.501258	2.76086	0.610663	3.34945	0.810962	4.46522	0.996821	5.48249
0.498989	2.72667	0.355284	1.92155	0.499629	2.72637	0.625809	3.43131	0.74097	4.06161	0.947414	5.18432	0.503371	2.75834	0.612362	3.34169	0.812055	4.44842	0.997775	5.45975
0.501335	2.72561	0.357317	1.92286	0.501976	2.72533	0.627361	3.42234	0.742552	4.0496	0.948469	5.16376	0.505483	2.75585	0.614065	3.33403	0.813153	4.43182	0.998733	5.43728
0.503685	2.72459	0.359351	1.92416	0.504328	2.72431	0.628917	3.41348	0.744139	4.03774	0.949527	5.14344	0.507595	2.75337	0.615774	3.32648	0.814256	4.41541	0.999695	5.41505
0.50604	2.7236	0.361384	1.92544	0.506683	2.72333	0.630477	3.40473	0.745729	4.02601	0.95059	5.12334	0.509705	2.75092	0.617487	3.31903	0.815363	4.39919	1.00066	5.39306
0.508398	2.72264	0.363418	1.92671	0.509043	2.72238	0.632041	3.39609	0.747322	4.01443	0.951658	5.10346	0.511815	2.74848	0.619205	3.31168	0.816475	4.38315		
0.51076	2.72171	0.365451	1.92797	0.511406	2.72146	0.633609	3.38755	0.74892	4.00297	0.952729	5.08381	0.513924	2.74607	0.620928	3.30443	0.817591	4.3673		
0.513126	2.7208	0.367483	1.92921	0.513772	2.72056	0.635182	3.37913	0.750522	3.99166	0.953805	5.06437	0.516031	2.74367	0.622656	3.29728	0.818711	4.35163		
0.515495	2.71993	0.369516	1.93044	0.516142	2.7197	0.636758	3.3708	0.752127	3.98047	0.954885	5.04515	0.518138	2.74129	0.624389	3.29022	0.819836	4.33613		
0.517868	2.71908	0.371549	1.93165	0.518516	2.71885	0.638338	3.36258	0.753736	3.96941	0.95597	5.02614	0.520244	2.73893	0.626126	3.28326	0.820965	4.32081		
0.520243	2.71826	0.373581	1.93286	0.520892	2.71804	0.639922	3.35446	0.755349	3.95848	0.957058	5.00733	0.522348	2.73659	0.627869	3.27638	0.822099	4.30567		
0.522622	2.71746	0.375613	1.93405	0.523272	2.71724	0.641509	3.34644	0.756965	3.94768	0.958151	4.98873	0.524452	2.73426	0.629616	3.2696	0.823237	4.29069		
0.525003	2.71668	0.377645	1.93523	0.525654	2.71647	0.643101	3.33852	0.758585	3.937	0.959248	4.97033	0.526555	2.73196	0.631368	3.26292	0.82438	4.27588		
0.527387	2.71592	0.379677	1.93639	0.528039	2.71572	0.644696	3.33069	0.760209	3.92644	0.960349	4.95213	0.528657	2.72967	0.633124	3.25631	0.825527	4.26124		
0.529774	2.71518	0.381708	1.93755	0.530426	2.71499	0.646296	3.32296	0.761836	3.916	0.961454	4.93412	0.530758	2.72739	0.634885	3.2498	0.826678	4.24676		
0.532163	2.71447	0.38374	1.93869	0.532816	2.71428	0.647899	3.31532	0.763467	3.90568	0.962564	4.91631	0.532857	2.72514	0.636651	3.24337	0.827834	4.23244		
0.534555	2.71377	0.385771	1.93982	0.535208	2.71358	0.649505	3.30777	0.765102	3.89547	0.963678	4.89869	0.534956	2.72289	0.638421	3.23702	0.828994	4.21827		
0.536949	2.71309	0.387802	1.94094	0.537603	2.71291	0.651116	3.30031	0.76674	3.88538	0.964795	4.88125	0.537054	2.72067	0.640196	3.23076	0.830158	4.20427		
0.539345	2.71243	0.389833	1.94205	0.539999	2.71225	0.65273	3.29294	0.768381	3.8754	0.965917	4.864	0.53915	2.71846	0.641976	3.22458	0.831327	4.19041		
0.541743	2.71178	0.391863	1.94314	0.542398	2.71161	0.654348	3.28566	0.770026	3.86554	0.967043	4.84693	0.541246	2.71626	0.64376	3.21848	0.8325	4.17671		
0.544143	2.71115	0.393893	1.94423	0.544799	2.71098	0.655969	3.27847	0.771675	3.85578	0.968174	4.83004	0.54334	2.71408	0.645548	3.21246	0.833678	4.16316		
0.546545	2.71054	0.395924	1.9453	0.547201	2.71037	0.657594	3.27135	0.773326	3.84612	0.969308	4.81333	0.545433	2.71192	0.647342	3.20651	0.834859	4.14975		
0.548949	2.70994	0.397953	1.94637	0.549606	2.70978	0.659223	3.26433	0.774981	3.83658	0.970446	4.79679	0.547525	2.70977	0.649139	3.20065	0.836045	4.13649		
0.551355	2.70935	0.399983	1.94742	0.552012	2.70919	0.660855	3.25738	0.77664	3.82714	0.971589	4.78042	0.549616	2.70763	0.650941	3.19486	0.837235	4.12337		
0.553762	2.70878	0.402013	1.94846	0.554419	2.70863	0.66249	3.25051	0.778302	3.8178	0.972735	4.76422	0.551706	2.70551	0.652748	3.18914	0.83843	4.11039		
0.556171	2.70822	0.404042	1.9495	0.556829	2.70807	0.66413	3.24373	0.779967	3.80856	0.973886	4.74819	0.553795	2.7034	0.654558	3.18349	0.839628	4.09755		
0.558581	2.70767	0.406071	1.95052	0.559239	2.70753	0.665772	3.23702	0.781635	3.79942	0.97504	4.73232	0.555883	2.70131	0.656374	3.17792	0.840831	4.08485		
0.560993	2.70714	0.4081	1.95153	0.561652	2.70699	0.667418	3.23039	0.783307	3.79038	0.976199	4.71661	0.557969	2.69923	0.658193	3.17242	0.842038	4.07228		
0.563406	2.70661	0.410128	1.95253	0.564065	2.70647	0.669068	3.22384	0.784982	3.78144	0.977361	4.70107	0.560055	2.69716	0.660017	3.16699	0.843249	4.05985		
0.565821	2.7061	0.412157	1.95352	0.56648	2.70596	0.670721	3.21736	0.78666	3.77259	0.978528	4.68568	0.562139	2.6951	0.661845	3.16163	0.844465	4.04754		
0.568236	2.7056	0.414185	1.9545	0.568896	2.70546	0.672377	3.21095	0.788341	3.76383	0.979699	4.67045	0.564222	2.69306	0.663677	3.15633	0.845685	4.03537		
0.570653	2.7051	0.416213	1.95548	0.571313	2.70497	0.674037	3.20462	0.790026	3.75517	0.980873	4.65537	0.566304	2.69103	0.665514	3.15111	0.846909	4.02332		
0.573071	2.70462	0.418241	1.95644	0.573731	2.70449	0.6757	3.19836	0.791713	3.7466	0.982052	4.64045	0.568384	2.68901	0.667355	3.14594	0.848137	4.0114		
0.57549	2.70415	0.420268	1.95739	0.576151	2.70402	0.677367	3.19217	0.793404	3.73812	0.983234	4.62567	0.570464	2.687	0.6692	3.14085	0.849369	3.9996		
0.57791	2.70368	0.422295	1.95834	0.578571	2.70356	0.679037	3.18605	0.795097	3.72973	0.984421	4.61104	0.572542	2.68501	0.671049	3.13581	0.850605	3.98793		
0.580332	2.70323	0.424322	1.95927	0.580993	2.70311	0.68071	3.18	0.796794	3.72142	0.985611	4.59656	0.574619	2.68303	0.672903	3.13084	0.851846	3.97638		
0.582754	2.70278	0.426349	1.9602	0.583415	2.70266	0.682386	3.17402	0.798494	3.7132	0.986805	4.58222	0.576695	2.68106	0.67476	3.12593	0.85309	3.96494		
0.585177	2.70234	0.428376	1.96111	0.585838	2.70222	0.684066	3.1681	0.800196	3.70507	0.988004	4.56802	0.578769	2.6791	0.676622	3.12109	0.854339	3.95362		
0.5876	2.70191	0.430402	1.96202	0.588262	2.70179	0.685748	3.16225	0.801902	3.69702	0.989206	4.55396	0.580843	2.67715	0.678487	3.1163	0.855592	3.94242		
0.590025	2.70148	0.432428	1.96292	0.590687	2.70137	0.687435	3.15646	0.803611	3.68905	0.990412	4.54004	0.582915	2.67521	0.680357	3.11157	0.856848	3.93134		
0.59245	2.70107	0.434454	1.96381	0.593112	2.70095	0.689124	3.15074	0.805322	3.68116	0.991622	4.52625	0.584986	2.67329	0.682231	3.1069	0.858109	3.92036		
0.594876	2.70065	0.43648	1.96469	0.595538	2.70054	0.690816	3.14508	0.807036	3.67335	0.992835	4.5126	0.587056	2.67137	0.684108	3.10229	0.859374	3.9095		
0.597303	2.70025	0.438505	1.96557	0.597965	2.70014	0.692512	3.13948	0.808754	3.66562	0.994053	4.49908	0.589124	2.66946	0.68599	3.09774	0.860643	3.89875		
0.59973	2.69985	0.44053	1.96643	0.600393	2.69974	0.694211	3.13395	0.810474	3.65797	0.995275	4.4857	0.591191	2.66757	0.687876	3.09324	0.861916	3.88811		
0.602158	2.69946	0.442555	1.96729	0.602821	2.69935	0.695913	3.12847	0.812197	3.6504	0.9965	4.47244	0.593257	2.66569	0.689765	3.08879	0.863194	3.87757		
0.604586	2.69907	0.44458	1.96814	0.605249	2.69897	0.697618	3.12306	0.813922	3.6429	0.997729	4.45931	0.595322	2.66381	0.691658	3.0844	0.864475	3.86714		
0.607015	2.69869	0.446605	1.96898	0.607678	2.69859	0.699326	3.1177	0.815651	3.63548	0.998962	4.4463	0.597386	2.66195	0.693556	3.08006	0.86576	3.85682		
0.609444	2.69831	0.448629	1.96981	0.610108	2.69821	0.701037	3.1124	0.817382	3.62813	1.0002	4.43342	0.599448	2.66009	0.695457	3.07578	0.867049	3.84659		
0.611874	2.69794	0.450653	1.97064	0.612538	2.69784	0.702751	3.10716	0.819116	3.62085			0.601509	2.65825	0.697361	3.07155	0.868342	3.83647		
0.614304	2.69758	0.452677	1.97146	0.614968	2.69748	0.704468	3.10197	0.820853	3.61364			0.603569	2.65641	0.69927	3.06737	0.869639	3.82645		
0.616735	2.69721	0.4547	1.97227	0.617398	2.69712	0.706189	3.09684	0.822592	3.60651			0.605627	2.65459	0.701182	3.06324	0.87094	3.81653		
0.619166	2.69686	0.456723	1.97307	0.619829	2.69676	0.707912	3.09177	0.824334	3.59944			0.607684	2.65277	0.703098	3.05916	0.872245	3.80671		
0.621597	2.6965	0.458746	1.97386	0.622261	2.69641	0.709639	3.08675	0.826079	3.59245			0.60974	2.65097	0.705018	3.05512	0.873554	3.79698		
0.624029	2.69615	0.460769	1.97465	0.624692	2.69606	0.711368	3.08178	0.827826	3.58552			0.611795	2.64917	0.706942	3.05114	0.874867	3.78735		
0.62646	2.69581	0.462792	1.97543	0.627124	2.69571	0.7131	3.07687	0.829576	3.57866			0.613849	2.64738	0.708869	3.0472	0.876184	3.77781		
0.628892	2.69547	0.464814	1.97621	0.629556	2.69537	0.714836	3.07201	0.831329	3.57186			0.615901	2.6456	0.710799	3.04331	0.877505	3.76837		
0.631324	2.69513	0.466836	1.97697	0.631988	2.69504	0.716574	3.0672	0.833084	3.56513			0.617952	2.64383	0.712734	3.03947	0.878829	3.75902		
0.633757	2.69479	0.468858	1.97773	0.634421	2.6947	0.718315	3.06244	0.834841	3.55846			0.620002	2.64207	0.714671	3.03567	0.880158	3.74976		
0.636189	2.69446	0.47088	1.97848	0.636853	2.69437	0.72006	3.05773	0.836601	3.55186			0.62205	2.64031	0.716613	3.03192	0.88149	3.74059		
0.638622	2.69413	0.472901	1.97923	0.639286	2.69404	0.721807	3.05307	0.838364	3.54532			0.624098	2.63857	0.718558	3.02821	0.882827	3.7315		
0.641054	2.69381	0.474922	1.97997	0.641718	2.69372	0.723557	3.04846	0.840129	3.53884			0.626144	2.63683	0.720506	3.02455	0.884167	3.72251		
0.643487	2.69348	0.476943	1.9807	0.644151	2.6934	0.72531	3.04389	0.841897	3.53242			0.628188	2.63511	0.722458	3.02093	0.885511	3.7136		
0.645919	2.69316	0.478964	1.98142	0.646583	2.69308	0.727066	3.03938	0.843667	3.52606			0.630232	2.63339	0.724413	3.01735	0.886859	3.70478		
0.648352	2.69285	0.480984	1.98214	0.649016	2.69276	0.728824	3.03491	0.845439	3.51976			0.632274	2.63167	0.726371	3.01381	0.88821	3.69604		
0.650785	2.69253	0.483004	1.98285	0.651449	2.69244	0.730586	3.03049	0.847214	3.51352			0.634315	2.62997	0.728333	3.01031	0.889566	3.68738		
0.653217	2.69222	0.485024	1.98356	0.653881	2.69213	0.73235	3.02611	0.848991	3.50734			0.636355	2.62828	0.730298	3.00685	0.890925	3.67881		
0.655649	2.6919	0.487044	1.98426	0.656313	2.69182	0.734118	3.02178	0.85077	3.50122			0.638394	2.62659	0.732267	3.00344	0.892289	3.67032		
0.658082	2.69159	0.489063	1.98495	0.658746	2.69151	0.735888	3.0175	0.852552	3.49515			0.640432	2.62491	0.734239	3.00006	0.893655	3.66191		
0.660514	2.69129	0.491082	1.98564	0.661178	2.6912	0.737661	3.01325	0.854336	3.48914			0.642468	2.62324	0.736214	2.99672	0.895026	3.65358		
0.662946	2.69098	0.493101	1.98632	0.66361	2.6909	0.739437	3.00906	0.856122	3.48318			0.644503	2.62157	0.738192	2.99342	0.896401	3.64532		
0.665378	2.69067	0.49512	1.98699	0.666041	2.69059	0.741216	3.0049	0.857911	3.47727			0.646537	2.61992	0.740173	2.99016	0.897779	3.63715		
0.667809	2.69037	0.497138	1.98766	0.668473	2.69029	0.742997	3.00079	0.859702	3.47142			0.648569	2.61827	0.742158	2.98694	0.899161	3.62905		
0.67024	2.69007	0.499156	1.98832	0.670904	2.68999	0.744782	2.99672	0.861495	3.46562			0.650601	2.61663	0.744146	2.98375	0.900547	3.62103		
0.672671	2.68977	0.501174	1.98898	0.673335	2.68968	0.746569	2.99269	0.86329	3.45988			0.652631	2.61499	0.746137	2.9806	0.901936	3.61308		
0.675102	2.68947	0.503192	1.98963	0.675765	2.68938	0.748359	2.98871	0.865088	3.45418			0.65466	2.61337	0.74813	2.97748	0.90333	3.6052		
0.677532	2.68917	0.505209	1.99027	0.678196	2.68909	0.750152	2.98476	0.866887	3.44854			0.656688	2.61175	0.750127	2.9744	0.904727	3.5974		
0.679962	2.68887	0.507227	1.99091	0.680626	2.68879	0.751948	2.98085	0.868689	3.44295			0.658714	2.61014	0.752127	2.97135	0.906127	3.58967		
0.682392	2.68857	0.509243	1.99155	0.683055	2.68849	0.753746	2.97699	0.870493	3.4374			0.66074	2.60853	0.75413	2.96834	0.907532	3.58202		
0.684821	2.68827	0.51126	1.99217	0.685484	2.68819	0.755547	2.97316	0.872299	3.43191			0.662764	2.60694	0.756136	2.96536	0.90894	3.57443		
0.68725	2.68798	0.513277	1.9928	0.687913	2.6879	0.757352	2.96938	0.874107	3.42646			0.664787	2.60535	0.758145	2.96241	0.910352	3.56691		
0.689678	2.68768	0.515293	1.99341	0.690341	2.6876	0.759158	2.96563	0.875917	3.42107			0.66681	2.60376	0.760156	2.9595	0.911767	3.55946		
0.692106	2.68738	0.517309	1.99402	0.692768	2.6873	0.760968	2.96192	0.87773	3.41571			0.66883	2.60219	0.762171	2.95661	0.913186	3.55209		
0.694533	2.68709	0.519324	1.99463	0.695196	2.68701	0.762781	2.95824	0.879544	3.41041			0.67085	2.60062	0.764188	2.95376	0.914609	3.54477		
0.69696	2.68679	0.52134	1.99523	0.697622	2.68671	0.764596	2.95461	0.88136	3.40515			0.672869	2.59906	0.766208	2.95095	0.916036	3.53753		
0.699386	2.68649	0.523355	1.99583	0.700048	2.68641	0.766414	2.95101	0.883179	3.39994			0.674887	2.5975	0.768231	2.94816	0.917466	3.53035		
0.701811	2.6862	0.52537	1.99642	0.702473	2.68612	0.768235	2.94745	0.884999	3.39477			0.676903	2.59596	0.770257	2.9454	0.9189	3.52323		
0.704236	2.6859	0.527385	1.997	0.704898	2.68582	0.770059	2.94392	0.886821	3.38965			0.678918	2.59441	0.772285	2.94267	0.920337	3.51618		
0.70666	2.6856	0.529399	1.99758	0.707322	2.68552	0.771886	2.94043	0.888645	3.38457			0.680933	2.59288	0.774316	2.93997	0.921778	3.5092		
0.709084	2.68531	0.531413	1.99816	0.709745	2.68522	0.773716	2.93698	0.890472	3.37953			0.682946	2.59135	0.77635	2.93731	0.923223	3.50228		
0.711507	2.68501	0.533427	1.99873	0.712168	2.68492	0.775548	2.93356	0.8923	3.37453			0.684958	2.58983	0.778386	2.93466	0.924671	3.49542		
0.713929	2.68471	0.535441	1.9993	0.714589	2.68463	0.777383	2.93017	0.89413	3.36958			0.686969	2.58832	0.780425	2.93205	0.926123	3.48862		
0.71635	2.68441	0.537454	1.99986	0.71701	2.68432	0.779221	2.92682	0.895962	3.36467			0.688979	2.58681	0.782466	2.92947	0.927578	3.48188		
0.71877	2.68411	0.539468	2.00041	0.719431	2.68402	0.781062	2.92351	0.897795	3.3598			0.690988	2.58531	0.78451	2.92691	0.929037	3.4752		
0.72119	2.6838	0.54148	2.00096	0.72185	2.68372	0.782906	2.92023	0.899631	3.35497			0.692996	2.58381	0.786557	2.92438	0.9305	3.46859		
0.723608	2.6835	0.543493	2.00151	0.724268	2.68342	0.784753	2.91698	0.901468	3.35019			0.695003	2.58233	0.788606	2.92188	0.931966	3.46203		
0.726026	2.68319	0.545506	2.00205	0.726686	2.68311	0.786603	2.91376	0.903308	3.34544			0.697008	2.58085	0.790657	2.9194	0.933436	3.45553		
0.728443	2.68289	0.547518	2.00259	0.729102	2.6828	0.788455	2.91058	0.905149	3.34073			0.699013	2.57937	0.792711	2.91695	0.934909	3.44908		
0.730858	2.68258	0.54953	2.00312	0.731517	2.6825	0.790311	2.90743	0.906992	3.33606			0.701017	2.5779	0.794767	2.91452	0.936386	3.4427		
0.733273	2.68227	0.551541	2.00365	0.733932	2.68219	0.792169	2.90431	0.908836	3.33143			0.70302	2.57644	0.796825	2.91212	0.937866	3.43637		
0.735687	2.68196	0.553553	2.00417	0.736345	2.68187	0.79403	2.90122	0.910683	3.32683			0.705022	2.57498	0.798886	2.90974	0.93935	3.4301		
0.738099	2.68165	0.555564	2.00469	0.738757	2.68156	0.795895	2.89817	0.912531	3.32228			0.707023	2.57353	0.800949	2.90739	0.940837	3.42388		
0.74051	2.68133	0.557575	2.00521	0.741168	2.68124	0.797762	2.89515	0.91438	3.31776			0.709023	2.57209	0.803014	2.90506	0.942328	3.41772		
0.742921	2.68101	0.559586	2.00572	0.743578	2.68093	0.799632	2.89216	0.916232	3.31327			0.711022	2.57065	0.805082	2.90276	0.943823	3.41161		
0.74533	2.68069	0.561596	2.00623	0.745987	2.68061	0.801506	2.8892	0.918085	3.30883			0.71302	2.56922	0.807151	2.90048	0.945321	3.40556		
0.747737	2.68037	0.563606	2.00673	0.748394	2.68028	0.803382	2.88627	0.91994	3.30442			0.715017	2.5678	0.809223	2.89822	0.946822	3.39955		
0.750144	2.68005	0.565616	2.00723	0.7508	2.67996	0.805262	2.88337	0.921797	3.30004			0.717013	2.56638	0.811297	2.89598	0.948327	3.39361		
0.752549	2.67972	0.567626	2.00772	0.753205	2.67963	0.807144	2.8805	0.923655	3.2957			0.719008	2.56497	0.813373	2.89377	0.949835	3.38771		
0.754953	2.67939	0.569636	2.00821	0.755609	2.6793	0.80903	2.87766	0.925514	3.2914			0.721002	2.56356	0.815451	2.89158	0.951347	3.38186		
0.757355	2.67906	0.571645	2.00869	0.75801	2.67896	0.810919	2.87485	0.927376	3.28712			0.722996	2.56216	0.817531	2.88941	0.952863	3.37607		
0.759756	2.67872	0.573654	2.00918	0.760411	2.67863	0.812811	2.87207	0.929239	3.28289			0.724988	2.56077	0.819614	2.88726	0.954381	3.37032		
0.762155	2.67838	0.575662	2.00965	0.76281	2.67829	0.814706	2.86932	0.931103	3.27868			0.72698	2.55938	0.821698	2.88513	0.955904	3.36463		
0.764553	2.67804	0.577671	2.01013	0.765207	2.67795	0.816604	2.8666	0.93297	3.27451			0.728971	2.558	0.823784	2.88303	0.957429	3.35898		
0.766949	2.67769	0.579679	2.0106	0.767603	2.6776	0.818506	2.86391	0.934837	3.27037			0.730961	2.55662	0.825872	2.88094	0.958959	3.35339		
0.769343	2.67734	0.581687	2.01106	0.769997	2.67725	0.820411	2.86125	0.936706	3.26626			0.73295	2.55525	0.827962	2.87887	0.960491	3.34784		
0.771736	2.67699	0.583695	2.01152	0.772389	2.67689	0.822319	2.85861	0.938577	3.26219			0.734938	2.55389	0.830054	2.87683	0.962027	3.34234		
0.774127	2.67664	0.585702	2.01198	0.77478	2.67654	0.82423	2.85601	0.940449	3.25814			0.736926	2.55253	0.832147	2.8748	0.963567	3.33689		
0.776517	2.67628	0.58771	2.01244	0.777168	2.67618	0.826145	2.85343	0.942323	3.25413			0.738913	2.55118	0.834242	2.87279	0.965109	3.33148		
0.778904	2.67591	0.589717	2.01289	0.779555	2.67581	0.828064	2.85088	0.944198	3.25015			0.740898	2.54984	0.83634	2.8708	0.966656	3.32612		
0.781289	2.67554	0.591723	2.01333	0.78194	2.67544	0.829985	2.84836	0.946075	3.2462			0.742883	2.5485	0.838438	2.86883	0.968205	3.32081		
0.783673	2.67517	0.59373	2.01378	0.784323	2.67507	0.83191	2.84587	0.947953	3.24228			0.744868	2.54716	0.840539	2.86688	0.969759	3.31554		
0.786054	2.67479	0.595736	2.01422	0.786704	2.67469	0.833839	2.84341	0.949833	3.23839			0.746851	2.54583	0.842641	2.86495	0.971315	3.31032		
0.788434	2.67441	0.597742	2.01465	0.789083	2.6743	0.835771	2.84097	0.951714	3.23453			0.748834	2.54451	0.844745	2.86303	0.972875	3.30514		
0.790811	2.67402	0.599748	2.01509	0.79146	2.67392	0.837707	2.83856	0.953596	3.23069			0.750816	2.54319	0.846851	2.86113	0.974438	3.3		
0.793186	2.67363	0.601754	2.01552	0.793834	2.67352	0.839647	2.83618	0.95548	3.22689			0.752797	2.54188	0.848958	2.85925	0.976005	3.29491		
0.795559	2.67323	0.603759	2.01594	0.796206	2.67312	0.84159	2.83382	0.957365	3.22312			0.754778	2.54058	0.851067	2.85739	0.977575	3.28986		
0.79793	2.67283	0.605764	2.01636	0.798576	2.67272	0.843537	2.83149	0.959251	3.21937			0.756758	2.53928	0.853177	2.85554	0.979148	3.28486		
0.800298	2.67242	0.607769	2.01678	0.800944	2.67231	0.845487	2.82919	0.961139	3.21565			0.758737	2.53799	0.855288	2.85371	0.980725	3.2799		
0.802664	2.67201	0.609773	2.0172	0.803309	2.6719	0.847442	2.82692	0.963029	3.21196			0.760716	2.5367	0.857402	2.85189	0.982305	3.27498		
0.805027	2.67159	0.611778	2.01761	0.805672	2.67148	0.8494	2.82467	0.964919	3.20829			0.762693	2.53542	0.859516	2.85009	0.983889	3.2701		
0.807388	2.67117	0.613782	2.01802	0.808032	2.67105	0.851362	2.82245	0.966811	3.20466			0.76467	2.53414	0.861632	2.84831	0.985476	3.26526		
0.809746	2.67074	0.615785	2.01842	0.810389	2.67062	0.853328	2.82026	0.968704	3.20105			0.766647	2.53287	0.86375	2.84654	0.987066	3.26047		
0.812101	2.6703	0.617789	2.01882	0.812744	2.67018	0.855298	2.8181	0.970598	3.19746			0.768623	2.5316	0.865868	2.84479	0.988659	3.25571		
0.814454	2.66986	0.619792	2.01922	0.815096	2.66973	0.857272	2.81596	0.972494	3.1939			0.770598	2.53035	0.867988	2.84305	0.990256	3.25099		
0.816804	2.66941	0.621795	2.01962	0.817445	2.66928	0.859251	2.81384	0.974391	3.19037			0.772572	2.52909	0.87011	2.84133	0.991856	3.24632		
0.819151	2.66895	0.623798	2.02001	0.819791	2.66882	0.861233	2.81175	0.976289	3.18686			0.774546	2.52784	0.872232	2.83962	0.99346	3.24168		
0.821495	2.66849	0.625801	2.0204	0.822134	2.66836	0.86322	2.80969	0.978189	3.18338			0.776519	2.5266	0.874356	2.83793	0.995067	3.23708		
0.823836	2.66802	0.627803	2.02079	0.824475	2.66789	0.865211	2.80766	0.980089	3.17993			0.778492	2.52536	0.876482	2.83625	0.996677	3.23252		
0.826174	2.66754	0.629805	2.02117	0.826812	2.66741	0.867206	2.80565	0.981991	3.17649			0.780464	2.52413	0.878608	2.83459	0.998291	3.228		
0.828509	2.66706	0.631807	2.02155	0.829146	2.66692	0.869205	2.80367	0.983894	3.17309			0.782435	2.52291	0.880735	2.83293	0.999907	3.22352		
0.830841	2.66656	0.633809	2.02193	0.831476	2.66643	0.871209	2.80171	0.985798	3.1697			0.784406	2.52168	0.882864	2.8313	1.00153	3.21907		
0.833169	2.66606	0.63581	2.0223	0.833804	2.66593	0.873218	2.79978	0.987704	3.16635			0.786377	2.52047	0.884993	2.82967				
0.835494	2.66556	0.637812	2.02267	0.836128	2.66542	0.875231	2.79788	0.98961	3.16301			0.788346	2.51926	0.887124	2.82806				
0.837816	2.66504	0.639813	2.02304	0.838449	2.6649	0.877248	2.796	0.991518	3.1597			0.790316	2.51806	0.889256	2.82646				
0.840134	2.66452	0.641813	2.02341	0.840766	2.66438	0.879271	2.79415	0.993427	3.15641			0.792284	2.51686	0.891389	2.82487				
0.842448	2.66399	0.643814	2.02377	0.843079	2.66384	0.881297	2.79232	0.995337	3.15314			0.794253	2.51566	0.893522	2.8233				
0.844759	2.66345	0.645814	2.02413	0.845389	2.6633	0.883329	2.79052	0.997248	3.1499			0.79622	2.51448	0.895657	2.82174				
0.847066	2.6629	0.647814	2.02448	0.847695	2.66275	0.885366	2.78875	0.99916	3.14668			0.798187	2.51329	0.897793	2.82019				
0.84937	2.66234	0.649814	2.02484	0.849998	2.66219	0.887407	2.787	1.00107	3.14348			0.800154	2.51212	0.899929	2.81865				
0.851669	2.66178	0.651813	2.02519	0.852296	2.66162	0.889453	2.78528					0.80212	2.51094	0.902067	2.81712				
0.853965	2.6612	0.653812	2.02554	0.854591	2.66105	0.891504	2.78358					0.804086	2.50978	0.904205	2.81561				
0.856257	2.66062	0.655811	2.02588	0.856882	2.66046	0.893561	2.78191					0.806051	2.50862	0.906344	2.81411				
0.858545	2.66003	0.65781	2.02623	0.859169	2.65987	0.895622	2.78026					0.808016	2.50746	0.908484	2.81261				
0.860829	2.65943	0.659809	2.02657	0.861451	2.65926	0.897688	2.77864					0.80998	2.50631	0.910625	2.81113				
0.863108	2.65882	0.661807	2.0269	0.86373	2.65865	0.89976	2.77704					0.811944	2.50516	0.912766	2.80966				
0.865384	2.6582	0.663805	2.02724	0.866004	2.65803	0.901837	2.77547					0.813907	2.50402	0.914908	2.8082				
0.867655	2.65757	0.665803	2.02757	0.868274	2.6574	0.903919	2.77392					0.81587	2.50289	0.917051	2.80675				
0.869922	2.65693	0.667801	2.0279	0.87054	2.65676	0.906006	2.7724					0.817833	2.50176	0.919195	2.80531				
0.872185	2.65628	0.669798	2.02823	0.872801	2.6561	0.908098	2.7709					0.819795	2.50063	0.921339	2.80388				
0.874443	2.65563	0.671795	2.02855	0.875059	2.65544	0.910196	2.76943					0.821757	2.49951	0.923484	2.80247				
0.876697	2.65496	0.673792	2.02887	0.877311	2.65477	0.9123	2.76799					0.823718	2.4984	0.925629	2.80106				
0.878946	2.65428	0.675789	2.02919	0.879559	2.65409	0.914408	2.76656					0.825679	2.49729	0.927775	2.79966				
0.881191	2.65359	0.677785	2.02951	0.881803	2.65341	0.916523	2.76516					0.82764	2.49619	0.929921	2.79827				
0.883432	2.6529	0.679781	2.02982	0.884042	2.65271	0.918642	2.76379					0.8296	2.49509	0.932068	2.79688				
0.885668	2.65219	0.681777	2.03014	0.886277	2.652	0.920767	2.76244					0.83156	2.49399	0.934215	2.79551				
0.887899	2.65148	0.683773	2.03045	0.888507	2.65128	0.922898	2.76112					0.833519	2.4929	0.936363	2.79415				
0.890126	2.65075	0.685769	2.03075	0.890733	2.65055	0.925034	2.75981					0.835478	2.49182	0.938512	2.7928				
0.892348	2.65002	0.687764	2.03106	0.892954	2.64981	0.927176	2.75854					0.837437	2.49074	0.94066	2.79145				
0.894565	2.64927	0.689759	2.03136	0.89517	2.64907	0.929323	2.75728					0.839395	2.48967	0.942809	2.79011				
0.896778	2.64852	0.691754	2.03166	0.897382	2.64831	0.931476	2.75605					0.841354	2.4886	0.944959	2.78879				
0.898987	2.64775	0.693748	2.03196	0.899589	2.64754	0.933634	2.75484					0.843312	2.48753	0.947108	2.78747				
0.90119	2.64698	0.695743	2.03225	0.901791	2.64677	0.935798	2.75365					0.845269	2.48647	0.949259	2.78615				
0.90339	2.6462	0.697737	2.03255	0.903989	2.64598	0.937967	2.75249					0.847226	2.48542	0.951409	2.78485				
0.905584	2.64541	0.699731	2.03284	0.906182	2.64519	0.940142	2.75135					0.849183	2.48437	0.953559	2.78355				
0.907774	2.64461	0.701724	2.03313	0.908371	2.64439	0.942322	2.75023					0.85114	2.48333	0.95571	2.78226				
0.909959	2.6438	0.703718	2.03341	0.910555	2.64357	0.944507	2.74914					0.853096	2.48229	0.957861	2.78098				
0.91214	2.64298	0.705711	2.0337	0.912734	2.64275	0.946699	2.74806					0.855052	2.48125	0.960012	2.77971				
0.914316	2.64215	0.707704	2.03398	0.914909	2.64192	0.948895	2.74701					0.857008	2.48022	0.962164	2.77844				
0.916488	2.64131	0.709697	2.03426	0.91708	2.64108	0.951097	2.74598					0.858964	2.4792	0.964315	2.77718				
0.918655	2.64047	0.711689	2.03454	0.919246	2.64024	0.953304	2.74496					0.860919	2.47817	0.966467	2.77593				
0.920817	2.63962	0.713682	2.03481	0.921407	2.63938	0.955516	2.74397					0.862874	2.47716	0.968619	2.77469				
0.922976	2.63876	0.715674	2.03509	0.923564	2.63852	0.957734	2.743					0.864829	2.47615	0.97077	2.77345				
0.92513	2.63789	0.717666	2.03536	0.925717	2.63765	0.959957	2.74205					0.866784	2.47514	0.972922	2.77222				
0.927279	2.63701	0.719657	2.03563	0.927865	2.63677	0.962184	2.74112					0.868738	2.47414	0.975074	2.77099				
0.929425	2.63613	0.721649	2.0359	0.930009	2.63589	0.964417	2.74021					0.870692	2.47314	0.977226	2.76977				
0.931566	2.63524	0.72364	2.03616	0.932149	2.63499	0.966655	2.73932					0.872646	2.47215	0.979377	2.76856				
0.933703	2.63434	0.725631	2.03643	0.934285	2.63409	0.968898	2.73844					0.8746	2.47116	0.981529	2.76736				
0.935836	2.63343	0.727622	2.03669	0.936417	2.63319	0.971146	2.73759					0.876554	2.47018	0.983681	2.76616				
0.937964	2.63252	0.729612	2.03695	0.938545	2.63227	0.973399	2.73675					0.878507	2.4692	0.985832	2.76496				
0.940089	2.63161	0.731602	2.0372	0.940668	2.63135	0.975656	2.73593					0.88046	2.46823	0.987983	2.76377				
0.94221	2.63068	0.733592	2.03746	0.942788	2.63043	0.977918	2.73512					0.882413	2.46726	0.990135	2.76259				
0.944327	2.62975	0.735582	2.03771	0.944904	2.6295	0.980185	2.73434					0.884366	2.4663	0.992286	2.76141				
0.94644	2.62881	0.737572	2.03796	0.947016	2.62856	0.982456	2.73357					0.886319	2.46534	0.994437	2.76024				
0.948549	2.62787	0.739561	2.03821	0.949125	2.62762	0.984732	2.73282					0.888271	2.46438	0.996587	2.75908				
0.950655	2.62693	0.741551	2.03846	0.951229	2.62667	0.987011	2.73208					0.890224	2.46343	0.998738	2.75792				
0.952757	2.62597	0.743539	2.03871	0.953331	2.62571	0.989296	2.73136					0.892176	2.46248	1.00089	2.75676				
0.954856	2.62502	0.745528	2.03895	0.955428	2.62476	0.991584	2.73065					0.894128	2.46154						
0.956951	2.62406	0.747517	2.0392	0.957523	2.62379	0.993877	2.72996					0.89608	2.4606						
0.959043	2.62309	0.749505	2.03944	0.959614	2.62283	0.996174	2.72929					0.898032	2.45967						
0.961132	2.62212	0.751493	2.03967	0.961701	2.62186	0.998474	2.72862					0.899984	2.45874						
0.963217	2.62115	0.753481	2.03991	0.963786	2.62088	1.00078	2.72798					0.901935	2.45782						
0.965299	2.62017	0.755469	2.04015	0.965867	2.6199							0.903887	2.4569						
0.967378	2.61919	0.757456	2.04038	0.967945	2.61892							0.905838	2.45598						
0.969454	2.61821	0.759443	2.04061	0.97002	2.61794							0.907789	2.45507						
0.971527	2.61722	0.76143	2.04084	0.972093	2.61695							0.90974	2.45416						
0.973597	2.61623	0.763417	2.04107	0.974162	2.61596							0.911691	2.45326						
0.975665	2.61524	0.765404	2.0413	0.976229	2.61497							0.913642	2.45236						
0.97773	2.61424	0.76739	2.04152	0.978293	2.61397							0.915593	2.45147						
0.979792	2.61325	0.769376	2.04174	0.980354	2.61298							0.917544	2.45058						
0.981851	2.61225	0.771362	2.04196	0.982413	2.61198							0.919494	2.44969						
0.983908	2.61125	0.773348	2.04218	0.984469	2.61098							0.921445	2.44881						
0.985962	2.61025	0.775333	2.0424	0.986523	2.60997							0.923396	2.44793						
0.988015	2.60924	0.777318	2.04262	0.988574	2.60897							0.925346	2.44706						
0.990064	2.60824	0.779303	2.04283	0.990623	2.60797							0.927296	2.44619						
0.992112	2.60723	0.781288	2.04305	0.99267	2.60696							0.929247	2.44532						
0.994157	2.60623	0.783273	2.04326	0.994715	2.60595							0.931197	2.44446						
0.9962	2.60522	0.785257	2.04347	0.996758	2.60495							0.933147	2.44361						
0.998241	2.60421	0.787242	2.04368	0.998798	2.60394							0.935098	2.44275						
1.00028	2.60321	0.789226	2.04388	1.00084	2.60293							0.937048	2.4419						
		0.791209	2.04409									0.938998	2.44106						
		0.793193	2.04429									0.940948	2.44022						
		0.795176	2.0445									0.942898	2.43938						
		0.797159	2.0447									0.944848	2.43855						
		0.799142	2.0449									0.946798	2.43772						
		0.801125	2.04509									0.948748	2.43689						
		0.803108	2.04529									0.950698	2.43607						
		0.80509	2.04549									0.952648	2.43526						
		0.807072	2.04568									0.954598	2.43444						
		0.809054	2.04587									0.956548	2.43363						
		0.811036	2.04606									0.958498	2.43283						
		0.813017	2.04625									0.960448	2.43203						
		0.814999	2.04644									0.962399	2.43123						
		0.81698	2.04663									0.964349	2.43043						
		0.818961	2.04681									0.966299	2.42964						
		0.820941	2.04699									0.968249	2.42886						
		0.822922	2.04718									0.970199	2.42807						
		0.824902	2.04736									0.972149	2.4273						
		0.826882	2.04754									0.974099	2.42652						
		0.828862	2.04772									0.97605	2.42575						
		0.830842	2.04789									0.978	2.42498						
		0.832821	2.04807									0.97995	2.42422						
		0.8348	2.04824									0.9819	2.42345						
		0.83678	2.04842									0.983851	2.4227						
		0.838758	2.04859									0.985801	2.42194						
		0.840737	2.04876									0.987752	2.42119						
		0.842716	2.04893									0.989702	2.42045						
		0.844694	2.0491									0.991653	2.4197						
		0.846672	2.04926									0.993604	2.41896						
		0.84865	2.04943									0.995554	2.41823						
		0.850628	2.04959									0.997505	2.4175						
		0.852605	2.04976									0.999456	2.41677						
		0.854582	2.04992									1.00141	2.41604						
		0.856559	2.05008																
		0.858536	2.05024																
		0.860513	2.0504																
		0.86249	2.05056																
		0.864466	2.05071																
		0.866442	2.05087																
		0.868418	2.05102																
		0.870394	2.05117																
		0.872369	2.05132																
		0.874345	2.05148																
		0.87632	2.05162																
		0.878295	2.05177																
		0.88027	2.05192																
		0.882244	2.05207																
		0.884219	2.05221																
		0.886193	2.05236																
		0.888167	2.0525																
		0.890141	2.05264																
		0.892115	2.05278																
		0.894088	2.05292																
		0.896061	2.05306																
		0.898034	2.0532																
		0.900007	2.05334																
		0.90198	2.05347																
		0.903953	2.05361																
		0.905925	2.05374																
		0.907897	2.05387																
		0.909869	2.054																
		0.911841	2.05414																
		0.913813	2.05427																
		0.915784	2.05439																
		0.917756	2.05452																
		0.919727	2.05465																
		0.921698	2.05478																
		0.923669	2.0549																
		0.925639	2.05503																
		0.92761	2.05515																
		0.92958	2.05527																
		0.93155	2.05539																
		0.93352	2.05551																
		0.935489	2.05563																
		0.937459	2.05575																
		0.939428	2.05587																
		0.941398	2.05599																
		0.943367	2.05611																
		0.945335	2.05622																
		0.947304	2.05634																
		0.949273	2.05645																
		0.951241	2.05656																
		0.953209	2.05668																
		0.955177	2.05679																
		0.957145	2.0569																
		0.959113	2.05701																
		0.96108	2.05712																
		0.963047	2.05723																
		0.965014	2.05733																
		0.966981	2.05744																
		0.968948	2.05755																
		0.970915	2.05765																
		0.972881	2.05776																
		0.974848	2.05786																
		0.976814	2.05796																
		0.97878	2.05806																
		0.980746	2.05817																
		0.982711	2.05827																
		0.984677	2.05837																
		0.986642	2.05847																
		0.988607	2.05856																
		0.990572	2.05866																
		0.992537	2.05876																
		0.994502	2.05886																
		0.996466	2.05895																
		0.998431	2.05905																
		1.00039	2.05914																
