Sym0		Asym0		Sym1		Sym2		Sym3		Sym4		Asym1		Asym2		Asym3		Asym4	
424  Points		527  Points		424  Points		406  Points		352  Points		252  Points		455  Points		400  Points		344  Points		207  Points	
Freq (MHz)	Vph (m/ms)	Freq (MHz)	Vph (m/ms)	Freq (MHz)	Vph (m/ms)	Freq (MHz)	Vph (m/ms)	Freq (MHz)	Vph (m/ms)	Freq (MHz)	Vph (m/ms)	Freq (MHz)	Vph (m/ms)	Freq (MHz)	Vph (m/ms)	Freq (MHz)	Vph (m/ms)	Freq (MHz)	Vph (m/ms)
0.27951	683.991	0.000216198	0.0905234	0.279514	307.176	0.449912	11655.8	0.559017	7487.95	0.838526	2159.89	0.139755	958.045	0.419268	468.205	0.698771	3636.66	0.899824	2233.48
0.27952	208.544	0.000417155	0.125649	0.27953	151.783	0.449917	463.692	0.559024	555.496	0.838531	635.289	0.139799	129.735	0.419285	229.472	0.698776	621.774	0.899829	674.244
0.279541	123.035	0.00068288	0.160613	0.279556	100.801	0.449934	236.56	0.559041	288.456	0.838542	372.418	0.139909	69.632	0.419314	151.988	0.698786	339.953	0.899839	397.057
0.279572	87.2646	0.0010125	0.195335	0.279594	75.4633	0.449961	158.79	0.55907	194.816	0.838559	263.424	0.140086	47.6326	0.419354	113.629	0.698802	233.93	0.899854	281.383
0.279615	67.6145	0.00140521	0.229793	0.279642	60.3102	0.449999	119.51	0.559111	147.079	0.838582	203.786	0.140328	36.2356	0.419406	90.7361	0.698825	178.32	0.899875	217.905
0.279668	55.1927	0.00185996	0.263944	0.279701	50.2299	0.450048	95.8146	0.559162	118.138	0.838611	166.17	0.140635	29.2725	0.419469	75.5262	0.698853	144.075	0.899901	177.798
0.279732	46.6312	0.00237559	0.29775	0.279771	43.0409	0.450108	79.9656	0.559225	98.7188	0.838645	140.279	0.141007	24.5826	0.419544	64.6881	0.698888	120.866	0.899932	150.163
0.279807	40.3732	0.00295064	0.331154	0.279851	37.6559	0.450178	68.6199	0.559299	84.787	0.838685	121.371	0.141442	21.2128	0.419631	56.5743	0.698928	104.1	0.899968	129.964
0.279892	35.5997	0.0035839	0.364149	0.279943	33.4719	0.45026	60.0974	0.559384	74.305	0.838731	106.957	0.141939	18.6775	0.419729	50.2728	0.698975	91.4205	0.90001	114.557
0.279989	31.839	0.00427369	0.396683	0.280045	30.1279	0.450351	53.4614	0.559481	66.1332	0.838783	95.6044	0.142496	16.7031	0.419839	45.2377	0.699027	81.4964	0.900056	102.417
0.280096	28.7998	0.00501852	0.428741	0.280158	27.3942	0.450454	48.1483	0.559588	59.5839	0.838841	86.4323	0.143114	15.1238	0.419961	41.1225	0.699086	73.5176	0.900108	92.6054
0.280214	26.2931	0.00581667	0.46029	0.280281	25.118	0.450567	43.7987	0.559707	54.2179	0.838904	78.8676	0.143789	13.8331	0.420094	37.6965	0.699151	66.9634	0.900166	84.5105
0.280342	24.1904	0.00666657	0.491322	0.280416	23.1935	0.450692	40.1724	0.559837	49.7412	0.838974	72.5218	0.144521	12.7598	0.420239	34.8	0.699221	61.4836	0.900228	77.7183
0.280481	22.4014	0.00756636	0.521806	0.280561	21.5452	0.450826	37.1031	0.559979	45.95	0.839049	67.1225	0.145307	11.8542	0.420395	32.3194	0.699298	56.8342	0.900296	71.9378
0.280631	20.8611	0.00851433	0.551731	0.280717	20.1177	0.450972	34.4718	0.560131	42.6982	0.83913	62.4726	0.146147	11.0804	0.420563	30.1712	0.699381	52.8398	0.900369	66.9588
0.280792	19.521	0.00950871	0.581084	0.280883	18.8697	0.451128	32.1912	0.560295	39.8784	0.839216	58.4264	0.14692	10.4932	0.420742	28.293	0.699469	49.3712	0.900447	62.6254
0.280964	18.3447	0.0105479	0.609864	0.28106	17.7694	0.451295	30.1956	0.560469	37.4101	0.839309	54.8735	0.14761	10.0458	0.420933	26.6369	0.699564	46.331	0.900531	58.8198
0.281146	17.304	0.0116299	0.638054	0.281248	16.7922	0.451472	28.4349	0.560655	35.2315	0.839407	51.7289	0.1482	9.7079	0.421135	25.166	0.699665	43.6446	0.900619	55.4511
0.281338	16.3767	0.0127532	0.665657	0.281447	15.9185	0.45166	26.87	0.560852	33.2946	0.839511	48.9262	0.14868	9.45892	0.421349	23.8508	0.699772	41.2537	0.900713	52.4482
0.281542	15.5455	0.013916	0.692667	0.281656	15.1329	0.451859	25.4701	0.56106	31.5613	0.839621	46.4125	0.14904	9.28523	0.421574	22.6681	0.699885	39.1121	0.900812	49.7547
0.281756	14.7961	0.0151167	0.719083	0.281876	14.4227	0.452069	24.2104	0.56128	30.0012	0.839737	44.1453	0.149273	9.178	0.421811	21.5988	0.700004	37.1827	0.900917	47.3251
0.281981	14.1172	0.0163537	0.74491	0.282106	13.7777	0.452289	23.071	0.56151	28.5898	0.839858	42.0901	0.149612	9.02893	0.422059	20.6274	0.700129	35.4357	0.901026	45.1224
0.282217	13.4993	0.0176254	0.770153	0.282348	13.1894	0.452519	22.0355	0.561751	27.3067	0.839986	40.2186	0.149987	8.87334	0.422318	19.7412	0.70026	33.8462	0.901141	43.1165
0.282463	12.9347	0.0189303	0.794814	0.282599	12.6505	0.45276	21.0904	0.562004	26.1353	0.840119	38.5072	0.150505	8.67185	0.422589	18.9294	0.700397	32.3941	0.901261	41.2819
0.282719	12.4167	0.0202669	0.818899	0.282862	12.1553	0.453012	20.2244	0.562267	25.0617	0.840258	36.9362	0.151176	8.4324	0.422872	18.1832	0.70054	31.0622	0.901387	39.5978
0.282987	11.9398	0.0216338	0.842415	0.283135	11.6987	0.453275	19.428	0.562542	24.0742	0.840402	35.4891	0.152008	8.16366	0.423165	17.495	0.700689	29.8362	0.901517	38.0463
0.283264	11.4995	0.0230296	0.865373	0.283418	11.2763	0.453547	18.6932	0.562827	23.1628	0.840553	34.1517	0.153013	7.87429	0.42347	16.8582	0.700844	28.704	0.901653	36.6124
0.283553	11.0917	0.024453	0.887778	0.283712	10.8845	0.453831	18.0132	0.563123	22.3192	0.840709	32.9122	0.154203	7.57248	0.423787	16.2674	0.701005	27.6553	0.901794	35.2833
0.283852	10.713	0.0259028	0.909645	0.284017	10.5202	0.454124	17.382	0.563431	21.5361	0.840871	31.7601	0.155432	7.29888	0.424114	15.7179	0.701172	26.6812	0.90194	34.0479
0.284161	10.3603	0.0273778	0.93098	0.284291	10.2229	0.454429	16.7948	0.563749	20.8073	0.841039	30.6866	0.156697	7.04986	0.424453	15.2054	0.701345	25.774	0.902091	32.8966
0.284482	10.0313	0.0288767	0.951796	0.284531	9.98305	0.454743	16.247	0.564078	20.1273	0.841212	29.6838	0.157998	6.82238	0.424804	14.7264	0.701524	24.9271	0.902248	31.8211
0.284812	9.72347	0.0303985	0.972102	0.284734	9.79351	0.455069	15.7348	0.564418	19.4915	0.841391	28.7451	0.159332	6.6139	0.425165	14.2778	0.701709	24.1347	0.902409	30.8143
0.285153	9.43501	0.0319421	0.991912	0.284897	9.64893	0.455404	15.255	0.564769	18.8956	0.841576	27.8645	0.160698	6.42222	0.425538	13.8568	0.701899	23.3917	0.902576	29.8697
0.285505	9.16413	0.0335065	1.01124	0.285019	9.54547	0.45575	14.8045	0.565131	18.3361	0.841767	27.0368	0.162094	6.24548	0.425921	13.4609	0.702096	22.6936	0.902749	28.9818
0.285867	8.90931	0.0350908	1.03008	0.285097	9.48049	0.456106	14.3808	0.565503	17.8098	0.841964	26.2573	0.16352	6.08208	0.426316	13.088	0.702299	22.0365	0.902926	28.1456
0.286239	8.66919	0.036694	1.04847	0.285211	9.3887	0.456473	13.9817	0.565886	17.3139	0.842166	25.5221	0.164974	5.93063	0.426722	12.7362	0.702508	21.417	0.903109	27.3568
0.286622	8.44255	0.0383153	1.06641	0.285336	9.29104	0.45685	13.605	0.56628	16.8457	0.842374	24.8274	0.166454	5.78993	0.427139	12.4037	0.702723	20.8318	0.903296	26.6114
0.287015	8.22832	0.0399539	1.08391	0.285508	9.16164	0.457237	13.2489	0.566685	16.4031	0.842588	24.17	0.16796	5.65892	0.427567	12.089	0.702944	20.2783	0.903489	25.9061
0.287419	8.02553	0.0416089	1.10098	0.285729	9.00339	0.457634	12.9118	0.5671	15.9841	0.842808	23.547	0.169491	5.53668	0.428007	11.7909	0.703171	19.7539	0.903687	25.2375
0.287832	7.83329	0.0432796	1.11763	0.286002	8.81964	0.458042	12.5923	0.567526	15.5868	0.843033	22.9557	0.171044	5.4224	0.428457	11.5079	0.703404	19.2564	0.903891	24.603
0.288257	7.65085	0.0449653	1.13388	0.286329	8.61406	0.458459	12.289	0.567962	15.2096	0.843264	22.3939	0.17262	5.31537	0.428918	11.239	0.703642	18.7839	0.904099	24.0001
0.288691	7.47747	0.0466654	1.14974	0.286714	8.39047	0.458887	12.0008	0.56841	14.851	0.843501	21.8593	0.174217	5.21494	0.42939	10.9833	0.703887	18.3344	0.904313	23.4264
0.289136	7.31253	0.0483791	1.16521	0.28711	8.17904	0.459325	11.7265	0.568867	14.5098	0.843743	21.3501	0.175835	5.12055	0.429873	10.7397	0.704138	17.9064	0.904532	22.8798
0.289591	7.15543	0.0501059	1.18032	0.287516	7.97884	0.459774	11.4653	0.569335	14.1846	0.843991	20.8645	0.177472	5.0317	0.430367	10.5074	0.704394	17.4983	0.904756	22.3585
0.290057	7.00565	0.0518452	1.19506	0.287933	7.789	0.460232	11.2161	0.569814	13.8745	0.844245	20.4009	0.179127	4.94793	0.430806	10.3137	0.704657	17.1088	0.904985	21.8609
0.290532	6.8627	0.0535963	1.20945	0.288359	7.60878	0.4607	10.9782	0.570303	13.5783	0.844505	19.9578	0.180801	4.86885	0.431187	10.1546	0.704925	16.7367	0.905219	21.3852
0.291018	6.72615	0.0553589	1.2235	0.288796	7.43746	0.461178	10.7509	0.570803	13.2953	0.84477	19.534	0.182491	4.79408	0.431506	10.0269	0.7052	16.3809	0.905459	20.9302
0.291514	6.59559	0.0571324	1.23722	0.289243	7.27444	0.461667	10.5335	0.571313	13.0245	0.845041	19.1281	0.184197	4.7233	0.431762	9.92846	0.70548	16.0403	0.905703	20.4945
0.29202	6.47064	0.0589163	1.25062	0.289701	7.11913	0.4621	10.3517	0.571833	12.7653	0.845318	18.7392	0.185919	4.65621	0.431951	9.85739	0.705766	15.7139	0.905953	20.0769
0.292536	6.35096	0.0607102	1.26371	0.290169	6.97102	0.462476	10.2019	0.572363	12.5168	0.8456	18.3661	0.187656	4.59254	0.432073	9.81249	0.706058	15.4009	0.906208	19.6763
0.293062	6.23625	0.0625136	1.27649	0.290647	6.82963	0.46279	10.0816	0.572904	12.2784	0.845888	18.008	0.189407	4.53206	0.432249	9.74872	0.706356	15.1005	0.906468	19.2916
0.293599	6.1262	0.0643262	1.28898	0.291135	6.69454	0.463042	9.98857	0.573455	12.0496	0.846182	17.6639	0.191171	4.47452	0.432442	9.68042	0.70666	14.812	0.906734	18.9221
0.294145	6.02056	0.0661475	1.30118	0.291633	6.56535	0.463228	9.92138	0.574016	11.8298	0.846481	17.333	0.192948	4.41974	0.432707	9.5892	0.70697	14.5347	0.907004	18.5667
0.294702	5.91908	0.0679772	1.31311	0.292142	6.44168	0.463348	9.87889	0.574588	11.6185	0.846786	17.0147	0.194738	4.36753	0.433045	9.4765	0.707286	14.2679	0.907279	18.2248
0.295268	5.82152	0.0698149	1.32477	0.29266	6.32322	0.463521	9.8185	0.575169	11.4152	0.847097	16.7081	0.19654	4.31772	0.433459	9.34405	0.707608	14.011	0.90756	17.8955
0.295845	5.72767	0.0716604	1.33616	0.293189	6.20964	0.463711	9.75377	0.575761	11.2195	0.847414	16.4127	0.198353	4.27015	0.433953	9.19377	0.707935	13.7636	0.907846	17.5782
0.296431	5.63734	0.0735131	1.3473	0.293728	6.10067	0.463971	9.66721	0.576362	11.0309	0.847736	16.1279	0.200178	4.22469	0.434529	9.02778	0.708268	13.5251	0.908137	17.2722
0.297028	5.55034	0.075373	1.3582	0.294277	5.99604	0.464303	9.56013	0.576974	10.8492	0.848063	15.8532	0.202012	4.1812	0.435116	8.86831	0.708608	13.295	0.908433	16.977
0.297634	5.4665	0.0772396	1.36885	0.294836	5.8955	0.464709	9.43405	0.577596	10.6739	0.848397	15.5879	0.203857	4.13955	0.435713	8.715	0.708953	13.073	0.908734	16.692
0.29825	5.38566	0.0791128	1.37927	0.295405	5.79885	0.465193	9.29073	0.578145	10.5261	0.848736	15.3317	0.205712	4.09965	0.436321	8.5675	0.709304	12.8585	0.90904	16.4167
0.298877	5.30767	0.0809921	1.38947	0.295984	5.70585	0.465757	9.13207	0.57862	10.4037	0.84908	15.0841	0.207576	4.06138	0.436939	8.42549	0.709661	12.6513	0.909352	16.1506
0.299513	5.23239	0.0828775	1.39945	0.296572	5.61633	0.46633	8.97928	0.579016	10.3047	0.84943	14.8446	0.209448	4.02466	0.437568	8.2887	0.710023	12.451	0.909668	15.8932
0.300158	5.15969	0.0847686	1.40921	0.297171	5.5301	0.466913	8.83206	0.579332	10.228	0.849786	14.6129	0.21133	3.98938	0.438207	8.15685	0.710392	12.2572	0.90999	15.6442
0.300814	5.08945	0.0866652	1.41876	0.29778	5.44699	0.467506	8.69013	0.579566	10.1724	0.850148	14.3886	0.213219	3.95548	0.438856	8.02968	0.710766	12.0696	0.910316	15.4031
0.301479	5.02155	0.0885671	1.42812	0.298399	5.36684	0.468109	8.55319	0.579717	10.1371	0.850515	14.1713	0.215117	3.92288	0.439516	7.90696	0.711147	11.888	0.910648	15.1695
0.302155	4.95589	0.0904742	1.43727	0.299027	5.28951	0.468721	8.42102	0.579934	10.0869	0.850888	13.9608	0.217022	3.8915	0.440186	7.78846	0.711533	11.712	0.910985	14.9432
0.30284	4.89236	0.0923861	1.44624	0.299665	5.21485	0.469342	8.29336	0.580171	10.033	0.851266	13.7567	0.218934	3.86129	0.440866	7.67399	0.711924	11.5415	0.911327	14.7238
0.303534	4.83087	0.0943027	1.45502	0.300314	5.14275	0.469973	8.17	0.580495	9.96063	0.85165	13.5588	0.220853	3.83217	0.441556	7.56334	0.712322	11.3761	0.911674	14.511
0.304148	4.77888	0.0962238	1.46362	0.300972	5.07308	0.470613	8.05074	0.580909	9.87079	0.852039	13.3667	0.22278	3.80409	0.442256	7.45634	0.712725	11.2156	0.912026	14.3045
0.304676	4.73569	0.0981493	1.47205	0.301639	5.00572	0.471263	7.93537	0.581414	9.76454	0.852434	13.1802	0.224712	3.777	0.442967	7.35282	0.713135	11.0599	0.912383	14.104
0.305117	4.70073	0.100079	1.4803	0.302317	4.94057	0.471922	7.82373	0.582013	9.64312	0.852834	12.9992	0.226651	3.75086	0.443687	7.25261	0.71355	10.9087	0.912745	13.9092
0.305469	4.67355	0.102013	1.48839	0.303004	4.87754	0.47259	7.71563	0.58271	9.50789	0.853241	12.8232	0.228596	3.7256	0.444417	7.15558	0.713916	10.7805	0.913112	13.72
0.305728	4.65384	0.10395	1.49632	0.303701	4.81652	0.473267	7.61092	0.583417	9.37687	0.853652	12.6523	0.230547	3.70119	0.445158	7.06156	0.714232	10.6737	0.913484	13.5361
0.305895	4.64133	0.105891	1.50409	0.304408	4.75743	0.473954	7.50945	0.584132	9.24986	0.854069	12.486	0.232504	3.6776	0.445908	6.97044	0.714495	10.5871	0.913861	13.3573
0.306136	4.62351	0.107836	1.51171	0.305124	4.70019	0.47465	7.41107	0.584858	9.1267	0.854492	12.3243	0.234466	3.65477	0.446668	6.88209	0.714705	10.5197	0.914244	13.1834
0.306399	4.60434	0.109784	1.51918	0.30585	4.64471	0.475355	7.31566	0.585593	9.0072	0.85492	12.167	0.236433	3.63267	0.447438	6.79639	0.714861	10.4707	0.914631	13.0141
0.306759	4.57861	0.111736	1.52651	0.306586	4.59093	0.476069	7.22308	0.586337	8.89123	0.855354	12.0139	0.238405	3.61128	0.448217	6.71323	0.71496	10.4396	0.915023	12.8493
0.307217	4.54661	0.113691	1.53369	0.307331	4.53877	0.476792	7.13321	0.58709	8.77864	0.855793	11.8648	0.240382	3.59055	0.449007	6.63249	0.715104	10.3952	0.915421	12.6889
0.307776	4.5087	0.115649	1.54074	0.308086	4.48816	0.477524	7.04595	0.587853	8.66927	0.856238	11.7196	0.242363	3.57046	0.449806	6.5541	0.715261	10.3475	0.915823	12.5326
0.308438	4.46529	0.117357	1.54677	0.308851	4.43905	0.478265	6.96119	0.588625	8.563	0.856688	11.5781	0.24435	3.55099	0.450614	6.47794	0.715476	10.2833	0.91623	12.3804
0.309207	4.41685	0.118815	1.55183	0.309625	4.39137	0.479015	6.87882	0.589407	8.4597	0.857144	11.4402	0.24634	3.53209	0.451433	6.40393	0.71575	10.2033	0.916643	12.2319
0.309986	4.36981	0.120022	1.55597	0.310408	4.34507	0.479774	6.79876	0.590197	8.35927	0.857605	11.3058	0.248335	3.51375	0.45226	6.33198	0.716083	10.1083	0.91706	12.0872
0.310774	4.32413	0.120977	1.5592	0.311202	4.30009	0.480542	6.7209	0.590997	8.26157	0.858072	11.1747	0.250334	3.49595	0.453098	6.26202	0.716479	9.99927	0.917482	11.9461
0.311571	4.27975	0.12168	1.56156	0.312005	4.25639	0.481318	6.64517	0.591806	8.16651	0.858483	11.0631	0.252337	3.47866	0.453944	6.19396	0.716938	9.87725	0.91791	11.8084
0.312379	4.23662	0.12213	1.56306	0.312817	4.21391	0.482103	6.57148	0.592623	8.07399	0.858837	10.9698	0.254343	3.46185	0.4548	6.12774	0.717403	9.75839	0.918342	11.674
0.313195	4.19469	0.122777	1.56521	0.313639	4.17261	0.482897	6.49976	0.59345	7.98391	0.859132	10.8939	0.256354	3.44552	0.455666	6.06329	0.717874	9.6426	0.918779	11.5429
0.314022	4.15392	0.12348	1.56753	0.31447	4.13245	0.4837	6.42992	0.594286	7.89618	0.859366	10.8347	0.258367	3.42964	0.45654	6.00054	0.718351	9.52973	0.919222	11.4148
0.314857	4.11427	0.124438	1.57066	0.315311	4.09338	0.484511	6.36191	0.59513	7.81071	0.859539	10.7916	0.260385	3.41419	0.457424	5.93942	0.718833	9.4197	0.919669	11.2898
0.315702	4.07569	0.125649	1.57458	0.316161	4.05537	0.485331	6.29566	0.595984	7.72742	0.859651	10.7642	0.262405	3.39916	0.458318	5.87989	0.719321	9.3124	0.920062	11.1831
0.316557	4.03816	0.127116	1.57925	0.317021	4.01838	0.486159	6.23109	0.596846	7.64623	0.859811	10.7251	0.264429	3.38453	0.45922	5.82188	0.719814	9.20773	0.920401	11.0939
0.317421	4.00162	0.128838	1.58466	0.31789	3.98237	0.486996	6.16816	0.597717	7.56707	0.859986	10.683	0.266456	3.37028	0.460132	5.76533	0.720313	9.10559	0.920683	11.0213
0.318295	3.96605	0.130816	1.59076	0.318769	3.9473	0.487841	6.1068	0.598596	7.48986	0.860225	10.6262	0.268486	3.3564	0.461052	5.71021	0.720818	9.00591	0.920907	10.9646
0.319178	3.93142	0.132796	1.59675	0.319658	3.91316	0.488695	6.04696	0.599484	7.41453	0.86053	10.5553	0.270518	3.34287	0.461982	5.65645	0.721329	8.90858	0.921073	10.9233
0.320071	3.89768	0.134778	1.60264	0.320555	3.8799	0.489556	5.98859	0.600381	7.34103	0.8609	10.471	0.272554	3.32969	0.46292	5.60402	0.721845	8.81354	0.921179	10.897
0.320973	3.86482	0.136763	1.60841	0.321463	3.84749	0.490427	5.93163	0.601287	7.26929	0.861339	10.3739	0.274592	3.31684	0.463868	5.55286	0.722367	8.72071	0.921333	10.8595
0.321885	3.8328	0.138749	1.61409	0.32238	3.81591	0.491305	5.87604	0.6022	7.19925	0.861848	10.2648	0.276633	3.30431	0.464824	5.50293	0.722894	8.63001	0.9215	10.8191
0.322806	3.8016	0.140738	1.61967	0.323306	3.78513	0.492192	5.82177	0.603123	7.13085	0.862362	10.1582	0.278676	3.29208	0.46579	5.4542	0.723427	8.54137	0.921729	10.7645
0.323737	3.77118	0.142728	1.62515	0.324242	3.75513	0.493086	5.76878	0.604053	7.06404	0.862881	10.054	0.280722	3.28014	0.466764	5.40662	0.723966	8.45473	0.922019	10.6964
0.324678	3.74153	0.14472	1.63053	0.325187	3.72588	0.493989	5.71702	0.604992	6.99876	0.863406	9.95207	0.28277	3.26849	0.467747	5.36016	0.72451	8.37001	0.922373	10.6153
0.325627	3.71261	0.146714	1.63582	0.326142	3.69735	0.4949	5.66647	0.60594	6.93497	0.863936	9.85238	0.284821	3.25711	0.468738	5.31478	0.72506	8.28716	0.922792	10.5218
0.326587	3.68441	0.148709	1.64102	0.327107	3.66953	0.495819	5.61707	0.606895	6.87263	0.864471	9.75484	0.286873	3.246	0.469738	5.27044	0.725616	8.20613	0.923277	10.4167
0.327556	3.65691	0.150706	1.64614	0.328081	3.64239	0.496746	5.56879	0.607859	6.81167	0.865012	9.65939	0.288928	3.23515	0.470747	5.22712	0.726177	8.12684	0.923767	10.3138
0.328535	3.63007	0.152705	1.65116	0.329065	3.61591	0.497681	5.5216	0.608831	6.75207	0.865558	9.56596	0.290985	3.22454	0.471765	5.18478	0.726744	8.04926	0.924262	10.2131
0.329523	3.60389	0.154705	1.65611	0.330059	3.59007	0.498624	5.47546	0.609811	6.69377	0.86611	9.4745	0.293044	3.21417	0.472791	5.14338	0.727316	7.97331	0.924762	10.1145
0.330521	3.57834	0.156706	1.66097	0.331062	3.56485	0.499574	5.43034	0.610799	6.63674	0.866666	9.38494	0.295105	3.20403	0.473825	5.10292	0.727893	7.89897	0.925266	10.0179
0.331528	3.55341	0.158709	1.66575	0.332075	3.54024	0.500533	5.38621	0.611795	6.58094	0.867228	9.29722	0.297167	3.19412	0.474868	5.06334	0.728477	7.82617	0.925776	9.92333
0.332546	3.52907	0.160714	1.67045	0.333097	3.51622	0.501499	5.34304	0.612799	6.52634	0.867796	9.2113	0.299232	3.18442	0.475919	5.02463	0.729066	7.75488	0.92629	9.83067
0.333573	3.50532	0.162719	1.67507	0.33413	3.49277	0.502473	5.30079	0.613811	6.47289	0.868369	9.12712	0.301298	3.17493	0.476979	4.98677	0.72966	7.68504	0.92681	9.73987
0.33461	3.48212	0.164726	1.67962	0.335172	3.46987	0.503454	5.25945	0.614831	6.42056	0.868947	9.04462	0.303366	3.16564	0.478046	4.94972	0.73026	7.61661	0.927334	9.65088
0.335657	3.45948	0.166734	1.68409	0.336224	3.44751	0.504443	5.21899	0.615858	6.36932	0.86953	8.96376	0.305436	3.15654	0.479122	4.91346	0.730865	7.54956	0.927863	9.56366
0.336714	3.43736	0.168743	1.6885	0.337287	3.42568	0.50544	5.17937	0.616894	6.31913	0.870118	8.8845	0.307507	3.14764	0.480207	4.87797	0.731476	7.48385	0.928396	9.47814
0.337781	3.41576	0.170753	1.69283	0.338359	3.40435	0.506444	5.14058	0.617937	6.26998	0.870712	8.80678	0.309579	3.13892	0.481299	4.84323	0.732092	7.41943	0.928935	9.39428
0.338858	3.39467	0.172764	1.69709	0.339441	3.38352	0.507456	5.1026	0.618987	6.22182	0.871311	8.73057	0.311653	3.13038	0.4824	4.80922	0.732714	7.35627	0.929478	9.31203
0.339945	3.37407	0.174777	1.70129	0.340534	3.36318	0.508475	5.06539	0.620046	6.17463	0.871916	8.65582	0.313729	3.12201	0.483508	4.77591	0.733341	7.29434	0.930026	9.23136
0.341042	3.35394	0.17679	1.70542	0.341637	3.34331	0.509501	5.02894	0.621111	6.12839	0.872525	8.58249	0.315806	3.11381	0.484625	4.74329	0.733974	7.2336	0.930579	9.15221
0.34215	3.33428	0.178804	1.70949	0.34275	3.3239	0.510535	4.99322	0.622185	6.08306	0.87314	8.51054	0.317884	3.10577	0.48575	4.71133	0.734612	7.17401	0.931137	9.07454
0.343267	3.31508	0.18082	1.71349	0.343873	3.30493	0.511576	4.95823	0.623266	6.03862	0.87376	8.43994	0.319964	3.09789	0.486882	4.68002	0.735256	7.11556	0.9317	8.99832
0.344396	3.29632	0.182836	1.71743	0.345007	3.2864	0.512624	4.92392	0.624354	5.99504	0.874385	8.37064	0.322044	3.09016	0.488023	4.64935	0.735905	7.0582	0.932267	8.9235
0.345535	3.27799	0.184853	1.72131	0.346152	3.2683	0.51368	4.8903	0.625449	5.95231	0.875016	8.30262	0.324126	3.08257	0.489171	4.61929	0.736559	7.0019	0.932839	8.85005
0.346685	3.26008	0.18687	1.72514	0.347308	3.25062	0.514742	4.85733	0.626552	5.9104	0.875651	8.23585	0.326209	3.07514	0.490327	4.58982	0.737219	6.94665	0.933416	8.77794
0.347845	3.24258	0.188889	1.7289	0.348474	3.23334	0.515812	4.825	0.627662	5.86929	0.876292	8.17028	0.328293	3.06784	0.491491	4.56094	0.737885	6.89241	0.933997	8.70712
0.349016	3.22549	0.190908	1.73261	0.349651	3.21645	0.516889	4.7933	0.62878	5.82895	0.876938	8.10589	0.330379	3.06068	0.492662	4.53262	0.738555	6.83915	0.934584	8.63756
0.350199	3.20879	0.192928	1.73626	0.35084	3.19996	0.517973	4.76221	0.629904	5.78937	0.877589	8.04264	0.332465	3.05365	0.493842	4.50486	0.739231	6.78686	0.935175	8.56923
0.351393	3.19247	0.194949	1.73986	0.352039	3.18385	0.519064	4.7317	0.631036	5.75053	0.878245	7.98051	0.334552	3.04674	0.495029	4.47763	0.739913	6.7355	0.935771	8.50211
0.352598	3.17653	0.19697	1.7434	0.353251	3.16811	0.520161	4.70178	0.632174	5.71241	0.878907	7.91947	0.33664	3.03997	0.496223	4.45092	0.740599	6.68505	0.936371	8.43615
0.353814	3.16096	0.198993	1.74689	0.354473	3.15273	0.521266	4.67241	0.63332	5.67498	0.879573	7.8595	0.338729	3.03331	0.497425	4.42473	0.741291	6.6355	0.936976	8.37133
0.355042	3.14575	0.201015	1.75033	0.355708	3.13771	0.522377	4.64359	0.634473	5.63824	0.880245	7.80056	0.340819	3.02677	0.498634	4.39903	0.741989	6.58681	0.937586	8.30763
0.356282	3.13089	0.203039	1.75373	0.356954	3.12304	0.523495	4.61531	0.635632	5.60216	0.880921	7.74263	0.342909	3.02035	0.499851	4.37381	0.742692	6.53896	0.938201	8.24501
0.357534	3.11637	0.205062	1.75707	0.358213	3.10871	0.52462	4.58754	0.636799	5.56673	0.881603	7.68568	0.345001	3.01403	0.501076	4.34907	0.7434	6.49194	0.93882	8.18345
0.358799	3.1022	0.207087	1.76036	0.359484	3.09471	0.525752	4.56029	0.637972	5.53193	0.88229	7.6297	0.347093	3.00783	0.502307	4.32479	0.744113	6.44573	0.939444	8.12292
0.360075	3.08836	0.209112	1.76361	0.360767	3.08105	0.52689	4.53352	0.639152	5.49775	0.882982	7.57465	0.349186	3.00173	0.503546	4.30095	0.744832	6.4003	0.940073	8.0634
0.361365	3.07485	0.211137	1.7668	0.362064	3.06771	0.528035	4.50724	0.640339	5.46417	0.883679	7.52053	0.351279	2.99573	0.504793	4.27756	0.745556	6.35564	0.940706	8.00486
0.362667	3.06166	0.213163	1.76996	0.363373	3.05469	0.529187	4.48143	0.641532	5.43117	0.884381	7.46729	0.353374	2.98984	0.506046	4.25459	0.746285	6.31172	0.941344	7.94728
0.363982	3.04878	0.21519	1.77307	0.364695	3.04198	0.530345	4.45608	0.642733	5.39875	0.885088	7.41493	0.355468	2.98404	0.507307	4.23204	0.747019	6.26854	0.941987	7.89064
0.365311	3.03622	0.217217	1.77613	0.366031	3.02958	0.531509	4.43117	0.643939	5.36688	0.8858	7.36342	0.357564	2.97833	0.508575	4.2099	0.747759	6.22607	0.942634	7.83491
0.366653	3.02396	0.219244	1.77916	0.367381	3.01748	0.53268	4.40671	0.645152	5.33556	0.886517	7.31275	0.35966	2.97272	0.50985	4.18815	0.748504	6.1843	0.943286	7.78008
0.368009	3.012	0.221272	1.78214	0.368745	3.00568	0.533857	4.38267	0.646372	5.30478	0.88724	7.26288	0.361756	2.9672	0.511132	4.16679	0.749254	6.1432	0.943942	7.72612
0.36938	3.00033	0.2233	1.78508	0.370123	2.99418	0.535041	4.35904	0.647598	5.27451	0.887967	7.21382	0.363853	2.96176	0.512421	4.14581	0.750009	6.10278	0.944603	7.67302
0.370764	2.98896	0.225328	1.78798	0.371515	2.98296	0.536231	4.33582	0.648831	5.24475	0.888699	7.16553	0.36595	2.95641	0.513717	4.1252	0.75077	6.063	0.945269	7.62075
0.372164	2.97788	0.227357	1.79083	0.372923	2.97203	0.537427	4.31301	0.65007	5.21549	0.889436	7.118	0.368048	2.95115	0.51502	4.10496	0.751536	6.02386	0.945939	7.5693
0.373578	2.96707	0.229386	1.79365	0.374346	2.96138	0.53863	4.29057	0.651315	5.18671	0.890178	7.07122	0.370146	2.94596	0.516331	4.08506	0.752307	5.98534	0.946614	7.51865
0.375008	2.95655	0.231416	1.79644	0.375784	2.95101	0.539838	4.26852	0.652567	5.1584	0.890925	7.02516	0.372245	2.94086	0.517647	4.06551	0.753083	5.94743	0.947293	7.46877
0.376454	2.94631	0.233446	1.79918	0.377238	2.94091	0.541053	4.24684	0.653825	5.13056	0.891677	6.97981	0.374344	2.93583	0.518971	4.0463	0.753864	5.91012	0.947977	7.41966
0.377915	2.93633	0.235476	1.80189	0.378708	2.93108	0.542274	4.22552	0.655089	5.10317	0.892434	6.93515	0.376443	2.93088	0.520302	4.02742	0.754651	5.87338	0.948666	7.3713
0.379393	2.92663	0.237506	1.80456	0.380195	2.92152	0.543501	4.20456	0.656359	5.07622	0.893196	6.89118	0.378542	2.926	0.521639	4.00886	0.755442	5.83722	0.949359	7.32366
0.380887	2.91719	0.239537	1.80719	0.381699	2.91222	0.544734	4.18394	0.657635	5.0497	0.893962	6.84787	0.380642	2.92119	0.522983	3.99062	0.756239	5.80161	0.950056	7.27674
0.382399	2.90802	0.241567	1.80979	0.383219	2.90319	0.545973	4.16366	0.658917	5.02361	0.894734	6.80521	0.382742	2.91646	0.524334	3.97268	0.757041	5.76654	0.950758	7.23052
0.383927	2.8991	0.243599	1.81236	0.384757	2.89441	0.547218	4.14371	0.660205	4.99793	0.895511	6.76319	0.384843	2.91179	0.525692	3.95505	0.757848	5.73201	0.951465	7.18499
0.385474	2.89044	0.24563	1.81489	0.386313	2.88589	0.548468	4.12409	0.6615	4.97265	0.896292	6.7218	0.386943	2.90719	0.527056	3.93771	0.75866	5.698	0.952176	7.14012
0.387038	2.88203	0.247661	1.81739	0.387887	2.87761	0.549725	4.10478	0.6628	4.94777	0.897078	6.68101	0.389043	2.90265	0.528426	3.92066	0.759477	5.66449	0.952892	7.09591
0.38862	2.87388	0.249693	1.81986	0.389479	2.86959	0.550987	4.08578	0.664106	4.92328	0.897869	6.64082	0.391144	2.89818	0.529803	3.90389	0.760299	5.63149	0.953612	7.05234
0.39022	2.86597	0.251725	1.82229	0.391089	2.86181	0.552255	4.06708	0.665418	4.89917	0.898665	6.60122	0.393245	2.89377	0.531187	3.8874	0.761126	5.59898	0.954336	7.00941
0.39184	2.8583	0.253757	1.8247	0.392719	2.85428	0.553529	4.04869	0.666735	4.87542	0.899466	6.56219	0.395346	2.88942	0.532577	3.87117	0.761959	5.56695	0.955065	6.96708
0.393478	2.85087	0.255789	1.82707	0.394367	2.84698	0.554809	4.03058	0.668058	4.85204	0.900272	6.52373	0.397447	2.88512	0.533974	3.85522	0.762796	5.53539	0.955799	6.92537
0.395135	2.84369	0.257822	1.82941	0.396035	2.83992	0.556094	4.01275	0.669387	4.82902	0.901082	6.48581	0.399548	2.88089	0.535377	3.83952	0.763638	5.50429	0.956537	6.88424
0.396812	2.83673	0.259854	1.83173	0.397722	2.83309	0.557385	3.99521	0.670722	4.80634	0.901897	6.44844	0.401649	2.87671	0.536786	3.82408	0.764486	5.47364	0.957279	6.84369
0.398508	2.83001	0.261887	1.83401	0.399428	2.82648	0.558681	3.97793	0.672062	4.78401	0.902717	6.41159	0.40375	2.87259	0.538202	3.80888	0.765338	5.44343	0.958026	6.80371
0.400223	2.82351	0.26392	1.83626	0.401155	2.82011	0.559983	3.96093	0.673408	4.762	0.903542	6.37526	0.405851	2.86853	0.539624	3.79393	0.766195	5.41365	0.958777	6.76429
0.401959	2.81724	0.265952	1.83849	0.402901	2.81395	0.56129	3.94418	0.67476	4.74033	0.904372	6.33944	0.407951	2.86451	0.541052	3.77921	0.767058	5.3843	0.959533	6.72541
0.403714	2.81118	0.267985	1.84069	0.404666	2.80801	0.562603	3.92769	0.676117	4.71897	0.905206	6.30411	0.410052	2.86055	0.542487	3.76473	0.767925	5.35536	0.960293	6.68707
0.405489	2.80534	0.270018	1.84286	0.406452	2.80228	0.563921	3.91145	0.677479	4.69793	0.906045	6.26928	0.412153	2.85664	0.543927	3.75048	0.768797	5.32683	0.961057	6.64925
0.407283	2.79971	0.272051	1.845	0.408257	2.79676	0.565245	3.89546	0.678847	4.6772	0.906889	6.23492	0.414254	2.85277	0.545374	3.73645	0.769674	5.29871	0.961826	6.61195
0.409098	2.79428	0.274085	1.84712	0.410082	2.79145	0.566574	3.87971	0.68022	4.65677	0.907737	6.20103	0.416354	2.84896	0.546827	3.72265	0.770557	5.27097	0.962599	6.57515
0.410931	2.78906	0.276118	1.84921	0.411926	2.78633	0.567908	3.86419	0.681598	4.63663	0.908591	6.16761	0.418454	2.84519	0.548286	3.70905	0.771444	5.24362	0.963377	6.53885
0.412785	2.78403	0.278151	1.85128	0.41379	2.78141	0.569247	3.8489	0.682982	4.61678	0.909448	6.13463	0.420555	2.84147	0.549751	3.69567	0.772336	5.21665	0.964158	6.50303
0.414657	2.7792	0.280184	1.85332	0.415672	2.77667	0.570592	3.83384	0.684371	4.59722	0.910311	6.1021	0.422655	2.8378	0.551223	3.6825	0.773233	5.19004	0.964945	6.46769
0.416548	2.77455	0.282218	1.85533	0.417574	2.77212	0.571942	3.81901	0.685765	4.57793	0.911178	6.07001	0.424754	2.83416	0.5527	3.66952	0.774134	5.1638	0.965735	6.43282
0.418458	2.77008	0.284251	1.85732	0.419494	2.76775	0.573297	3.80439	0.687164	4.55892	0.91205	6.03834	0.426854	2.83058	0.554183	3.65675	0.775041	5.13792	0.96653	6.3984
0.420387	2.76579	0.286284	1.85929	0.421432	2.76355	0.574657	3.78998	0.688569	4.54017	0.912927	6.00709	0.428953	2.82703	0.555672	3.64417	0.775952	5.11239	0.967329	6.36444
0.422334	2.76167	0.288318	1.86123	0.423388	2.75952	0.576022	3.77578	0.689978	4.52168	0.913808	5.97625	0.431052	2.82353	0.557167	3.63179	0.776869	5.0872	0.968132	6.33092
0.424298	2.75771	0.290351	1.86315	0.425362	2.75565	0.577393	3.76179	0.691393	4.50346	0.914694	5.94581	0.43315	2.82006	0.558667	3.61959	0.77779	5.06234	0.96894	6.29783
0.42628	2.75391	0.292384	1.86505	0.427353	2.75193	0.578768	3.748	0.692812	4.48548	0.915584	5.91577	0.435249	2.81664	0.560174	3.60757	0.778716	5.03782	0.969752	6.26517
0.428278	2.75027	0.294418	1.86693	0.42936	2.74837	0.580148	3.73441	0.694237	4.46776	0.91648	5.88612	0.437347	2.81325	0.561686	3.59574	0.779647	5.01362	0.970568	6.23292
0.430293	2.74678	0.296451	1.86878	0.431384	2.74495	0.581533	3.72101	0.695666	4.45027	0.917379	5.85685	0.439444	2.80991	0.563205	3.58408	0.780582	4.98974	0.971389	6.20109
0.432324	2.74342	0.298484	1.87061	0.433423	2.74168	0.582923	3.7078	0.6971	4.43303	0.918284	5.82796	0.441542	2.8066	0.564729	3.57259	0.781523	4.96618	0.972214	6.16966
0.434371	2.74021	0.300518	1.87242	0.435478	2.73854	0.584318	3.69477	0.69854	4.41601	0.919192	5.79944	0.443638	2.80332	0.566258	3.56128	0.782468	4.94292	0.973042	6.13862
0.436432	2.73713	0.302551	1.87421	0.437548	2.73552	0.585718	3.68193	0.699984	4.39923	0.920106	5.77127	0.445735	2.80008	0.567794	3.55013	0.783418	4.91996	0.973876	6.10798
0.438509	2.73417	0.304584	1.87598	0.439631	2.73263	0.587122	3.66927	0.701432	4.38267	0.921024	5.74347	0.447831	2.79688	0.569334	3.53915	0.784373	4.8973	0.974713	6.07772
0.440599	2.73134	0.306617	1.87772	0.441729	2.72986	0.588531	3.65678	0.702886	4.36634	0.921946	5.71601	0.449926	2.79371	0.570881	3.52833	0.785332	4.87494	0.975555	6.04783
0.442703	2.72862	0.30865	1.87945	0.44384	2.72721	0.589945	3.64447	0.704344	4.35022	0.922873	5.68889	0.452022	2.79058	0.572433	3.51767	0.786297	4.85286	0.976401	6.01831
0.44482	2.72602	0.310683	1.88116	0.445964	2.72466	0.591364	3.63233	0.705807	4.33431	0.923805	5.66212	0.454116	2.78748	0.573991	3.50716	0.787266	4.83106	0.977251	5.98916
0.44695	2.72352	0.312716	1.88284	0.4481	2.72222	0.592787	3.62035	0.707274	4.31861	0.924741	5.63567	0.45621	2.78441	0.575554	3.49681	0.788239	4.80953	0.978105	5.96036
0.449091	2.72112	0.314749	1.88451	0.450249	2.71987	0.594215	3.60854	0.708746	4.30312	0.925681	5.60955	0.458304	2.78137	0.577123	3.4866	0.789218	4.78828	0.978963	5.93191
0.451245	2.71882	0.316782	1.88616	0.452408	2.71762	0.595648	3.59689	0.710223	4.28783	0.926626	5.58375	0.460397	2.77836	0.578697	3.47654	0.790201	4.7673	0.979825	5.90381
0.45341	2.71661	0.318815	1.88779	0.454579	2.71546	0.597085	3.58539	0.711704	4.27274	0.927576	5.55827	0.46249	2.77539	0.580277	3.46663	0.791188	4.74658	0.980692	5.87604
0.455585	2.71449	0.320847	1.8894	0.45676	2.71339	0.598526	3.57406	0.71319	4.25784	0.92853	5.53309	0.464582	2.77244	0.581862	3.45686	0.792181	4.72611	0.981563	5.84861
0.457771	2.71246	0.32288	1.891	0.458951	2.7114	0.599972	3.56287	0.71468	4.24314	0.929488	5.50822	0.466673	2.76952	0.583452	3.44723	0.793178	4.70591	0.982438	5.8215
0.459966	2.71051	0.324912	1.89257	0.461152	2.70949	0.601423	3.55183	0.716174	4.22862	0.930451	5.48365	0.468764	2.76663	0.585048	3.43773	0.794179	4.68595	0.983317	5.79472
0.462171	2.70863	0.326944	1.89413	0.463362	2.70765	0.602878	3.54094	0.717673	4.21429	0.931418	5.45938	0.470854	2.76377	0.586649	3.42837	0.795186	4.66623	0.9842	5.76825
0.464386	2.70682	0.328977	1.89567	0.465581	2.70588	0.604337	3.53019	0.719176	4.20013	0.93239	5.43539	0.472944	2.76094	0.588256	3.41914	0.796197	4.64676	0.985087	5.7421
0.466608	2.70509	0.331009	1.8972	0.467808	2.70419	0.605801	3.51959	0.720684	4.18616	0.933366	5.41169	0.475033	2.75813	0.589868	3.41004	0.797212	4.62752	0.985978	5.71625
0.468839	2.70342	0.333041	1.89871	0.470043	2.70255	0.607269	3.50912	0.722196	4.17236	0.934346	5.38826	0.477121	2.75535	0.591485	3.40107	0.798232	4.60852	0.986873	5.6907
0.471079	2.70182	0.335072	1.9002	0.472286	2.70098	0.608741	3.49879	0.723712	4.15873	0.935331	5.36512	0.479208	2.7526	0.593107	3.39223	0.799257	4.58975	0.987773	5.66545
0.473325	2.70027	0.337104	1.90167	0.474537	2.69947	0.610218	3.4886	0.725232	4.14528	0.93632	5.34224	0.481295	2.74987	0.594734	3.3835	0.800286	4.5712	0.988676	5.64049
0.475579	2.69879	0.339136	1.90313	0.476794	2.69801	0.611699	3.47854	0.726756	4.13199	0.937314	5.31963	0.483382	2.74716	0.596367	3.3749	0.80132	4.55288	0.989584	5.61581
0.477839	2.69735	0.341167	1.90457	0.479059	2.69661	0.613184	3.4686	0.728285	4.11886	0.938312	5.29728	0.485467	2.74448	0.598004	3.36642	0.802358	4.53477	0.990495	5.59142
0.480107	2.69597	0.343198	1.906	0.481329	2.69525	0.614673	3.4588	0.729818	4.10589	0.939314	5.27519	0.487552	2.74183	0.599647	3.35806	0.803401	4.51688	0.991411	5.56731
0.48238	2.69464	0.34523	1.90741	0.483606	2.69395	0.616166	3.44912	0.731354	4.09308	0.94032	5.25336	0.489636	2.7392	0.601295	3.34981	0.804449	4.4992	0.99233	5.54347
0.48466	2.69336	0.347261	1.9088	0.485889	2.69269	0.617664	3.43956	0.732895	4.08043	0.941331	5.23177	0.49172	2.73659	0.602948	3.34167	0.805501	4.48173	0.993253	5.5199
0.486945	2.69212	0.349291	1.91018	0.488177	2.69147	0.619166	3.43013	0.73444	4.06793	0.942346	5.21043	0.493802	2.734	0.604606	3.33364	0.806557	4.46447	0.994181	5.49659
0.489236	2.69092	0.351322	1.91155	0.490471	2.6903	0.620671	3.42081	0.735989	4.05558	0.943366	5.18934	0.495884	2.73144	0.606269	3.32573	0.807618	4.4474	0.995112	5.47355
0.491532	2.68977	0.353353	1.9129	0.49277	2.68916	0.622181	3.41162	0.737541	4.04338	0.944389	5.16848	0.497965	2.7289	0.607937	3.31792	0.808683	4.43054	0.996048	5.45076
0.493833	2.68865	0.355383	1.91424	0.495073	2.68807	0.623695	3.40253	0.739098	4.03132	0.945417	5.14786	0.500045	2.72637	0.60961	3.31022	0.809753	4.41387	0.996987	5.42822
0.496139	2.68757	0.357413	1.91556	0.497382	2.68701	0.625212	3.39356	0.740659	4.0194	0.94645	5.12746	0.502125	2.72388	0.611287	3.30262	0.810828	4.39739	0.99793	5.40594
0.498449	2.68653	0.359443	1.91687	0.499694	2.68598	0.626734	3.38471	0.742223	4.00763	0.947486	5.1073	0.504203	2.7214	0.61297	3.29513	0.811906	4.38111	0.998877	5.38389
0.500764	2.68552	0.361473	1.91816	0.502011	2.68499	0.62826	3.37596	0.743791	3.996	0.948527	5.08736	0.506281	2.71894	0.614658	3.28773	0.81299	4.36501	0.999829	5.36209
0.503083	2.68454	0.363503	1.91944	0.504333	2.68403	0.629789	3.36732	0.745363	3.9845	0.949572	5.06764	0.508358	2.7165	0.61635	3.28044	0.814077	4.34909	1.00078	5.34053
0.505406	2.6836	0.365532	1.92071	0.506658	2.6831	0.631323	3.35879	0.746939	3.97313	0.950621	5.04814	0.510434	2.71408	0.618047	3.27324	0.815169	4.33336		
0.507733	2.68268	0.367562	1.92196	0.508986	2.6822	0.63286	3.35036	0.748518	3.9619	0.951674	5.02885	0.512509	2.71168	0.619749	3.26613	0.816266	4.3178		
0.510063	2.68179	0.369591	1.9232	0.511318	2.68132	0.634401	3.34203	0.750101	3.95079	0.952731	5.00977	0.514584	2.7093	0.621456	3.25913	0.817366	4.30242		
0.512397	2.68093	0.37162	1.92443	0.513654	2.68048	0.635946	3.33381	0.751688	3.93982	0.953793	4.99091	0.516657	2.70694	0.623168	3.25221	0.818472	4.28721		
0.514734	2.68009	0.373649	1.92565	0.515993	2.67965	0.637494	3.32568	0.753279	3.92897	0.954859	4.97224	0.51873	2.7046	0.624884	3.24539	0.819581	4.27217		
0.517074	2.67928	0.375677	1.92685	0.518335	2.67885	0.639047	3.31766	0.754873	3.91824	0.955929	4.95378	0.520801	2.70227	0.626605	3.23865	0.820695	4.2573		
0.519418	2.67849	0.377706	1.92804	0.52068	2.67808	0.640603	3.30972	0.75647	3.90764	0.957003	4.93552	0.522872	2.69996	0.62833	3.23201	0.821813	4.2426		
0.521764	2.67773	0.379734	1.92922	0.523028	2.67732	0.642162	3.30189	0.758071	3.89715	0.958081	4.91745	0.524942	2.69767	0.63006	3.22545	0.822936	4.22806		
0.524113	2.67698	0.381762	1.93039	0.525378	2.67659	0.643726	3.29415	0.759676	3.88678	0.959163	4.89957	0.527011	2.6954	0.631795	3.21898	0.824063	4.21368		
0.526465	2.67626	0.38379	1.93154	0.527731	2.67588	0.645293	3.2865	0.761284	3.87653	0.96025	4.88189	0.529078	2.69314	0.633535	3.21259	0.825194	4.19945		
0.528819	2.67555	0.385818	1.93268	0.530087	2.67518	0.646864	3.27894	0.762896	3.8664	0.96134	4.86439	0.531145	2.6909	0.635279	3.20629	0.826329	4.18539		
0.531176	2.67487	0.387845	1.93381	0.532444	2.67451	0.648438	3.27147	0.764511	3.85637	0.962435	4.84708	0.533211	2.68868	0.637027	3.20006	0.827469	4.17147		
0.533534	2.6742	0.389872	1.93493	0.534805	2.67385	0.650016	3.26409	0.766129	3.84646	0.963534	4.82995	0.535276	2.68647	0.63878	3.19392	0.828613	4.15771		
0.535896	2.67355	0.391899	1.93604	0.537167	2.67321	0.651597	3.25679	0.767751	3.83665	0.964636	4.813	0.53734	2.68428	0.640538	3.18786	0.829761	4.1441		
0.538259	2.67291	0.393926	1.93714	0.539531	2.67258	0.653182	3.24958	0.769377	3.82696	0.965743	4.79623	0.539404	2.6821	0.642299	3.18187	0.830914	4.13064		
0.540624	2.6723	0.395953	1.93822	0.541898	2.67197	0.654771	3.24245	0.771005	3.81737	0.966854	4.77963	0.541466	2.67994	0.644066	3.17596	0.832071	4.11732		
0.542991	2.67169	0.397979	1.9393	0.544266	2.67138	0.656363	3.23541	0.772637	3.80788	0.967969	4.7632	0.543527	2.67779	0.645837	3.17013	0.833232	4.10414		
0.54536	2.67111	0.400005	1.94036	0.546636	2.67079	0.657958	3.22845	0.774272	3.7985	0.969088	4.74694	0.545587	2.67566	0.647612	3.16437	0.834397	4.09111		
0.547731	2.67053	0.402031	1.94141	0.549008	2.67023	0.659557	3.22156	0.77591	3.78922	0.970211	4.73085	0.547646	2.67354	0.649391	3.15869	0.835566	4.07821		
0.550104	2.66997	0.404057	1.94246	0.551381	2.66967	0.661159	3.21476	0.777552	3.78003	0.971338	4.71493	0.549704	2.67144	0.651175	3.15308	0.83674	4.06545		
0.552478	2.66942	0.406082	1.94349	0.553756	2.66913	0.662765	3.20803	0.779197	3.77095	0.972469	4.69916	0.551761	2.66935	0.652963	3.14753	0.837917	4.05283		
0.554854	2.66889	0.408108	1.94451	0.556133	2.6686	0.664374	3.20138	0.780844	3.76196	0.973603	4.68356	0.553817	2.66727	0.654756	3.14206	0.839099	4.04034		
0.557231	2.66836	0.410133	1.94552	0.558511	2.66809	0.665986	3.19481	0.782496	3.75307	0.974742	4.66812	0.555872	2.66521	0.656552	3.13666	0.840285	4.02798		
0.55961	2.66785	0.412158	1.94653	0.56089	2.66758	0.667602	3.18831	0.78415	3.74427	0.975885	4.65283	0.557924	2.66315	0.658353	3.13133	0.841476	4.01575		
0.56199	2.66735	0.414182	1.94752	0.563271	2.66708	0.669221	3.18189	0.785807	3.73557	0.977032	4.6377	0.559979	2.66112	0.660158	3.12606	0.84267	4.00365		
0.564371	2.66686	0.416207	1.9485	0.565652	2.6666	0.670843	3.17553	0.787467	3.72695	0.978182	4.62271	0.562031	2.6591	0.661967	3.12086	0.843869	3.99167		
0.566753	2.66638	0.418231	1.94947	0.568036	2.66612	0.672469	3.16925	0.78913	3.71843	0.979337	4.60788	0.564082	2.65709	0.663781	3.11572	0.845071	3.97982		
0.569137	2.6659	0.420255	1.95044	0.57042	2.66566	0.674098	3.16304	0.790797	3.70999	0.980495	4.5932	0.566131	2.6551	0.665598	3.11065	0.846278	3.96809		
0.571522	2.66544	0.422278	1.95139	0.572805	2.6652	0.67573	3.1569	0.792466	3.70164	0.981658	4.57866	0.56818	2.65311	0.66742	3.10564	0.847489	3.95648		
0.573907	2.66499	0.424302	1.95234	0.575191	2.66475	0.677365	3.15082	0.794138	3.69338	0.982824	4.56426	0.570228	2.65114	0.669245	3.10069	0.848703	3.945		
0.576294	2.66455	0.426325	1.95327	0.577579	2.66431	0.679004	3.14481	0.795813	3.6852	0.983994	4.55001	0.572274	2.64918	0.671075	3.0958	0.849922	3.93363		
0.578682	2.66411	0.428348	1.9542	0.579967	2.66388	0.680646	3.13887	0.797491	3.67711	0.985168	4.5359	0.57432	2.64723	0.672908	3.09098	0.851145	3.92237		
0.581071	2.66368	0.430371	1.95512	0.582356	2.66345	0.682291	3.133	0.799172	3.6691	0.986346	4.52192	0.576364	2.64529	0.674746	3.08621	0.852372	3.91123		
0.58346	2.66326	0.432393	1.95603	0.584746	2.66304	0.683939	3.12719	0.800856	3.66117	0.987527	4.50808	0.578408	2.64337	0.676588	3.0815	0.853604	3.90021		
0.585851	2.66285	0.434416	1.95693	0.587137	2.66263	0.68559	3.12144	0.802543	3.65332	0.988713	4.49438	0.58045	2.64145	0.678433	3.07685	0.854839	3.8893		
0.588242	2.66244	0.436438	1.95782	0.589529	2.66222	0.687244	3.11575	0.804232	3.64554	0.989902	4.48081	0.582491	2.63955	0.680283	3.07226	0.856078	3.87849		
0.590634	2.66204	0.43846	1.9587	0.591921	2.66183	0.688902	3.11013	0.805924	3.63785	0.991095	4.46737	0.584531	2.63766	0.682136	3.06772	0.857321	3.8678		
0.593026	2.66165	0.440481	1.95958	0.594314	2.66144	0.690562	3.10457	0.807619	3.63023	0.992292	4.45406	0.58657	2.63578	0.683993	3.06324	0.858568	3.85721		
0.59542	2.66126	0.442502	1.96044	0.596708	2.66106	0.692226	3.09907	0.809317	3.62269	0.993493	4.44088	0.588608	2.63391	0.685854	3.05881	0.859819	3.84673		
0.597814	2.66088	0.444523	1.9613	0.599102	2.66068	0.693892	3.09362	0.811017	3.61523	0.994697	4.42782	0.590645	2.63205	0.687719	3.05443	0.861074	3.83636		
0.600208	2.66051	0.446544	1.96215	0.601497	2.66031	0.695562	3.08824	0.81272	3.60784	0.995906	4.41489	0.592681	2.6302	0.689587	3.05011	0.862333	3.82608		
0.602603	2.66014	0.448565	1.96299	0.603892	2.65994	0.697234	3.08291	0.814426	3.60052	0.997118	4.40208	0.594716	2.62837	0.69146	3.04584	0.863596	3.81591		
0.604999	2.65977	0.450585	1.96383	0.606288	2.65958	0.69891	3.07764	0.816135	3.59327	0.998333	4.38939	0.59675	2.62654	0.693336	3.04162	0.864863	3.80584		
0.607395	2.65941	0.452605	1.96465	0.608684	2.65922	0.700589	3.07243	0.817846	3.58609	0.999553	4.37682	0.598782	2.62472	0.695215	3.03745	0.866134	3.79587		
0.609791	2.65906	0.454625	1.96547	0.611081	2.65887	0.70227	3.06727	0.819559	3.57898	1.00078	4.36438	0.600814	2.62291	0.697099	3.03333	0.867409	3.786		
0.612188	2.65871	0.456645	1.96628	0.613478	2.65852	0.703955	3.06217	0.821276	3.57195			0.602844	2.62112	0.698986	3.02926	0.868688	3.77623		
0.614586	2.65836	0.458664	1.96709	0.615876	2.65818	0.705643	3.05712	0.822994	3.56498			0.604873	2.61933	0.700876	3.02524	0.869971	3.76655		
0.616983	2.65802	0.460683	1.96788	0.618274	2.65784	0.707333	3.05212	0.824716	3.55807			0.606902	2.61755	0.70277	3.02126	0.871257	3.75696		
0.619381	2.65769	0.462702	1.96867	0.620672	2.65751	0.709026	3.04718	0.826439	3.55123			0.608929	2.61579	0.704668	3.01734	0.872547	3.74747		
0.62178	2.65735	0.46472	1.96945	0.62307	2.65718	0.710723	3.04229	0.828166	3.54446			0.610955	2.61403	0.706569	3.01346	0.873842	3.73807		
0.624178	2.65702	0.466739	1.97023	0.625469	2.65685	0.712422	3.03745	0.829894	3.53775			0.61298	2.61228	0.708474	3.00962	0.87514	3.72876		
0.626577	2.6567	0.468757	1.97099	0.627868	2.65653	0.714124	3.03266	0.831626	3.53111			0.615004	2.61054	0.710382	3.00583	0.876442	3.71955		
0.628976	2.65638	0.470775	1.97175	0.630267	2.6562	0.715829	3.02792	0.833359	3.52453			0.617027	2.60881	0.712294	3.00208	0.877748	3.71042		
0.631375	2.65606	0.472792	1.97251	0.632666	2.65589	0.717537	3.02323	0.835095	3.51801			0.619049	2.60709	0.714209	2.99838	0.879057	3.70137		
0.633775	2.65574	0.474809	1.97325	0.635066	2.65557	0.719248	3.01859	0.836834	3.51155			0.62107	2.60538	0.716127	2.99472	0.880371	3.69242		
0.636174	2.65543	0.476826	1.97399	0.637465	2.65526	0.720961	3.01399	0.838575	3.50515			0.62309	2.60367	0.718049	2.9911	0.881688	3.68355		
0.638574	2.65512	0.478843	1.97472	0.639865	2.65496	0.722678	3.00945	0.840318	3.49881			0.625109	2.60198	0.719974	2.98753	0.883009	3.67477		
0.640973	2.65481	0.48086	1.97545	0.642264	2.65465	0.724397	3.00495	0.842063	3.49253			0.627126	2.60029	0.721902	2.98399	0.884334	3.66607		
0.643373	2.65451	0.482876	1.97617	0.644664	2.65435	0.726119	3.0005	0.843811	3.48631			0.629143	2.59862	0.723834	2.9805	0.885663	3.65745		
0.645773	2.65421	0.484892	1.97688	0.647064	2.65405	0.727844	2.99609	0.845561	3.48014			0.631159	2.59695	0.725769	2.97704	0.886996	3.64891		
0.648172	2.65391	0.486908	1.97759	0.649464	2.65375	0.729572	2.99173	0.847313	3.47403			0.633173	2.59529	0.727707	2.97363	0.888332	3.64045		
0.650572	2.65361	0.488923	1.97829	0.651863	2.65345	0.731302	2.98741	0.849068	3.46798			0.635187	2.59364	0.729648	2.97025	0.889672	3.63208		
0.652972	2.65331	0.490938	1.97898	0.654263	2.65316	0.733036	2.98314	0.850824	3.46198			0.6372	2.59199	0.731592	2.96692	0.891016	3.62378		
0.655371	2.65302	0.492953	1.97967	0.656662	2.65286	0.734772	2.97891	0.852583	3.45603			0.639211	2.59036	0.73354	2.96362	0.892363	3.61556		
0.657771	2.65273	0.494968	1.98035	0.659062	2.65257	0.736511	2.97472	0.854344	3.45014			0.641222	2.58873	0.73549	2.96035	0.893714	3.60742		
0.66017	2.65244	0.496982	1.98102	0.661461	2.65228	0.738252	2.97058	0.856108	3.4443			0.643231	2.58711	0.737444	2.95713	0.895069	3.59935		
0.662569	2.65215	0.498996	1.98169	0.66386	2.652	0.739997	2.96647	0.857873	3.43852			0.64524	2.5855	0.739401	2.95394	0.896428	3.59136		
0.664968	2.65186	0.50101	1.98236	0.666259	2.65171	0.741744	2.96241	0.859641	3.43278			0.647248	2.5839	0.74136	2.95078	0.89779	3.58344		
0.667367	2.65158	0.503024	1.98301	0.668658	2.65142	0.743494	2.95839	0.86141	3.4271			0.649254	2.58231	0.743323	2.94766	0.899156	3.5756		
0.669766	2.65129	0.505037	1.98366	0.671056	2.65114	0.745247	2.95442	0.863182	3.42146			0.65126	2.58072	0.745289	2.94458	0.900526	3.56783		
0.672164	2.65101	0.50705	1.98431	0.673454	2.65086	0.747002	2.95048	0.864956	3.41588			0.653265	2.57914	0.747257	2.94153	0.9019	3.56013		
0.674562	2.65073	0.509063	1.98495	0.675852	2.65058	0.748761	2.94658	0.866732	3.41034			0.655268	2.57757	0.749228	2.93851	0.903277	3.5525		
0.67696	2.65045	0.511076	1.98558	0.67825	2.65029	0.750522	2.94272	0.86851	3.40486			0.657271	2.57601	0.751203	2.93553	0.904658	3.54494		
0.679357	2.65016	0.513088	1.98621	0.680647	2.65001	0.752285	2.9389	0.870289	3.39942			0.659273	2.57445	0.75318	2.93258	0.906042	3.53745		
0.681754	2.64988	0.5151	1.98683	0.683044	2.64973	0.754052	2.93512	0.872071	3.39403			0.661274	2.57291	0.75516	2.92966	0.90743	3.53003		
0.684151	2.64961	0.517112	1.98745	0.68544	2.64945	0.755821	2.93137	0.873855	3.38868			0.663274	2.57137	0.757142	2.92677	0.908822	3.52267		
0.686547	2.64933	0.519123	1.98806	0.687836	2.64918	0.757593	2.92767	0.875641	3.38338			0.665273	2.56983	0.759128	2.92391	0.910217	3.51539		
0.688943	2.64905	0.521134	1.98867	0.690232	2.6489	0.759368	2.924	0.877429	3.37813			0.667271	2.56831	0.761116	2.92109	0.911616	3.50816		
0.691339	2.64877	0.523145	1.98927	0.692627	2.64862	0.761145	2.92036	0.879218	3.37292			0.669268	2.56679	0.763106	2.91829	0.913019	3.50101		
0.693733	2.64849	0.525156	1.98987	0.695022	2.64834	0.762925	2.91677	0.88101	3.36776			0.671264	2.56528	0.7651	2.91553	0.914425	3.49392		
0.696128	2.64821	0.527167	1.99046	0.697416	2.64806	0.764708	2.91321	0.882803	3.36264			0.673259	2.56378	0.767096	2.91279	0.915834	3.48689		
0.698522	2.64793	0.529177	1.99104	0.69981	2.64778	0.766494	2.90968	0.884599	3.35756			0.675254	2.56228	0.769094	2.91009	0.917248	3.47993		
0.700915	2.64766	0.531187	1.99162	0.702203	2.64751	0.768283	2.90619	0.886396	3.35252			0.677248	2.56079	0.771096	2.90741	0.918665	3.47303		
0.703308	2.64738	0.533196	1.9922	0.704595	2.64723	0.770074	2.90274	0.888195	3.34753			0.67924	2.55931	0.773099	2.90476	0.920085	3.46619		
0.7057	2.6471	0.535206	1.99277	0.706987	2.64695	0.771868	2.89932	0.889995	3.34258			0.681232	2.55784	0.775106	2.90214	0.921509	3.45941		
0.708092	2.64682	0.537215	1.99334	0.709378	2.64667	0.773665	2.89593	0.891798	3.33767			0.683223	2.55637	0.777114	2.89955	0.922937	3.45269		
0.710483	2.64654	0.539223	1.9939	0.711769	2.64639	0.775464	2.89258	0.893602	3.3328			0.685213	2.55491	0.779125	2.89698	0.924368	3.44604		
0.712873	2.64626	0.541232	1.99445	0.714158	2.64611	0.777267	2.88926	0.895409	3.32798			0.687203	2.55346	0.781139	2.89444	0.925802	3.43944		
0.715262	2.64598	0.54324	1.995	0.716547	2.64582	0.779072	2.88598	0.897216	3.32319			0.689191	2.55201	0.783155	2.89192	0.927241	3.4329		
0.717651	2.64569	0.545248	1.99555	0.718936	2.64554	0.78088	2.88273	0.899026	3.31844			0.691179	2.55057	0.785173	2.88944	0.928682	3.42642		
0.720039	2.64541	0.547256	1.99609	0.721323	2.64526	0.782691	2.87951	0.900837	3.31373			0.693166	2.54914	0.787194	2.88697	0.930128	3.41999		
0.722426	2.64513	0.549264	1.99663	0.72371	2.64497	0.784504	2.87632	0.90265	3.30906			0.695152	2.54772	0.789217	2.88454	0.931576	3.41363		
0.724812	2.64484	0.551271	1.99716	0.726096	2.64469	0.786321	2.87317	0.904465	3.30442			0.697137	2.5463	0.791242	2.88212	0.933029	3.40732		
0.727197	2.64455	0.553278	1.99769	0.72848	2.6444	0.78814	2.87004	0.906282	3.29983			0.699122	2.54489	0.793269	2.87974	0.934484	3.40106		
0.729582	2.64427	0.555284	1.99821	0.730864	2.64411	0.789962	2.86695	0.9081	3.29527			0.701106	2.54348	0.795299	2.87737	0.935944	3.39486		
0.731965	2.64398	0.557291	1.99873	0.733247	2.64382	0.791787	2.86389	0.909919	3.29075			0.703089	2.54208	0.797331	2.87503	0.937406	3.38871		
0.734348	2.64369	0.559297	1.99925	0.735629	2.64353	0.793615	2.86086	0.911741	3.28626			0.705071	2.54069	0.799365	2.87271	0.938872	3.38262		
0.736729	2.64339	0.561303	1.99976	0.73801	2.64323	0.795446	2.85786	0.913563	3.28181			0.707052	2.53931	0.801401	2.87042	0.940342	3.37658		
0.73911	2.6431	0.563308	2.00026	0.74039	2.64294	0.79728	2.85489	0.915388	3.27739			0.709033	2.53793	0.803439	2.86815	0.941815	3.37059		
0.741489	2.6428	0.565314	2.00076	0.742769	2.64264	0.799116	2.85196	0.917214	3.27301			0.711013	2.53656	0.805479	2.8659	0.943292	3.36466		
0.743868	2.6425	0.567319	2.00126	0.745147	2.64234	0.800956	2.84905	0.919042	3.26867			0.712992	2.53519	0.807521	2.86367	0.944772	3.35878		
0.746245	2.6422	0.569323	2.00175	0.747523	2.64204	0.802798	2.84617	0.920871	3.26436			0.714971	2.53383	0.809565	2.86147	0.946255	3.35294		
0.748621	2.6419	0.571328	2.00224	0.749899	2.64174	0.804644	2.84332	0.922701	3.26008			0.716949	2.53248	0.811612	2.85929	0.947742	3.34716		
0.750995	2.6416	0.573332	2.00273	0.752273	2.64143	0.806492	2.8405	0.924534	3.25583			0.718926	2.53113	0.81366	2.85712	0.949232	3.34143		
0.753369	2.64129	0.575336	2.00321	0.754645	2.64112	0.808344	2.83771	0.926367	3.25162			0.720903	2.52979	0.81571	2.85498	0.950726	3.33575		
0.755741	2.64098	0.57734	2.00368	0.757017	2.64081	0.810199	2.83495	0.928203	3.24744			0.722879	2.52846	0.817762	2.85286	0.952223	3.33011		
0.758112	2.64067	0.579343	2.00416	0.759387	2.6405	0.812056	2.83222	0.930039	3.2433			0.724854	2.52713	0.819816	2.85076	0.953724	3.32453		
0.760481	2.64035	0.581346	2.00463	0.761756	2.64018	0.813917	2.82951	0.931877	3.23918			0.726829	2.52581	0.821871	2.84868	0.955227	3.31899		
0.762849	2.64003	0.583349	2.00509	0.764123	2.63986	0.815781	2.82684	0.933717	3.2351			0.728803	2.5245	0.823929	2.84662	0.956735	3.3135		
0.765216	2.63971	0.585352	2.00555	0.766488	2.63954	0.817648	2.82419	0.935558	3.23105			0.730776	2.52319	0.825988	2.84457	0.958245	3.30806		
0.767581	2.63939	0.587354	2.00601	0.768853	2.63921	0.819518	2.82157	0.9374	3.22703			0.732749	2.52189	0.828049	2.84255	0.959759	3.30267		
0.769944	2.63906	0.589356	2.00646	0.771215	2.63888	0.821392	2.81897	0.939244	3.22304			0.734721	2.5206	0.830112	2.84055	0.961277	3.29732		
0.772306	2.63873	0.591358	2.00691	0.773576	2.63855	0.823268	2.81641	0.941089	3.21908			0.736692	2.51931	0.832176	2.83856	0.962798	3.29201		
0.774666	2.63839	0.59336	2.00736	0.775935	2.63821	0.825148	2.81387	0.942936	3.21515			0.738663	2.51803	0.834242	2.83659	0.964322	3.28675		
0.777025	2.63805	0.595361	2.0078	0.778293	2.63787	0.827032	2.81136	0.944783	3.21125			0.740634	2.51675	0.83631	2.83464	0.96585	3.28154		
0.779382	2.63771	0.597362	2.00824	0.780649	2.63753	0.828918	2.80888	0.946633	3.20738			0.742604	2.51548	0.838379	2.83271	0.96738	3.27637		
0.781736	2.63736	0.599363	2.00867	0.783003	2.63718	0.830808	2.80642	0.948483	3.20353			0.744573	2.51421	0.84045	2.8308	0.968915	3.27124		
0.78409	2.63701	0.601364	2.0091	0.785355	2.63682	0.832702	2.80399	0.950335	3.19972			0.746542	2.51296	0.842522	2.8289	0.970452	3.26616		
0.786441	2.63666	0.603364	2.00953	0.787705	2.63647	0.834598	2.80159	0.952188	3.19593			0.74851	2.5117	0.844596	2.82702	0.971993	3.26112		
0.78879	2.6363	0.605364	2.00995	0.790053	2.63611	0.836499	2.79922	0.954043	3.19217			0.750477	2.51046	0.846671	2.82516	0.973537	3.25612		
0.791137	2.63594	0.607363	2.01037	0.792399	2.63574	0.838402	2.79687	0.955898	3.18844			0.752444	2.50922	0.848748	2.82331	0.975085	3.25117		
0.793482	2.63557	0.609363	2.01079	0.794743	2.63537	0.84031	2.79454	0.957755	3.18474			0.754411	2.50798	0.850826	2.82148	0.976636	3.24625		
0.795825	2.6352	0.611362	2.0112	0.797085	2.635	0.842221	2.79225	0.959614	3.18106			0.756377	2.50675	0.852906	2.81966	0.97819	3.24138		
0.798166	2.63482	0.613361	2.01162	0.799425	2.63462	0.844135	2.78998	0.961473	3.17741			0.758343	2.50553	0.854987	2.81786	0.979748	3.23655		
0.800505	2.63444	0.61536	2.01202	0.801762	2.63423	0.846053	2.78773	0.963334	3.17379			0.760308	2.50432	0.85707	2.81608	0.981308	3.23176		
0.802841	2.63405	0.617358	2.01243	0.804097	2.63384	0.847975	2.78551	0.965196	3.17019			0.762272	2.50311	0.859153	2.81431	0.982873	3.22701		
0.805175	2.63366	0.619356	2.01283	0.80643	2.63344	0.849901	2.78332	0.967059	3.16662			0.764237	2.5019	0.861238	2.81256	0.98444	3.2223		
0.807507	2.63326	0.621354	2.01322	0.80876	2.63304	0.851831	2.78115	0.968923	3.16308			0.7662	2.5007	0.863325	2.81082	0.986011	3.21763		
0.809836	2.63286	0.623351	2.01362	0.811088	2.63264	0.853764	2.77901	0.970788	3.15956			0.768164	2.49951	0.865412	2.80909	0.987585	3.213		
0.812163	2.63245	0.625349	2.01401	0.813413	2.63222	0.855701	2.7769	0.972655	3.15606			0.770126	2.49832	0.867501	2.80738	0.989162	3.2084		
0.814487	2.63203	0.627346	2.01439	0.815736	2.6318	0.857642	2.77481	0.974523	3.15259			0.772089	2.49714	0.869591	2.80569	0.990743	3.20385		
0.816808	2.63161	0.629343	2.01478	0.818056	2.63138	0.859588	2.77274	0.976392	3.14915			0.774051	2.49597	0.871682	2.804	0.992326	3.19933		
0.819127	2.63118	0.631339	2.01516	0.820373	2.63095	0.861537	2.7707	0.978262	3.14573			0.776012	2.4948	0.873774	2.80234	0.993914	3.19485		
0.821442	2.63075	0.633335	2.01554	0.822687	2.63051	0.863491	2.76869	0.980133	3.14233			0.777974	2.49363	0.875867	2.80068	0.995504	3.19041		
0.823755	2.63031	0.635331	2.01591	0.824999	2.63006	0.865448	2.7667	0.982005	3.13895			0.779934	2.49247	0.877962	2.79904	0.997098	3.186		
0.826065	2.62986	0.637327	2.01628	0.827307	2.62961	0.86741	2.76474	0.983878	3.1356			0.781895	2.49132	0.880057	2.79741	0.998694	3.18163		
0.828373	2.6294	0.639323	2.01665	0.829613	2.62916	0.869376	2.7628	0.985753	3.13228			0.783855	2.49017	0.882154	2.79579	1.00029	3.1773		
0.830677	2.62894	0.641318	2.01702	0.831915	2.62869	0.871346	2.76089	0.987628	3.12897			0.785814	2.48903	0.884251	2.79419				
0.832977	2.62847	0.643313	2.01738	0.834214	2.62822	0.873321	2.759	0.989505	3.12569			0.787774	2.4879	0.88635	2.7926				
0.835275	2.628	0.645307	2.01774	0.83651	2.62774	0.8753	2.75714	0.991382	3.12243			0.789733	2.48676	0.888449	2.79102				
0.83757	2.62751	0.647302	2.0181	0.838803	2.62725	0.877284	2.7553	0.993261	3.1192			0.791691	2.48564	0.89055	2.78946				
0.839861	2.62702	0.649296	2.01845	0.841092	2.62676	0.879272	2.75349	0.99514	3.11598			0.79365	2.48452	0.892651	2.7879				
0.842149	2.62653	0.65129	2.0188	0.843378	2.62625	0.881265	2.7517	0.997021	3.11279			0.795608	2.48341	0.894753	2.78636				
0.844433	2.62602	0.653283	2.01915	0.845661	2.62574	0.883262	2.74994	0.998903	3.10962			0.797565	2.4823	0.896856	2.78483				
0.846714	2.62551	0.655277	2.0195	0.84794	2.62523	0.885265	2.7482	1.00079	3.10647			0.799522	2.48119	0.89896	2.78331				
0.848991	2.62498	0.65727	2.01984	0.850215	2.6247	0.887272	2.74648					0.80148	2.4801	0.901064	2.7818				
0.851265	2.62445	0.659263	2.02018	0.852487	2.62416	0.889283	2.7448					0.803436	2.47901	0.90317	2.7803				
0.853535	2.62391	0.661255	2.02052	0.854755	2.62362	0.8913	2.74313					0.805393	2.47792	0.905276	2.77882				
0.855801	2.62337	0.663248	2.02085	0.857019	2.62307	0.893321	2.74149					0.807349	2.47684	0.907383	2.77734				
0.858064	2.62281	0.66524	2.02118	0.859279	2.62251	0.895348	2.73988					0.809305	2.47576	0.90949	2.77587				
0.860322	2.62225	0.667232	2.02151	0.861536	2.62194	0.897379	2.73829					0.81126	2.47469	0.911598	2.77442				
0.862577	2.62167	0.669223	2.02184	0.863788	2.62136	0.899416	2.73672					0.813216	2.47362	0.913707	2.77298				
0.864827	2.62109	0.671215	2.02216	0.866036	2.62078	0.901457	2.73518					0.815171	2.47256	0.915817	2.77154				
0.867074	2.6205	0.673206	2.02249	0.868281	2.62018	0.903504	2.73366					0.817126	2.47151	0.917927	2.77012				
0.869316	2.6199	0.675196	2.0228	0.870521	2.61957	0.905556	2.73217					0.819081	2.47046	0.920037	2.7687				
0.871554	2.61929	0.677187	2.02312	0.872757	2.61896	0.907613	2.7307					0.821035	2.46942	0.922149	2.76729				
0.873789	2.61867	0.679177	2.02343	0.874989	2.61834	0.909675	2.72925					0.822989	2.46838	0.92426	2.7659				
0.876018	2.61805	0.681167	2.02375	0.877217	2.61771	0.911743	2.72783					0.824943	2.46734	0.926373	2.76451				
0.878244	2.61741	0.683157	2.02406	0.87944	2.61706	0.913816	2.72643					0.826897	2.46631	0.928485	2.76313				
0.880465	2.61676	0.685147	2.02436	0.881659	2.61641	0.915894	2.72506					0.828851	2.46529	0.930598	2.76176				
0.882682	2.61611	0.687136	2.02467	0.883873	2.61575	0.917978	2.72371					0.830804	2.46427	0.932712	2.7604				
0.884895	2.61544	0.689125	2.02497	0.886084	2.61508	0.920067	2.72238					0.832757	2.46326	0.934826	2.75905				
0.887103	2.61477	0.691114	2.02527	0.888289	2.6144	0.922161	2.72107					0.83471	2.46225	0.93694	2.75771				
0.889307	2.61409	0.693102	2.02556	0.890491	2.61372	0.924261	2.71979					0.836663	2.46124	0.939055	2.75638				
0.891506	2.61339	0.69509	2.02586	0.892688	2.61302	0.926367	2.71854					0.838616	2.46025	0.94117	2.75505				
0.893701	2.61269	0.697078	2.02615	0.89488	2.61231	0.928478	2.7173					0.840568	2.45925	0.943285	2.75373				
0.895891	2.61198	0.699066	2.02644	0.897068	2.6116	0.930594	2.71609					0.842521	2.45826	0.945401	2.75242				
0.898077	2.61126	0.701054	2.02673	0.899251	2.61087	0.932716	2.7149					0.844473	2.45728	0.947517	2.75112				
0.900259	2.61053	0.703041	2.02701	0.90143	2.61014	0.934843	2.71373					0.846425	2.4563	0.949633	2.74982				
0.902436	2.60979	0.705028	2.0273	0.903605	2.60939	0.936975	2.71258					0.848377	2.45533	0.95175	2.74854				
0.904608	2.60905	0.707015	2.02758	0.905775	2.60864	0.939113	2.71146					0.850329	2.45436	0.953866	2.74726				
0.906776	2.60829	0.709001	2.02785	0.90794	2.60788	0.941257	2.71036					0.852281	2.45339	0.955983	2.74599				
0.908939	2.60753	0.710987	2.02813	0.910102	2.60711	0.943406	2.70928					0.854233	2.45243	0.9581	2.74472				
0.911098	2.60675	0.712973	2.02841	0.912258	2.60633	0.94556	2.70822					0.856184	2.45148	0.960217	2.74346				
0.913253	2.60597	0.714959	2.02868	0.91441	2.60555	0.94772	2.70718					0.858136	2.45053	0.962334	2.74221				
0.915403	2.60518	0.716945	2.02895	0.916558	2.60475	0.949885	2.70616					0.860087	2.44959	0.964451	2.74097				
0.917549	2.60438	0.71893	2.02922	0.918702	2.60395	0.952055	2.70516					0.862038	2.44864	0.966568	2.73973				
0.91969	2.60357	0.720915	2.02948	0.920841	2.60314	0.95423	2.70419					0.863989	2.44771	0.968686	2.7385				
0.921827	2.60276	0.7229	2.02974	0.922975	2.60232	0.956411	2.70323					0.865941	2.44678	0.970803	2.73728				
0.92396	2.60194	0.724884	2.03001	0.925106	2.60149	0.958597	2.70229					0.867892	2.44585	0.972921	2.73606				
0.926089	2.6011	0.726868	2.03027	0.927232	2.60066	0.960788	2.70137					0.869843	2.44493	0.975038	2.73485				
0.928213	2.60027	0.728852	2.03052	0.929354	2.59981	0.962984	2.70047					0.871793	2.44401	0.977155	2.73364				
0.930333	2.59942	0.730836	2.03078	0.931472	2.59896	0.965185	2.69959					0.873744	2.4431	0.979272	2.73245				
0.932449	2.59857	0.73282	2.03103	0.933586	2.59811	0.967391	2.69873					0.875695	2.44219	0.98139	2.73125				
0.934561	2.59771	0.734803	2.03128	0.935696	2.59725	0.969601	2.69788					0.877646	2.44129	0.983507	2.73007				
0.936669	2.59685	0.736786	2.03153	0.937802	2.59638	0.971817	2.69706					0.879596	2.44039	0.985624	2.72888				
0.938774	2.59597	0.738769	2.03178	0.939904	2.5955	0.974038	2.69625					0.881547	2.4395	0.98774	2.72771				
0.940874	2.5951	0.740751	2.03203	0.942002	2.59462	0.976263	2.69546					0.883498	2.43861	0.989857	2.72654				
0.94297	2.59421	0.742734	2.03227	0.944097	2.59373	0.978492	2.69468					0.885448	2.43772	0.991973	2.72537				
0.945063	2.59332	0.744716	2.03251	0.946187	2.59284	0.980727	2.69392					0.887399	2.43684	0.99409	2.72421				
0.947152	2.59243	0.746698	2.03275	0.948274	2.59194	0.982965	2.69318					0.889349	2.43597	0.996206	2.72306				
0.949237	2.59152	0.748679	2.03299	0.950358	2.59104	0.985209	2.69245					0.8913	2.4351	0.998321	2.72191				
0.951319	2.59062	0.75066	2.03323	0.952438	2.59013	0.987456	2.69174					0.89325	2.43423	1.00044	2.72077				
0.953397	2.58971	0.752642	2.03346	0.954514	2.58922	0.989708	2.69104					0.895201	2.43337						
0.955472	2.58879	0.754622	2.03369	0.956587	2.5883	0.991964	2.69036					0.897152	2.43251						
0.957544	2.58787	0.756603	2.03392	0.958657	2.58738	0.994224	2.68969					0.899102	2.43165						
0.959612	2.58695	0.758583	2.03415	0.960724	2.58645	0.996488	2.68904					0.901053	2.4308						
0.961677	2.58602	0.760564	2.03438	0.962787	2.58552	0.998756	2.6884					0.903003	2.42996						
0.963739	2.58509	0.762544	2.03461	0.964847	2.58459	1.00103	2.68778					0.904954	2.42912						
0.965798	2.58415	0.764523	2.03483	0.966905	2.58365							0.906904	2.42828						
0.967854	2.58321	0.766503	2.03505	0.968959	2.58271							0.908855	2.42745						
0.969907	2.58227	0.768482	2.03527	0.971011	2.58176							0.910806	2.42662						
0.971957	2.58133	0.770461	2.03549	0.973059	2.58082							0.912756	2.42579						
0.974005	2.58038	0.77244	2.03571	0.975105	2.57987							0.914707	2.42497						
0.97605	2.57943	0.774418	2.03592	0.977149	2.57892							0.916658	2.42416						
0.978092	2.57848	0.776396	2.03614	0.979189	2.57797							0.918609	2.42335						
0.980131	2.57752	0.778374	2.03635	0.981228	2.57701							0.920559	2.42254						
0.982168	2.57657	0.780352	2.03656	0.983263	2.57605							0.92251	2.42173						
0.984203	2.57561	0.78233	2.03677	0.985297	2.57509							0.924461	2.42093						
0.986235	2.57465	0.784307	2.03697	0.987328	2.57413							0.926412	2.42014						
0.988265	2.57369	0.786284	2.03718	0.989356	2.57317							0.928363	2.41935						
0.990293	2.57273	0.788261	2.03738	0.991383	2.57221							0.930315	2.41856						
0.992319	2.57177	0.790238	2.03759	0.993408	2.57125							0.932266	2.41778						
0.994342	2.5708	0.792214	2.03779	0.99543	2.57029							0.934217	2.417						
0.996364	2.56984	0.79419	2.03799	0.99745	2.56932							0.936168	2.41622						
0.998383	2.56888	0.796166	2.03818	0.999469	2.56836							0.93812	2.41545						
1.0004	2.56791	0.798142	2.03838	1.00149	2.56739							0.940071	2.41468						
		0.800118	2.03857									0.942023	2.41392						
		0.802093	2.03877									0.943975	2.41316						
		0.804068	2.03896									0.945927	2.4124						
		0.806043	2.03915									0.947879	2.41165						
		0.808017	2.03934									0.949831	2.4109						
		0.809992	2.03952									0.951783	2.41016						
		0.811966	2.03971									0.953735	2.40941						
		0.81394	2.03989									0.955687	2.40868						
		0.815914	2.04008									0.95764	2.40794						
		0.817887	2.04026									0.959592	2.40721						
		0.81986	2.04044									0.961545	2.40649						
		0.821833	2.04062									0.963497	2.40577						
		0.823806	2.04079									0.96545	2.40505						
		0.825779	2.04097									0.967403	2.40433						
		0.827751	2.04115									0.969356	2.40362						
		0.829723	2.04132									0.97131	2.40291						
		0.831695	2.04149									0.973263	2.40221						
		0.833667	2.04166									0.975217	2.40151						
		0.835639	2.04183									0.97717	2.40081						
		0.83761	2.042									0.979124	2.40012						
		0.839581	2.04217									0.981078	2.39942						
		0.841552	2.04233									0.983032	2.39874						
		0.843522	2.04249									0.984986	2.39805						
		0.845493	2.04266									0.986941	2.39737						
		0.847463	2.04282									0.988895	2.3967						
		0.849433	2.04298									0.99085	2.39603						
		0.851403	2.04314									0.992805	2.39536						
		0.853372	2.0433									0.99476	2.39469						
		0.855342	2.04345									0.996715	2.39403						
		0.857311	2.04361									0.99867	2.39337						
		0.85928	2.04376									1.00063	2.39271						
		0.861249	2.04392																
		0.863217	2.04407																
		0.865185	2.04422																
		0.867154	2.04437																
		0.869121	2.04452																
		0.871089	2.04467																
		0.873057	2.04481																
		0.875024	2.04496																
		0.876991	2.0451																
		0.878958	2.04524																
		0.880925	2.04539																
		0.882891	2.04553																
		0.884857	2.04567																
		0.886823	2.04581																
		0.888789	2.04594																
		0.890755	2.04608																
		0.89272	2.04622																
		0.894686	2.04635																
		0.896651	2.04648																
		0.898615	2.04662																
		0.90058	2.04675																
		0.902545	2.04688																
		0.904509	2.04701																
		0.906473	2.04714																
		0.908437	2.04726																
		0.910401	2.04739																
		0.912364	2.04752																
		0.914327	2.04764																
		0.91629	2.04776																
		0.918253	2.04789																
		0.920216	2.04801																
		0.922179	2.04813																
		0.924141	2.04825																
		0.926103	2.04837																
		0.928065	2.04849																
		0.930027	2.0486																
		0.931988	2.04872																
		0.93395	2.04883																
		0.935911	2.04895																
		0.937872	2.04906																
		0.939833	2.04918																
		0.941793	2.04929																
		0.943754	2.0494																
		0.945714	2.04951																
		0.947674	2.04962																
		0.949634	2.04973																
		0.951594	2.04983																
		0.953553	2.04994																
		0.955513	2.05005																
		0.957472	2.05015																
		0.959431	2.05026																
		0.96139	2.05036																
		0.963348	2.05046																
		0.965307	2.05057																
		0.967265	2.05067																
		0.969223	2.05077																
		0.971181	2.05087																
		0.973139	2.05097																
		0.975096	2.05106																
		0.977054	2.05116																
		0.979011	2.05126																
		0.980968	2.05136																
		0.982925	2.05145																
		0.984882	2.05154																
		0.986838	2.05164																
		0.988795	2.05173																
		0.990751	2.05182																
		0.992707	2.05192																
		0.994663	2.05201																
		0.996618	2.0521																
		0.998574	2.05219																
		1.00053	2.05228																
