Sym0		Asym0		Sym1		Sym2		Sym3		Sym4		Asym1		Asym2		Asym3		Asym4	
423  Points		526  Points		423  Points		405  Points		351  Points		251  Points		454  Points		399  Points		343  Points		206  Points	
Freq (MHz)	Vph (m/ms)	Freq (MHz)	Vph (m/ms)	Freq (MHz)	Vph (m/ms)	Freq (MHz)	Vph (m/ms)	Freq (MHz)	Vph (m/ms)	Freq (MHz)	Vph (m/ms)	Freq (MHz)	Vph (m/ms)	Freq (MHz)	Vph (m/ms)	Freq (MHz)	Vph (m/ms)	Freq (MHz)	Vph (m/ms)
0.27951	605.058	0.000334428	0.112698	0.279514	306.096	0.449953	11037.2	0.559017	6980.9	0.838526	2129.25	0.139755	941.774	0.419268	465.838	0.698771	3539.21	0.899907	2216.48
0.279521	200.567	0.000576393	0.147825	0.27953	151.519	0.449959	462.701	0.559024	552.519	0.838531	632.611	0.139799	129.433	0.419285	228.902	0.698776	618.861	0.899912	672.729
0.279542	120.215	0.000882841	0.182751	0.279557	100.685	0.449976	236.312	0.559042	287.652	0.838543	371.496	0.13991	69.5452	0.419314	151.737	0.698786	339.08	0.899922	396.547
0.279575	85.8371	0.00125288	0.217418	0.279595	75.3982	0.450003	158.684	0.559071	194.448	0.83856	262.962	0.140087	47.5924	0.419355	113.489	0.698803	233.516	0.899937	281.134
0.279619	66.7549	0.00168555	0.251792	0.279644	60.2688	0.450041	119.452	0.559111	146.87	0.838583	203.51	0.140331	36.2128	0.419407	90.6471	0.698825	178.08	0.899958	217.761
0.279673	54.619	0.00217962	0.285816	0.279703	50.2013	0.45009	95.7793	0.559163	118.003	0.838612	165.986	0.140639	29.258	0.419471	75.4647	0.698854	143.918	0.899984	177.705
0.279738	46.2215	0.00273396	0.319476	0.279774	43.0201	0.45015	79.9423	0.559226	98.6247	0.838646	140.148	0.141013	24.5728	0.419547	64.6431	0.698889	120.756	0.900015	150.098
0.279814	40.0661	0.00334702	0.352714	0.279855	37.6401	0.45022	68.6036	0.559301	84.7176	0.838687	121.273	0.141449	21.2059	0.419634	56.54	0.698929	104.018	0.900051	129.917
0.279901	35.3611	0.00401748	0.385517	0.279947	33.4597	0.450302	60.0857	0.559387	74.2519	0.838733	106.881	0.141948	18.6726	0.419733	50.2458	0.698976	91.3576	0.900093	114.522
0.279999	31.6483	0.00474364	0.417842	0.280051	30.1181	0.450394	53.4527	0.559484	66.0912	0.838785	95.5438	0.142508	16.6995	0.419844	45.216	0.699029	81.4464	0.90014	102.39
0.280108	28.6441	0.00552388	0.449666	0.280165	27.3863	0.450496	48.1417	0.559592	59.5499	0.838843	86.3828	0.143128	15.1212	0.419966	41.1047	0.699088	73.477	0.900192	92.5842
0.280228	26.1636	0.0063566	0.480974	0.280289	25.1115	0.45061	43.7935	0.559712	54.1898	0.838907	78.8265	0.143805	13.8314	0.4201	37.6816	0.699154	66.9297	0.900249	84.4935
0.280358	24.081	0.00723995	0.511737	0.280425	23.1881	0.450734	40.1684	0.559842	49.7177	0.838977	72.4871	0.14454	12.7587	0.420246	34.7875	0.699225	61.4553	0.900312	77.7045
0.280499	22.3079	0.00817231	0.541948	0.280572	21.5407	0.450869	37.1	0.559984	45.9301	0.839053	67.0928	0.145329	11.8535	0.420403	32.3087	0.699302	56.8101	0.90038	71.9266
0.280651	20.7802	0.00915189	0.571593	0.280729	20.114	0.451015	34.4694	0.560138	42.681	0.839134	62.447	0.146172	11.0802	0.420572	30.162	0.699386	52.819	0.900453	66.9495
0.280814	19.4505	0.0101768	0.600653	0.280897	18.8666	0.451171	32.1893	0.560302	39.8635	0.839221	58.404	0.146948	10.4933	0.420752	28.285	0.699475	49.3531	0.900531	62.6176
0.280988	18.2827	0.0112454	0.629129	0.281076	17.7668	0.451338	30.1941	0.560478	37.3971	0.839314	54.8538	0.14764	10.0462	0.420944	26.63	0.699571	46.3152	0.900615	58.8132
0.281173	17.249	0.012356	0.657015	0.281266	16.79	0.451516	28.4337	0.560665	35.2201	0.839413	51.7115	0.148233	9.70841	0.421148	25.1599	0.699672	43.6307	0.900703	55.4456
0.281368	16.3278	0.0135068	0.684308	0.281466	15.9167	0.451704	26.8691	0.560863	33.2845	0.839518	48.9107	0.148714	9.45956	0.421363	23.8455	0.69978	41.2413	0.900797	52.4435
0.281574	15.5016	0.0146962	0.711002	0.281678	15.1315	0.451903	25.4694	0.561072	31.5523	0.839629	46.3985	0.149075	9.28597	0.42159	22.6634	0.699894	39.101	0.900897	49.7507
0.281791	14.7567	0.0159225	0.737104	0.2819	14.4216	0.452113	24.21	0.561293	29.9932	0.839745	44.1328	0.149309	9.17879	0.421828	21.5946	0.700013	37.1728	0.901001	47.3217
0.282019	14.0815	0.0171841	0.762616	0.282133	13.7769	0.452333	23.0707	0.561524	28.5826	0.839868	42.0788	0.14965	9.0298	0.422078	20.6237	0.700139	35.4267	0.901111	45.1196
0.282257	13.4669	0.0184795	0.787542	0.282376	13.1887	0.452564	22.0354	0.561767	27.3002	0.839996	40.2083	0.150025	8.8743	0.422339	19.7379	0.700271	33.8381	0.901226	43.1141
0.282506	12.9052	0.0198071	0.811886	0.28263	12.6501	0.452805	21.0904	0.562021	26.1295	0.84013	38.4978	0.150546	8.67291	0.422612	18.9266	0.700409	32.3867	0.901346	41.2799
0.282766	12.3897	0.0211657	0.835658	0.282895	12.1551	0.453058	20.2245	0.562285	25.0564	0.840269	36.9276	0.151218	8.43359	0.422896	18.1807	0.700553	31.0555	0.901471	39.5961
0.283036	11.9151	0.0225537	0.858865	0.283171	11.6986	0.45332	19.4282	0.562561	24.0694	0.840415	35.4812	0.152053	8.16499	0.423192	17.4927	0.700703	29.8301	0.901602	38.0449
0.283317	11.4768	0.0239697	0.881513	0.283457	11.2764	0.453593	18.6934	0.562848	23.1585	0.840566	34.1445	0.153062	7.87577	0.423499	16.8563	0.70086	28.6985	0.901738	36.6112
0.283609	11.0708	0.0254127	0.903618	0.283754	10.8848	0.453877	18.0135	0.563146	22.3153	0.840724	32.9056	0.154256	7.57413	0.423817	16.2657	0.701022	27.6502	0.901879	35.2823
0.283912	10.6937	0.0268812	0.925185	0.284062	10.5206	0.454171	17.3824	0.563455	21.5326	0.840887	31.754	0.155489	7.30068	0.424147	15.7164	0.70119	26.6765	0.902025	34.0471
0.284225	10.3426	0.0283741	0.946224	0.284339	10.2234	0.454476	16.7952	0.563775	20.8041	0.841056	30.6809	0.156758	7.0518	0.424488	15.2042	0.701364	25.7697	0.902177	32.8959
0.284548	10.0148	0.0298903	0.966751	0.284581	9.98367	0.454791	16.2474	0.564106	20.1244	0.84123	29.6786	0.158063	6.82445	0.42484	14.7254	0.701545	24.9232	0.902333	31.8206
0.284883	9.70821	0.0314287	0.986772	0.284786	9.7942	0.455117	15.7353	0.564448	19.4888	0.841411	28.7403	0.159401	6.61608	0.425204	14.2769	0.701731	24.1311	0.902495	30.8139
0.285227	9.42085	0.0329884	1.0063	0.28495	9.64968	0.455453	15.2555	0.5648	18.8932	0.841597	27.86	0.160771	6.42452	0.425579	13.8561	0.701923	23.3883	0.902663	29.8695
0.285583	9.15098	0.0345681	1.02535	0.285073	9.54627	0.455799	14.8051	0.565164	18.334	0.841789	27.0326	0.162172	6.24788	0.425965	13.4603	0.702122	22.6905	0.902835	28.9817
0.285949	8.89709	0.0361673	1.04394	0.285152	9.48131	0.456156	14.3814	0.565538	17.8079	0.841987	26.2535	0.163602	6.08458	0.426362	13.0876	0.702326	22.0337	0.903012	28.1456
0.286325	8.65782	0.0377847	1.06206	0.285267	9.38955	0.456523	13.9823	0.565923	17.3121	0.84219	25.5185	0.165061	5.93322	0.426771	12.7359	0.702536	21.4144	0.903195	27.3568
0.286712	8.43197	0.0394197	1.07974	0.285393	9.29193	0.4569	13.6056	0.566319	16.8442	0.8424	24.824	0.166546	5.79261	0.427191	12.4035	0.702753	20.8294	0.903383	26.6116
0.28711	8.21847	0.0410715	1.09699	0.285567	9.16259	0.457288	13.2495	0.566726	16.4017	0.842615	24.1669	0.168056	5.66168	0.427621	12.089	0.702975	20.2761	0.903576	25.9062
0.287517	8.01635	0.0427392	1.11382	0.28579	9.0044	0.457686	12.9125	0.567143	15.9829	0.842836	23.5441	0.169591	5.53952	0.428063	11.7909	0.703204	19.7519	0.903775	25.2378
0.287936	7.82475	0.0444222	1.13023	0.286065	8.82072	0.458094	12.593	0.567571	15.5857	0.843063	22.953	0.17115	5.42532	0.428516	11.5081	0.703438	19.2546	0.903978	24.6033
0.288364	7.64289	0.0461197	1.14625	0.286396	8.61523	0.458512	12.2897	0.56801	15.2086	0.843295	22.3914	0.172731	5.31835	0.42898	11.2393	0.703679	18.7822	0.904187	24.0004
0.288803	7.47006	0.0478311	1.16188	0.286785	8.39173	0.458941	12.0015	0.56846	14.8502	0.843533	21.857	0.174333	5.21799	0.429455	10.9836	0.703925	18.3329	0.904401	23.4267
0.289253	7.30563	0.0495558	1.17714	0.287184	8.1804	0.45938	11.7273	0.56892	14.5091	0.843777	21.3479	0.175955	5.12367	0.429941	10.7401	0.704178	17.905	0.90462	22.8802
0.289712	7.14901	0.0512932	1.19202	0.287594	7.98028	0.459829	11.466	0.56939	14.1841	0.844027	20.8625	0.177597	5.03488	0.430438	10.508	0.704436	17.497	0.904844	22.359
0.290182	6.99968	0.0530426	1.20655	0.288014	7.79053	0.460288	11.2169	0.569871	13.874	0.844283	20.399	0.179257	4.95117	0.43088	10.3143	0.704701	17.1077	0.905074	21.8614
0.290663	6.85716	0.0548036	1.22074	0.288444	7.61038	0.460757	10.979	0.570363	13.578	0.844544	19.9561	0.180935	4.87214	0.431263	10.1553	0.704971	16.7357	0.905308	21.3858
0.291153	6.721	0.0565757	1.23459	0.288885	7.43914	0.461236	10.7517	0.570865	13.2951	0.844811	19.5324	0.18263	4.79743	0.431585	10.0277	0.705247	16.38	0.905548	20.9308
0.291654	6.59081	0.0583585	1.24812	0.289337	7.27619	0.461725	10.5343	0.571377	13.0244	0.845084	19.1267	0.184342	4.7267	0.431842	9.92926	0.70553	16.0395	0.905793	20.4951
0.292165	6.46622	0.0601513	1.26133	0.289798	7.12096	0.462159	10.3525	0.5719	12.7652	0.845362	18.7379	0.186068	4.65966	0.432032	9.85822	0.705818	15.7132	0.906043	20.0775
0.292686	6.34688	0.0619537	1.27423	0.29027	6.97292	0.462536	10.2027	0.572433	12.5168	0.845646	18.3649	0.18781	4.59604	0.432155	9.81334	0.706112	15.4003	0.906298	19.6769
0.293218	6.23249	0.0637655	1.28683	0.290752	6.8316	0.462851	10.0824	0.572976	12.2786	0.845936	18.0069	0.189566	4.5356	0.432332	9.74959	0.706412	15.1	0.906559	19.2923
0.293759	6.12274	0.0655861	1.29915	0.291245	6.69658	0.463103	9.98942	0.57353	12.0498	0.846232	17.6629	0.191336	4.47811	0.432526	9.68132	0.706719	14.8116	0.906824	18.9227
0.294311	6.01739	0.0674152	1.31118	0.291748	6.56744	0.463289	9.92223	0.574094	11.8301	0.846533	17.3321	0.193118	4.42337	0.432793	9.59014	0.707031	14.5343	0.907095	18.5674
0.294873	5.91618	0.0692524	1.32294	0.292261	6.44384	0.46341	9.87974	0.574668	11.6189	0.84684	17.0138	0.194913	4.3712	0.433133	9.47748	0.707349	14.2676	0.907371	18.2255
0.295445	5.81888	0.0710975	1.33444	0.292784	6.32544	0.463583	9.81936	0.575253	11.4156	0.847153	16.7074	0.19672	4.32143	0.43355	9.34508	0.707673	14.0108	0.907652	17.8962
0.296027	5.72528	0.07295	1.34568	0.293317	6.21192	0.463773	9.75463	0.575847	11.22	0.847471	16.4121	0.198539	4.27391	0.434046	9.19487	0.708003	13.7635	0.907938	17.5789
0.296618	5.63518	0.0748096	1.35666	0.29386	6.10301	0.464033	9.66808	0.576451	11.0315	0.847796	16.1274	0.200368	4.22848	0.434626	9.02895	0.708338	13.525	0.908229	17.273
0.29722	5.54841	0.0766762	1.36741	0.294414	5.99843	0.464366	9.561	0.577066	10.8498	0.848125	15.8527	0.202208	4.18502	0.435217	8.86954	0.70868	13.295	0.908526	16.9778
0.297832	5.46479	0.0785493	1.37792	0.294977	5.89796	0.464773	9.43493	0.57769	10.6746	0.848461	15.5875	0.204058	4.14341	0.435817	8.71629	0.709028	13.0731	0.908827	16.6928
0.298454	5.38415	0.0804287	1.3882	0.295551	5.80136	0.465258	9.29163	0.578243	10.5268	0.848802	15.3313	0.205918	4.10355	0.436429	8.56885	0.709381	12.8587	0.909134	16.4175
0.299086	5.30636	0.0823142	1.39826	0.296135	5.70842	0.465823	9.13297	0.57872	10.4044	0.849149	15.0838	0.207787	4.06531	0.437051	8.42691	0.70974	12.6515	0.909446	16.1514
0.299727	5.23127	0.0842055	1.4081	0.296729	5.61895	0.466397	8.9802	0.579118	10.3056	0.849501	14.8444	0.209665	4.02862	0.437683	8.29017	0.710106	12.4513	0.909763	15.894
0.300379	5.15875	0.0861023	1.41773	0.297332	5.53277	0.466982	8.833	0.579436	10.2288	0.849859	14.6127	0.211551	3.99338	0.438326	8.15838	0.710477	12.2575	0.910085	15.645
0.30104	5.08869	0.0880046	1.42716	0.297946	5.44971	0.467576	8.69107	0.579671	10.1732	0.850223	14.3885	0.213446	3.95951	0.438979	8.03126	0.710854	12.07	0.910412	15.4039
0.301712	5.02096	0.089912	1.43639	0.29857	5.36961	0.46818	8.55415	0.579822	10.138	0.850592	14.1713	0.215349	3.92694	0.439643	7.90859	0.711237	11.8884	0.910744	15.1703
0.302392	4.95546	0.0918243	1.44542	0.299203	5.29232	0.468793	8.42199	0.58004	10.0878	0.850967	13.9608	0.217259	3.89559	0.440317	7.79015	0.711626	11.7125	0.911081	14.944
0.303083	4.89208	0.0937413	1.45427	0.299847	5.21772	0.469416	8.29435	0.580278	10.0339	0.851348	13.7568	0.219177	3.8654	0.441001	7.67573	0.71202	11.542	0.911424	14.7246
0.303784	4.83074	0.0956629	1.46294	0.3005	5.14566	0.470048	8.171	0.580604	9.96157	0.851734	13.5589	0.221102	3.83631	0.441695	7.56514	0.712421	11.3767	0.911771	14.5118
0.304402	4.77888	0.0975889	1.47143	0.301163	5.07603	0.47069	8.05175	0.58102	9.87176	0.852126	13.3669	0.223033	3.80826	0.4424	7.45819	0.712827	11.2163	0.912124	14.3053
0.304935	4.73579	0.0995192	1.47974	0.301836	5.00872	0.471341	7.9364	0.581527	9.76555	0.852523	13.1805	0.224972	3.7812	0.443114	7.35471	0.713239	11.0606	0.912481	14.1048
0.30538	4.70091	0.101453	1.48789	0.302519	4.94362	0.472001	7.82477	0.582129	9.64417	0.852926	12.9995	0.226916	3.75508	0.443839	7.25455	0.713657	10.9095	0.912844	13.9101
0.305734	4.67381	0.103392	1.49588	0.303212	4.88063	0.472671	7.71668	0.582829	9.50899	0.853335	12.8236	0.228867	3.72985	0.444573	7.15756	0.714026	10.7813	0.913212	13.7209
0.305996	4.65414	0.105334	1.5037	0.303914	4.81966	0.47335	7.61199	0.583539	9.37802	0.853749	12.6527	0.230823	3.70547	0.445318	7.0636	0.714344	10.6746	0.913584	13.537
0.306165	4.64167	0.107279	1.51137	0.304626	4.76061	0.474039	7.51053	0.584258	9.25106	0.854169	12.4865	0.232785	3.6819	0.446072	6.97252	0.714609	10.588	0.913962	13.3582
0.306408	4.62389	0.109228	1.5189	0.305348	4.70341	0.474736	7.41217	0.584987	9.12794	0.854594	12.3248	0.234752	3.6591	0.446837	6.88421	0.714821	10.5206	0.914345	13.1842
0.306673	4.60477	0.111181	1.52627	0.30608	4.64797	0.475443	7.31677	0.585725	9.00849	0.855025	12.1676	0.236725	3.63703	0.447611	6.79856	0.714977	10.4716	0.914733	13.015
0.307035	4.5791	0.113136	1.5335	0.306821	4.59423	0.476159	7.2242	0.586473	8.89256	0.855462	12.0145	0.238703	3.61566	0.448395	6.71543	0.715077	10.4405	0.915126	12.8502
0.307497	4.54717	0.115095	1.5406	0.307572	4.5421	0.476884	7.13436	0.58723	8.78001	0.855904	11.8654	0.240685	3.59495	0.449189	6.63475	0.715222	10.3962	0.915524	12.6898
0.308061	4.50935	0.116804	1.54667	0.308332	4.49154	0.477618	7.04711	0.587996	8.67068	0.856351	11.7202	0.242673	3.57489	0.449993	6.55639	0.71538	10.3484	0.915927	12.5335
0.308728	4.46604	0.118263	1.55176	0.309102	4.44246	0.478361	6.96236	0.588772	8.56445	0.856804	11.5788	0.244665	3.55543	0.450806	6.48027	0.715597	10.2842	0.916335	12.3812
0.309503	4.41771	0.11947	1.55592	0.309882	4.39482	0.479113	6.88001	0.589557	8.46119	0.857263	11.4409	0.246661	3.53656	0.451629	6.4063	0.715872	10.2042	0.916748	12.2328
0.310288	4.37079	0.120426	1.55918	0.310671	4.34855	0.479874	6.79996	0.590351	8.36079	0.857727	11.3065	0.248661	3.51824	0.452461	6.33439	0.716208	10.1093	0.917166	12.0881
0.311082	4.32522	0.121129	1.56155	0.31147	4.30361	0.480644	6.72212	0.591154	8.26314	0.858196	11.1755	0.250666	3.50046	0.453303	6.26447	0.716607	10.0003	0.917589	11.947
0.311886	4.28094	0.121579	1.56306	0.312279	4.25995	0.481422	6.64641	0.591966	8.16812	0.85861	11.0639	0.252674	3.48319	0.454155	6.19645	0.717069	9.87833	0.918017	11.8093
0.3127	4.23791	0.122226	1.56522	0.313097	4.2175	0.48221	6.57274	0.592787	8.07563	0.858966	10.9706	0.254687	3.46641	0.455016	6.13027	0.717537	9.75951	0.91845	11.675
0.313523	4.19608	0.12293	1.56756	0.313925	4.17624	0.483006	6.50103	0.593618	7.98559	0.859263	10.8948	0.256703	3.4501	0.455886	6.06585	0.718011	9.64375	0.918888	11.5438
0.314355	4.1554	0.123888	1.57071	0.314762	4.13611	0.483811	6.43121	0.594457	7.89789	0.859499	10.8356	0.258722	3.43424	0.456766	6.00314	0.718491	9.53093	0.919332	11.4158
0.315197	4.11585	0.1251	1.57465	0.315609	4.09708	0.484625	6.36322	0.595305	7.81245	0.859673	10.7925	0.260745	3.41881	0.457655	5.94206	0.718977	9.42093	0.91978	11.2907
0.316049	4.07736	0.126567	1.57936	0.316465	4.0591	0.485447	6.29698	0.596163	7.7292	0.859785	10.7652	0.262772	3.4038	0.458553	5.88256	0.719468	9.31367	0.920174	11.1841
0.31691	4.03991	0.12829	1.58479	0.317331	4.02214	0.486277	6.23244	0.597028	7.64804	0.859946	10.7261	0.264801	3.38918	0.45946	5.82459	0.719965	9.20903	0.920513	11.0949
0.317781	4.00346	0.130269	1.59093	0.318206	3.98616	0.487117	6.16952	0.597903	7.56891	0.860122	10.6839	0.266834	3.37495	0.460377	5.76808	0.720467	9.10693	0.920796	11.0222
0.318661	3.96797	0.13225	1.59696	0.319091	3.95113	0.487964	6.10818	0.598787	7.49173	0.860363	10.6272	0.268869	3.36109	0.461302	5.71299	0.720976	9.00728	0.921021	10.9655
0.319551	3.93342	0.134233	1.60287	0.319985	3.91701	0.488821	6.04836	0.599679	7.41644	0.860669	10.5563	0.270908	3.34759	0.462237	5.65926	0.72149	8.90999	0.921187	10.9242
0.32045	3.89977	0.136219	1.60868	0.320889	3.88378	0.489685	5.99	0.600579	7.34297	0.861042	10.472	0.272949	3.33442	0.463181	5.60686	0.722009	8.81498	0.921293	10.898
0.321359	3.86698	0.138206	1.61439	0.321802	3.85141	0.490558	5.93306	0.601488	7.27125	0.861484	10.3749	0.274994	3.32159	0.464134	5.55573	0.722535	8.72218	0.921447	10.8605
0.322277	3.83503	0.140196	1.62	0.322725	3.81986	0.491439	5.87749	0.602406	7.20124	0.861995	10.2659	0.27704	3.30907	0.465095	5.50584	0.723066	8.63151	0.921614	10.82
0.323205	3.8039	0.142187	1.62551	0.323658	3.78911	0.492329	5.82324	0.603332	7.13287	0.862513	10.1593	0.27909	3.29686	0.466066	5.45714	0.723603	8.5429	0.921843	10.7655
0.324142	3.77356	0.14418	1.63092	0.3246	3.75913	0.493227	5.77027	0.604267	7.06609	0.863035	10.0551	0.281142	3.28495	0.467045	5.40959	0.724145	8.45629	0.922135	10.6974
0.325089	3.74397	0.146175	1.63624	0.325551	3.72991	0.494133	5.71854	0.60521	7.00084	0.863563	9.95325	0.283196	3.27331	0.468033	5.36316	0.724693	8.37161	0.922489	10.6163
0.326046	3.71512	0.148171	1.64147	0.326512	3.70141	0.495047	5.668	0.606161	6.93708	0.864096	9.85358	0.285252	3.26196	0.46903	5.31781	0.725246	8.28879	0.922909	10.5228
0.327012	3.68699	0.150169	1.64661	0.327483	3.67362	0.495969	5.61862	0.607121	6.87476	0.864635	9.75607	0.287311	3.25086	0.470036	5.2735	0.725806	8.20778	0.923395	10.4177
0.327988	3.65955	0.152169	1.65166	0.328464	3.6465	0.496899	5.57037	0.608089	6.81383	0.865179	9.66065	0.289372	3.24002	0.47105	5.23021	0.726371	8.12853	0.923886	10.3148
0.328973	3.63278	0.15417	1.65663	0.329454	3.62005	0.497837	5.5232	0.609065	6.75425	0.865729	9.56725	0.291435	3.22943	0.472073	5.1879	0.726941	8.05097	0.924382	10.2141
0.329968	3.60666	0.156173	1.66152	0.330454	3.59424	0.498783	5.47708	0.610049	6.69598	0.866283	9.47582	0.2935	3.21908	0.473104	5.14654	0.727517	7.97506	0.924883	10.1155
0.330973	3.58118	0.158177	1.66632	0.331463	3.56905	0.499737	5.43198	0.611041	6.63898	0.866844	9.38629	0.295566	3.20896	0.474144	5.1061	0.728099	7.90074	0.925388	10.0189
0.331988	3.5563	0.160182	1.67104	0.332483	3.54447	0.500699	5.38787	0.612041	6.58321	0.867409	9.2986	0.297635	3.19906	0.475192	5.06655	0.728686	7.82797	0.925899	9.92431
0.333012	3.53202	0.162188	1.67569	0.333512	3.52048	0.501668	5.34472	0.613049	6.52862	0.86798	9.21271	0.299706	3.18938	0.476249	5.02787	0.729278	7.7567	0.926414	9.83166
0.334046	3.50832	0.164196	1.68026	0.334551	3.49705	0.502646	5.3025	0.614065	6.4752	0.868556	9.12855	0.301778	3.1799	0.477314	4.99003	0.729877	7.68689	0.926935	9.74086
0.33509	3.48519	0.166205	1.68475	0.335599	3.47418	0.503631	5.26118	0.615089	6.42289	0.869138	9.04608	0.303852	3.17063	0.478387	4.95301	0.730481	7.6185	0.92746	9.65188
0.336144	3.46259	0.168215	1.68918	0.336658	3.45185	0.504624	5.22074	0.616121	6.37167	0.869724	8.96525	0.305928	3.16155	0.479469	4.91678	0.73109	7.55147	0.92799	9.56466
0.337208	3.44053	0.170227	1.69353	0.337727	3.43004	0.505624	5.18114	0.61716	6.32152	0.870317	8.88602	0.308005	3.15266	0.480559	4.88132	0.731705	7.48578	0.928525	9.47915
0.338282	3.41899	0.172239	1.69781	0.338806	3.40874	0.506632	5.14238	0.618208	6.27238	0.870914	8.80832	0.310084	3.14396	0.481657	4.84661	0.732325	7.42139	0.929065	9.39529
0.339366	3.39795	0.174252	1.70203	0.339895	3.38794	0.507647	5.10441	0.619262	6.22425	0.871517	8.73214	0.312165	3.13543	0.482763	4.81262	0.732951	7.35826	0.929609	9.31305
0.340461	3.3774	0.176267	1.70618	0.340994	3.36762	0.50867	5.06723	0.620325	6.17708	0.872125	8.65741	0.314246	3.12708	0.483877	4.77934	0.733582	7.29635	0.930158	9.23238
0.341565	3.35733	0.178282	1.71026	0.342104	3.34778	0.509701	5.0308	0.621395	6.13086	0.872738	8.58411	0.31633	3.11889	0.484999	4.74674	0.734219	7.23564	0.930713	9.15324
0.34268	3.33772	0.180298	1.71428	0.343224	3.32839	0.510738	4.99511	0.622473	6.08555	0.873356	8.51218	0.318414	3.11087	0.48613	4.71481	0.734862	7.17608	0.931272	9.07558
0.343806	3.31857	0.182315	1.71824	0.344354	3.30945	0.511784	4.96013	0.623558	6.04113	0.87398	8.44161	0.3205	3.103	0.487268	4.68353	0.735509	7.11764	0.931836	8.99936
0.344941	3.29986	0.184333	1.72213	0.345495	3.29095	0.512836	4.92585	0.62465	5.99758	0.874609	8.37234	0.322587	3.09529	0.488414	4.65288	0.736163	7.06031	0.932404	8.92455
0.346088	3.28158	0.186352	1.72597	0.346647	3.27288	0.513896	4.89225	0.62575	5.95487	0.875243	8.30434	0.324675	3.08772	0.489568	4.62284	0.736821	7.00404	0.932978	8.85111
0.347245	3.26372	0.188372	1.72975	0.34781	3.25522	0.514962	4.85931	0.626857	5.91298	0.875883	8.23759	0.326764	3.0803	0.49073	4.5934	0.737486	6.94881	0.933556	8.77899
0.348414	3.24627	0.190392	1.73347	0.348983	3.23797	0.516037	4.827	0.627972	5.87189	0.876527	8.17204	0.328855	3.07301	0.4919	4.56454	0.738155	6.8946	0.934139	8.70818
0.349593	3.22923	0.192413	1.73714	0.350168	3.22111	0.517118	4.79533	0.629093	5.83157	0.877177	8.10768	0.330946	3.06587	0.493077	4.53625	0.73883	6.84136	0.934727	8.63863
0.350783	3.21257	0.194435	1.74075	0.351364	3.20465	0.518206	4.76425	0.630222	5.79201	0.877832	8.04445	0.333039	3.05885	0.494262	4.5085	0.73951	6.78909	0.935319	8.57031
0.351985	3.1963	0.196457	1.7443	0.352571	3.18856	0.519301	4.73378	0.631358	5.75319	0.878492	7.98235	0.335133	3.05196	0.495455	4.4813	0.740196	6.73776	0.935917	8.50319
0.353198	3.18041	0.198481	1.74781	0.35379	3.17285	0.520403	4.70387	0.632501	5.71508	0.879157	7.92133	0.337227	3.0452	0.496655	4.45461	0.740887	6.68734	0.936518	8.43724
0.354423	3.16489	0.200504	1.75126	0.35502	3.1575	0.521513	4.67453	0.633651	5.67768	0.879828	7.86138	0.339322	3.03856	0.497863	4.42844	0.741584	6.6378	0.937125	8.37243
0.355659	3.14973	0.202529	1.75466	0.356262	3.14251	0.522629	4.64574	0.634808	5.64095	0.880503	7.80246	0.341419	3.03203	0.499078	4.40276	0.742286	6.58913	0.937737	8.30873
0.356908	3.13492	0.204554	1.75802	0.357517	3.12787	0.523752	4.61748	0.635972	5.60489	0.881184	7.74456	0.343516	3.02562	0.500301	4.37757	0.742993	6.54131	0.938353	8.24612
0.358168	3.12045	0.206579	1.76132	0.358783	3.11357	0.524881	4.58974	0.637143	5.56948	0.88187	7.68763	0.345614	3.01932	0.501531	4.35285	0.743706	6.49431	0.938974	8.18456
0.359441	3.10633	0.208605	1.76458	0.360062	3.09961	0.526018	4.5625	0.638321	5.5347	0.882561	7.63167	0.347712	3.01313	0.502769	4.32859	0.744423	6.44812	0.939599	8.12404
0.360727	3.09254	0.210631	1.76779	0.361354	3.08598	0.527161	4.53577	0.639506	5.50053	0.883257	7.57665	0.349812	3.00704	0.504013	4.30478	0.745147	6.40271	0.94023	8.06452
0.362025	3.07907	0.212658	1.77095	0.362659	3.07267	0.528311	4.50951	0.640697	5.46697	0.883958	7.52254	0.351912	3.00106	0.505266	4.2814	0.745875	6.35807	0.940865	8.00599
0.363337	3.06593	0.214686	1.77407	0.363976	3.05968	0.529467	4.48372	0.641895	5.43399	0.884664	7.46933	0.354012	2.99518	0.506525	4.25845	0.746609	6.31418	0.941504	7.94842
0.364661	3.05311	0.216714	1.77714	0.365308	3.04701	0.53063	4.45839	0.643099	5.40159	0.885375	7.41699	0.356114	2.98939	0.507792	4.23592	0.747348	6.27102	0.942149	7.89179
0.365999	3.04059	0.218742	1.78018	0.366652	3.03464	0.5318	4.43352	0.644311	5.36974	0.886091	7.3655	0.358216	2.9837	0.509066	4.2138	0.748092	6.22857	0.942798	7.83607
0.367351	3.02838	0.220771	1.78317	0.368011	3.02258	0.532976	4.40907	0.645528	5.33843	0.886813	7.31485	0.360318	2.9781	0.510347	4.19207	0.748842	6.18682	0.943451	7.78124
0.368717	3.01648	0.2228	1.78611	0.369384	3.01082	0.534158	4.38506	0.646753	5.30766	0.887539	7.26501	0.362421	2.97259	0.511635	4.17074	0.749597	6.14575	0.944109	7.72729
0.370098	3.00487	0.224829	1.78902	0.370771	2.99935	0.535347	4.36146	0.647983	5.27741	0.88827	7.21596	0.364524	2.96717	0.51293	4.14978	0.750357	6.10534	0.944772	7.6742
0.371493	2.99355	0.226859	1.79189	0.372174	2.98817	0.536543	4.33827	0.649221	5.24767	0.889007	7.16769	0.366628	2.96183	0.514232	4.12919	0.751122	6.06559	0.94544	7.62194
0.372903	2.98252	0.228889	1.79472	0.373591	2.97728	0.537744	4.31547	0.650464	5.21842	0.889748	7.12018	0.368733	2.95658	0.515541	4.10896	0.751893	6.02647	0.946112	7.57049
0.374328	2.97177	0.23092	1.7975	0.375024	2.96667	0.538952	4.29307	0.651714	5.18966	0.890495	7.07342	0.370838	2.95141	0.516857	4.08908	0.752668	5.98797	0.946789	7.51985
0.375769	2.9613	0.23295	1.80026	0.376472	2.95634	0.540166	4.27104	0.65297	5.16137	0.891246	7.02738	0.372943	2.94632	0.51818	4.06955	0.753449	5.95008	0.94747	7.46998
0.377225	2.95112	0.234981	1.80297	0.377937	2.94628	0.541386	4.24938	0.654233	5.13354	0.892002	6.98205	0.375048	2.9413	0.51951	4.05036	0.754235	5.91278	0.948156	7.42088
0.378698	2.9412	0.237013	1.80565	0.379417	2.93649	0.542613	4.22809	0.655501	5.10616	0.892764	6.93742	0.377154	2.93636	0.520847	4.0315	0.755027	5.87607	0.948847	7.37252
0.380188	2.93155	0.239044	1.80829	0.380915	2.92698	0.543845	4.20715	0.656776	5.07923	0.89353	6.89346	0.37926	2.93149	0.52219	4.01295	0.755823	5.83992	0.949542	7.3249
0.381694	2.92217	0.241076	1.8109	0.382429	2.91773	0.545084	4.18656	0.658057	5.05273	0.894301	6.85017	0.381367	2.9267	0.52354	3.99473	0.756625	5.80433	0.950241	7.27798
0.383217	2.91306	0.243108	1.81347	0.383961	2.90874	0.546329	4.1663	0.659344	5.02665	0.895077	6.80753	0.383473	2.92197	0.524897	3.97681	0.757432	5.76928	0.950945	7.23177
0.384758	2.9042	0.24514	1.81601	0.385511	2.90001	0.547579	4.14638	0.660637	5.00099	0.895858	6.76553	0.38558	2.91732	0.526261	3.95919	0.758243	5.73477	0.951654	7.18624
0.386317	2.8956	0.247173	1.81851	0.387078	2.89153	0.548836	4.12678	0.661935	4.97573	0.896644	6.72416	0.387687	2.91272	0.527631	3.94187	0.75906	5.70078	0.952367	7.14139
0.387893	2.88726	0.249205	1.82098	0.388664	2.88331	0.550098	4.1075	0.66324	4.95086	0.897435	6.68339	0.389795	2.9082	0.529007	3.92484	0.759882	5.6673	0.953085	7.09719
0.389489	2.87917	0.251238	1.82342	0.390268	2.87534	0.551367	4.08853	0.664551	4.92638	0.89823	6.64322	0.391902	2.90374	0.530391	3.90808	0.76071	5.63431	0.953807	7.05363
0.391102	2.87132	0.253271	1.82583	0.391891	2.86761	0.552641	4.06986	0.665867	4.90228	0.899031	6.60364	0.39401	2.89934	0.53178	3.89161	0.761542	5.60182	0.954534	7.0107
0.392735	2.86372	0.255304	1.82821	0.393532	2.86012	0.55392	4.05148	0.66719	4.87855	0.899836	6.56463	0.396117	2.895	0.533177	3.8754	0.762379	5.56981	0.955265	6.96838
0.394387	2.85636	0.257338	1.83056	0.395194	2.85288	0.555206	4.0334	0.668518	4.85519	0.900646	6.52618	0.398225	2.89072	0.534579	3.85946	0.763222	5.53827	0.956001	6.92667
0.396058	2.84923	0.259371	1.83288	0.396874	2.84587	0.556497	4.0156	0.669851	4.83218	0.901461	6.48828	0.400332	2.8865	0.535989	3.84378	0.764069	5.50718	0.956741	6.88556
0.397748	2.84234	0.261405	1.83516	0.398574	2.83909	0.557794	3.99808	0.671191	4.80951	0.902281	6.45092	0.40244	2.88233	0.537404	3.82835	0.764921	5.47655	0.957486	6.84502
0.399459	2.83569	0.263438	1.83742	0.400294	2.83254	0.559097	3.98083	0.672536	4.78719	0.903106	6.41409	0.404548	2.87822	0.538826	3.81317	0.765779	5.44636	0.958235	6.80505
0.401189	2.82925	0.265472	1.83965	0.402034	2.82622	0.560405	3.96385	0.673886	4.7652	0.903935	6.37778	0.406656	2.87416	0.540254	3.79823	0.766641	5.4166	0.958989	6.76563
0.402938	2.82305	0.267506	1.84185	0.403793	2.82012	0.561719	3.94713	0.675243	4.74354	0.90477	6.34198	0.408763	2.87016	0.541688	3.78354	0.767509	5.38726	0.959747	6.72677
0.404708	2.81706	0.26954	1.84403	0.405572	2.81423	0.563038	3.93067	0.676604	4.7222	0.905609	6.30667	0.410871	2.86621	0.543129	3.76907	0.768381	5.35835	0.960509	6.68843
0.406498	2.81128	0.271574	1.84618	0.407371	2.80856	0.564362	3.91445	0.677971	4.70117	0.906452	6.27185	0.412978	2.86231	0.544576	3.75483	0.769259	5.32984	0.961276	6.65063
0.408307	2.80571	0.273608	1.8483	0.40919	2.80309	0.565692	3.89849	0.679344	4.68045	0.907301	6.23751	0.415086	2.85845	0.546029	3.74082	0.770141	5.30173	0.962047	6.61333
0.410136	2.80035	0.275642	1.85039	0.411029	2.79783	0.567028	3.88276	0.680722	4.66003	0.908154	6.20365	0.417193	2.85465	0.547488	3.72703	0.771028	5.27401	0.962823	6.57654
0.411984	2.79519	0.277676	1.85246	0.412887	2.79277	0.568368	3.86727	0.682105	4.6399	0.909012	6.17024	0.4193	2.85089	0.548953	3.71345	0.771921	5.24667	0.963603	6.54025
0.413852	2.79023	0.27971	1.8545	0.414764	2.7879	0.569714	3.852	0.683493	4.62007	0.909875	6.13728	0.421407	2.84718	0.550424	3.70008	0.772818	5.21972	0.964388	6.50444
0.41574	2.78546	0.281744	1.85652	0.41666	2.78321	0.571066	3.83697	0.684887	4.60052	0.910742	6.10476	0.423514	2.84352	0.551901	3.68692	0.77372	5.19313	0.965177	6.46911
0.417646	2.78087	0.283779	1.85852	0.418576	2.77871	0.572422	3.82216	0.686286	4.58124	0.911614	6.07268	0.42562	2.83989	0.553385	3.67396	0.774627	5.16691	0.96597	6.43425
0.419571	2.77646	0.285813	1.86049	0.420509	2.77439	0.573784	3.80756	0.68769	4.56224	0.912491	6.04103	0.427726	2.83632	0.554874	3.6612	0.775539	5.14104	0.966767	6.39984
0.421514	2.77223	0.287847	1.86243	0.422461	2.77024	0.575151	3.79318	0.689099	4.54351	0.913373	6.0098	0.429832	2.83278	0.556369	3.64864	0.776456	5.11552	0.967569	6.36589
0.423475	2.76816	0.289881	1.86436	0.424431	2.76626	0.576523	3.77901	0.690514	4.52503	0.914259	5.97898	0.431938	2.82928	0.55787	3.63626	0.777378	5.09035	0.968375	6.33238
0.425454	2.76426	0.291915	1.86626	0.426418	2.76243	0.5779	3.76504	0.691933	4.50682	0.91515	5.94856	0.434043	2.82583	0.559377	3.62408	0.778304	5.06551	0.969186	6.2993
0.42745	2.76052	0.29395	1.86813	0.428422	2.75876	0.579282	3.75127	0.693358	4.48886	0.916045	5.91853	0.436148	2.82241	0.56089	3.61207	0.779235	5.04101	0.97	6.26664
0.429462	2.75693	0.295984	1.86999	0.430443	2.75525	0.580669	3.73771	0.694787	4.47114	0.916945	5.8889	0.438253	2.81904	0.562408	3.60025	0.780172	5.01683	0.97082	6.23441
0.431491	2.75349	0.298018	1.87182	0.43248	2.75187	0.582061	3.72433	0.696221	4.45367	0.91785	5.85965	0.440358	2.8157	0.563932	3.58861	0.781113	4.99296	0.971643	6.20259
0.433536	2.75019	0.300052	1.87363	0.434532	2.74864	0.583458	3.71115	0.69766	4.43643	0.918759	5.83077	0.442462	2.8124	0.565463	3.57713	0.782058	4.96941	0.972471	6.17117
0.435597	2.74702	0.302086	1.87542	0.4366	2.74553	0.58486	3.69815	0.699104	4.41943	0.919673	5.80226	0.444565	2.80913	0.566998	3.56583	0.783009	4.94617	0.973302	6.14014
0.437672	2.74398	0.30412	1.87719	0.438682	2.74256	0.586266	3.68533	0.700553	4.40266	0.920591	5.77411	0.446668	2.8059	0.56854	3.5547	0.783964	4.92323	0.974139	6.10951
0.439761	2.74107	0.306154	1.87894	0.440778	2.73971	0.587678	3.67269	0.702007	4.38612	0.921514	5.74632	0.448771	2.80271	0.570087	3.54373	0.784925	4.90059	0.974979	6.07926
0.441865	2.73828	0.308188	1.88067	0.442888	2.73697	0.589094	3.66023	0.703465	4.36979	0.922442	5.71888	0.450874	2.79955	0.57164	3.53292	0.78589	4.87824	0.975824	6.04938
0.443981	2.7356	0.310222	1.88238	0.445011	2.73435	0.590515	3.64794	0.704929	4.35368	0.923374	5.69178	0.452975	2.79642	0.573198	3.52227	0.786859	4.85617	0.976673	6.01987
0.446111	2.73304	0.312256	1.88407	0.447147	2.73183	0.591941	3.63583	0.706396	4.33779	0.92431	5.66502	0.455077	2.79333	0.574762	3.51177	0.787834	4.83439	0.977526	5.99073
0.448254	2.73058	0.314289	1.88574	0.449295	2.72942	0.593372	3.62387	0.707869	4.3221	0.925251	5.63859	0.457178	2.79027	0.576331	3.50143	0.788813	4.81288	0.978383	5.96194
0.450408	2.72821	0.316323	1.88739	0.451455	2.72711	0.594807	3.61209	0.709346	4.30662	0.926197	5.61249	0.459278	2.78724	0.577906	3.49124	0.789797	4.79164	0.979244	5.9335
0.452573	2.72595	0.318356	1.88902	0.453626	2.72488	0.596246	3.60046	0.710828	4.29134	0.927147	5.5867	0.461378	2.78424	0.579487	3.48119	0.790785	4.77067	0.98011	5.90541
0.45475	2.72377	0.32039	1.89064	0.455808	2.72275	0.597691	3.58899	0.712314	4.27626	0.928102	5.56123	0.463477	2.78127	0.581072	3.47129	0.791778	4.74997	0.98098	5.87765
0.456937	2.72169	0.322423	1.89223	0.458	2.72071	0.59914	3.57767	0.713804	4.26137	0.929061	5.53607	0.465576	2.77833	0.582664	3.46153	0.792776	4.72952	0.981854	5.85023
0.459135	2.71968	0.324456	1.89381	0.460202	2.71874	0.600593	3.56651	0.715299	4.24668	0.930024	5.51122	0.467674	2.77542	0.58426	3.45191	0.793779	4.70933	0.982732	5.82314
0.461342	2.71776	0.326489	1.89537	0.462414	2.71685	0.602051	3.55549	0.716799	4.23217	0.930992	5.48666	0.469772	2.77254	0.585862	3.44242	0.794786	4.68938	0.983614	5.79637
0.463558	2.71591	0.328522	1.89691	0.464634	2.71504	0.603513	3.54463	0.718303	4.21785	0.931965	5.4624	0.471869	2.76968	0.58747	3.43307	0.795798	4.66968	0.984501	5.76991
0.465783	2.71413	0.330555	1.89844	0.466864	2.71329	0.60498	3.5339	0.719811	4.20371	0.932942	5.43843	0.473965	2.76686	0.589082	3.42385	0.796815	4.65022	0.985391	5.74377
0.468017	2.71242	0.332588	1.89994	0.469101	2.71161	0.606451	3.52332	0.721324	4.18974	0.933923	5.41474	0.476061	2.76406	0.5907	3.41477	0.797836	4.631	0.986286	5.71793
0.470259	2.71077	0.334621	1.90143	0.471347	2.71	0.607927	3.51288	0.72284	4.17596	0.934909	5.39133	0.478156	2.76129	0.592323	3.4058	0.798862	4.61201	0.987185	5.69239
0.472508	2.70919	0.336653	1.90291	0.4736	2.70844	0.609407	3.50257	0.724362	4.16234	0.935899	5.3682	0.48025	2.75854	0.593952	3.39697	0.799892	4.59326	0.988087	5.66715
0.474765	2.70767	0.338685	1.90437	0.475861	2.70695	0.610891	3.4924	0.725887	4.14889	0.936893	5.34534	0.482344	2.75582	0.595585	3.38826	0.800927	4.57472	0.988994	5.6422
0.477029	2.7062	0.340718	1.90581	0.478128	2.70551	0.612379	3.48236	0.727416	4.13561	0.937892	5.32274	0.484437	2.75312	0.597224	3.37967	0.801966	4.55641	0.989905	5.61754
0.4793	2.70478	0.34275	1.90724	0.480402	2.70412	0.613872	3.47245	0.72895	4.12249	0.938895	5.30041	0.486529	2.75044	0.598868	3.3712	0.80301	4.53832	0.99082	5.59316
0.481577	2.70342	0.344782	1.90865	0.482682	2.70278	0.615369	3.46267	0.730488	4.10954	0.939903	5.27833	0.48862	2.7478	0.600517	3.36284	0.804059	4.52044	0.991739	5.56906
0.483861	2.70211	0.346813	1.91005	0.484969	2.70149	0.61687	3.45302	0.73203	4.09674	0.940914	5.25651	0.490711	2.74517	0.602171	3.3546	0.805112	4.50278	0.992662	5.54523
0.48615	2.70084	0.348845	1.91143	0.487261	2.70024	0.618375	3.44348	0.733576	4.08409	0.941931	5.23494	0.492801	2.74257	0.60383	3.34647	0.80617	4.48532	0.99359	5.52167
0.488445	2.69962	0.350877	1.91279	0.489558	2.69904	0.619884	3.43407	0.735126	4.0716	0.942951	5.21362	0.49489	2.73999	0.605494	3.33846	0.807232	4.46807	0.994521	5.49838
0.490745	2.69843	0.352908	1.91414	0.491861	2.69788	0.621398	3.42478	0.73668	4.05926	0.943976	5.19253	0.496979	2.73743	0.607163	3.33055	0.808299	4.45102	0.995456	5.47534
0.493051	2.69729	0.354939	1.91548	0.494169	2.69675	0.622915	3.4156	0.738237	4.04707	0.945005	5.17169	0.499066	2.73489	0.608837	3.32275	0.80937	4.43417	0.996395	5.45257
0.495361	2.69619	0.35697	1.9168	0.496482	2.69567	0.624437	3.40654	0.739799	4.03502	0.946038	5.15108	0.501153	2.73238	0.610517	3.31506	0.810445	4.41751	0.997338	5.43004
0.497676	2.69512	0.359001	1.91811	0.498799	2.69462	0.625962	3.3976	0.741365	4.02312	0.947076	5.1307	0.503239	2.72988	0.612201	3.30747	0.811525	4.40105	0.998285	5.40777
0.499996	2.69409	0.361032	1.91941	0.501121	2.6936	0.627492	3.38876	0.742934	4.01135	0.948118	5.11055	0.505324	2.72741	0.613889	3.29999	0.81261	4.38478	0.999236	5.38574
0.50232	2.69309	0.363062	1.92069	0.503446	2.69262	0.629025	3.38003	0.744508	3.99973	0.949164	5.09062	0.507408	2.72496	0.615583	3.2926	0.813699	4.36869	1.00019	5.36395
0.504647	2.69213	0.365093	1.92196	0.505776	2.69167	0.630563	3.37142	0.746085	3.98824	0.950214	5.07092	0.509492	2.72252	0.617282	3.28532	0.814792	4.35279		
0.506979	2.69119	0.367123	1.92321	0.50811	2.69075	0.632104	3.36291	0.747666	3.97688	0.951269	5.05143	0.511574	2.72011	0.618985	3.27813	0.81589	4.33707		
0.509315	2.69028	0.369153	1.92445	0.510447	2.68985	0.633649	3.3545	0.749251	3.96566	0.952327	5.03216	0.513656	2.71771	0.620694	3.27103	0.816992	4.32152		
0.511654	2.6894	0.371182	1.92568	0.512788	2.68898	0.635198	3.34619	0.750839	3.95457	0.95339	5.01309	0.515737	2.71534	0.622407	3.26403	0.818099	4.30615		
0.513996	2.68855	0.373212	1.9269	0.515132	2.68814	0.636751	3.33799	0.752431	3.9436	0.954457	4.99424	0.517817	2.71298	0.624124	3.25713	0.81921	4.29096		
0.516342	2.68772	0.375241	1.9281	0.517479	2.68733	0.638307	3.32989	0.754027	3.93276	0.955529	4.97559	0.519896	2.71064	0.625847	3.25031	0.820325	4.27593		
0.518691	2.68691	0.377271	1.92929	0.519829	2.68653	0.639868	3.32188	0.755626	3.92204	0.956604	4.95714	0.521974	2.70832	0.627574	3.24359	0.821445	4.26108		
0.521042	2.68613	0.3793	1.93047	0.522182	2.68576	0.641432	3.31397	0.757229	3.91145	0.957684	4.93889	0.524051	2.70602	0.629306	3.23695	0.822569	4.24638		
0.523397	2.68537	0.381328	1.93164	0.524538	2.68501	0.643	3.30616	0.758835	3.90097	0.958768	4.92083	0.526127	2.70373	0.631042	3.2304	0.823698	4.23186		
0.525754	2.68463	0.383357	1.93279	0.526897	2.68428	0.644571	3.29844	0.760445	3.89061	0.959855	4.90297	0.528202	2.70146	0.632783	3.22394	0.82483	4.21749		
0.528114	2.68391	0.385385	1.93393	0.529258	2.68357	0.646146	3.29081	0.762059	3.88037	0.960947	4.8853	0.530277	2.69921	0.634529	3.21756	0.825967	4.20328		
0.530477	2.68322	0.387414	1.93506	0.531621	2.68288	0.647725	3.28327	0.763676	3.87024	0.962044	4.86781	0.53235	2.69697	0.636279	3.21126	0.827109	4.18922		
0.532841	2.68254	0.389442	1.93618	0.533987	2.68221	0.649308	3.27582	0.765296	3.86023	0.963144	4.85051	0.534422	2.69475	0.638034	3.20505	0.828254	4.17532		
0.535208	2.68187	0.391469	1.93729	0.536355	2.68156	0.650894	3.26846	0.76692	3.85032	0.964248	4.83339	0.536494	2.69254	0.639793	3.19892	0.829404	4.16157		
0.537577	2.68123	0.393497	1.93839	0.538726	2.68092	0.652483	3.26118	0.768548	3.84053	0.965356	4.81646	0.538564	2.69035	0.641557	3.19286	0.830559	4.14797		
0.539949	2.6806	0.395525	1.93947	0.541098	2.6803	0.654076	3.25399	0.770178	3.83084	0.966469	4.7997	0.540633	2.68818	0.643325	3.18688	0.831717	4.13452		
0.542322	2.67998	0.397552	1.94055	0.543472	2.67969	0.655673	3.24688	0.771812	3.82126	0.967585	4.78311	0.542702	2.68602	0.645098	3.18098	0.83288	4.12121		
0.544697	2.67938	0.399579	1.94161	0.545848	2.6791	0.657273	3.23986	0.773449	3.81178	0.968706	4.76669	0.544769	2.68388	0.646875	3.17516	0.834047	4.10805		
0.547074	2.6788	0.401605	1.94266	0.548226	2.67852	0.658877	3.23292	0.77509	3.80241	0.96983	4.75045	0.546835	2.68175	0.648657	3.16941	0.835218	4.09502		
0.549453	2.67823	0.403632	1.94371	0.550605	2.67796	0.660484	3.22605	0.776734	3.79314	0.970959	4.73437	0.5489	2.67963	0.650443	3.16373	0.836393	4.08214		
0.551833	2.67767	0.405658	1.94474	0.552986	2.6774	0.662094	3.21927	0.77838	3.78396	0.972091	4.71846	0.550964	2.67753	0.652233	3.15813	0.837573	4.06939		
0.554215	2.67712	0.407684	1.94576	0.555369	2.67686	0.663708	3.21256	0.780031	3.77489	0.973228	4.70271	0.553028	2.67544	0.654027	3.15259	0.838756	4.05678		
0.556598	2.67659	0.40971	1.94677	0.557753	2.67634	0.665325	3.20594	0.781684	3.76591	0.974368	4.68711	0.55509	2.67337	0.655826	3.14713	0.839944	4.0443		
0.558983	2.67607	0.411736	1.94778	0.560139	2.67582	0.666946	3.19938	0.78334	3.75702	0.975513	4.67168	0.557151	2.67131	0.657629	3.14174	0.841136	4.03195		
0.561369	2.67556	0.413761	1.94877	0.562525	2.67532	0.66857	3.1929	0.785	3.74823	0.976661	4.65641	0.559211	2.66926	0.659436	3.13641	0.842332	4.01973		
0.563757	2.67506	0.415786	1.94975	0.564914	2.67482	0.670197	3.18649	0.786663	3.73954	0.977813	4.64128	0.56127	2.66723	0.661248	3.13115	0.843533	4.00764		
0.566146	2.67457	0.417811	1.95072	0.567303	2.67434	0.671828	3.18016	0.788329	3.73093	0.97897	4.62631	0.563327	2.6652	0.663063	3.12596	0.844737	3.99568		
0.568536	2.67409	0.419836	1.95169	0.569694	2.67386	0.673462	3.1739	0.789997	3.72242	0.98013	4.61149	0.565384	2.6632	0.664883	3.12083	0.845946	3.98384		
0.570927	2.67362	0.421861	1.95264	0.572085	2.6734	0.675099	3.1677	0.791669	3.71399	0.981294	4.59682	0.56744	2.6612	0.666707	3.11576	0.847159	3.97212		
0.573319	2.67316	0.423885	1.95359	0.574478	2.67294	0.67674	3.16158	0.793344	3.70565	0.982462	4.58229	0.569494	2.65922	0.668535	3.11076	0.848376	3.96053		
0.575712	2.67271	0.425909	1.95452	0.576872	2.67249	0.678383	3.15552	0.795022	3.6974	0.983634	4.56791	0.571548	2.65724	0.670367	3.10582	0.849597	3.94905		
0.578107	2.67227	0.427933	1.95545	0.579266	2.67205	0.68003	3.14954	0.796703	3.68923	0.98481	4.55366	0.5736	2.65529	0.672203	3.10094	0.850822	3.93769		
0.580502	2.67183	0.429956	1.95637	0.581662	2.67162	0.68168	3.14361	0.798386	3.68114	0.98599	4.53956	0.575652	2.65334	0.674043	3.09613	0.852051	3.92645		
0.582898	2.6714	0.43198	1.95728	0.584058	2.6712	0.683334	3.13776	0.800073	3.67314	0.987173	4.5256	0.577702	2.6514	0.675887	3.09137	0.853284	3.91532		
0.585295	2.67098	0.434003	1.95818	0.586456	2.67078	0.68499	3.13196	0.801762	3.66522	0.988361	4.51177	0.579751	2.64948	0.677736	3.08667	0.854521	3.90431		
0.587692	2.67057	0.436026	1.95907	0.588854	2.67037	0.68665	3.12623	0.803454	3.65738	0.989552	4.49808	0.581799	2.64756	0.679588	3.08202	0.855762	3.8934		
0.590091	2.67017	0.438048	1.95995	0.591253	2.66997	0.688312	3.12057	0.805149	3.64961	0.990747	4.48452	0.583846	2.64566	0.681444	3.07744	0.857007	3.88261		
0.59249	2.66977	0.440071	1.96082	0.593652	2.66957	0.689978	3.11496	0.806847	3.64193	0.991946	4.47109	0.585892	2.64377	0.683303	3.07291	0.858257	3.87193		
0.59489	2.66937	0.442093	1.96169	0.596052	2.66919	0.691647	3.10942	0.808548	3.63432	0.993149	4.45779	0.587936	2.64189	0.685167	3.06843	0.85951	3.86135		
0.597291	2.66899	0.444115	1.96255	0.598453	2.6688	0.693319	3.10393	0.810251	3.62679	0.994355	4.44462	0.58998	2.64002	0.687035	3.06401	0.860767	3.85088		
0.599692	2.66861	0.446136	1.9634	0.600855	2.66842	0.694994	3.09851	0.811957	3.61933	0.995565	4.43157	0.592022	2.63816	0.688906	3.05964	0.862028	3.84052		
0.602093	2.66823	0.448158	1.96424	0.603257	2.66805	0.696672	3.09314	0.813666	3.61195	0.996779	4.41865	0.594064	2.63631	0.690781	3.05533	0.863294	3.83025		
0.604495	2.66786	0.450179	1.96508	0.605659	2.66768	0.698353	3.08783	0.815378	3.60464	0.997997	4.40585	0.596104	2.63447	0.69266	3.05106	0.864563	3.82009		
0.606898	2.6675	0.4522	1.9659	0.608062	2.66732	0.700038	3.08258	0.817092	3.5974	0.999219	4.39318	0.598143	2.63264	0.694543	3.04685	0.865836	3.81003		
0.609301	2.66714	0.45422	1.96672	0.610465	2.66696	0.701725	3.07738	0.818809	3.59023	1.00044	4.38062	0.600181	2.63082	0.696429	3.04269	0.867113	3.80007		
0.611705	2.66678	0.456241	1.96753	0.612869	2.66661	0.703415	3.07224	0.820528	3.58313			0.602218	2.62902	0.698319	3.03858	0.868394	3.79021		
0.614109	2.66643	0.458261	1.96833	0.615273	2.66626	0.705108	3.06716	0.82225	3.5761			0.604254	2.62722	0.700212	3.03452	0.869679	3.78045		
0.616513	2.66609	0.460281	1.96913	0.617678	2.66592	0.706804	3.06212	0.823975	3.56914			0.606288	2.62543	0.70211	3.0305	0.870968	3.77078		
0.618918	2.66574	0.4623	1.96992	0.620083	2.66558	0.708503	3.05714	0.825702	3.56224			0.608322	2.62365	0.70401	3.02654	0.87226	3.7612		
0.621323	2.66541	0.46432	1.9707	0.622488	2.66525	0.710205	3.05222	0.827431	3.55541			0.610354	2.62188	0.705915	3.02262	0.873557	3.75172		
0.623728	2.66507	0.466339	1.97147	0.624893	2.66491	0.71191	3.04734	0.829164	3.54865			0.612386	2.62012	0.707823	3.01874	0.874857	3.74233		
0.626134	2.66474	0.468358	1.97224	0.627299	2.66458	0.713618	3.04252	0.830898	3.54195			0.614416	2.61837	0.709734	3.01492	0.876162	3.73303		
0.628539	2.66442	0.470377	1.973	0.629704	2.66426	0.715329	3.03775	0.832635	3.53531			0.616445	2.61663	0.711649	3.01113	0.87747	3.72382		
0.630945	2.66409	0.472395	1.97375	0.63211	2.66394	0.717042	3.03302	0.834375	3.52874			0.618473	2.61489	0.713567	3.00739	0.878782	3.7147		
0.633351	2.66377	0.474413	1.9745	0.634517	2.66362	0.718759	3.02835	0.836117	3.52223			0.6205	2.61317	0.715489	3.0037	0.880098	3.70567		
0.635758	2.66346	0.476431	1.97524	0.636923	2.6633	0.720478	3.02372	0.837861	3.51578			0.622526	2.61146	0.717414	3.00005	0.881418	3.69673		
0.638164	2.66314	0.478449	1.97597	0.639329	2.66299	0.7222	3.01914	0.839608	3.50939			0.624551	2.60975	0.719343	2.99644	0.882741	3.68787		
0.64057	2.66283	0.480466	1.9767	0.641736	2.66268	0.723925	3.01461	0.841357	3.50306			0.626575	2.60805	0.721274	2.99287	0.884068	3.67909		
0.642977	2.66252	0.482483	1.97741	0.644142	2.66237	0.725653	3.01013	0.843108	3.49678			0.628597	2.60636	0.72321	2.98934	0.8854	3.6704		
0.645383	2.66222	0.4845	1.97813	0.646548	2.66207	0.727384	3.00569	0.844862	3.49057			0.630619	2.60468	0.725148	2.98585	0.886735	3.66179		
0.64779	2.66191	0.486517	1.97883	0.648955	2.66177	0.729117	3.0013	0.846618	3.48441			0.632639	2.60301	0.72709	2.98241	0.888073	3.65327		
0.650196	2.66161	0.488533	1.97953	0.651361	2.66147	0.730854	2.99696	0.848376	3.47831			0.634659	2.60135	0.729034	2.979	0.889416	3.64482		
0.652602	2.66131	0.490549	1.98023	0.653768	2.66117	0.732593	2.99266	0.850136	3.47226			0.636677	2.59969	0.730983	2.97563	0.890762	3.63645		
0.655009	2.66101	0.492565	1.98091	0.656174	2.66087	0.734335	2.9884	0.851899	3.46627			0.638694	2.59805	0.732934	2.9723	0.892112	3.62816		
0.657415	2.66072	0.49458	1.98159	0.65858	2.66058	0.73608	2.98418	0.853664	3.46034			0.640711	2.59641	0.734888	2.96901	0.893466	3.61995		
0.659821	2.66043	0.496596	1.98227	0.660986	2.66028	0.737828	2.98001	0.855431	3.45445			0.642726	2.59478	0.736846	2.96575	0.894823	3.61182		
0.662227	2.66013	0.498611	1.98294	0.663392	2.65999	0.739578	2.97588	0.857201	3.44862			0.64474	2.59316	0.738806	2.96254	0.896185	3.60376		
0.664633	2.65984	0.500626	1.9836	0.665797	2.6597	0.741331	2.9718	0.858972	3.44285			0.646753	2.59154	0.74077	2.95935	0.89755	3.59578		
0.667038	2.65955	0.50264	1.98426	0.668203	2.65941	0.743087	2.96775	0.860746	3.43712			0.648765	2.58993	0.742736	2.95621	0.898918	3.58787		
0.669443	2.65926	0.504654	1.98491	0.670608	2.65912	0.744846	2.96375	0.862521	3.43144			0.650776	2.58834	0.744706	2.95309	0.900291	3.58003		
0.671848	2.65898	0.506668	1.98555	0.673013	2.65884	0.746607	2.95978	0.864299	3.42582			0.652786	2.58675	0.746678	2.95002	0.901667	3.57227		
0.674253	2.65869	0.508682	1.98619	0.675418	2.65855	0.748371	2.95586	0.866079	3.42024			0.654795	2.58516	0.748654	2.94697	0.903047	3.56458		
0.676658	2.65841	0.510696	1.98683	0.677822	2.65827	0.750138	2.95198	0.867861	3.41472			0.656804	2.58359	0.750632	2.94396	0.90443	3.55696		
0.679062	2.65812	0.512709	1.98746	0.680226	2.65798	0.751908	2.94813	0.869645	3.40924			0.658811	2.58202	0.752613	2.94099	0.905817	3.54941		
0.681466	2.65784	0.514722	1.98808	0.68263	2.6577	0.753681	2.94433	0.871431	3.40381			0.660817	2.58046	0.754597	2.93804	0.907208	3.54193		
0.683869	2.65755	0.516734	1.9887	0.685033	2.65742	0.755456	2.94056	0.873219	3.39842			0.662822	2.57891	0.756584	2.93513	0.908602	3.53451		
0.686272	2.65727	0.518747	1.98931	0.687436	2.65713	0.757234	2.93683	0.875009	3.39309			0.664826	2.57736	0.758574	2.93225	0.91	3.52717		
0.688675	2.65699	0.520759	1.98991	0.689838	2.65685	0.759015	2.93314	0.876801	3.3878			0.666829	2.57582	0.760566	2.9294	0.911402	3.51989		
0.691077	2.65671	0.522771	1.99052	0.69224	2.65657	0.760799	2.92948	0.878595	3.38255			0.668831	2.57429	0.762562	2.92659	0.912807	3.51268		
0.693478	2.65642	0.524783	1.99111	0.694641	2.65629	0.762585	2.92586	0.880391	3.37735			0.670833	2.57277	0.764559	2.9238	0.914216	3.50553		
0.695879	2.65614	0.526794	1.9917	0.697042	2.65601	0.764374	2.92228	0.882189	3.37219			0.672833	2.57125	0.76656	2.92104	0.915629	3.49845		
0.69828	2.65586	0.528805	1.99229	0.699442	2.65572	0.766166	2.91874	0.883989	3.36708			0.674832	2.56974	0.768563	2.91831	0.917045	3.49143		
0.70068	2.65558	0.530816	1.99287	0.701842	2.65544	0.76796	2.91523	0.88579	3.36201			0.676831	2.56824	0.770569	2.91562	0.918464	3.48447		
0.70308	2.6553	0.532827	1.99344	0.704241	2.65516	0.769758	2.91175	0.887594	3.35699			0.678828	2.56675	0.772577	2.91295	0.919888	3.47758		
0.705478	2.65501	0.534837	1.99402	0.70664	2.65488	0.771558	2.90831	0.889399	3.352			0.680825	2.56526	0.774588	2.9103	0.921315	3.47075		
0.707877	2.65473	0.536847	1.99458	0.709038	2.65459	0.773361	2.9049	0.891206	3.34706			0.682821	2.56378	0.776601	2.90769	0.922745	3.46398		
0.710274	2.65445	0.538857	1.99514	0.711435	2.65431	0.775167	2.90153	0.893015	3.34216			0.684815	2.56231	0.778617	2.9051	0.924179	3.45727		
0.712671	2.65416	0.540866	1.9957	0.713831	2.65402	0.776976	2.8982	0.894826	3.3373			0.686809	2.56084	0.780635	2.90254	0.925616	3.45062		
0.715067	2.65388	0.542875	1.99625	0.716227	2.65374	0.778787	2.89489	0.896638	3.33248			0.688802	2.55938	0.782656	2.90001	0.927058	3.44403		
0.717462	2.65359	0.544884	1.9968	0.718622	2.65345	0.780601	2.89162	0.898452	3.3277			0.690795	2.55793	0.784679	2.8975	0.928502	3.4375		
0.719857	2.6533	0.546893	1.99734	0.721016	2.65317	0.782418	2.88838	0.900268	3.32296			0.692786	2.55648	0.786705	2.89502	0.92995	3.43103		
0.72225	2.65302	0.548902	1.99787	0.723409	2.65288	0.784238	2.88518	0.902086	3.31826			0.694776	2.55504	0.788732	2.89257	0.931402	3.42461		
0.724643	2.65273	0.55091	1.99841	0.725802	2.65259	0.786061	2.882	0.903905	3.31359			0.696766	2.55361	0.790762	2.89014	0.932857	3.41825		
0.727035	2.65244	0.552918	1.99893	0.728193	2.6523	0.787886	2.87886	0.905727	3.30897			0.698755	2.55218	0.792795	2.88773	0.934316	3.41195		
0.729426	2.65215	0.554925	1.99946	0.730584	2.652	0.789715	2.87575	0.907549	3.30438			0.700743	2.55076	0.794829	2.88535	0.935778	3.4057		
0.731816	2.65185	0.556933	1.99998	0.732973	2.65171	0.791546	2.87268	0.909374	3.29983			0.70273	2.54935	0.796866	2.883	0.937244	3.39951		
0.734205	2.65156	0.55894	2.00049	0.735362	2.65141	0.79338	2.86963	0.9112	3.29531			0.704717	2.54795	0.798905	2.88066	0.938713	3.39337		
0.736593	2.65126	0.560947	2.001	0.73775	2.65112	0.795217	2.86662	0.913028	3.29083			0.706702	2.54655	0.800946	2.87835	0.940185	3.38729		
0.73898	2.65096	0.562954	2.00151	0.740136	2.65082	0.797057	2.86363	0.914857	3.28639			0.708687	2.54515	0.80299	2.87607	0.941661	3.38125		
0.741366	2.65066	0.56496	2.00201	0.742521	2.65052	0.7989	2.86068	0.916688	3.28199			0.710671	2.54377	0.805035	2.8738	0.943141	3.37528		
0.743751	2.65036	0.566966	2.00251	0.744906	2.65021	0.800746	2.85775	0.918521	3.27761			0.712654	2.54239	0.807083	2.87156	0.944624	3.36935		
0.746135	2.65006	0.568972	2.003	0.747289	2.64991	0.802595	2.85486	0.920355	3.27328			0.714637	2.54102	0.809132	2.86934	0.946111	3.36347		
0.748517	2.64975	0.570977	2.00349	0.74967	2.6496	0.804447	2.85199	0.922191	3.26897			0.716619	2.53965	0.811184	2.86714	0.9476	3.35765		
0.750898	2.64944	0.572983	2.00397	0.752051	2.64929	0.806302	2.84916	0.924028	3.2647			0.7186	2.53829	0.813237	2.86497	0.949094	3.35187		
0.753278	2.64913	0.574988	2.00445	0.75443	2.64898	0.80816	2.84635	0.925867	3.26047			0.72058	2.53693	0.815293	2.86281	0.950591	3.34615		
0.755657	2.64881	0.576992	2.00493	0.756808	2.64866	0.810021	2.84358	0.927707	3.25626			0.72256	2.53559	0.81735	2.86068	0.952091	3.34047		
0.758034	2.6485	0.578997	2.0054	0.759185	2.64834	0.811885	2.84083	0.929549	3.25209			0.724539	2.53425	0.819409	2.85856	0.953594	3.33485		
0.76041	2.64818	0.581001	2.00587	0.76156	2.64802	0.813753	2.83811	0.931392	3.24795			0.726517	2.53291	0.821471	2.85647	0.955101	3.32927		
0.762784	2.64786	0.583005	2.00634	0.763933	2.6477	0.815623	2.83542	0.933237	3.24385			0.728495	2.53158	0.823533	2.85439	0.956612	3.32374		
0.765157	2.64753	0.585009	2.0068	0.766306	2.64737	0.817497	2.83276	0.935083	3.23977			0.730472	2.53026	0.825598	2.85234	0.958126	3.31826		
0.767528	2.6472	0.587012	2.00726	0.768676	2.64704	0.819373	2.83013	0.93693	3.23573			0.732448	2.52894	0.827665	2.8503	0.959643	3.31283		
0.769898	2.64687	0.589016	2.00771	0.771045	2.64671	0.821253	2.82752	0.93878	3.23172			0.734423	2.52763	0.829733	2.84829	0.961164	3.30744		
0.772266	2.64653	0.591018	2.00816	0.773412	2.64637	0.823137	2.82494	0.94063	3.22773			0.736398	2.52633	0.831803	2.84629	0.962688	3.30209		
0.774633	2.64619	0.593021	2.00861	0.775778	2.64603	0.825023	2.82239	0.942482	3.22378			0.738373	2.52503	0.833875	2.84431	0.964215	3.2968		
0.776997	2.64585	0.595024	2.00905	0.778142	2.64568	0.826913	2.81987	0.944335	3.21986			0.740346	2.52374	0.835948	2.84235	0.965746	3.29155		
0.77936	2.6455	0.597026	2.00949	0.780504	2.64533	0.828806	2.81737	0.94619	3.21597			0.742319	2.52245	0.838023	2.84041	0.96728	3.28634		
0.781721	2.64515	0.599028	2.00992	0.782864	2.64498	0.830703	2.8149	0.948046	3.2121			0.744292	2.52118	0.8401	2.83848	0.968817	3.28118		
0.784081	2.6448	0.601029	2.01035	0.785223	2.64462	0.832602	2.81246	0.949903	3.20827			0.746264	2.5199	0.842178	2.83658	0.970358	3.27606		
0.786438	2.64444	0.603031	2.01078	0.787579	2.64426	0.834506	2.81005	0.951762	3.20446			0.748235	2.51863	0.844258	2.83469	0.971902	3.27098		
0.788793	2.64408	0.605032	2.01121	0.789933	2.6439	0.836413	2.80766	0.953622	3.20068			0.750206	2.51737	0.846339	2.83281	0.97345	3.26595		
0.791147	2.64371	0.607032	2.01163	0.792286	2.64353	0.838323	2.8053	0.955483	3.19693			0.752176	2.51612	0.848422	2.83095	0.975001	3.26096		
0.793498	2.64333	0.609033	2.01204	0.794636	2.64315	0.840237	2.80297	0.957345	3.19321			0.754145	2.51487	0.850506	2.82911	0.976555	3.25601		
0.795847	2.64296	0.611033	2.01246	0.796984	2.64277	0.842155	2.80066	0.959209	3.18952			0.756114	2.51362	0.852592	2.82729	0.978112	3.2511		
0.798194	2.64257	0.613033	2.01287	0.79933	2.64239	0.844076	2.79838	0.961074	3.18585			0.758083	2.51239	0.854679	2.82548	0.979673	3.24624		
0.800539	2.64219	0.615033	2.01328	0.801673	2.642	0.846001	2.79612	0.96294	3.18221			0.760051	2.51116	0.856767	2.82369	0.981237	3.24142		
0.802881	2.64179	0.617033	2.01368	0.804014	2.6416	0.84793	2.79389	0.964808	3.17859			0.762018	2.50993	0.858857	2.82191	0.982805	3.23663		
0.805221	2.6414	0.619032	2.01408	0.806353	2.6412	0.849862	2.79169	0.966677	3.175			0.763985	2.50871	0.860948	2.82015	0.984376	3.23189		
0.807558	2.64099	0.621031	2.01448	0.808689	2.64079	0.851798	2.78951	0.968547	3.17144			0.765952	2.5075	0.863041	2.8184	0.98595	3.22718		
0.809893	2.64058	0.62303	2.01487	0.811023	2.64038	0.853739	2.78736	0.970418	3.1679			0.767918	2.50629	0.865134	2.81667	0.987527	3.22252		
0.812226	2.64017	0.625028	2.01526	0.813354	2.63996	0.855683	2.78524	0.97229	3.16439			0.769883	2.50508	0.867229	2.81495	0.989108	3.21789		
0.814555	2.63975	0.627026	2.01565	0.815683	2.63954	0.857631	2.78314	0.974164	3.1609			0.771848	2.50389	0.869325	2.81325	0.990692	3.21331		
0.816883	2.63932	0.629024	2.01603	0.818009	2.63911	0.859583	2.78107	0.976038	3.15744			0.773813	2.5027	0.871423	2.81156	0.992279	3.20876		
0.819207	2.63888	0.631022	2.01642	0.820332	2.63867	0.861539	2.77902	0.977914	3.154			0.775777	2.50151	0.873521	2.80988	0.99387	3.20425		
0.821529	2.63844	0.63302	2.01679	0.822652	2.63823	0.863499	2.777	0.979791	3.15059			0.77774	2.50033	0.875621	2.80822	0.995463	3.19978		
0.823847	2.638	0.635017	2.01717	0.824969	2.63778	0.865464	2.775	0.981669	3.1472			0.779704	2.49916	0.877722	2.80657	0.99706	3.19534		
0.826163	2.63754	0.637014	2.01754	0.827283	2.63732	0.867433	2.77303	0.983549	3.14383			0.781666	2.49799	0.879823	2.80493	0.998661	3.19094		
0.828476	2.63708	0.63901	2.01791	0.829594	2.63686	0.869406	2.77108	0.985429	3.14049			0.783629	2.49682	0.881926	2.80331	1.00026	3.18658		
0.830785	2.63661	0.641007	2.01828	0.831902	2.63639	0.871383	2.76916	0.98731	3.13717			0.785591	2.49567	0.88403	2.8017				
0.833092	2.63614	0.643003	2.01864	0.834207	2.63591	0.873365	2.76726	0.989193	3.13388			0.787552	2.49452	0.886135	2.8001				
0.835395	2.63566	0.644999	2.019	0.836509	2.63542	0.875351	2.76539	0.991076	3.1306			0.789513	2.49337	0.888241	2.79852				
0.837695	2.63517	0.646995	2.01936	0.838807	2.63493	0.877342	2.76355	0.992961	3.12735			0.791474	2.49223	0.890348	2.79695				
0.839991	2.63467	0.64899	2.01971	0.841102	2.63443	0.879337	2.76173	0.994846	3.12412			0.793434	2.49109	0.892455	2.79539				
0.842285	2.63417	0.650985	2.02007	0.843394	2.63392	0.881337	2.75993	0.996733	3.12092			0.795395	2.48996	0.894564	2.79384				
0.844574	2.63365	0.65298	2.02041	0.845682	2.6334	0.883342	2.75816	0.998621	3.11773			0.797354	2.48884	0.896674	2.7923				
0.84686	2.63313	0.654975	2.02076	0.847966	2.63288	0.885351	2.75642	1.00051	3.11457			0.799313	2.48772	0.898784	2.79078				
0.849143	2.6326	0.656969	2.0211	0.850247	2.63234	0.887365	2.7547					0.801272	2.48661	0.900895	2.78926				
0.851422	2.63206	0.658963	2.02145	0.852524	2.6318	0.889384	2.753					0.803231	2.4855	0.903007	2.78776				
0.853697	2.63152	0.660957	2.02178	0.854797	2.63125	0.891408	2.75133					0.805189	2.4844	0.90512	2.78627				
0.855968	2.63096	0.662951	2.02212	0.857067	2.63069	0.893436	2.74969					0.807147	2.4833	0.907233	2.78479				
0.858236	2.6304	0.664944	2.02245	0.859332	2.63012	0.89547	2.74807					0.809105	2.48221	0.909348	2.78332				
0.860499	2.62983	0.666937	2.02278	0.861594	2.62955	0.897509	2.74647					0.811063	2.48112	0.911462	2.78186				
0.862759	2.62925	0.66893	2.02311	0.863852	2.62896	0.899553	2.7449					0.81302	2.48004	0.913578	2.78041				
0.865014	2.62866	0.670922	2.02343	0.866105	2.62837	0.901602	2.74335					0.814976	2.47896	0.915694	2.77897				
0.867266	2.62806	0.672915	2.02376	0.868355	2.62777	0.903656	2.74183					0.816933	2.47789	0.917811	2.77754				
0.869513	2.62745	0.674907	2.02407	0.8706	2.62715	0.905715	2.74033					0.818889	2.47682	0.919928	2.77612				
0.871756	2.62683	0.676899	2.02439	0.872841	2.62653	0.907779	2.73886					0.820845	2.47576	0.922046	2.77471				
0.873995	2.62621	0.67889	2.02471	0.875078	2.6259	0.909849	2.73741					0.822801	2.47471	0.924165	2.77331				
0.87623	2.62557	0.680882	2.02502	0.877311	2.62526	0.911924	2.73598					0.824757	2.47366	0.926284	2.77192				
0.87846	2.62493	0.682873	2.02533	0.879539	2.62461	0.914005	2.73458					0.826712	2.47261	0.928403	2.77053				
0.880686	2.62427	0.684864	2.02564	0.881763	2.62395	0.916091	2.7332					0.828667	2.47157	0.930523	2.76916				
0.882908	2.62361	0.686854	2.02594	0.883982	2.62328	0.918182	2.73185					0.830622	2.47054	0.932644	2.7678				
0.885125	2.62293	0.688844	2.02624	0.886197	2.62261	0.920278	2.73051					0.832576	2.46951	0.934765	2.76644				
0.887338	2.62225	0.690835	2.02654	0.888408	2.62192	0.92238	2.72921					0.834531	2.46848	0.936886	2.7651				
0.889546	2.62156	0.692824	2.02684	0.890614	2.62122	0.924488	2.72792					0.836485	2.46746	0.939007	2.76376				
0.89175	2.62086	0.694814	2.02714	0.892816	2.62052	0.926601	2.72666					0.838439	2.46645	0.941129	2.76243				
0.89395	2.62015	0.696803	2.02743	0.895013	2.6198	0.928719	2.72542					0.840393	2.46544	0.943252	2.76111				
0.896144	2.61943	0.698792	2.02772	0.897206	2.61908	0.930843	2.72421					0.842346	2.46444	0.945374	2.75979				
0.898335	2.6187	0.700781	2.02801	0.899394	2.61834	0.932973	2.72301					0.8443	2.46344	0.947497	2.75849				
0.900521	2.61796	0.70277	2.02829	0.901577	2.6176	0.935107	2.72184					0.846253	2.46244	0.94962	2.75719				
0.902702	2.61721	0.704758	2.02858	0.903757	2.61685	0.937248	2.72069					0.848206	2.46145	0.951743	2.7559				
0.904879	2.61646	0.706746	2.02886	0.905931	2.61609	0.939394	2.71957					0.850159	2.46047	0.953867	2.75462				
0.907051	2.61569	0.708734	2.02914	0.908101	2.61532	0.941545	2.71846					0.852112	2.45948	0.955991	2.75334				
0.909219	2.61492	0.710722	2.02942	0.910267	2.61454	0.943701	2.71738					0.854064	2.45851	0.958115	2.75207				
0.911382	2.61413	0.712709	2.02969	0.912428	2.61375	0.945863	2.71632					0.856017	2.45754	0.960239	2.75081				
0.913541	2.61334	0.714696	2.02996	0.914585	2.61296	0.94803	2.71528					0.857969	2.45657	0.962363	2.74956				
0.915695	2.61254	0.716683	2.03023	0.916737	2.61215	0.950203	2.71426					0.859921	2.45561	0.964487	2.74831				
0.917845	2.61173	0.71867	2.0305	0.918885	2.61134	0.952381	2.71326					0.861874	2.45466	0.966611	2.74707				
0.919991	2.61092	0.720656	2.03077	0.921028	2.61052	0.954564	2.71228					0.863826	2.4537	0.968736	2.74584				
0.922132	2.61009	0.722643	2.03103	0.923168	2.60969	0.956753	2.71132					0.865777	2.45276	0.97086	2.74461				
0.924269	2.60926	0.724628	2.0313	0.925302	2.60885	0.958946	2.71038					0.867729	2.45182	0.972985	2.74339				
0.926402	2.60842	0.726614	2.03156	0.927433	2.60801	0.961145	2.70946					0.869681	2.45088	0.975109	2.74218				
0.92853	2.60757	0.7286	2.03181	0.92956	2.60716	0.963349	2.70856					0.871632	2.44994	0.977233	2.74097				
0.930655	2.60672	0.730585	2.03207	0.931682	2.6063	0.965557	2.70767					0.873584	2.44902	0.979358	2.73977				
0.932775	2.60586	0.73257	2.03233	0.9338	2.60544	0.967771	2.70681					0.875535	2.44809	0.981482	2.73858				
0.934891	2.60499	0.734555	2.03258	0.935915	2.60456	0.96999	2.70596					0.877487	2.44717	0.983606	2.73739				
0.937003	2.60411	0.736539	2.03283	0.938025	2.60369	0.972213	2.70513					0.879438	2.44626	0.98573	2.7362				
0.939112	2.60323	0.738523	2.03308	0.940131	2.6028	0.974441	2.70432					0.881389	2.44535	0.987854	2.73502				
0.941216	2.60234	0.740507	2.03332	0.942234	2.60191	0.976674	2.70353					0.88334	2.44444	0.989978	2.73385				
0.943316	2.60145	0.742491	2.03357	0.944332	2.60101	0.978911	2.70275					0.885291	2.44354	0.992101	2.73269				
0.945413	2.60055	0.744475	2.03381	0.946427	2.60011	0.981153	2.70199					0.887242	2.44265	0.994225	2.73152				
0.947506	2.59965	0.746458	2.03405	0.948519	2.59921	0.9834	2.70125					0.889193	2.44175	0.996348	2.73037				
0.949596	2.59873	0.748441	2.03429	0.950606	2.59829	0.98565	2.70052					0.891144	2.44087	0.998471	2.72922				
0.951682	2.59782	0.750424	2.03453	0.95269	2.59737	0.987906	2.69981					0.893095	2.43998	1.00059	2.72807				
0.953764	2.5969	0.752406	2.03476	0.954771	2.59645	0.990165	2.69911					0.895046	2.43911						
0.955843	2.59597	0.754389	2.035	0.956848	2.59552	0.992429	2.69842					0.896997	2.43823						
0.957918	2.59504	0.756371	2.03523	0.958922	2.59459	0.994696	2.69776					0.898948	2.43736						
0.959991	2.59411	0.758353	2.03546	0.960993	2.59366	0.996968	2.6971					0.900899	2.4365						
0.96206	2.59317	0.760334	2.03569	0.963061	2.59272	0.999243	2.69646					0.902849	2.43563						
0.964126	2.59223	0.762316	2.03591	0.965125	2.59178	1.00152	2.69583					0.9048	2.43478						
0.966189	2.59129	0.764297	2.03614	0.967187	2.59083							0.906751	2.43392						
0.968249	2.59034	0.766278	2.03636	0.969245	2.58988							0.908702	2.43308						
0.970306	2.58939	0.768259	2.03658	0.971301	2.58893							0.910652	2.43223						
0.97236	2.58844	0.770239	2.0368	0.973354	2.58797							0.912603	2.43139						
0.974412	2.58748	0.772219	2.03702	0.975404	2.58701							0.914554	2.43056						
0.97646	2.58652	0.774199	2.03724	0.977451	2.58605							0.916505	2.42972						
0.978506	2.58556	0.776179	2.03745	0.979496	2.58509							0.918456	2.4289						
0.98055	2.5846	0.778159	2.03766	0.981539	2.58413							0.920406	2.42807						
0.982591	2.58363	0.780138	2.03787	0.983579	2.58316							0.922357	2.42725						
0.98463	2.58266	0.782117	2.03808	0.985616	2.5822							0.924308	2.42644						
0.986666	2.5817	0.784096	2.03829	0.987651	2.58123							0.926259	2.42563						
0.9887	2.58073	0.786075	2.0385	0.989684	2.58026							0.92821	2.42482						
0.990732	2.57976	0.788053	2.0387	0.991715	2.57929							0.930161	2.42402						
0.992761	2.57878	0.790031	2.03891	0.993743	2.57831							0.932112	2.42322						
0.994789	2.57781	0.792009	2.03911	0.99577	2.57734							0.934063	2.42242						
0.996814	2.57684	0.793987	2.03931	0.997794	2.57637							0.936014	2.42163						
0.998838	2.57587	0.795965	2.03951	0.999817	2.5754							0.937966	2.42084						
1.00086	2.57489	0.797942	2.0397	1.00184	2.57442							0.939917	2.42006						
		0.799919	2.0399									0.941868	2.41928						
		0.801896	2.04009									0.94382	2.41851						
		0.803873	2.04029									0.945771	2.41773						
		0.805849	2.04048									0.947723	2.41697						
		0.807825	2.04067									0.949674	2.4162						
		0.809801	2.04086									0.951626	2.41544						
		0.811777	2.04104									0.953578	2.41469						
		0.813753	2.04123									0.95553	2.41393						
		0.815728	2.04141									0.957482	2.41318						
		0.817703	2.04159									0.959434	2.41244						
		0.819678	2.04178									0.961386	2.4117						
		0.821652	2.04196									0.963338	2.41096						
		0.823627	2.04213									0.96529	2.41023						
		0.825601	2.04231									0.967243	2.4095						
		0.827575	2.04249									0.969195	2.40877						
		0.829549	2.04266									0.971148	2.40805						
		0.831523	2.04283									0.973101	2.40733						
		0.833496	2.04301									0.975054	2.40661						
		0.835469	2.04318									0.977007	2.4059						
		0.837442	2.04335									0.97896	2.40519						
		0.839415	2.04351									0.980913	2.40449						
		0.841387	2.04368									0.982866	2.40378						
		0.84336	2.04385									0.98482	2.40309						
		0.845332	2.04401									0.986773	2.40239						
		0.847304	2.04417									0.988727	2.4017						
		0.849275	2.04433									0.990681	2.40101						
		0.851247	2.04449									0.992635	2.40033						
		0.853218	2.04465									0.994589	2.39965						
		0.855189	2.04481									0.996543	2.39897						
		0.85716	2.04497									0.998498	2.39829						
		0.859131	2.04512									1.00045	2.39762						
		0.861101	2.04528																
		0.863071	2.04543																
		0.865041	2.04558																
		0.867011	2.04573																
		0.868981	2.04588																
		0.87095	2.04603																
		0.872919	2.04618																
		0.874888	2.04633																
		0.876857	2.04647																
		0.878826	2.04662																
		0.880794	2.04676																
		0.882762	2.0469																
		0.88473	2.04704																
		0.886698	2.04718																
		0.888666	2.04732																
		0.890633	2.04746																
		0.8926	2.0476																
		0.894567	2.04773																
		0.896534	2.04787																
		0.898501	2.048																
		0.900467	2.04813																
		0.902433	2.04826																
		0.904399	2.04839																
		0.906365	2.04852																
		0.908331	2.04865																
		0.910296	2.04878																
		0.912262	2.04891																
		0.914227	2.04903																
		0.916192	2.04916																
		0.918156	2.04928																
		0.920121	2.0494																
		0.922085	2.04953																
		0.924049	2.04965																
		0.926013	2.04977																
		0.927977	2.04989																
		0.92994	2.05001																
		0.931904	2.05012																
		0.933867	2.05024																
		0.93583	2.05035																
		0.937793	2.05047																
		0.939755	2.05058																
		0.941718	2.0507																
		0.94368	2.05081																
		0.945642	2.05092																
		0.947604	2.05103																
		0.949566	2.05114																
		0.951527	2.05125																
		0.953489	2.05136																
		0.95545	2.05146																
		0.957411	2.05157																
		0.959372	2.05168																
		0.961332	2.05178																
		0.963293	2.05189																
		0.965253	2.05199																
		0.967213	2.05209																
		0.969173	2.05219																
		0.971133	2.05229																
		0.973093	2.05239																
		0.975052	2.05249																
		0.977011	2.05259																
		0.97897	2.05269																
		0.980929	2.05279																
		0.982888	2.05288																
		0.984847	2.05298																
		0.986805	2.05307																
		0.988763	2.05317																
		0.990721	2.05326																
		0.992679	2.05336																
		0.994637	2.05345																
		0.996595	2.05354																
		0.998552	2.05363																
		1.00051	2.05372																
