Sym0		Asym0		Sym1		Sym2		Sym3		Sym4		Asym1		Asym2		Asym3		Asym4	
420  Points		525  Points		420  Points		402  Points		349  Points		249  Points		452  Points		396  Points		341  Points		205  Points	
Freq (MHz)	Vph (m/ms)	Freq (MHz)	Vph (m/ms)	Freq (MHz)	Vph (m/ms)	Freq (MHz)	Vph (m/ms)	Freq (MHz)	Vph (m/ms)	Freq (MHz)	Vph (m/ms)	Freq (MHz)	Vph (m/ms)	Freq (MHz)	Vph (m/ms)	Freq (MHz)	Vph (m/ms)	Freq (MHz)	Vph (m/ms)
0.279511	466.261	0.000346493	0.115142	0.279514	303.49	0.450068	9710.87	0.559017	5997.01	0.838526	2060.33	0.139755	903.774	0.419268	460.175	0.698771	3326.51	0.900136	2174.1
0.279524	182.556	0.000593207	0.150523	0.279531	150.878	0.450074	460.179	0.559024	545.437	0.838532	626.386	0.1398	128.69	0.419286	227.526	0.698776	612.018	0.900141	668.891
0.279548	113.505	0.000904769	0.185683	0.279558	100.402	0.450091	235.682	0.559042	285.72	0.838543	369.341	0.139913	69.3314	0.419315	151.132	0.698787	337.016	0.900151	395.251
0.279583	82.362	0.00128038	0.220589	0.279597	75.2398	0.450118	158.412	0.559072	193.564	0.838561	261.881	0.140092	47.4933	0.419357	113.15	0.698803	232.536	0.900167	280.503
0.279629	64.6354	0.00171898	0.255192	0.279647	60.168	0.450156	119.306	0.559113	146.365	0.838584	202.862	0.140338	36.1564	0.41941	90.4313	0.698827	177.509	0.900188	217.394
0.279686	53.1931	0.00221944	0.289451	0.279709	50.1317	0.450206	95.6903	0.559166	117.677	0.838613	165.555	0.14065	29.2223	0.419475	75.3154	0.698856	143.545	0.900214	177.469
0.279755	45.1973	0.0027804	0.323323	0.279781	42.9694	0.450266	79.8836	0.55923	98.3974	0.838649	139.841	0.141027	24.5486	0.419552	64.5338	0.698891	120.494	0.900245	149.936
0.279835	39.2952	0.00340054	0.356782	0.279865	37.6018	0.450336	68.563	0.559306	84.5501	0.83869	121.043	0.141468	21.189	0.419641	56.4567	0.698933	103.824	0.900281	129.8
0.279926	34.7603	0.00407819	0.389778	0.279959	33.4298	0.450418	60.0564	0.559393	74.1234	0.838737	106.702	0.141972	18.6604	0.419742	50.1803	0.698981	91.2077	0.900323	114.434
0.280028	31.1671	0.00481187	0.422297	0.280065	30.0943	0.45051	53.4311	0.559491	65.9896	0.83879	95.4012	0.142538	16.6908	0.419855	45.1633	0.699035	81.3274	0.90037	102.323
0.280141	28.2502	0.00559992	0.45431	0.280182	27.367	0.450613	48.1255	0.559601	59.4677	0.838849	86.2664	0.143163	15.115	0.419979	41.0615	0.699095	73.3803	0.900422	92.5316
0.280265	25.8354	0.00644059	0.485792	0.28031	25.0957	0.450727	43.7812	0.559723	54.122	0.838914	78.7297	0.143847	13.8271	0.420115	37.6456	0.699162	66.8497	0.90048	84.4516
0.2804	23.8035	0.00733218	0.516728	0.28045	23.1751	0.450851	40.1589	0.559855	49.6609	0.838985	72.4054	0.144589	12.756	0.420263	34.7571	0.699234	61.388	0.900543	77.6707
0.280547	22.0703	0.00827279	0.547095	0.2806	21.5299	0.450987	37.0927	0.559999	45.8818	0.839062	67.023	0.145386	11.8521	0.420423	32.2828	0.699313	56.7528	0.900611	71.899
0.280704	20.5747	0.00926084	0.576891	0.280761	20.105	0.451133	34.4637	0.560155	42.6397	0.839145	62.3867	0.146236	11.0799	0.420595	30.1397	0.699398	52.7697	0.900684	66.9268
0.280873	19.271	0.0102943	0.606094	0.280934	18.8591	0.45129	32.1849	0.560322	39.8277	0.839234	58.3514	0.14702	10.4937	0.420779	28.2657	0.699489	49.3102	0.900762	62.5988
0.281053	18.1247	0.0113716	0.634704	0.281117	17.7606	0.451457	30.1908	0.5605	37.3658	0.839329	54.8076	0.147718	10.0472	0.420974	26.6132	0.699587	46.2776	0.900846	58.7976
0.281244	17.1091	0.0124909	0.662715	0.281312	16.7849	0.451635	28.4313	0.560689	35.1926	0.839429	51.6705	0.148316	9.70989	0.421181	25.1452	0.69969	43.5975	0.900935	55.4325
0.281445	16.203	0.0136506	0.690127	0.281518	15.9126	0.451824	26.8673	0.56089	33.2602	0.839536	48.8742	0.148801	9.46137	0.4214	23.8326	0.6998	41.2118	0.90103	52.4326
0.281658	15.3898	0.0148487	0.716933	0.281734	15.1281	0.452024	25.4682	0.561103	31.5307	0.839648	46.3659	0.149166	9.28802	0.42163	22.6521	0.699916	39.0747	0.901129	49.7415
0.281882	14.6559	0.0160839	0.74314	0.281962	14.419	0.452234	24.2092	0.561326	29.974	0.839767	44.1034	0.149402	9.18098	0.421873	21.5847	0.700038	37.1492	0.901234	47.314
0.282117	13.9904	0.0173543	0.768746	0.282201	13.7749	0.452455	23.0704	0.561561	28.5653	0.839891	42.0522	0.149745	9.03218	0.422126	20.615	0.700167	35.4055	0.901344	45.1132
0.282363	13.3842	0.0186586	0.793763	0.28245	13.1873	0.452687	22.0354	0.561807	27.2847	0.840022	40.1842	0.150125	8.87689	0.422392	19.7302	0.700301	33.819	0.901459	43.1087
0.28262	12.8298	0.0199952	0.818193	0.282711	12.6493	0.452929	21.0907	0.562064	26.1155	0.840158	38.4759	0.150649	8.67577	0.422669	18.9198	0.700442	32.3693	0.901579	41.2754
0.282888	12.3208	0.0213625	0.842041	0.282983	12.1547	0.453182	20.225	0.562332	25.0439	0.8403	36.9076	0.151328	8.43678	0.422958	18.1747	0.700588	31.0397	0.901705	39.5924
0.283166	11.852	0.0227594	0.865322	0.283265	11.6987	0.453445	19.4289	0.562612	24.0581	0.840448	35.4629	0.15217	8.16853	0.423259	17.4875	0.700741	29.8157	0.901836	38.0419
0.283456	11.4188	0.0241842	0.888038	0.283558	11.2769	0.453719	18.6943	0.562903	23.1483	0.840602	34.1277	0.153187	7.87971	0.423571	16.8517	0.700901	28.6853	0.901972	36.6088
0.283756	11.0174	0.0256359	0.910203	0.283863	10.8857	0.454004	18.0145	0.563205	22.306	0.840762	32.8901	0.154392	7.57849	0.423894	16.2618	0.701066	27.6382	0.902114	35.2805
0.284068	10.6445	0.0271131	0.931827	0.284178	10.5218	0.454299	17.3836	0.563518	21.5242	0.840928	31.7398	0.155635	7.30541	0.42423	15.713	0.701237	26.6655	0.90226	34.0457
0.28439	10.297	0.0286146	0.952919	0.284461	10.2249	0.454605	16.7965	0.563842	20.7965	0.841099	30.6678	0.156915	7.05688	0.424576	15.2013	0.701415	25.7596	0.902412	32.8949
0.284723	9.97268	0.0301394	0.973492	0.284709	9.98543	0.454921	16.2488	0.564178	20.1175	0.841277	29.6665	0.158231	6.82986	0.424934	14.723	0.701599	24.9139	0.902569	31.82
0.285067	9.66918	0.0316864	0.993559	0.284919	9.79615	0.455248	15.7368	0.564524	19.4826	0.84146	28.729	0.15958	6.6218	0.425304	14.275	0.701788	24.1226	0.902732	30.8136
0.285422	9.38464	0.0332545	1.01313	0.285088	9.65178	0.455585	15.2571	0.564881	18.8876	0.84165	27.8496	0.160961	6.43051	0.425685	13.8545	0.701984	23.3805	0.902899	29.8694
0.285787	9.11735	0.0348427	1.03222	0.285213	9.54846	0.455932	14.8067	0.56525	18.329	0.841845	27.023	0.162374	6.25414	0.426078	13.4592	0.702187	22.6834	0.903072	28.9818
0.286163	8.86583	0.0364501	1.05083	0.285295	9.48357	0.45629	14.3831	0.565629	17.8034	0.842046	26.2445	0.163816	6.09109	0.426482	13.0868	0.702395	22.0271	0.90325	28.146
0.28655	8.62875	0.0380757	1.06898	0.285412	9.3919	0.456659	13.9841	0.566019	17.3081	0.842253	25.5102	0.165286	5.93997	0.426897	12.7354	0.702609	21.4084	0.903433	27.3574
0.286948	8.40491	0.0397189	1.08669	0.285541	9.29439	0.457038	13.6074	0.56642	16.8406	0.842466	24.8164	0.166782	5.79958	0.427323	12.4034	0.70283	20.8239	0.903622	26.6123
0.287356	8.19328	0.0413787	1.10396	0.285719	9.16517	0.457427	13.2514	0.566832	16.3986	0.842685	24.1597	0.168305	5.66886	0.427761	12.0892	0.703056	20.2711	0.903816	25.9071
0.287775	7.99289	0.0430544	1.12081	0.285948	9.00714	0.457826	12.9144	0.567255	15.9801	0.842909	23.5375	0.169852	5.5469	0.42821	11.7914	0.703289	19.7473	0.904014	25.2388
0.288204	7.8029	0.0447453	1.13724	0.28623	8.82366	0.458236	12.595	0.567689	15.5833	0.84314	22.9469	0.171423	5.43289	0.42867	11.5088	0.703528	19.2504	0.904219	24.6045
0.288645	7.62254	0.0464506	1.15328	0.286568	8.61837	0.458656	12.2918	0.568133	15.2066	0.843376	22.3857	0.173015	5.3261	0.429142	11.2403	0.703773	18.7784	0.904428	24.0017
0.289095	7.45111	0.0481698	1.16892	0.286966	8.39511	0.459087	12.0036	0.568589	14.8485	0.843618	21.8517	0.17463	5.22591	0.429624	10.9849	0.704024	18.3294	0.904642	23.4281
0.289557	7.28799	0.0499021	1.18418	0.287375	8.184	0.459527	11.7294	0.569054	14.5077	0.843866	21.3431	0.176265	5.13175	0.430118	10.7416	0.704281	17.9019	0.904862	22.8817
0.290028	7.1326	0.051647	1.19908	0.287794	7.9841	0.459978	11.4681	0.569531	14.1829	0.84412	20.858	0.177919	5.04312	0.430623	10.5097	0.704545	17.4942	0.905087	22.3606
0.29051	6.98442	0.053404	1.21362	0.288224	7.79456	0.460439	11.219	0.570018	13.8732	0.84438	20.3949	0.179592	4.95956	0.431072	10.3162	0.704814	17.1052	0.905317	21.863
0.291003	6.84299	0.0551724	1.22781	0.288665	7.61462	0.46091	10.9812	0.570516	13.5774	0.844645	19.9523	0.181283	4.88068	0.431461	10.1573	0.705089	16.7335	0.905552	21.3875
0.291506	6.70786	0.0569519	1.24167	0.289116	7.44358	0.461391	10.754	0.571025	13.2947	0.844917	19.5289	0.18299	4.8061	0.431787	10.0298	0.705371	16.3781	0.905793	20.9325
0.29202	6.57863	0.0587417	1.25519	0.289578	7.28082	0.461883	10.5366	0.571544	13.0243	0.845194	19.1235	0.184715	4.7355	0.432048	9.93149	0.705658	16.0378	0.906039	20.4969
0.292544	6.45495	0.0605417	1.2684	0.29005	7.12576	0.462319	10.3548	0.572073	12.7653	0.845477	18.7349	0.186454	4.66859	0.432242	9.86052	0.705952	15.7118	0.906289	20.0794
0.293078	6.33647	0.0623513	1.28131	0.290532	6.9779	0.462697	10.205	0.572613	12.5171	0.845766	18.3622	0.188209	4.6051	0.432367	9.81568	0.706252	15.3991	0.906546	19.6788
0.293622	6.2229	0.06417	1.29391	0.291026	6.83676	0.463014	10.0847	0.573163	12.2791	0.846061	18.0045	0.189978	4.54477	0.432547	9.75199	0.706558	15.0991	0.906807	19.2943
0.294177	6.11393	0.0659976	1.30622	0.291529	6.7019	0.463267	9.99176	0.573724	12.0506	0.846361	17.6607	0.19176	4.4874	0.432744	9.68379	0.706869	14.8108	0.907073	18.9248
0.294742	6.00931	0.0678336	1.31825	0.292043	6.57294	0.463454	9.92458	0.574295	11.831	0.846667	17.3302	0.193556	4.43277	0.433014	9.5927	0.707187	14.5338	0.907345	18.5695
0.295318	5.9088	0.0696776	1.33	0.292568	6.4495	0.463575	9.8821	0.574876	11.62	0.846979	17.0121	0.195364	4.38071	0.43336	9.48016	0.707511	14.2672	0.907621	18.2276
0.295903	5.81217	0.0715293	1.34149	0.293102	6.33125	0.46375	9.82172	0.575468	11.4169	0.847297	16.7059	0.197185	4.33104	0.433783	9.34789	0.707841	14.0107	0.907903	17.8983
0.296499	5.71921	0.0733884	1.35272	0.293647	6.21788	0.463941	9.757	0.57607	11.2215	0.847621	16.4108	0.199016	4.28362	0.434288	9.19783	0.708177	13.7635	0.90819	17.5811
0.297105	5.62972	0.0752546	1.3637	0.294203	6.10912	0.464202	9.67047	0.576682	11.0331	0.84795	16.1263	0.200859	4.23829	0.434877	9.03207	0.708519	13.5252	0.908483	17.2752
0.297721	5.54352	0.0771276	1.37443	0.294768	6.00469	0.464536	9.56341	0.577304	10.8516	0.848285	15.8518	0.202712	4.19492	0.435476	8.87283	0.708867	13.2954	0.90878	16.98
0.298347	5.46045	0.079007	1.38493	0.295344	5.90436	0.464945	9.43736	0.577936	10.6765	0.848626	15.5868	0.204576	4.15341	0.436087	8.71974	0.709221	13.0736	0.909083	16.695
0.298983	5.38035	0.0808928	1.3952	0.29593	5.8079	0.465432	9.29408	0.578495	10.5289	0.848973	15.3308	0.206449	4.11363	0.436707	8.57245	0.709581	12.8594	0.90939	16.4197
0.29963	5.30307	0.0827845	1.40525	0.296526	5.7151	0.466	9.13546	0.578978	10.4066	0.849325	15.0834	0.208332	4.07548	0.437339	8.43066	0.709947	12.6524	0.909703	16.1536
0.300286	5.22846	0.0846819	1.41508	0.297133	5.62576	0.466578	8.98272	0.579381	10.3078	0.849683	14.8441	0.210224	4.03888	0.437981	8.29408	0.710318	12.4522	0.910021	15.8963
0.300952	5.15642	0.0865849	1.42469	0.297749	5.53971	0.467166	8.83554	0.579702	10.2312	0.850047	14.6126	0.212124	4.00372	0.438634	8.16242	0.710696	12.2586	0.910344	15.6473
0.301628	5.0868	0.0884931	1.43411	0.298376	5.45678	0.467763	8.69365	0.57994	10.1756	0.850417	14.3885	0.214033	3.96993	0.439297	8.03545	0.71108	12.0713	0.910673	15.4062
0.302314	5.0195	0.0904064	1.44332	0.299012	5.37681	0.46837	8.55676	0.580093	10.1404	0.850792	14.1715	0.215949	3.93744	0.439971	7.91292	0.71147	11.8898	0.911006	15.1727
0.30301	4.95442	0.0923246	1.45234	0.299659	5.29965	0.468987	8.42463	0.580314	10.0903	0.851173	13.9612	0.217873	3.90616	0.440655	7.79461	0.711866	11.7141	0.911344	14.9464
0.303716	4.89144	0.0942475	1.46118	0.300316	5.22516	0.469613	8.29701	0.580555	10.0364	0.85156	13.7573	0.219805	3.87605	0.44135	7.68032	0.712268	11.5437	0.911688	14.727
0.304432	4.83049	0.0961748	1.46982	0.300982	5.15322	0.470249	8.1737	0.580885	9.96414	0.851952	13.5595	0.221744	3.84704	0.442054	7.56986	0.712675	11.3785	0.912037	14.5142
0.305064	4.77895	0.0981065	1.4783	0.301659	5.08372	0.470894	8.05448	0.581306	9.87442	0.852351	13.3676	0.22369	3.81906	0.44277	7.46303	0.713089	11.2182	0.912391	14.3077
0.305608	4.73613	0.100042	1.4866	0.302345	5.01652	0.471549	7.93917	0.581819	9.7683	0.852754	13.1814	0.225642	3.79207	0.443495	7.35968	0.713508	11.0627	0.91275	14.1072
0.306063	4.70147	0.101982	1.49473	0.303042	4.95153	0.472214	7.82757	0.582429	9.64703	0.853164	13.0005	0.2276	3.76602	0.44423	7.25964	0.713934	10.9116	0.913114	13.9125
0.306424	4.67453	0.103926	1.5027	0.303748	4.88865	0.472888	7.71952	0.583137	9.51197	0.853579	12.8247	0.229565	3.74086	0.444976	7.16277	0.714309	10.7836	0.913483	13.7233
0.306692	4.65498	0.105873	1.5105	0.304465	4.82779	0.473571	7.61486	0.583855	9.38112	0.854	12.6539	0.231536	3.71654	0.445732	7.06892	0.714633	10.6769	0.913857	13.5394
0.306864	4.64258	0.107824	1.51816	0.305191	4.76885	0.474264	7.51344	0.584583	9.25427	0.854427	12.4878	0.233512	3.69303	0.446498	6.97796	0.714903	10.5904	0.914237	13.3606
0.307112	4.62492	0.109778	1.52566	0.305926	4.71175	0.474966	7.41511	0.58532	9.13127	0.854859	12.3263	0.235494	3.67029	0.447274	6.88976	0.715118	10.523	0.914621	13.1867
0.307383	4.60591	0.111736	1.53301	0.306672	4.65642	0.475677	7.31975	0.586067	9.01193	0.855296	12.1691	0.237481	3.64829	0.448059	6.80422	0.715277	10.4741	0.915011	13.0174
0.307753	4.5804	0.113697	1.54023	0.307428	4.60277	0.476398	7.22722	0.586824	8.89611	0.85574	12.0161	0.239473	3.62698	0.448855	6.7212	0.71538	10.443	0.915405	12.8527
0.308224	4.54867	0.115408	1.5464	0.308193	4.55075	0.477128	7.13741	0.587589	8.78366	0.856189	11.8672	0.24147	3.60634	0.449661	6.64062	0.715527	10.3987	0.915805	12.6923
0.308799	4.51108	0.116868	1.55158	0.308968	4.50028	0.477867	7.0502	0.588365	8.67444	0.856643	11.7221	0.243472	3.58633	0.450476	6.56237	0.715688	10.351	0.91621	12.536
0.309481	4.46804	0.118077	1.55581	0.309752	4.4513	0.478615	6.96549	0.589149	8.56831	0.857104	11.5808	0.245478	3.56693	0.451301	6.48635	0.715908	10.2868	0.916619	12.3837
0.310272	4.42001	0.119034	1.55911	0.310547	4.40376	0.479372	6.88318	0.589943	8.46515	0.85757	11.443	0.247489	3.54812	0.452136	6.41249	0.716189	10.2069	0.917034	12.2353
0.311072	4.37337	0.119737	1.56153	0.311351	4.35759	0.480138	6.80317	0.590747	8.36485	0.858041	11.3087	0.249504	3.52986	0.452981	6.34068	0.716531	10.112	0.917454	12.0906
0.311883	4.32807	0.120188	1.56306	0.312164	4.31274	0.480914	6.72538	0.591559	8.26729	0.858518	11.1778	0.251524	3.51213	0.453835	6.27085	0.716936	10.0031	0.917879	11.9495
0.312703	4.28406	0.120836	1.56526	0.312988	4.26916	0.481698	6.6497	0.592381	8.17236	0.858938	11.0662	0.253547	3.49492	0.454699	6.20294	0.717407	9.88126	0.918309	11.8119
0.313532	4.24129	0.121541	1.56763	0.313821	4.22681	0.482491	6.57607	0.593212	8.07996	0.8593	10.9731	0.255574	3.47819	0.455572	6.13685	0.717883	9.76255	0.918744	11.6775
0.314372	4.19971	0.1225	1.57083	0.314663	4.18563	0.483293	6.50441	0.594052	7.99001	0.859601	10.8973	0.257605	3.46193	0.456455	6.07253	0.718366	9.64688	0.919184	11.5464
0.31522	4.15928	0.123713	1.57483	0.315516	4.14559	0.484104	6.43464	0.5949	7.9024	0.859841	10.8381	0.259639	3.44613	0.457347	6.00991	0.718854	9.53415	0.919629	11.4183
0.316079	4.11996	0.125182	1.57961	0.316377	4.10664	0.484924	6.36669	0.595758	7.81705	0.860018	10.7951	0.261677	3.43075	0.458249	5.94892	0.719348	9.42424	0.920079	11.2933
0.316947	4.08171	0.126907	1.58514	0.317249	4.06874	0.485753	6.3005	0.596625	7.73387	0.860132	10.7677	0.263719	3.41579	0.45916	5.88951	0.719848	9.31707	0.920476	11.1867
0.317825	4.04448	0.128888	1.59136	0.31813	4.03187	0.48659	6.23599	0.597501	7.6528	0.860296	10.7287	0.265763	3.40123	0.46008	5.83163	0.720354	9.21252	0.920817	11.0974
0.318712	4.00825	0.130872	1.59748	0.31902	3.99597	0.487436	6.17313	0.598385	7.57375	0.860475	10.6865	0.267811	3.38705	0.46101	5.77521	0.720865	9.1105	0.9211	11.0248
0.319609	3.97298	0.132858	1.60348	0.319921	3.96102	0.48829	6.11183	0.599278	7.49665	0.860719	10.6298	0.269862	3.37324	0.461948	5.7202	0.721382	9.01094	0.921326	10.9681
0.320515	3.93863	0.134846	1.60938	0.32083	3.92698	0.489153	6.05206	0.60018	7.42144	0.86103	10.559	0.271916	3.35978	0.462896	5.66656	0.721905	8.91373	0.921493	10.9268
0.321431	3.90517	0.136835	1.61517	0.32175	3.89383	0.490025	5.99375	0.601091	7.34804	0.861409	10.4748	0.273973	3.34667	0.463853	5.61425	0.722434	8.81881	0.9216	10.9006
0.322357	3.87258	0.138827	1.62086	0.322679	3.86153	0.490905	5.93686	0.60201	7.27641	0.861858	10.3778	0.276032	3.33388	0.464819	5.5632	0.722969	8.72609	0.921755	10.8631
0.323292	3.84083	0.140821	1.62644	0.323617	3.83006	0.491794	5.88134	0.602938	7.20647	0.862377	10.2688	0.278094	3.32141	0.465794	5.51339	0.723509	8.6355	0.921923	10.8226
0.324237	3.80989	0.142817	1.63193	0.324566	3.79939	0.492691	5.82714	0.603874	7.13817	0.862902	10.1623	0.280159	3.30925	0.466778	5.46478	0.724055	8.54697	0.922153	10.7681
0.325192	3.77972	0.144814	1.63732	0.325523	3.76949	0.493596	5.77422	0.604819	7.07146	0.863433	10.0582	0.282226	3.29738	0.467771	5.41731	0.724607	8.46044	0.922446	10.7
0.326156	3.75032	0.146813	1.64262	0.326491	3.74034	0.49451	5.72253	0.605772	7.00628	0.863969	9.95642	0.284296	3.28579	0.468773	5.37096	0.725164	8.37583	0.922802	10.6189
0.32713	3.72164	0.148814	1.64783	0.327468	3.71191	0.495432	5.67205	0.606734	6.94259	0.864511	9.85683	0.286368	3.27448	0.469784	5.32569	0.725727	8.29309	0.923224	10.5254
0.328113	3.69368	0.150816	1.65295	0.328455	3.68419	0.496362	5.62272	0.607704	6.88034	0.865058	9.7594	0.288442	3.26343	0.470803	5.28146	0.726296	8.21216	0.923713	10.4203
0.329107	3.66641	0.15282	1.65798	0.329452	3.65715	0.4973	5.57452	0.608682	6.81948	0.865611	9.66405	0.290518	3.25264	0.471831	5.23824	0.726871	8.13298	0.924206	10.3174
0.330109	3.6398	0.154825	1.66292	0.330458	3.63077	0.498247	5.5274	0.609669	6.75997	0.866169	9.57073	0.292597	3.24209	0.472868	5.196	0.727451	8.05549	0.924705	10.2167
0.331122	3.61384	0.156832	1.66779	0.331474	3.60503	0.499201	5.48134	0.610663	6.70176	0.866732	9.47936	0.294678	3.23178	0.473913	5.15472	0.728037	7.97965	0.925208	10.1181
0.332145	3.58851	0.15884	1.67257	0.3325	3.57991	0.500164	5.43629	0.611666	6.64482	0.867301	9.38991	0.29676	3.2217	0.474967	5.11435	0.728628	7.90541	0.925716	10.0216
0.333177	3.56379	0.160849	1.67727	0.333536	3.5554	0.501135	5.39224	0.612677	6.58911	0.867876	9.30229	0.298845	3.21185	0.476029	5.07488	0.729226	7.83271	0.92623	9.92701
0.334219	3.53966	0.162859	1.68189	0.334581	3.53147	0.502113	5.34914	0.613695	6.53459	0.868455	9.21647	0.300931	3.2022	0.4771	5.03627	0.729828	7.76151	0.926748	9.83436
0.335271	3.51611	0.164871	1.68644	0.335637	3.50812	0.5031	5.30698	0.614722	6.48123	0.869041	9.13238	0.30302	3.19277	0.478179	4.9985	0.730437	7.69177	0.927271	9.74358
0.336334	3.49312	0.166884	1.69091	0.336703	3.48531	0.504094	5.26571	0.615757	6.42898	0.869631	9.04998	0.30511	3.18354	0.479267	4.96155	0.731051	7.62344	0.927799	9.65461
0.337406	3.47067	0.168898	1.69532	0.337778	3.46305	0.505096	5.22533	0.616799	6.37783	0.870227	8.96922	0.307201	3.17451	0.480363	4.92539	0.731671	7.55649	0.928332	9.5674
0.338488	3.44876	0.170913	1.69965	0.338864	3.44131	0.506106	5.18579	0.61785	6.32773	0.870828	8.89004	0.309295	3.16566	0.481467	4.89	0.732296	7.49086	0.92887	9.48189
0.339581	3.42735	0.172929	1.70391	0.33996	3.42008	0.507124	5.14708	0.618908	6.27865	0.871435	8.81242	0.31139	3.157	0.48258	4.85535	0.732927	7.42654	0.929413	9.39805
0.340683	3.40645	0.174946	1.7081	0.341066	3.39935	0.508149	5.10917	0.619974	6.23057	0.872047	8.7363	0.313486	3.14851	0.4837	4.82143	0.733563	7.36347	0.929961	9.31583
0.341797	3.38604	0.176964	1.71223	0.342183	3.3791	0.509182	5.07205	0.621047	6.18346	0.872664	8.66163	0.315584	3.1402	0.484829	4.78822	0.734205	7.30163	0.930513	9.23517
0.34292	3.3661	0.178982	1.71629	0.34331	3.35932	0.510223	5.03568	0.622128	6.13729	0.873287	8.58839	0.317683	3.13205	0.485966	4.75569	0.734853	7.24098	0.931071	9.15604
0.344054	3.34662	0.181002	1.72029	0.344448	3.34001	0.511271	5.00005	0.623217	6.09204	0.873915	8.51653	0.319784	3.12406	0.487111	4.72382	0.735506	7.18148	0.931633	9.07839
0.345199	3.3276	0.183023	1.72422	0.345596	3.32114	0.512327	4.96513	0.624313	6.04768	0.874548	8.44602	0.321886	3.11624	0.488264	4.6926	0.736165	7.12311	0.9322	9.00218
0.346354	3.30902	0.185044	1.7281	0.346755	3.30271	0.51339	4.93091	0.625416	6.00418	0.875187	8.37681	0.323989	3.10856	0.489425	4.66201	0.736829	7.06584	0.932772	8.92739
0.34752	3.29087	0.187066	1.73191	0.347926	3.2847	0.51446	4.89737	0.626527	5.96152	0.875831	8.30888	0.326094	3.10103	0.490594	4.63204	0.737498	7.00964	0.933349	8.85396
0.348698	3.27314	0.189089	1.73567	0.349107	3.26711	0.515538	4.86448	0.627646	5.91968	0.87648	8.24219	0.3282	3.09365	0.49177	4.60266	0.738174	6.95447	0.933931	8.78186
0.349886	3.25582	0.191113	1.73937	0.350299	3.24993	0.516623	4.83224	0.628772	5.87864	0.877134	8.1767	0.330307	3.0864	0.492955	4.57386	0.738854	6.90031	0.934517	8.71106
0.351086	3.2389	0.193137	1.74302	0.351502	3.23315	0.517716	4.80062	0.629904	5.83838	0.877794	8.11239	0.332415	3.07929	0.494147	4.54563	0.73954	6.84714	0.935109	8.64152
0.352297	3.22237	0.195162	1.74661	0.352717	3.21676	0.518815	4.76961	0.631045	5.79887	0.878459	8.04923	0.334524	3.07231	0.495347	4.51794	0.740232	6.79493	0.935705	8.57322
0.353519	3.20623	0.197188	1.75014	0.353944	3.20075	0.519922	4.7392	0.632192	5.7601	0.879129	7.98718	0.336634	3.06546	0.496555	4.4908	0.740929	6.74365	0.936306	8.50611
0.354753	3.19047	0.199214	1.75362	0.355182	3.18511	0.521036	4.70935	0.633346	5.72204	0.879805	7.92623	0.338745	3.05873	0.49777	4.46417	0.741632	6.69329	0.936912	8.44018
0.355999	3.17507	0.201241	1.75706	0.356432	3.16984	0.522157	4.68008	0.634508	5.68468	0.880485	7.86633	0.340857	3.05212	0.498993	4.43806	0.742339	6.64381	0.937523	8.37538
0.357258	3.16003	0.203269	1.76044	0.357695	3.15493	0.523285	4.65134	0.635676	5.64801	0.881171	7.80747	0.34297	3.04564	0.500223	4.41244	0.743053	6.5952	0.938138	8.3117
0.358528	3.14535	0.205297	1.76377	0.35897	3.14036	0.52442	4.62315	0.636852	5.61199	0.881862	7.74962	0.345083	3.03926	0.501461	4.3873	0.743772	6.54744	0.938758	8.2491
0.359811	3.13101	0.207325	1.76705	0.360257	3.12615	0.525562	4.59547	0.638034	5.57663	0.882558	7.69275	0.347198	3.033	0.502707	4.36263	0.744496	6.5005	0.939383	8.18756
0.361107	3.11702	0.209354	1.77029	0.361557	3.11227	0.526711	4.5683	0.639223	5.54189	0.88326	7.63685	0.349313	3.02684	0.503959	4.33843	0.745225	6.45436	0.940013	8.12705
0.362416	3.10336	0.211384	1.77348	0.36287	3.09872	0.527867	4.54162	0.64042	5.50777	0.883966	7.58188	0.351429	3.02079	0.50522	4.31467	0.74596	6.40901	0.940648	8.06755
0.363737	3.09002	0.213414	1.77662	0.364197	3.0855	0.52903	4.51543	0.641622	5.47425	0.884678	7.52782	0.353546	3.01484	0.506487	4.29135	0.746701	6.36443	0.941287	8.00904
0.365073	3.07701	0.215444	1.77972	0.365537	3.0726	0.530199	4.48971	0.642832	5.44132	0.885395	7.47467	0.355664	3.00899	0.507762	4.26845	0.747446	6.32059	0.941931	7.95148
0.366422	3.06432	0.217475	1.78277	0.36689	3.06001	0.531375	4.46444	0.644048	5.40896	0.886117	7.42238	0.357782	3.00324	0.509044	4.24597	0.748197	6.27748	0.94258	7.89487
0.367785	3.05194	0.219506	1.78578	0.368258	3.04774	0.532558	4.43963	0.645271	5.37715	0.886844	7.37094	0.359901	2.99758	0.510333	4.2239	0.748954	6.23509	0.943233	7.83917
0.369162	3.03986	0.221537	1.78875	0.369641	3.03577	0.533747	4.41525	0.646501	5.34589	0.887576	7.32034	0.36202	2.99201	0.511629	4.20223	0.749715	6.19339	0.943891	7.78436
0.370554	3.02809	0.223569	1.79168	0.371037	3.0241	0.534943	4.3913	0.647737	5.31517	0.888313	7.27056	0.36414	2.98654	0.512933	4.18094	0.750482	6.15237	0.944554	7.73043
0.37196	3.01662	0.225601	1.79457	0.372449	3.01273	0.536146	4.36777	0.648979	5.28496	0.889055	7.22156	0.36626	2.98115	0.514243	4.16003	0.751254	6.11202	0.945222	7.67735
0.373382	3.00544	0.227634	1.79742	0.373876	3.00165	0.537355	4.34464	0.650228	5.25525	0.889803	7.17335	0.368381	2.97584	0.515561	4.13949	0.752032	6.07232	0.945894	7.62511
0.374819	2.99455	0.229667	1.80022	0.375319	2.99086	0.53857	4.32191	0.651484	5.22605	0.890555	7.12589	0.370503	2.97062	0.516886	4.11931	0.752815	6.03325	0.946571	7.57368
0.376272	2.98395	0.2317	1.80299	0.376778	2.98036	0.539792	4.29957	0.652745	5.19733	0.891313	7.07917	0.372625	2.96548	0.518217	4.09948	0.753603	5.9948	0.947253	7.52305
0.377742	2.97363	0.233733	1.80572	0.378253	2.97013	0.54102	4.27761	0.654013	5.16908	0.892075	7.03319	0.374747	2.96042	0.519556	4.08	0.754396	5.95696	0.947939	7.47321
0.379227	2.96359	0.235767	1.80842	0.379744	2.96019	0.542255	4.25602	0.655288	5.14129	0.892843	6.98791	0.37687	2.95544	0.520901	4.06085	0.755195	5.91972	0.94863	7.42412
0.38073	2.95382	0.237801	1.81108	0.381252	2.95052	0.543496	4.23479	0.656568	5.11395	0.893615	6.94332	0.378993	2.95053	0.522253	4.04203	0.755999	5.88305	0.949326	7.37579
0.38225	2.94433	0.239835	1.8137	0.382778	2.94112	0.544743	4.21391	0.657855	5.08706	0.894393	6.89942	0.381116	2.94569	0.523612	4.02354	0.756808	5.84696	0.950026	7.32818
0.383787	2.93511	0.24187	1.81629	0.384321	2.93199	0.545996	4.19338	0.659148	5.06059	0.895175	6.85618	0.383239	2.94093	0.524978	4.00536	0.757622	5.81142	0.950731	7.28129
0.385341	2.92615	0.243904	1.81884	0.385882	2.92312	0.547255	4.1732	0.660446	5.03455	0.895963	6.81359	0.385363	2.93623	0.52635	3.98748	0.758441	5.77642	0.951441	7.2351
0.386914	2.91745	0.245939	1.82136	0.387461	2.91451	0.548521	4.15334	0.661751	5.00893	0.896755	6.77164	0.387487	2.93161	0.527729	3.96991	0.759266	5.74195	0.952155	7.18959
0.388506	2.90901	0.247974	1.82385	0.389059	2.90616	0.549793	4.1338	0.663062	4.9837	0.897553	6.73031	0.389612	2.92704	0.529115	3.95263	0.760095	5.70801	0.952874	7.14475
0.390116	2.90083	0.250009	1.8263	0.390676	2.89807	0.55107	4.11459	0.664379	4.95887	0.898355	6.68959	0.391736	2.92255	0.530507	3.93564	0.76093	5.67458	0.953597	7.10057
0.391745	2.8929	0.252044	1.82872	0.392311	2.89023	0.552354	4.09568	0.665702	4.93443	0.899162	6.64947	0.393861	2.91812	0.531906	3.91893	0.76177	5.64164	0.954325	7.05703
0.393393	2.88522	0.25408	1.83111	0.393966	2.88263	0.553643	4.07707	0.66703	4.91037	0.899975	6.60993	0.395986	2.91374	0.533312	3.9025	0.762615	5.6092	0.955057	7.01413
0.39506	2.87779	0.256115	1.83347	0.39564	2.87528	0.554939	4.05877	0.668365	4.88668	0.900792	6.57097	0.39811	2.90943	0.534724	3.88633	0.763466	5.57723	0.955794	6.97183
0.396748	2.8706	0.258151	1.8358	0.397334	2.86817	0.55624	4.04075	0.669705	4.86335	0.901614	6.53257	0.400235	2.90518	0.536142	3.87043	0.764321	5.54574	0.956536	6.93015
0.398455	2.86364	0.260187	1.8381	0.399048	2.8613	0.557547	4.02301	0.671051	4.84037	0.902441	6.49471	0.40236	2.90099	0.537567	3.85479	0.765182	5.5147	0.957282	6.88905
0.400182	2.85693	0.262223	1.84036	0.400782	2.85466	0.55886	4.00556	0.672403	4.81774	0.903273	6.4574	0.404485	2.89685	0.538998	3.8394	0.766047	5.48411	0.958033	6.84853
0.401929	2.85044	0.264259	1.84261	0.402536	2.84825	0.560179	3.98838	0.67376	4.79546	0.904109	6.42062	0.40661	2.89277	0.540436	3.82426	0.766918	5.45397	0.958788	6.80859
0.403696	2.84418	0.266295	1.84482	0.40431	2.84207	0.561503	3.97146	0.675123	4.7735	0.904951	6.38435	0.408736	2.88874	0.541879	3.80937	0.767793	5.42425	0.959548	6.76919
0.405483	2.83814	0.268331	1.847	0.406104	2.83611	0.562833	3.95481	0.676491	4.75187	0.905797	6.34859	0.410861	2.88476	0.54333	3.79471	0.768674	5.39497	0.960312	6.73035
0.40729	2.83232	0.270367	1.84916	0.407919	2.83036	0.564168	3.93841	0.677865	4.73057	0.906648	6.31333	0.412986	2.88084	0.544786	3.78028	0.76956	5.36609	0.961081	6.69204
0.409118	2.82671	0.272403	1.85129	0.409753	2.82483	0.565509	3.92226	0.679245	4.70957	0.907504	6.27856	0.41511	2.87696	0.546248	3.76608	0.770451	5.33763	0.961854	6.65426
0.410965	2.82131	0.274439	1.85339	0.411607	2.8195	0.566856	3.90635	0.68063	4.68888	0.908365	6.24426	0.417235	2.87313	0.547717	3.7521	0.771346	5.30956	0.962632	6.61699
0.412832	2.81612	0.276476	1.85547	0.413481	2.81437	0.568208	3.89069	0.68202	4.6685	0.909231	6.21044	0.41936	2.86936	0.549192	3.73835	0.772247	5.28189	0.963414	6.58022
0.414719	2.81112	0.278512	1.85752	0.415374	2.80944	0.569566	3.87527	0.683415	4.6484	0.910101	6.17707	0.421484	2.86562	0.550673	3.7248	0.773153	5.2546	0.964201	6.54395
0.416625	2.80632	0.280548	1.85955	0.417287	2.80471	0.570929	3.86007	0.684816	4.6286	0.910976	6.14416	0.423609	2.86194	0.55216	3.71147	0.774064	5.22769	0.964992	6.50817
0.41855	2.8017	0.282585	1.86155	0.419219	2.80015	0.572297	3.8451	0.686223	4.60908	0.911856	6.11169	0.425733	2.8583	0.553653	3.69835	0.774979	5.20114	0.965788	6.47286
0.420494	2.79727	0.284621	1.86352	0.421169	2.79578	0.573671	3.83035	0.687634	4.58984	0.91274	6.07965	0.427857	2.8547	0.555152	3.68542	0.7759	5.17496	0.966588	6.43802
0.422456	2.79302	0.286657	1.86548	0.423138	2.79159	0.57505	3.81582	0.689051	4.57087	0.91363	6.04804	0.42998	2.85114	0.556657	3.6727	0.776825	5.14914	0.967392	6.40364
0.424437	2.78893	0.288694	1.86741	0.425125	2.78756	0.576434	3.8015	0.690472	4.55217	0.914524	6.01685	0.432104	2.84763	0.558168	3.66017	0.777756	5.12366	0.968201	6.36971
0.426435	2.78501	0.29073	1.86931	0.427129	2.7837	0.577823	3.7874	0.691899	4.53372	0.915422	5.98607	0.434227	2.84416	0.559685	3.64783	0.778691	5.09853	0.969014	6.33622
0.428451	2.78125	0.292766	1.8712	0.42915	2.77999	0.579218	3.77349	0.693331	4.51554	0.916326	5.95569	0.43635	2.84073	0.561208	3.63568	0.779632	5.07374	0.969832	6.30317
0.430483	2.77765	0.294803	1.87306	0.431189	2.77644	0.580618	3.75979	0.694768	4.49761	0.917234	5.92571	0.438472	2.83734	0.562736	3.62371	0.780577	5.04927	0.970654	6.27054
0.432532	2.77419	0.296839	1.8749	0.433243	2.77303	0.582022	3.74628	0.69621	4.47992	0.918147	5.89612	0.440594	2.83398	0.564271	3.61192	0.781527	5.02513	0.97148	6.23833
0.434597	2.77087	0.298875	1.87671	0.435313	2.76976	0.583432	3.73297	0.697657	4.46248	0.919064	5.86691	0.442716	2.83067	0.565811	3.60031	0.782482	5.00131	0.972311	6.20653
0.436677	2.76769	0.300911	1.87851	0.437398	2.76663	0.584847	3.71985	0.699109	4.44528	0.919986	5.83807	0.444838	2.82739	0.567357	3.58887	0.783441	4.9778	0.973146	6.17514
0.438772	2.76465	0.302947	1.88028	0.439498	2.76363	0.586267	3.70691	0.700566	4.42831	0.920913	5.8096	0.446959	2.82415	0.568908	3.5776	0.784406	4.9546	0.973986	6.14414
0.440881	2.76173	0.304983	1.88204	0.441613	2.76075	0.587692	3.69416	0.702028	4.41156	0.921844	5.7815	0.449079	2.82094	0.570466	3.56649	0.785375	4.9317	0.97483	6.11353
0.443005	2.75892	0.307019	1.88377	0.443741	2.75799	0.589122	3.68159	0.703494	4.39505	0.92278	5.75375	0.4512	2.81777	0.572029	3.55555	0.78635	4.9091	0.975678	6.08331
0.445141	2.75624	0.309055	1.88548	0.445882	2.75534	0.590556	3.66919	0.704965	4.37875	0.923721	5.72635	0.453319	2.81463	0.573597	3.54478	0.787329	4.88679	0.97653	6.05346
0.447291	2.75366	0.311091	1.88718	0.448036	2.7528	0.591996	3.65696	0.706441	4.36267	0.924666	5.69929	0.455439	2.81152	0.575172	3.53416	0.788312	4.86476	0.977387	6.02398
0.449453	2.75119	0.313127	1.88885	0.450202	2.75037	0.59344	3.64491	0.707922	4.3468	0.925616	5.67257	0.457557	2.80845	0.576751	3.52369	0.789301	4.84302	0.978248	5.99486
0.451627	2.74882	0.315162	1.8905	0.45238	2.74803	0.594889	3.63302	0.709407	4.33115	0.92657	5.64617	0.459676	2.80541	0.578337	3.51338	0.790294	4.82155	0.979113	5.9661
0.453813	2.74655	0.317198	1.89214	0.454569	2.74579	0.596343	3.62129	0.710897	4.31569	0.927529	5.62011	0.461793	2.8024	0.579927	3.50321	0.791292	4.80035	0.979983	5.93769
0.456009	2.74437	0.319233	1.89376	0.45677	2.74364	0.597802	3.60973	0.712392	4.30044	0.928492	5.59436	0.463911	2.79942	0.581524	3.4932	0.792295	4.77942	0.980857	5.90962
0.458216	2.74228	0.321269	1.89535	0.45898	2.74157	0.599265	3.59832	0.713891	4.28539	0.92946	5.56893	0.466027	2.79647	0.583125	3.48332	0.793303	4.75875	0.981735	5.88189
0.460433	2.74026	0.323304	1.89693	0.4612	2.73959	0.600733	3.58706	0.715395	4.27053	0.930432	5.54381	0.468143	2.79355	0.584733	3.47359	0.794315	4.73834	0.982617	5.8545
0.46266	2.73833	0.325339	1.8985	0.46343	2.73768	0.602205	3.57596	0.716903	4.25587	0.931409	5.519	0.470259	2.79065	0.586345	3.464	0.795332	4.71818	0.983504	5.82743
0.464896	2.73648	0.327374	1.90004	0.465669	2.73585	0.603682	3.56501	0.718415	4.24138	0.932391	5.49448	0.472373	2.78779	0.587963	3.45454	0.796353	4.69828	0.984395	5.80069
0.46714	2.73469	0.329409	1.90157	0.467917	2.73409	0.605163	3.5542	0.719932	4.22709	0.933376	5.47025	0.474488	2.78496	0.589586	3.44522	0.79738	4.67861	0.98529	5.77426
0.469394	2.73298	0.331443	1.90308	0.470173	2.7324	0.606649	3.54354	0.721453	4.21298	0.934367	5.44632	0.476601	2.78215	0.591215	3.43603	0.798411	4.65919	0.986189	5.74815
0.471655	2.73132	0.333478	1.90457	0.472437	2.73077	0.60814	3.53302	0.722979	4.19904	0.935362	5.42267	0.478714	2.77936	0.592849	3.42697	0.799446	4.64001	0.987092	5.72234
0.473924	2.72974	0.335513	1.90605	0.474709	2.7292	0.609635	3.52264	0.724509	4.18528	0.936361	5.3993	0.480826	2.77661	0.594488	3.41803	0.800487	4.62106	0.988	5.69683
0.4762	2.72821	0.337547	1.90751	0.476987	2.72769	0.611134	3.51239	0.726043	4.17169	0.937364	5.3762	0.482938	2.77388	0.596132	3.40923	0.801531	4.60234	0.988911	5.67162
0.478484	2.72673	0.339581	1.90896	0.479273	2.72624	0.612638	3.50228	0.727582	4.15827	0.938372	5.35337	0.485048	2.77117	0.597782	3.40054	0.802581	4.58384	0.989827	5.6467
0.480774	2.72531	0.341615	1.91038	0.481565	2.72484	0.614146	3.4923	0.729124	4.14501	0.939385	5.33082	0.487158	2.76849	0.599437	3.39198	0.803635	4.56557	0.990747	5.62206
0.48307	2.72395	0.343649	1.9118	0.483864	2.72349	0.615658	3.48245	0.730671	4.13192	0.940402	5.30852	0.489268	2.76583	0.601096	3.38353	0.804694	4.54751	0.991671	5.59771
0.485373	2.72263	0.345683	1.9132	0.486169	2.72218	0.617175	3.47273	0.732222	4.11899	0.941423	5.28648	0.491376	2.7632	0.602761	3.3752	0.805757	4.52967	0.9926	5.57364
0.487681	2.72135	0.347716	1.91458	0.488479	2.72093	0.618696	3.46313	0.733778	4.10622	0.942448	5.26469	0.493484	2.76059	0.604432	3.36699	0.806825	4.51204	0.993532	5.54984
0.489995	2.72013	0.34975	1.91595	0.490795	2.71971	0.620221	3.45365	0.735337	4.0936	0.943478	5.24316	0.495591	2.758	0.606107	3.35889	0.807897	4.49462	0.994469	5.52631
0.492315	2.71894	0.351783	1.9173	0.493117	2.71854	0.62175	3.4443	0.7369	4.08113	0.944513	5.22187	0.497697	2.75543	0.607787	3.3509	0.808974	4.4774	0.995409	5.50305
0.494639	2.71779	0.353816	1.91864	0.495443	2.71741	0.623283	3.43506	0.738467	4.06882	0.945551	5.20082	0.499802	2.75289	0.609472	3.34301	0.810055	4.46039	0.996354	5.48004
0.496969	2.71668	0.355849	1.91996	0.497774	2.71631	0.624821	3.42595	0.740039	4.05665	0.946594	5.18001	0.501907	2.75037	0.611162	3.33524	0.811141	4.44357	0.997303	5.45729
0.499303	2.71561	0.357882	1.92127	0.500109	2.71525	0.626363	3.41694	0.741614	4.04463	0.947641	5.15944	0.504011	2.74786	0.612857	3.32757	0.812232	4.42695	0.998255	5.4348
0.501641	2.71457	0.359915	1.92257	0.502449	2.71422	0.627908	3.40805	0.743193	4.03275	0.948693	5.1391	0.506113	2.74538	0.614558	3.32001	0.813327	4.41052	0.999212	5.41255
0.503984	2.71357	0.361947	1.92385	0.504793	2.71323	0.629458	3.39928	0.744776	4.02101	0.949749	5.11898	0.508215	2.74292	0.616263	3.31255	0.814426	4.39428	1.00017	5.39055
0.506331	2.7126	0.363979	1.92512	0.507141	2.71227	0.631012	3.39061	0.746363	4.00941	0.950809	5.09909	0.510316	2.74048	0.617972	3.30519	0.81553	4.37823		
0.508681	2.71166	0.366012	1.92637	0.509493	2.71134	0.632569	3.38204	0.747953	3.99795	0.951873	5.07942	0.512416	2.73806	0.619687	3.29792	0.816638	4.36236		
0.511036	2.71074	0.368043	1.92761	0.511849	2.71043	0.634131	3.37359	0.749548	3.98662	0.952942	5.05996	0.514516	2.73566	0.621407	3.29076	0.817751	4.34667		
0.513393	2.70986	0.370075	1.92884	0.514208	2.70956	0.635697	3.36524	0.751146	3.97542	0.954015	5.04072	0.516614	2.73327	0.623131	3.28369	0.818868	4.33116		
0.515755	2.709	0.372107	1.93006	0.51657	2.70871	0.637266	3.35699	0.752748	3.96435	0.955092	5.02169	0.518711	2.73091	0.62486	3.27671	0.81999	4.31582		
0.518119	2.70816	0.374138	1.93126	0.518936	2.70788	0.638839	3.34884	0.754354	3.95341	0.956173	5.00287	0.520808	2.72856	0.626594	3.26983	0.821116	4.30066		
0.520486	2.70735	0.376169	1.93245	0.521304	2.70708	0.640417	3.34079	0.755963	3.94259	0.957258	4.98425	0.522903	2.72623	0.628333	3.26304	0.822246	4.28566		
0.522857	2.70657	0.3782	1.93363	0.523675	2.7063	0.641997	3.33284	0.757576	3.9319	0.958348	4.96583	0.524998	2.72392	0.630076	3.25634	0.823381	4.27084		
0.52523	2.7058	0.380231	1.9348	0.52605	2.70554	0.643582	3.32499	0.759193	3.92132	0.959442	4.94762	0.527091	2.72163	0.631824	3.24972	0.82452	4.25618		
0.527606	2.70506	0.382262	1.93595	0.528426	2.70481	0.645171	3.31723	0.760813	3.91087	0.96054	4.92959	0.529183	2.71935	0.633577	3.2432	0.825664	4.24168		
0.529984	2.70433	0.384292	1.93709	0.530806	2.70409	0.646763	3.30956	0.762437	3.90054	0.961642	4.91176	0.531275	2.71709	0.635335	3.23675	0.826812	4.22735		
0.532365	2.70363	0.386322	1.93823	0.533187	2.70339	0.648359	3.30198	0.764064	3.89032	0.962748	4.89412	0.533365	2.71484	0.637096	3.2304	0.827964	4.21317		
0.534748	2.70294	0.388352	1.93935	0.535571	2.70271	0.649959	3.2945	0.765695	3.88022	0.963859	4.87667	0.535455	2.71261	0.638863	3.22412	0.829121	4.19914		
0.537134	2.70228	0.390382	1.94045	0.537958	2.70205	0.651562	3.2871	0.767329	3.87023	0.964973	4.8594	0.537543	2.7104	0.640634	3.21793	0.830282	4.18528		
0.539522	2.70162	0.392411	1.94155	0.540346	2.7014	0.653169	3.27979	0.768967	3.86035	0.966092	4.84232	0.53963	2.7082	0.64241	3.21182	0.831447	4.17156		
0.541911	2.70099	0.394441	1.94264	0.542736	2.70077	0.65478	3.27257	0.770608	3.85057	0.967215	4.82541	0.541717	2.70602	0.64419	3.20579	0.832616	4.15799		
0.544303	2.70037	0.39647	1.94371	0.545129	2.70016	0.656394	3.26543	0.772253	3.84091	0.968341	4.80868	0.543802	2.70385	0.645975	3.19983	0.83379	4.14457		
0.546696	2.69977	0.398499	1.94477	0.547523	2.69956	0.658011	3.25837	0.773901	3.83135	0.969472	4.79213	0.545886	2.7017	0.647764	3.19395	0.834968	4.13129		
0.549092	2.69918	0.400528	1.94583	0.549919	2.69897	0.659633	3.2514	0.775552	3.8219	0.970607	4.77574	0.547969	2.69956	0.649557	3.18815	0.83615	4.11815		
0.551489	2.6986	0.402556	1.94687	0.552316	2.6984	0.661257	3.24451	0.777207	3.81255	0.971746	4.75953	0.550051	2.69743	0.651355	3.18242	0.837337	4.10516		
0.553887	2.69804	0.404584	1.9479	0.554716	2.69784	0.662886	3.2377	0.778864	3.8033	0.972889	4.74348	0.552132	2.69532	0.653157	3.17677	0.838527	4.0923		
0.556288	2.69748	0.406612	1.94892	0.557116	2.6973	0.664517	3.23097	0.780526	3.79415	0.974036	4.7276	0.554212	2.69323	0.654964	3.17118	0.839722	4.07959		
0.558689	2.69695	0.40864	1.94994	0.559518	2.69676	0.666152	3.22431	0.78219	3.78509	0.975187	4.71188	0.55629	2.69114	0.656775	3.16567	0.840921	4.067		
0.561092	2.69642	0.410668	1.95094	0.561922	2.69624	0.667791	3.21773	0.783857	3.77614	0.976343	4.69631	0.558368	2.68907	0.65859	3.16023	0.842125	4.05455		
0.563497	2.6959	0.412695	1.95193	0.564327	2.69573	0.669433	3.21123	0.785528	3.76728	0.977502	4.68091	0.560444	2.68702	0.66041	3.15486	0.843332	4.04223		
0.565903	2.6954	0.414722	1.95291	0.566733	2.69523	0.671078	3.2048	0.787202	3.75851	0.978665	4.66567	0.562519	2.68497	0.662234	3.14955	0.844544	4.03005		
0.56831	2.6949	0.416749	1.95388	0.569141	2.69474	0.672727	3.19844	0.788879	3.74984	0.979832	4.65057	0.564594	2.68294	0.664062	3.14431	0.84576	4.01798		
0.570718	2.69442	0.418776	1.95485	0.571549	2.69425	0.674379	3.19215	0.790559	3.74126	0.981003	4.63563	0.566666	2.68092	0.665894	3.13914	0.84698	4.00605		
0.573127	2.69394	0.420803	1.9558	0.573959	2.69378	0.676035	3.18594	0.792242	3.73276	0.982178	4.62084	0.568738	2.67892	0.66773	3.13403	0.848204	3.99424		
0.575537	2.69348	0.422829	1.95674	0.576369	2.69332	0.677693	3.17979	0.793928	3.72436	0.983357	4.6062	0.570809	2.67692	0.669571	3.12899	0.849432	3.98255		
0.577949	2.69302	0.424855	1.95768	0.578781	2.69286	0.679355	3.17372	0.795618	3.71604	0.984539	4.5917	0.572878	2.67494	0.671416	3.12401	0.850665	3.97098		
0.580361	2.69257	0.426881	1.95861	0.581194	2.69242	0.681021	3.16771	0.79731	3.70781	0.985726	4.57734	0.574947	2.67297	0.673265	3.11909	0.851901	3.95953		
0.582774	2.69213	0.428906	1.95952	0.583607	2.69198	0.682689	3.16177	0.799005	3.69966	0.986917	4.56313	0.577014	2.67101	0.675117	3.11423	0.853142	3.9482		
0.585188	2.6917	0.430932	1.96043	0.586022	2.69155	0.684361	3.15589	0.800703	3.6916	0.988111	4.54905	0.57908	2.66906	0.676974	3.10943	0.854387	3.93699		
0.587603	2.69127	0.432957	1.96133	0.588437	2.69113	0.686036	3.15008	0.802404	3.68362	0.98931	4.53512	0.581145	2.66713	0.678835	3.10469	0.855636	3.92588		
0.590019	2.69085	0.434982	1.96222	0.590853	2.69071	0.687714	3.14434	0.804108	3.67572	0.990512	4.52132	0.583208	2.6652	0.6807	3.10001	0.856888	3.9149		
0.592435	2.69044	0.437006	1.96311	0.593269	2.6903	0.689395	3.13865	0.805815	3.6679	0.991718	4.50765	0.585271	2.66329	0.682569	3.09539	0.858145	3.90402		
0.594852	2.69004	0.439031	1.96398	0.595687	2.6899	0.69108	3.13303	0.807525	3.66016	0.992928	4.49412	0.587332	2.66138	0.684442	3.09082	0.859406	3.89326		
0.59727	2.68964	0.441055	1.96485	0.598105	2.6895	0.692767	3.12747	0.809237	3.6525	0.994142	4.48072	0.589392	2.65949	0.686319	3.08631	0.860671	3.8826		
0.599689	2.68925	0.443079	1.9657	0.600523	2.68911	0.694458	3.12197	0.810952	3.64491	0.995359	4.46745	0.591451	2.65761	0.688199	3.08186	0.86194	3.87205		
0.602107	2.68886	0.445103	1.96655	0.602942	2.68873	0.696152	3.11653	0.812671	3.6374	0.996581	4.4543	0.593508	2.65573	0.690084	3.07746	0.863213	3.86161		
0.604527	2.68848	0.447126	1.96739	0.605362	2.68835	0.697849	3.11115	0.814391	3.62997	0.997806	4.44129	0.595565	2.65387	0.691972	3.07311	0.86449	3.85127		
0.606947	2.6881	0.449149	1.96823	0.607782	2.68797	0.699548	3.10583	0.816115	3.62261	0.999035	4.42839	0.59762	2.65202	0.693865	3.06881	0.865771	3.84103		
0.609367	2.68773	0.451172	1.96905	0.610203	2.6876	0.701252	3.10057	0.817841	3.61532	1.00027	4.41562	0.599674	2.65018	0.695761	3.06457	0.867056	3.8309		
0.611788	2.68737	0.453195	1.96987	0.612624	2.68724	0.702958	3.09536	0.81957	3.6081			0.601727	2.64835	0.69766	3.06038	0.868345	3.82086		
0.61421	2.687	0.455218	1.97068	0.615045	2.68688	0.704667	3.09021	0.821302	3.60095			0.603779	2.64652	0.699564	3.05624	0.869638	3.81093		
0.616631	2.68665	0.45724	1.97148	0.617467	2.68653	0.706379	3.08511	0.823036	3.59388			0.605829	2.64471	0.701471	3.05215	0.870935	3.80109		
0.619053	2.6863	0.459262	1.97228	0.619889	2.68618	0.708094	3.08007	0.824773	3.58687			0.607878	2.64291	0.703382	3.04811	0.872236	3.79135		
0.621476	2.68595	0.461284	1.97307	0.622312	2.68583	0.709812	3.07508	0.826513	3.57993			0.609926	2.64111	0.705296	3.04411	0.87354	3.78171		
0.623898	2.6856	0.463305	1.97385	0.624734	2.68549	0.711533	3.07014	0.828255	3.57306			0.611973	2.63933	0.707214	3.04016	0.874849	3.77216		
0.626321	2.68526	0.465326	1.97462	0.627157	2.68515	0.713257	3.06526	0.83	3.56625			0.614019	2.63755	0.709136	3.03626	0.876162	3.7627		
0.628744	2.68493	0.467347	1.97539	0.62958	2.68481	0.714984	3.06043	0.831747	3.55951			0.616063	2.63578	0.711061	3.03241	0.877478	3.75334		
0.631167	2.68459	0.469368	1.97615	0.632004	2.68448	0.716714	3.05565	0.833497	3.55283			0.618107	2.63403	0.71299	3.0286	0.878798	3.74407		
0.633591	2.68427	0.471389	1.9769	0.634427	2.68415	0.718447	3.05091	0.835249	3.54621			0.620149	2.63228	0.714922	3.02484	0.880123	3.73488		
0.636014	2.68394	0.473409	1.97764	0.636851	2.68383	0.720182	3.04623	0.837004	3.53966			0.62219	2.63054	0.716858	3.02112	0.881451	3.72579		
0.638438	2.68361	0.475429	1.97838	0.639274	2.6835	0.721921	3.0416	0.838761	3.53317			0.624229	2.62881	0.718797	3.01745	0.882783	3.71678		
0.640861	2.68329	0.477449	1.97911	0.641698	2.68318	0.723663	3.03702	0.84052	3.52674			0.626268	2.62708	0.72074	3.01381	0.884118	3.70786		
0.643285	2.68298	0.479468	1.97984	0.644122	2.68287	0.725407	3.03248	0.842282	3.52037			0.628305	2.62537	0.722686	3.01022	0.885458	3.69902		
0.645709	2.68266	0.481488	1.98056	0.646545	2.68255	0.727154	3.02799	0.844047	3.51406			0.630341	2.62366	0.724635	3.00667	0.886801	3.69027		
0.648133	2.68235	0.483507	1.98127	0.648969	2.68224	0.728904	3.02355	0.845813	3.50781			0.632376	2.62196	0.726588	3.00317	0.888149	3.6816		
0.650556	2.68204	0.485525	1.98198	0.651393	2.68193	0.730657	3.01915	0.847583	3.50162			0.63441	2.62027	0.728544	2.9997	0.8895	3.67302		
0.65298	2.68173	0.487544	1.98268	0.653816	2.68162	0.732413	3.0148	0.849354	3.49548			0.636443	2.61859	0.730504	2.99627	0.890855	3.66452		
0.655404	2.68142	0.489562	1.98337	0.65624	2.68131	0.734172	3.01049	0.851128	3.4894			0.638474	2.61692	0.732466	2.99289	0.892213	3.65609		
0.657827	2.68112	0.49158	1.98405	0.658663	2.68101	0.735933	3.00623	0.852904	3.48338			0.640504	2.61525	0.734432	2.98954	0.893576	3.64775		
0.66025	2.68081	0.493598	1.98474	0.661087	2.68071	0.737698	3.00201	0.854682	3.47741			0.642533	2.6136	0.736401	2.98623	0.894942	3.63948		
0.662673	2.68051	0.495616	1.98541	0.66351	2.68041	0.739465	2.99784	0.856463	3.4715			0.644561	2.61195	0.738373	2.98295	0.896312	3.6313		
0.665096	2.68021	0.497633	1.98608	0.665932	2.68011	0.741235	2.99371	0.858245	3.46563			0.646588	2.6103	0.740348	2.97972	0.897685	3.62318		
0.667519	2.67991	0.49965	1.98674	0.668355	2.67981	0.743008	2.98962	0.86003	3.45982			0.648614	2.60867	0.742327	2.97652	0.899063	3.61515		
0.669942	2.67961	0.501667	1.9874	0.670777	2.67951	0.744784	2.98557	0.861818	3.45407			0.650638	2.60704	0.744308	2.97336	0.900444	3.60719		
0.672364	2.67932	0.503683	1.98805	0.6732	2.67922	0.746562	2.98156	0.863607	3.44836			0.652662	2.60542	0.746293	2.97023	0.901829	3.5993		
0.674786	2.67902	0.5057	1.98869	0.675621	2.67892	0.748343	2.9776	0.865398	3.44271			0.654684	2.60381	0.74828	2.96714	0.903218	3.59149		
0.677207	2.67873	0.507716	1.98933	0.678043	2.67863	0.750127	2.97367	0.867192	3.4371			0.656705	2.60221	0.750271	2.96408	0.90461	3.58375		
0.679628	2.67843	0.509731	1.98997	0.680464	2.67833	0.751914	2.96979	0.868988	3.43155			0.658725	2.60061	0.752265	2.96106	0.906006	3.57608		
0.682049	2.67814	0.511747	1.99059	0.682885	2.67804	0.753704	2.96594	0.870785	3.42604			0.660744	2.59902	0.754261	2.95807	0.907406	3.56848		
0.68447	2.67785	0.513762	1.99122	0.685305	2.67775	0.755496	2.96213	0.872585	3.42059			0.662762	2.59744	0.75626	2.95511	0.908809	3.56096		
0.68689	2.67756	0.515777	1.99183	0.687725	2.67746	0.757291	2.95837	0.874387	3.41518			0.664779	2.59587	0.758263	2.95219	0.910216	3.5535		
0.689309	2.67726	0.517792	1.99245	0.690144	2.67716	0.75909	2.95464	0.876191	3.40982			0.666795	2.5943	0.760268	2.9493	0.911627	3.5461		
0.691728	2.67697	0.519807	1.99305	0.692563	2.67687	0.76089	2.95094	0.877997	3.4045			0.668809	2.59274	0.762276	2.94644	0.913041	3.53878		
0.694147	2.67668	0.521821	1.99365	0.694981	2.67658	0.762694	2.94729	0.879805	3.39923			0.670823	2.59119	0.764286	2.94361	0.914459	3.53153		
0.696565	2.67639	0.523835	1.99425	0.697399	2.67629	0.7645	2.94367	0.881616	3.39401			0.672835	2.58964	0.7663	2.94081	0.915881	3.52433		
0.698982	2.6761	0.525849	1.99484	0.699817	2.676	0.76631	2.94009	0.883427	3.38883			0.674847	2.5881	0.768316	2.93804	0.917306	3.51721		
0.701399	2.67581	0.527862	1.99543	0.702233	2.67571	0.768122	2.93655	0.885241	3.38369			0.676857	2.58657	0.770335	2.9353	0.918735	3.51015		
0.703816	2.67552	0.529875	1.99601	0.704649	2.67541	0.769937	2.93304	0.887057	3.3786			0.678866	2.58504	0.772356	2.93259	0.920168	3.50315		
0.706231	2.67522	0.531888	1.99658	0.707065	2.67512	0.771754	2.92956	0.888875	3.37355			0.680875	2.58353	0.77438	2.92991	0.921604	3.49622		
0.708646	2.67493	0.533901	1.99715	0.709479	2.67483	0.773575	2.92613	0.890695	3.36855			0.682882	2.58201	0.776407	2.92726	0.923044	3.48935		
0.71106	2.67464	0.535914	1.99772	0.711893	2.67454	0.775398	2.92272	0.892516	3.36358			0.684888	2.58051	0.778436	2.92464	0.924487	3.48254		
0.713474	2.67434	0.537926	1.99828	0.714306	2.67424	0.777224	2.91935	0.89434	3.35866			0.686893	2.57901	0.780468	2.92205	0.925934	3.47579		
0.715886	2.67405	0.539938	1.99884	0.716719	2.67395	0.779053	2.91602	0.896165	3.35378			0.688898	2.57752	0.782502	2.91948	0.927384	3.4691		
0.718298	2.67375	0.54195	1.99939	0.71913	2.67365	0.780885	2.91272	0.897992	3.34894			0.690901	2.57603	0.784539	2.91694	0.928838	3.46247		
0.720709	2.67345	0.543961	1.99993	0.721541	2.67335	0.78272	2.90945	0.899821	3.34415			0.692903	2.57456	0.786578	2.91442	0.930296	3.4559		
0.723119	2.67316	0.545972	2.00047	0.723951	2.67305	0.784557	2.90622	0.901652	3.33939			0.694905	2.57309	0.78862	2.91194	0.931757	3.44939		
0.725529	2.67286	0.547983	2.00101	0.72636	2.67275	0.786398	2.90301	0.903484	3.33467			0.696905	2.57162	0.790664	2.90948	0.933222	3.44294		
0.727937	2.67256	0.549994	2.00154	0.728768	2.67245	0.788241	2.89985	0.905319	3.32999			0.698904	2.57016	0.792711	2.90704	0.93469	3.43654		
0.730344	2.67225	0.552004	2.00207	0.731175	2.67215	0.790087	2.89671	0.907155	3.32534			0.700903	2.56871	0.794759	2.90463	0.936162	3.43021		
0.732751	2.67195	0.554015	2.0026	0.733581	2.67184	0.791937	2.8936	0.908992	3.32074			0.702901	2.56727	0.79681	2.90224	0.937637	3.42392		
0.735156	2.67164	0.556024	2.00312	0.735986	2.67154	0.793789	2.89053	0.910832	3.31617			0.704897	2.56583	0.798864	2.89988	0.939116	3.41769		
0.73756	2.67134	0.558034	2.00363	0.73839	2.67123	0.795644	2.88749	0.912673	3.31164			0.706893	2.56439	0.800919	2.89754	0.940598	3.41152		
0.739963	2.67103	0.560044	2.00414	0.740793	2.67092	0.797502	2.88448	0.914516	3.30715			0.708888	2.56297	0.802977	2.89523	0.942084	3.4054		
0.742365	2.67071	0.562053	2.00465	0.743194	2.67061	0.799363	2.8815	0.916361	3.30269			0.710882	2.56155	0.805037	2.89294	0.943574	3.39934		
0.744766	2.6704	0.564062	2.00515	0.745594	2.67029	0.801227	2.87855	0.918207	3.29827			0.712875	2.56014	0.807099	2.89067	0.945066	3.39333		
0.747166	2.67009	0.56607	2.00565	0.747994	2.66998	0.803094	2.87563	0.920055	3.29388			0.714867	2.55873	0.809163	2.88842	0.946563	3.38737		
0.749564	2.66977	0.568079	2.00614	0.750392	2.66966	0.804964	2.87275	0.921904	3.28953			0.716858	2.55733	0.81123	2.8862	0.948062	3.38146		
0.751961	2.66945	0.570087	2.00663	0.752788	2.66933	0.806837	2.86989	0.923755	3.28521			0.718849	2.55593	0.813298	2.884	0.949566	3.3756		
0.754357	2.66912	0.572095	2.00712	0.755183	2.66901	0.808713	2.86706	0.925608	3.28093			0.720838	2.55455	0.815368	2.88182	0.951072	3.3698		
0.756751	2.6688	0.574103	2.0076	0.757577	2.66868	0.810593	2.86426	0.927462	3.27668			0.722827	2.55316	0.817441	2.87966	0.952582	3.36404		
0.759144	2.66847	0.57611	2.00807	0.759969	2.66835	0.812475	2.86149	0.929318	3.27247			0.724815	2.55179	0.819515	2.87753	0.954096	3.35834		
0.761535	2.66813	0.578117	2.00855	0.76236	2.66802	0.814361	2.85875	0.931175	3.26829			0.726802	2.55042	0.821592	2.87541	0.955613	3.35268		
0.763925	2.6678	0.580124	2.00902	0.76475	2.66768	0.816249	2.85604	0.933034	3.26414			0.728789	2.54905	0.82367	2.87331	0.957133	3.34708		
0.766313	2.66746	0.582131	2.00948	0.767137	2.66734	0.818141	2.85336	0.934894	3.26002			0.730774	2.5477	0.82575	2.87124	0.958657	3.34152		
0.7687	2.66712	0.584137	2.00994	0.769523	2.667	0.820037	2.85071	0.936756	3.25593			0.732759	2.54635	0.827832	2.86918	0.960185	3.33601		
0.771085	2.66677	0.586143	2.0104	0.771908	2.66665	0.821935	2.84808	0.938619	3.25188			0.734743	2.545	0.829916	2.86715	0.961715	3.33055		
0.773468	2.66642	0.588149	2.01086	0.774291	2.6663	0.823837	2.84549	0.940484	3.24786			0.736726	2.54366	0.832001	2.86513	0.96325	3.32513		
0.77585	2.66607	0.590155	2.01131	0.776671	2.66595	0.825742	2.84292	0.942351	3.24386			0.738709	2.54233	0.834088	2.86313	0.964787	3.31976		
0.77823	2.66571	0.59216	2.01175	0.779051	2.66559	0.827651	2.84038	0.944218	3.2399			0.740691	2.541	0.836177	2.86115	0.966328	3.31444		
0.780608	2.66535	0.594165	2.0122	0.781428	2.66523	0.829563	2.83787	0.946087	3.23597			0.742672	2.53968	0.838268	2.85919	0.967872	3.30916		
0.782984	2.66499	0.59617	2.01264	0.783803	2.66486	0.831478	2.83538	0.947958	3.23207			0.744652	2.53836	0.840361	2.85725	0.96942	3.30393		
0.785358	2.66462	0.598175	2.01307	0.786176	2.66449	0.833397	2.83293	0.94983	3.2282			0.746632	2.53705	0.842455	2.85532	0.970971	3.29874		
0.78773	2.66424	0.600179	2.0135	0.788548	2.66411	0.83532	2.8305	0.951703	3.22435			0.748611	2.53575	0.84455	2.85341	0.972526	3.29359		
0.790099	2.66386	0.602184	2.01393	0.790917	2.66373	0.837245	2.82809	0.953578	3.22054			0.750589	2.53445	0.846648	2.85152	0.974083	3.28849		
0.792467	2.66348	0.604187	2.01436	0.793284	2.66335	0.839175	2.82572	0.955454	3.21675			0.752566	2.53316	0.848746	2.84965	0.975645	3.28344		
0.794833	2.66309	0.606191	2.01478	0.795649	2.66296	0.841108	2.82337	0.957332	3.213			0.754543	2.53188	0.850847	2.84779	0.977209	3.27842		
0.797196	2.6627	0.608194	2.0152	0.798011	2.66256	0.843045	2.82105	0.95921	3.20927			0.756519	2.5306	0.852949	2.84595	0.978777	3.27345		
0.799557	2.6623	0.610198	2.01561	0.800371	2.66216	0.844986	2.81876	0.961091	3.20556			0.758495	2.52932	0.855052	2.84413	0.980349	3.26852		
0.801916	2.6619	0.612201	2.01602	0.802729	2.66175	0.84693	2.81649	0.962972	3.20189			0.76047	2.52805	0.857157	2.84232	0.981923	3.26363		
0.804272	2.66149	0.614203	2.01643	0.805085	2.66134	0.848878	2.81425	0.964855	3.19824			0.762444	2.52679	0.859263	2.84053	0.983501	3.25879		
0.806626	2.66107	0.616206	2.01684	0.807438	2.66093	0.85083	2.81203	0.966739	3.19462			0.764418	2.52553	0.86137	2.83876	0.985083	3.25398		
0.808977	2.66065	0.618208	2.01724	0.809788	2.6605	0.852786	2.80984	0.968624	3.19103			0.766391	2.52428	0.863479	2.83699	0.986667	3.24922		
0.811326	2.66022	0.62021	2.01764	0.812136	2.66007	0.854746	2.80768	0.970511	3.18746			0.768364	2.52304	0.86559	2.83525	0.988255	3.24449		
0.813672	2.65979	0.622211	2.01803	0.814481	2.65964	0.85671	2.80555	0.972398	3.18391			0.770335	2.52179	0.867701	2.83352	0.989846	3.23981		
0.816015	2.65935	0.624213	2.01842	0.816823	2.6592	0.858678	2.80344	0.974287	3.1804			0.772307	2.52056	0.869814	2.8318	0.991441	3.23516		
0.818355	2.6589	0.626214	2.01881	0.819162	2.65875	0.86065	2.80136	0.976177	3.17691			0.774278	2.51933	0.871928	2.8301	0.993039	3.23055		
0.820692	2.65845	0.628215	2.0192	0.821499	2.65829	0.862626	2.7993	0.978069	3.17344			0.776248	2.51811	0.874043	2.82841	0.99464	3.22598		
0.823027	2.65799	0.630215	2.01958	0.823832	2.65783	0.864606	2.79727	0.979962	3.17			0.778217	2.51689	0.87616	2.82674	0.996245	3.22145		
0.825359	2.65752	0.632216	2.01996	0.826162	2.65736	0.866591	2.79526	0.981855	3.16658			0.780186	2.51568	0.878277	2.82508	0.997853	3.21696		
0.827687	2.65705	0.634216	2.02034	0.82849	2.65688	0.86858	2.79328	0.98375	3.16319			0.782155	2.51447	0.880396	2.82343	0.999464	3.21251		
0.830012	2.65657	0.636216	2.02071	0.830814	2.6564	0.870574	2.79133	0.985646	3.15982			0.784123	2.51327	0.882516	2.8218	1.00108	3.20809		
0.832334	2.65608	0.638216	2.02108	0.833135	2.65591	0.872571	2.7894	0.987544	3.15647			0.786091	2.51208	0.884637	2.82018				
0.834653	2.65558	0.640215	2.02145	0.835453	2.65541	0.874574	2.7875	0.989442	3.15315			0.788058	2.51089	0.886759	2.81857				
0.836969	2.65508	0.642214	2.02181	0.837767	2.6549	0.876581	2.78563	0.991341	3.14985			0.790024	2.5097	0.888882	2.81698				
0.839281	2.65457	0.644213	2.02218	0.840078	2.65439	0.878592	2.78378	0.993242	3.14657			0.79199	2.50852	0.891006	2.8154				
0.841589	2.65405	0.646212	2.02253	0.842385	2.65387	0.880608	2.78195	0.995144	3.14332			0.793956	2.50735	0.89313	2.81383				
0.843894	2.65352	0.64821	2.02289	0.844689	2.65334	0.882629	2.78015	0.997046	3.14009			0.795921	2.50618	0.895256	2.81227				
0.846195	2.65299	0.650209	2.02324	0.846989	2.6528	0.884654	2.77838	0.99895	3.13688			0.797886	2.50502	0.897383	2.81072				
0.848493	2.65244	0.652207	2.02359	0.849285	2.65225	0.886685	2.77663	1.00086	3.13369			0.79985	2.50386	0.899511	2.80919				
0.850787	2.65189	0.654204	2.02394	0.851578	2.6517	0.88872	2.77491					0.801813	2.50271	0.901639	2.80767				
0.853077	2.65133	0.656202	2.02429	0.853867	2.65113	0.89076	2.77321					0.803777	2.50156	0.903769	2.80616				
0.855363	2.65076	0.658199	2.02463	0.856151	2.65056	0.892805	2.77154					0.80574	2.50042	0.905899	2.80466				
0.857646	2.65018	0.660196	2.02497	0.858432	2.64998	0.894856	2.76989					0.807702	2.49929	0.90803	2.80317				
0.859924	2.64959	0.662193	2.0253	0.860709	2.64939	0.896911	2.76827					0.809664	2.49815	0.910161	2.80169				
0.862198	2.64899	0.664189	2.02564	0.862982	2.64879	0.898971	2.76667					0.811626	2.49703	0.912294	2.80022				
0.864469	2.64839	0.666186	2.02597	0.865251	2.64818	0.901037	2.7651					0.813587	2.49591	0.914427	2.79877				
0.866735	2.64777	0.668182	2.0263	0.867516	2.64756	0.903107	2.76356					0.815548	2.49479	0.916561	2.79732				
0.868996	2.64715	0.670177	2.02663	0.869776	2.64693	0.905183	2.76203					0.817509	2.49368	0.918695	2.79589				
0.871254	2.64651	0.672173	2.02695	0.872032	2.64629	0.907264	2.76054					0.819469	2.49258	0.92083	2.79446				
0.873507	2.64587	0.674168	2.02727	0.874284	2.64564	0.909351	2.75906					0.821429	2.49148	0.922966	2.79304				
0.875756	2.64522	0.676163	2.02759	0.876531	2.64499	0.911443	2.75761					0.823388	2.49039	0.925102	2.79164				
0.878001	2.64455	0.678158	2.02791	0.878774	2.64432	0.91354	2.75619					0.825347	2.4893	0.927239	2.79024				
0.880241	2.64388	0.680153	2.02822	0.881013	2.64365	0.915643	2.75479					0.827306	2.48821	0.929376	2.78885				
0.882476	2.6432	0.682147	2.02853	0.883247	2.64296	0.917751	2.75342					0.829265	2.48713	0.931514	2.78747				
0.884707	2.64251	0.684141	2.02884	0.885476	2.64227	0.919864	2.75206					0.831223	2.48606	0.933652	2.78611				
0.886934	2.64181	0.686135	2.02915	0.887701	2.64156	0.921983	2.75074					0.833181	2.48499	0.935791	2.78475				
0.889156	2.6411	0.688129	2.02945	0.889922	2.64085	0.924108	2.74943					0.835138	2.48393	0.93793	2.78339				
0.891374	2.64038	0.690122	2.02975	0.892138	2.64012	0.926238	2.74815					0.837096	2.48287	0.940069	2.78205				
0.893587	2.63965	0.692115	2.03005	0.894349	2.63939	0.928373	2.74689					0.839053	2.48181	0.942209	2.78072				
0.895795	2.63891	0.694108	2.03035	0.896556	2.63865	0.930514	2.74566					0.841009	2.48077	0.944349	2.77939				
0.897999	2.63816	0.696101	2.03064	0.898758	2.6379	0.932661	2.74445					0.842966	2.47972	0.94649	2.77807				
0.900198	2.6374	0.698094	2.03094	0.900956	2.63714	0.934813	2.74326					0.844922	2.47868	0.948631	2.77676				
0.902393	2.63663	0.700086	2.03123	0.903149	2.63637	0.93697	2.74209					0.846878	2.47765	0.950772	2.77546				
0.904583	2.63586	0.702078	2.03151	0.905338	2.63559	0.939133	2.74095					0.848834	2.47662	0.952913	2.77417				
0.906768	2.63507	0.70407	2.0318	0.907522	2.6348	0.941302	2.73983					0.850789	2.47559	0.955055	2.77288				
0.908949	2.63428	0.706061	2.03208	0.909701	2.634	0.943476	2.73873					0.852744	2.47458	0.957197	2.7716				
0.911126	2.63347	0.708052	2.03236	0.911876	2.63319	0.945655	2.73765					0.854699	2.47356	0.959338	2.77033				
0.913298	2.63266	0.710043	2.03264	0.914046	2.63238	0.94784	2.73659					0.856654	2.47255	0.961481	2.76906				
0.915465	2.63184	0.712034	2.03292	0.916212	2.63155	0.95003	2.73556					0.858609	2.47155	0.963623	2.76781				
0.917628	2.63101	0.714025	2.03319	0.918373	2.63072	0.952225	2.73454					0.860563	2.47055	0.965765	2.76656				
0.919786	2.63017	0.716015	2.03347	0.92053	2.62988	0.954426	2.73355					0.862517	2.46955	0.967908	2.76531				
0.92194	2.62933	0.718005	2.03374	0.922683	2.62903	0.956632	2.73258					0.864471	2.46856	0.97005	2.76408				
0.92409	2.62847	0.719995	2.03401	0.924831	2.62818	0.958843	2.73162					0.866425	2.46757	0.972192	2.76285				
0.926236	2.62761	0.721985	2.03427	0.926975	2.62731	0.961059	2.73069					0.868378	2.46659	0.974335	2.76162				
0.928377	2.62674	0.723974	2.03454	0.929115	2.62644	0.96328	2.72977					0.870332	2.46562	0.976478	2.76041				
0.930514	2.62587	0.725964	2.0348	0.93125	2.62556	0.965506	2.72888					0.872285	2.46464	0.97862	2.7592				
0.932646	2.62499	0.727953	2.03506	0.933381	2.62468	0.967738	2.728					0.874238	2.46368	0.980762	2.75799				
0.934775	2.6241	0.729941	2.03532	0.935509	2.62379	0.969974	2.72714					0.876191	2.46271	0.982905	2.75679				
0.936899	2.6232	0.73193	2.03558	0.937632	2.62289	0.972215	2.7263					0.878144	2.46176	0.985047	2.7556				
0.93902	2.6223	0.733918	2.03583	0.939751	2.62198	0.974461	2.72548					0.880096	2.4608	0.987189	2.75442				
0.941137	2.62139	0.735906	2.03608	0.941866	2.62107	0.976711	2.72467					0.882049	2.45985	0.989331	2.75323				
0.943249	2.62047	0.737894	2.03633	0.943977	2.62015	0.978966	2.72388					0.884001	2.45891	0.991473	2.75206				
0.945358	2.61955	0.739882	2.03658	0.946085	2.61923	0.981226	2.72311					0.885953	2.45797	0.993615	2.75089				
0.947463	2.61862	0.741869	2.03683	0.948189	2.6183	0.98349	2.72236					0.887905	2.45703	0.995756	2.74973				
0.949565	2.61769	0.743856	2.03707	0.950289	2.61737	0.985759	2.72162					0.889857	2.4561	0.997897	2.74857				
0.951663	2.61675	0.745843	2.03732	0.952386	2.61643	0.988032	2.72089					0.891809	2.45518	1.00004	2.74741				
0.953757	2.61581	0.74783	2.03756	0.954479	2.61548	0.990309	2.72018					0.893761	2.45425						
0.955848	2.61486	0.749816	2.0378	0.956569	2.61453	0.99259	2.71949					0.895712	2.45334						
0.957936	2.61391	0.751803	2.03804	0.958655	2.61358	0.994876	2.71881					0.897664	2.45242						
0.96002	2.61295	0.753789	2.03827	0.960738	2.61262	0.997165	2.71815					0.899615	2.45152						
0.962101	2.61199	0.755775	2.03851	0.962818	2.61166	0.999458	2.7175					0.901567	2.45061						
0.964178	2.61103	0.75776	2.03874	0.964895	2.6107	1.00176	2.71686					0.903518	2.44971						
0.966253	2.61006	0.759745	2.03897	0.966968	2.60973							0.905469	2.44881						
0.968325	2.60909	0.761731	2.0392	0.969039	2.60876							0.90742	2.44792						
0.970393	2.60812	0.763716	2.03942	0.971107	2.60778							0.909371	2.44704						
0.972459	2.60714	0.7657	2.03965	0.973171	2.60681							0.911322	2.44615						
0.974522	2.60616	0.767685	2.03987	0.975233	2.60583							0.913273	2.44527						
0.976582	2.60518	0.769669	2.04009	0.977293	2.60484							0.915224	2.4444						
0.97864	2.6042	0.771653	2.04032	0.979349	2.60386							0.917175	2.44353						
0.980695	2.60321	0.773637	2.04053	0.981403	2.60287							0.919125	2.44266						
0.982747	2.60223	0.77562	2.04075	0.983455	2.60188							0.921076	2.4418						
0.984797	2.60124	0.777604	2.04097	0.985504	2.60089							0.923027	2.44094						
0.986845	2.60025	0.779587	2.04118	0.987551	2.5999							0.924978	2.44009						
0.98889	2.59925	0.78157	2.04139	0.989595	2.59891							0.926928	2.43924						
0.990933	2.59826	0.783553	2.0416	0.991637	2.59792							0.928879	2.4384						
0.992974	2.59727	0.785535	2.04181	0.993677	2.59692							0.930829	2.43756						
0.995012	2.59627	0.787518	2.04202	0.995715	2.59593							0.93278	2.43672						
0.997049	2.59528	0.7895	2.04222	0.997751	2.59493							0.934731	2.43588						
0.999083	2.59428	0.791481	2.04243	0.999785	2.59394							0.936681	2.43506						
1.00112	2.59328	0.793463	2.04263	1.00182	2.59294							0.938632	2.43423						
		0.795445	2.04283									0.940582	2.43341						
		0.797426	2.04303									0.942533	2.43259						
		0.799407	2.04323									0.944483	2.43178						
		0.801388	2.04343									0.946434	2.43097						
		0.803368	2.04362									0.948384	2.43016						
		0.805349	2.04382									0.950335	2.42936						
		0.807329	2.04401									0.952286	2.42856						
		0.809309	2.0442									0.954236	2.42777						
		0.811288	2.04439									0.956187	2.42698						
		0.813268	2.04458									0.958138	2.42619						
		0.815247	2.04476									0.960088	2.42541						
		0.817226	2.04495									0.962039	2.42463						
		0.819205	2.04513									0.96399	2.42386						
		0.821184	2.04531									0.965941	2.42309						
		0.823163	2.0455									0.967892	2.42232						
		0.825141	2.04568									0.969843	2.42156						
		0.827119	2.04585									0.971794	2.4208						
		0.829097	2.04603									0.973745	2.42004						
		0.831074	2.04621									0.975696	2.41929						
		0.833052	2.04638									0.977647	2.41854						
		0.835029	2.04655									0.979599	2.41779						
		0.837006	2.04673									0.98155	2.41705						
		0.838983	2.0469									0.983502	2.41631						
		0.84096	2.04707									0.985453	2.41558						
		0.842936	2.04723									0.987405	2.41485						
		0.844912	2.0474									0.989356	2.41412						
		0.846888	2.04757									0.991308	2.41339						
		0.848864	2.04773									0.99326	2.41267						
		0.85084	2.04789									0.995212	2.41196						
		0.852815	2.04806									0.997164	2.41124						
		0.854791	2.04822									0.999116	2.41053						
		0.856766	2.04838									1.00107	2.40983						
		0.85874	2.04853																
		0.860715	2.04869																
		0.862689	2.04885																
		0.864664	2.049																
		0.866638	2.04916																
		0.868612	2.04931																
		0.870585	2.04946																
		0.872559	2.04961																
		0.874532	2.04976																
		0.876505	2.04991																
		0.878478	2.05005																
		0.880451	2.0502																
		0.882423	2.05035																
		0.884395	2.05049																
		0.886368	2.05063																
		0.888339	2.05077																
		0.890311	2.05091																
		0.892283	2.05105																
		0.894254	2.05119																
		0.896225	2.05133																
		0.898196	2.05147																
		0.900167	2.0516																
		0.902138	2.05174																
		0.904108	2.05187																
		0.906078	2.052																
		0.908048	2.05213																
		0.910018	2.05226																
		0.911988	2.05239																
		0.913957	2.05252																
		0.915927	2.05265																
		0.917896	2.05278																
		0.919865	2.0529																
		0.921833	2.05303																
		0.923802	2.05315																
		0.92577	2.05327																
		0.927739	2.0534																
		0.929707	2.05352																
		0.931674	2.05364																
		0.933642	2.05376																
		0.93561	2.05388																
		0.937577	2.05399																
		0.939544	2.05411																
		0.941511	2.05423																
		0.943478	2.05434																
		0.945444	2.05446																
		0.947411	2.05457																
		0.949377	2.05468																
		0.951343	2.05479																
		0.953309	2.0549																
		0.955275	2.05502																
		0.95724	2.05512																
		0.959206	2.05523																
		0.961171	2.05534																
		0.963136	2.05545																
		0.965101	2.05555																
		0.967066	2.05566																
		0.96903	2.05576																
		0.970994	2.05587																
		0.972959	2.05597																
		0.974923	2.05607																
		0.976887	2.05617																
		0.97885	2.05627																
		0.980814	2.05637																
		0.982777	2.05647																
		0.98474	2.05657																
		0.986703	2.05667																
		0.988666	2.05677																
		0.990629	2.05686																
		0.992592	2.05696																
		0.994554	2.05705																
		0.996516	2.05715																
		0.998478	2.05724																
		1.00044	2.05734																
