Sym0		Asym0		Sym1		Sym2		Sym3		Sym4		Asym1		Asym2		Asym3		Asym4	
423  Points		526  Points		422  Points		405  Points		351  Points		251  Points		454  Points		399  Points		343  Points		206  Points	
Freq (MHz)	Vph (m/ms)	Freq (MHz)	Vph (m/ms)	Freq (MHz)	Vph (m/ms)	Freq (MHz)	Vph (m/ms)	Freq (MHz)	Vph (m/ms)	Freq (MHz)	Vph (m/ms)	Freq (MHz)	Vph (m/ms)	Freq (MHz)	Vph (m/ms)	Freq (MHz)	Vph (m/ms)	Freq (MHz)	Vph (m/ms)
0.27951	592.709	0.000320556	0.110378	0.279514	305.908	0.449961	10932.6	0.559017	6898.7	0.838526	2124.03	0.139755	938.9	0.419268	465.422	0.698771	3522.77	0.899922	2213.47
0.279521	199.192	0.000558257	0.145537	0.27953	151.473	0.449967	462.523	0.559024	551.998	0.838531	632.15	0.139799	129.379	0.419285	228.801	0.698776	618.356	0.899927	672.46
0.279543	119.72	0.000860492	0.180489	0.279557	100.665	0.449983	236.268	0.559042	287.51	0.838543	371.337	0.13991	69.5296	0.419314	151.693	0.698786	338.929	0.899937	396.456
0.279576	85.5844	0.00122642	0.215191	0.279595	75.3869	0.450011	158.664	0.559071	194.384	0.83856	262.882	0.140088	47.5852	0.419355	113.464	0.698803	233.444	0.899953	281.09
0.279619	66.602	0.00165506	0.249596	0.279644	60.2616	0.450049	119.442	0.559112	146.833	0.838583	203.462	0.140331	36.2086	0.419407	90.6314	0.698825	178.038	0.899973	217.735
0.279674	54.5167	0.00214522	0.283661	0.279704	50.1963	0.450098	95.773	0.559163	117.979	0.838612	165.955	0.14064	29.2554	0.419471	75.4538	0.698854	143.891	0.899999	177.688
0.279739	46.1483	0.0026958	0.317365	0.279774	43.0165	0.450158	79.9381	0.559227	98.6081	0.838646	140.126	0.141014	24.571	0.419547	64.6351	0.698889	120.737	0.90003	150.087
0.279816	40.0111	0.00330526	0.350653	0.279856	37.6374	0.450228	68.6007	0.559301	84.7054	0.838687	121.256	0.14145	21.2047	0.419634	56.5339	0.69893	104.004	0.900067	129.909
0.279903	35.3184	0.00397215	0.383497	0.279948	33.4575	0.45031	60.0836	0.559387	74.2425	0.838733	106.868	0.14195	18.6717	0.419734	50.2411	0.698977	91.3466	0.900109	114.516
0.280001	31.6141	0.00469494	0.415871	0.280052	30.1164	0.450402	53.4512	0.559484	66.0838	0.838786	95.5333	0.14251	16.6989	0.419844	45.2122	0.69903	81.4377	0.900155	102.386
0.28011	28.6162	0.00547194	0.447745	0.280166	27.3849	0.450504	48.1405	0.559593	59.5439	0.838844	86.3743	0.14313	15.1208	0.419967	41.1016	0.699089	73.4699	0.900207	92.5804
0.28023	26.1403	0.00630153	0.479101	0.280291	25.1104	0.450618	43.7927	0.559712	54.1849	0.838908	78.8193	0.143808	13.8311	0.420101	37.679	0.699154	66.9239	0.900265	84.4906
0.280361	24.0614	0.00718198	0.509921	0.280427	23.1872	0.450742	40.1677	0.559843	49.7136	0.838978	72.4811	0.144543	12.7585	0.420247	34.7853	0.699226	61.4504	0.900327	77.7021
0.280503	22.2911	0.00811148	0.540182	0.280574	21.5399	0.450877	37.0995	0.559985	45.9265	0.839053	67.0877	0.145333	11.8534	0.420404	32.3068	0.699303	56.8059	0.900395	71.9246
0.280655	20.7657	0.00908831	0.569876	0.280731	20.1134	0.451023	34.469	0.560139	42.678	0.839135	62.4425	0.146176	11.0802	0.420573	30.1604	0.699386	52.8154	0.900468	66.9478
0.280818	19.4378	0.0101107	0.598988	0.2809	18.8661	0.451179	32.1889	0.560304	39.8609	0.839222	58.4002	0.146953	10.4933	0.420754	28.2836	0.699476	49.35	0.900547	62.6163
0.280993	18.2715	0.0111769	0.627516	0.281079	17.7664	0.451346	30.1939	0.560479	37.3948	0.839315	54.8504	0.147646	10.0462	0.420946	26.6288	0.699572	46.3125	0.90063	58.8121
0.281178	17.2392	0.0122851	0.655452	0.281269	16.7897	0.451524	28.4335	0.560667	35.2181	0.839415	51.7085	0.148238	9.7085	0.42115	25.1588	0.699674	43.6282	0.900719	55.4446
0.281373	16.319	0.0134337	0.682794	0.28147	15.9164	0.451712	26.869	0.560865	33.2827	0.83952	48.908	0.14872	9.45968	0.421366	23.8446	0.699781	41.2391	0.900813	52.4428
0.28158	15.4937	0.014621	0.709539	0.281682	15.1312	0.451911	25.4693	0.561074	31.5507	0.83963	46.3961	0.149081	9.2861	0.421593	22.6626	0.699895	39.0991	0.900912	49.7501
0.281797	14.7496	0.0158453	0.73569	0.281904	14.4214	0.452121	24.2099	0.561295	29.9918	0.839747	44.1306	0.149315	9.17894	0.421831	21.5939	0.700015	37.1711	0.901017	47.3212
0.282025	14.0751	0.0171052	0.761252	0.282137	13.7767	0.452341	23.0707	0.561527	28.5813	0.839869	42.0768	0.149656	9.02996	0.422081	20.6231	0.700141	35.4252	0.901127	45.1191
0.282264	13.4611	0.0183988	0.786226	0.282381	13.1886	0.452572	22.0354	0.56177	27.2991	0.839998	40.2065	0.150032	8.87447	0.422343	19.7374	0.700273	33.8367	0.901242	43.1137
0.282514	12.8998	0.0197248	0.810616	0.282636	12.65	0.452814	21.0904	0.562024	26.1285	0.840132	38.4962	0.150553	8.6731	0.422616	18.9261	0.700411	32.3855	0.901362	41.2796
0.282774	12.3849	0.0210819	0.834435	0.282902	12.1551	0.453066	20.2245	0.562289	25.0555	0.840272	36.9262	0.151226	8.43381	0.4229	18.1803	0.700556	31.0543	0.901487	39.5958
0.283045	11.9107	0.0224684	0.857687	0.283178	11.6986	0.453329	19.4282	0.562565	24.0686	0.840417	35.4799	0.152061	8.16523	0.423196	17.4924	0.700706	29.829	0.901618	38.0446
0.283327	11.4728	0.0238832	0.88038	0.283464	11.2764	0.453602	18.6935	0.562852	23.1578	0.840569	34.1433	0.15307	7.87604	0.423504	16.8559	0.700862	28.6975	0.901754	36.6111
0.283619	11.0671	0.0253248	0.902526	0.283762	10.8848	0.453886	18.0135	0.56315	22.3147	0.840726	32.9044	0.154266	7.57443	0.423822	16.2655	0.701025	27.6493	0.901895	35.2822
0.283923	10.6902	0.0267922	0.924136	0.28407	10.5207	0.45418	17.3825	0.56346	21.532	0.84089	31.753	0.155499	7.30101	0.424152	15.7162	0.701193	26.6757	0.902041	34.047
0.284236	10.3393	0.028284	0.945216	0.284347	10.2235	0.454485	16.7952	0.56378	20.8035	0.841059	30.68	0.156769	7.05215	0.424494	15.2039	0.701368	25.769	0.902193	32.8959
0.284561	10.0118	0.0297992	0.965783	0.28459	9.98379	0.4548	16.2475	0.564111	20.1239	0.841233	29.6777	0.158075	6.82483	0.424847	14.7252	0.701548	24.9225	0.902349	31.8206
0.284896	9.70547	0.0313367	0.985842	0.284795	9.79433	0.455125	15.7354	0.564453	19.4884	0.841414	28.7394	0.159414	6.61648	0.425211	14.2768	0.701735	24.1304	0.902511	30.8139
0.285241	9.4183	0.0328954	1.00541	0.28496	9.64983	0.455462	15.2556	0.564806	18.8928	0.841601	27.8592	0.160785	6.42493	0.425586	13.8559	0.701927	23.3878	0.902679	29.8694
0.285597	9.14862	0.0344744	1.0245	0.285083	9.54642	0.455808	14.8052	0.56517	18.3336	0.841793	27.0319	0.162186	6.24832	0.425973	13.4602	0.702126	22.69	0.902851	28.9817
0.285964	8.89489	0.0360728	1.04312	0.285162	9.48146	0.456165	14.3815	0.565545	17.8076	0.841991	26.2528	0.163617	6.08503	0.426371	13.0875	0.702331	22.0332	0.903029	28.1456
0.286341	8.65578	0.0376896	1.06127	0.285277	9.38971	0.456532	13.9824	0.56593	17.3118	0.842195	25.5179	0.165076	5.93369	0.42678	12.7358	0.702542	21.4139	0.903211	27.3569
0.286729	8.43007	0.0393239	1.07899	0.285404	9.2921	0.45691	13.6057	0.566326	16.8439	0.842404	24.8235	0.166562	5.79309	0.4272	12.4035	0.702758	20.829	0.903399	26.6116
0.287127	8.2167	0.0409751	1.09627	0.285578	9.16277	0.457297	13.2497	0.566733	16.4015	0.84262	24.1663	0.168074	5.66218	0.427631	12.089	0.702981	20.2757	0.903592	25.9063
0.287535	8.0147	0.0426422	1.11313	0.285801	9.00459	0.457695	12.9126	0.567151	15.9826	0.842841	23.5436	0.16961	5.54004	0.428074	11.791	0.70321	19.7516	0.903791	25.2378
0.287954	7.82321	0.0443247	1.12957	0.286077	8.82093	0.458104	12.5931	0.56758	15.5855	0.843068	22.9526	0.171169	5.42585	0.428527	11.5081	0.703445	19.2543	0.903994	24.6034
0.288384	7.64145	0.0460217	1.14562	0.286408	8.61544	0.458522	12.2899	0.568019	15.2085	0.843301	22.3909	0.172751	5.31889	0.428992	11.2394	0.703685	18.7819	0.904203	24.0005
0.288824	7.46873	0.0477327	1.16128	0.286797	8.39196	0.458951	12.0017	0.568469	14.8501	0.843539	21.8566	0.174353	5.21854	0.429467	10.9837	0.703932	18.3326	0.904417	23.4268
0.289274	7.30438	0.0494571	1.17656	0.287197	8.18064	0.45939	11.7274	0.568929	14.509	0.843784	21.3476	0.175977	5.12423	0.429954	10.7402	0.704185	17.9047	0.904636	22.8803
0.289734	7.14785	0.0511941	1.19147	0.287608	7.98054	0.459839	11.4661	0.5694	14.184	0.844034	20.8621	0.177619	5.03545	0.430451	10.5081	0.704444	17.4968	0.904861	22.3591
0.290205	6.99861	0.0529432	1.20603	0.288029	7.79081	0.460298	11.217	0.569881	13.874	0.84429	20.3987	0.179281	4.95176	0.430893	10.3145	0.704709	17.1075	0.90509	21.8615
0.290686	6.85616	0.054704	1.22024	0.28846	7.61067	0.460767	10.9792	0.570373	13.578	0.844551	19.9558	0.18096	4.87274	0.431277	10.1554	0.704979	16.7356	0.905325	21.3859
0.291178	6.72008	0.0564758	1.23412	0.288901	7.43945	0.461246	10.7519	0.570876	13.295	0.844818	19.5321	0.182656	4.79803	0.431599	10.0278	0.705256	16.3798	0.905565	20.9309
0.29168	6.58996	0.0582583	1.24767	0.289353	7.27651	0.461736	10.5345	0.571389	13.0244	0.845091	19.1264	0.184368	4.72731	0.431856	9.92941	0.705539	16.0393	0.90581	20.4952
0.292192	6.46543	0.0600509	1.2609	0.289816	7.12129	0.46217	10.3526	0.571912	12.7652	0.84537	18.7376	0.186096	4.66028	0.432047	9.85838	0.705827	15.7131	0.90606	20.0776
0.292714	6.34615	0.0618532	1.27382	0.290289	6.97326	0.462547	10.2029	0.572446	12.5168	0.845655	18.3647	0.187838	4.59667	0.43217	9.81349	0.706122	15.4002	0.906315	19.677
0.293246	6.23181	0.0636648	1.28645	0.290772	6.83196	0.462862	10.0826	0.57299	12.2786	0.845945	18.0067	0.189595	4.53624	0.432347	9.74975	0.706423	15.1	0.906576	19.2924
0.293789	6.12212	0.0654853	1.29878	0.291265	6.69695	0.463114	9.98958	0.573544	12.0499	0.846241	17.6627	0.191365	4.47876	0.432542	9.68149	0.706729	14.8115	0.906841	18.9229
0.294341	6.01682	0.0673143	1.31083	0.291768	6.56783	0.463301	9.92239	0.574108	11.8302	0.846543	17.3319	0.193149	4.42403	0.432808	9.59031	0.707042	14.5343	0.907112	18.5675
0.294904	5.91566	0.0691515	1.32261	0.292282	6.44424	0.463421	9.8799	0.574683	11.6189	0.84685	17.0137	0.194945	4.37187	0.433149	9.47766	0.70736	14.2676	0.907388	18.2256
0.295477	5.8184	0.0709965	1.33413	0.292806	6.32584	0.463595	9.81952	0.575268	11.4157	0.847163	16.7073	0.196753	4.3221	0.433566	9.34527	0.707684	14.0108	0.907669	17.8964
0.296059	5.72485	0.0728489	1.34538	0.29334	6.21234	0.463785	9.75479	0.575863	11.2201	0.847482	16.412	0.198572	4.27458	0.434063	9.19507	0.708015	13.7635	0.907955	17.5791
0.296652	5.6348	0.0747085	1.35639	0.293884	6.10343	0.464045	9.66824	0.576468	11.0316	0.847806	16.1273	0.200402	4.22916	0.434644	9.02916	0.708351	13.525	0.908247	17.2731
0.297255	5.54806	0.076575	1.36715	0.294439	5.99887	0.464378	9.56116	0.577083	10.8499	0.848137	15.8526	0.202243	4.18571	0.435235	8.86977	0.708693	13.2951	0.908543	16.9779
0.297868	5.46448	0.0784481	1.37767	0.295003	5.89841	0.464785	9.4351	0.577708	10.6747	0.848472	15.5874	0.204094	4.14411	0.435836	8.71652	0.709041	13.0731	0.908845	16.6929
0.298491	5.38388	0.0803276	1.38797	0.295578	5.80181	0.46527	9.29179	0.57826	10.527	0.848814	15.3313	0.205955	4.10425	0.436448	8.56909	0.709395	12.8587	0.909151	16.4176
0.299124	5.30613	0.082213	1.39804	0.296162	5.70888	0.465835	9.13314	0.578738	10.4046	0.849161	15.0837	0.207825	4.06602	0.437071	8.42716	0.709755	12.6516	0.909463	16.1515
0.299766	5.23107	0.0841044	1.4079	0.296757	5.61942	0.46641	8.98037	0.579136	10.3057	0.849514	14.8443	0.209704	4.02934	0.437704	8.29044	0.710121	12.4513	0.90978	15.8941
0.300419	5.15859	0.0860013	1.41754	0.297362	5.53325	0.466994	8.83317	0.579454	10.229	0.849872	14.6127	0.211591	3.9941	0.438348	8.15866	0.710492	12.2576	0.910102	15.6451
0.301081	5.08855	0.0879035	1.42698	0.297976	5.4502	0.467589	8.69125	0.57969	10.1734	0.850236	14.3885	0.213487	3.96024	0.439002	8.03155	0.71087	12.0701	0.910429	15.404
0.301754	5.02085	0.089811	1.43623	0.298601	5.37011	0.468193	8.55433	0.579841	10.1382	0.850606	14.1713	0.215391	3.92767	0.439666	7.90889	0.711253	11.8885	0.910762	15.1705
0.302436	4.95538	0.0917234	1.44527	0.299235	5.29283	0.468806	8.42217	0.580059	10.088	0.850982	13.9608	0.217302	3.89633	0.44034	7.79046	0.711642	11.7126	0.911099	14.9442
0.303128	4.89204	0.0936406	1.45414	0.29988	5.21824	0.469429	8.29453	0.580297	10.0341	0.851363	13.7568	0.219221	3.86615	0.441025	7.67605	0.712037	11.5421	0.911442	14.7248
0.303829	4.83073	0.0955623	1.46281	0.300534	5.14619	0.470062	8.17119	0.580624	9.96174	0.851749	13.5589	0.221147	3.83706	0.44172	7.56546	0.712438	11.3768	0.911789	14.512
0.304449	4.77888	0.0974883	1.47131	0.301198	5.07657	0.470704	8.05194	0.58104	9.87194	0.852142	13.3669	0.223079	3.80902	0.442425	7.45852	0.712845	11.2164	0.912142	14.3055
0.304982	4.73581	0.0994187	1.47964	0.301872	5.00927	0.471355	7.93659	0.581548	9.76574	0.85254	13.1805	0.225019	3.78196	0.443141	7.35506	0.713258	11.0608	0.912499	14.105
0.305428	4.70095	0.101353	1.4878	0.302556	4.94417	0.472016	7.82496	0.58215	9.64436	0.852943	12.9995	0.226964	3.75585	0.443866	7.25491	0.713676	10.9096	0.912862	13.9102
0.305783	4.67386	0.103291	1.4958	0.303249	4.88119	0.472686	7.71688	0.582851	9.5092	0.853352	12.8237	0.228916	3.73062	0.444602	7.15792	0.714046	10.7815	0.91323	13.721
0.306045	4.6542	0.105233	1.50363	0.303953	4.82022	0.473365	7.61219	0.583561	9.37823	0.853767	12.6527	0.230873	3.70625	0.445347	7.06397	0.714364	10.6747	0.913603	13.5371
0.306214	4.64173	0.107179	1.51131	0.304666	4.76118	0.474054	7.51073	0.584281	9.25128	0.854187	12.4866	0.232836	3.68268	0.446102	6.9729	0.71463	10.5881	0.913981	13.3583
0.306457	4.62396	0.109128	1.51884	0.305388	4.70399	0.474752	7.41237	0.58501	9.12816	0.854613	12.3249	0.234804	3.65988	0.446868	6.8846	0.714841	10.5207	0.914364	13.1844
0.306722	4.60484	0.111081	1.52623	0.306121	4.64856	0.475459	7.31697	0.585749	9.00873	0.855044	12.1677	0.236778	3.63781	0.447643	6.79895	0.714998	10.4718	0.914752	13.0151
0.307085	4.57919	0.113037	1.53347	0.306863	4.59482	0.476175	7.22441	0.586497	8.89281	0.855481	12.0146	0.238757	3.61645	0.448428	6.71584	0.715098	10.4407	0.915145	12.8504
0.307548	4.54727	0.114995	1.54057	0.307615	4.54271	0.476901	7.13457	0.587255	8.78026	0.855924	11.8655	0.24074	3.59575	0.449222	6.63515	0.715243	10.3963	0.915543	12.69
0.308112	4.50947	0.116705	1.54665	0.308377	4.49215	0.477635	7.04732	0.588022	8.67094	0.856372	11.7204	0.242729	3.57569	0.450027	6.5568	0.715402	10.3486	0.915946	12.5337
0.308781	4.46618	0.118164	1.55175	0.309148	4.44308	0.478379	6.96258	0.588798	8.56472	0.856825	11.5789	0.244722	3.55624	0.450841	6.48069	0.715618	10.2844	0.916355	12.3814
0.309557	4.41787	0.119371	1.55591	0.309929	4.39544	0.479131	6.88023	0.589584	8.46147	0.857284	11.4411	0.246719	3.53737	0.451664	6.40673	0.715894	10.2044	0.916768	12.233
0.310343	4.37097	0.120327	1.55917	0.310719	4.34919	0.479892	6.80018	0.590378	8.36107	0.857749	11.3067	0.24872	3.51905	0.452498	6.33483	0.716231	10.1095	0.917186	12.0883
0.311138	4.32541	0.12103	1.56155	0.311519	4.30425	0.480662	6.72235	0.591182	8.26342	0.858219	11.1756	0.250726	3.50128	0.453341	6.26491	0.71663	10.0005	0.917609	11.9472
0.311943	4.28115	0.12148	1.56306	0.312329	4.26059	0.481441	6.64664	0.591995	8.16841	0.858633	11.0641	0.252735	3.48401	0.454193	6.1969	0.717093	9.87853	0.918037	11.8095
0.312758	4.23814	0.122127	1.56523	0.313148	4.21815	0.482229	6.57297	0.592817	8.07593	0.858989	10.9708	0.254749	3.46723	0.455055	6.13073	0.717562	9.75972	0.91847	11.6751
0.313582	4.19633	0.122831	1.56756	0.313976	4.17689	0.483026	6.50126	0.593648	7.98589	0.859286	10.895	0.256766	3.45092	0.455926	6.06632	0.718036	9.64397	0.918909	11.544
0.314416	4.15567	0.123789	1.57071	0.314815	4.13677	0.483831	6.43145	0.594488	7.8982	0.859523	10.8358	0.258786	3.43507	0.456806	6.00361	0.718517	9.53115	0.919352	11.4159
0.315259	4.11613	0.125001	1.57466	0.315662	4.09774	0.484645	6.36346	0.595337	7.81277	0.859697	10.7927	0.260811	3.41964	0.457696	5.94254	0.719003	9.42116	0.9198	11.2909
0.316112	4.07766	0.126468	1.57937	0.31652	4.05977	0.485468	6.29723	0.596195	7.72952	0.859809	10.7653	0.262838	3.40463	0.458595	5.88305	0.719494	9.3139	0.920195	11.1842
0.316974	4.04023	0.128191	1.58482	0.317387	4.02282	0.486299	6.23268	0.597062	7.64837	0.859971	10.7262	0.264869	3.39003	0.459504	5.82508	0.719992	9.20927	0.920534	11.095
0.317846	4.00379	0.13017	1.59096	0.318263	3.98684	0.487139	6.16977	0.597937	7.56924	0.860147	10.6841	0.266902	3.3758	0.460421	5.76857	0.720495	9.10718	0.920817	11.0224
0.318727	3.96832	0.132152	1.59699	0.319149	3.95182	0.487987	6.10843	0.598821	7.49207	0.860388	10.6274	0.268939	3.36194	0.461348	5.71349	0.721004	9.00753	0.921041	10.9657
0.319618	3.93378	0.134135	1.60292	0.320044	3.91771	0.488844	6.04861	0.599714	7.41678	0.860695	10.5565	0.270979	3.34844	0.462283	5.65977	0.721519	8.91025	0.921208	10.9244
0.320519	3.90014	0.136121	1.60873	0.320949	3.88448	0.489709	5.99026	0.600615	7.34332	0.861068	10.4722	0.273021	3.33528	0.463228	5.60738	0.722039	8.81525	0.921314	10.8981
0.321428	3.86737	0.138109	1.61445	0.321864	3.85211	0.490582	5.93333	0.601525	7.27161	0.86151	10.3751	0.275066	3.32245	0.464182	5.55625	0.722565	8.72245	0.921468	10.8606
0.322348	3.83544	0.140098	1.62006	0.322788	3.82057	0.491464	5.87776	0.602443	7.2016	0.862022	10.2661	0.277114	3.30994	0.465144	5.50637	0.723097	8.63179	0.921635	10.8202
0.323277	3.80432	0.14209	1.62558	0.323721	3.78983	0.492354	5.82351	0.60337	7.13324	0.86254	10.1595	0.279165	3.29773	0.466116	5.45767	0.723634	8.54318	0.921865	10.7657
0.324216	3.77399	0.144083	1.63099	0.324664	3.75986	0.493252	5.77055	0.604306	7.06646	0.863063	10.0554	0.281217	3.28582	0.467096	5.41013	0.724177	8.45658	0.922156	10.6976
0.325164	3.74441	0.146078	1.63632	0.325617	3.73064	0.494159	5.71882	0.605249	7.00122	0.863591	9.95346	0.283273	3.27419	0.468085	5.36371	0.724726	8.3719	0.922511	10.6164
0.326122	3.71558	0.148075	1.64155	0.32658	3.70215	0.495073	5.66828	0.606201	6.93746	0.864125	9.8538	0.28533	3.26283	0.469083	5.31836	0.72528	8.28909	0.92293	10.523
0.327089	3.68746	0.150073	1.6467	0.327551	3.67436	0.495996	5.61891	0.607162	6.87515	0.864665	9.7563	0.28739	3.25174	0.470089	5.27406	0.72584	8.20809	0.923417	10.4178
0.328066	3.66003	0.152073	1.65176	0.328533	3.64725	0.496927	5.57065	0.60813	6.81422	0.865209	9.66088	0.289452	3.24091	0.471105	5.23077	0.726405	8.12884	0.923908	10.315
0.329053	3.63327	0.154074	1.65673	0.329524	3.6208	0.497865	5.52349	0.609107	6.75465	0.865759	9.56749	0.291516	3.23032	0.472128	5.18847	0.726977	8.05128	0.924404	10.2142
0.330049	3.60716	0.156077	1.66162	0.330525	3.595	0.498812	5.47737	0.610092	6.69638	0.866315	9.47606	0.293582	3.21997	0.473161	5.14711	0.727553	7.97538	0.924905	10.1156
0.331055	3.58169	0.158081	1.66642	0.331536	3.56981	0.499767	5.43228	0.611085	6.63939	0.866876	9.38654	0.29565	3.20985	0.474201	5.10668	0.728136	7.90106	0.925411	10.0191
0.332071	3.55683	0.160086	1.67115	0.332556	3.54524	0.500729	5.38817	0.612086	6.58362	0.867442	9.29886	0.29772	3.19995	0.475251	5.06713	0.728723	7.8283	0.925922	9.9245
0.333096	3.53256	0.162093	1.6758	0.333587	3.52125	0.501699	5.34503	0.613094	6.52904	0.868013	9.21297	0.299792	3.19027	0.476308	5.02846	0.729317	7.75704	0.926437	9.83184
0.334132	3.50887	0.164101	1.68037	0.334627	3.49782	0.502677	5.30281	0.614111	6.47562	0.86859	9.12882	0.301865	3.1808	0.477374	4.99063	0.729916	7.68723	0.926958	9.74105
0.335177	3.48574	0.16611	1.68487	0.335677	3.47496	0.503663	5.26149	0.615136	6.42331	0.869172	9.04635	0.30394	3.17153	0.478449	4.95361	0.73052	7.61884	0.927483	9.65207
0.336232	3.46316	0.168121	1.6893	0.336737	3.45263	0.504656	5.22106	0.616168	6.3721	0.86976	8.96553	0.306017	3.16246	0.479532	4.91738	0.731131	7.55182	0.928013	9.56485
0.337298	3.44111	0.170132	1.69366	0.337807	3.43083	0.505657	5.18147	0.617209	6.32195	0.870352	8.88629	0.308096	3.15357	0.480622	4.88193	0.731746	7.48614	0.928548	9.47933
0.338373	3.41958	0.172145	1.69794	0.338887	3.40953	0.506666	5.1427	0.618257	6.27282	0.870951	8.80861	0.310176	3.14487	0.481721	4.84722	0.732367	7.42175	0.929088	9.39548
0.339458	3.39855	0.174158	1.70216	0.339977	3.38874	0.507682	5.10474	0.619312	6.22469	0.871554	8.73242	0.312257	3.13635	0.482829	4.81324	0.732994	7.35862	0.929633	9.31324
0.340554	3.37801	0.176173	1.70631	0.341078	3.36843	0.508706	5.06756	0.620375	6.17753	0.872162	8.6577	0.31434	3.128	0.483944	4.77996	0.733626	7.29672	0.930183	9.23257
0.34166	3.35794	0.178188	1.7104	0.342188	3.34859	0.509737	5.03114	0.621446	6.13131	0.872776	8.5844	0.316424	3.11981	0.485067	4.74737	0.734264	7.23601	0.930737	9.15343
0.342776	3.33834	0.180205	1.71442	0.34331	3.3292	0.510775	4.99545	0.622525	6.086	0.873396	8.51248	0.31851	3.11179	0.486199	4.71544	0.734907	7.17645	0.931297	9.07577
0.343903	3.3192	0.182222	1.71838	0.344441	3.31027	0.511821	4.96048	0.623611	6.04159	0.87402	8.44191	0.320597	3.10393	0.487338	4.68416	0.735555	7.11803	0.931861	8.99955
0.34504	3.3005	0.18424	1.72228	0.345584	3.29177	0.512874	4.9262	0.624704	5.99804	0.87465	8.37265	0.322685	3.09622	0.488485	4.65352	0.736209	7.06069	0.93243	8.92474
0.346188	3.28223	0.186259	1.72612	0.346737	3.2737	0.513935	4.89261	0.625804	5.95533	0.875284	8.30466	0.324774	3.08865	0.48964	4.62348	0.736869	7.00443	0.933003	8.8513
0.347347	3.26438	0.188279	1.7299	0.347901	3.25605	0.515003	4.85967	0.626912	5.91344	0.875924	8.23791	0.326865	3.08123	0.490803	4.59405	0.737534	6.94921	0.933582	8.77919
0.348517	3.24694	0.190299	1.73363	0.349075	3.2388	0.516077	4.82737	0.628028	5.87236	0.87657	8.17237	0.328957	3.07395	0.491974	4.56519	0.738204	6.89499	0.934165	8.70838
0.349697	3.2299	0.192321	1.73729	0.350261	3.22196	0.517159	4.79569	0.62915	5.83204	0.87722	8.108	0.331049	3.0668	0.493152	4.5369	0.73888	6.84177	0.934753	8.63883
0.350889	3.21326	0.194343	1.74091	0.351459	3.2055	0.518248	4.76463	0.63028	5.79249	0.877876	8.04479	0.333143	3.05979	0.494338	4.50916	0.739561	6.7895	0.935346	8.57051
0.352092	3.197	0.196365	1.74447	0.352667	3.18942	0.519344	4.73415	0.631416	5.75367	0.878537	7.98269	0.335238	3.05291	0.495532	4.48196	0.740248	6.73817	0.935943	8.50339
0.353307	3.18112	0.198389	1.74797	0.353887	3.17371	0.520447	4.70425	0.63256	5.71557	0.879203	7.92167	0.337333	3.04615	0.496733	4.45528	0.740939	6.68775	0.936546	8.43744
0.354533	3.1656	0.200413	1.75143	0.355119	3.15836	0.521557	4.67492	0.633711	5.67817	0.879874	7.86172	0.33943	3.0395	0.497942	4.42911	0.741637	6.63822	0.937153	8.37263
0.355771	3.15045	0.202437	1.75483	0.356363	3.14338	0.522674	4.64613	0.634869	5.64144	0.88055	7.80281	0.341527	3.03298	0.499158	4.40344	0.742339	6.58956	0.937764	8.30894
0.357021	3.13565	0.204462	1.75819	0.357618	3.12874	0.523798	4.61787	0.636034	5.60539	0.881231	7.74491	0.343625	3.02657	0.500382	4.37825	0.743048	6.54174	0.938381	8.24632
0.358283	3.12119	0.206488	1.76149	0.358886	3.11445	0.524929	4.59014	0.637206	5.56998	0.881918	7.68799	0.345725	3.02028	0.501613	4.35353	0.743761	6.49475	0.939002	8.18477
0.359558	3.10708	0.208514	1.76475	0.360167	3.10049	0.526066	4.56291	0.638384	5.5352	0.88261	7.63203	0.347824	3.01409	0.502852	4.32928	0.74448	6.44856	0.939628	8.12425
0.360845	3.09329	0.210541	1.76796	0.36146	3.08687	0.52721	4.53617	0.63957	5.50104	0.883306	7.57701	0.349925	3.008	0.504098	4.30547	0.745204	6.40315	0.940258	8.06473
0.362145	3.07984	0.212568	1.77113	0.362766	3.07357	0.528361	4.50992	0.640762	5.46748	0.884008	7.52291	0.352026	3.00202	0.505351	4.2821	0.745933	6.35852	0.940894	8.0062
0.363458	3.06671	0.214595	1.77425	0.364086	3.06059	0.529518	4.48414	0.64196	5.4345	0.884715	7.4697	0.354128	2.99614	0.506612	4.25915	0.746668	6.31463	0.941534	7.94863
0.364784	3.05389	0.216623	1.77733	0.365418	3.04792	0.530682	4.45882	0.643166	5.4021	0.885427	7.41736	0.35623	2.99036	0.50788	4.23663	0.747407	6.27147	0.942178	7.892
0.366124	3.04139	0.218652	1.78036	0.366765	3.03556	0.531853	4.43394	0.644378	5.37026	0.886144	7.36588	0.358334	2.98467	0.509155	4.21451	0.748153	6.22902	0.942828	7.83628
0.367478	3.02919	0.220681	1.78335	0.368125	3.0235	0.53303	4.4095	0.645596	5.33896	0.886866	7.31523	0.360437	2.97907	0.510437	4.19278	0.748903	6.18728	0.943482	7.78146
0.368846	3.01729	0.22271	1.7863	0.3695	3.01175	0.534213	4.38549	0.646822	5.30819	0.887593	7.26539	0.362541	2.97357	0.511726	4.17145	0.749659	6.14621	0.94414	7.72751
0.370228	3.00569	0.22474	1.78921	0.370889	3.00028	0.535403	4.3619	0.648053	5.27794	0.888325	7.21635	0.364646	2.96815	0.513022	4.15049	0.75042	6.10581	0.944803	7.67442
0.371625	2.99438	0.22677	1.79208	0.372293	2.98911	0.536599	4.33871	0.649291	5.2482	0.889063	7.16808	0.366751	2.96281	0.514325	4.12991	0.751186	6.06606	0.945471	7.62216
0.373037	2.98336	0.2288	1.79491	0.373712	2.97823	0.537802	4.31592	0.650536	5.21895	0.889805	7.12058	0.368857	2.95756	0.515636	4.10968	0.751957	6.02694	0.946144	7.57071
0.374464	2.97262	0.230831	1.7977	0.375146	2.96762	0.539011	4.29352	0.651786	5.19019	0.890552	7.07382	0.370963	2.95239	0.516953	4.08981	0.752734	5.98845	0.946821	7.52007
0.375906	2.96217	0.232861	1.80045	0.376597	2.9573	0.540226	4.2715	0.653043	5.16191	0.891304	7.02778	0.373069	2.9473	0.518277	4.07028	0.753516	5.95056	0.947503	7.4702
0.377365	2.95199	0.234893	1.80317	0.378063	2.94725	0.541447	4.24985	0.654306	5.13408	0.892061	6.98246	0.375176	2.94229	0.519608	4.05109	0.754303	5.91327	0.948189	7.4211
0.37884	2.94208	0.236924	1.80584	0.379546	2.93748	0.542674	4.22856	0.655576	5.10671	0.892823	6.93783	0.377283	2.93735	0.520945	4.03223	0.755095	5.87656	0.94888	7.37275
0.380331	2.93245	0.238956	1.80849	0.381045	2.92797	0.543908	4.20762	0.656851	5.07978	0.89359	6.89388	0.37939	2.93249	0.52229	4.0137	0.755892	5.84041	0.949575	7.32512
0.38184	2.92308	0.240988	1.8111	0.382562	2.91872	0.545148	4.18703	0.658133	5.05328	0.894362	6.85059	0.381498	2.92769	0.523641	3.99547	0.756695	5.80483	0.950275	7.27821
0.383365	2.91397	0.24302	1.81367	0.384095	2.90974	0.546393	4.16678	0.659421	5.0272	0.895139	6.80796	0.383606	2.92297	0.524999	3.97756	0.757502	5.76978	0.95098	7.232
0.384908	2.90513	0.245052	1.81621	0.385647	2.90102	0.547645	4.14687	0.660715	5.00154	0.895921	6.76596	0.385714	2.91832	0.526364	3.95994	0.758315	5.73527	0.951689	7.18647
0.386469	2.89654	0.247085	1.81871	0.387216	2.89255	0.548902	4.12727	0.662014	4.97628	0.896707	6.72458	0.387822	2.91373	0.527735	3.94262	0.759133	5.70128	0.952402	7.14162
0.388048	2.88821	0.249118	1.82119	0.388804	2.88434	0.550166	4.10799	0.66332	4.95142	0.897499	6.68382	0.389931	2.9092	0.529113	3.92559	0.759956	5.6678	0.95312	7.09742
0.389646	2.88012	0.251151	1.82363	0.390411	2.87638	0.551435	4.08902	0.664631	4.92694	0.898296	6.64366	0.392039	2.90474	0.530497	3.90884	0.760784	5.63483	0.953843	7.05386
0.391262	2.87229	0.253184	1.82604	0.392036	2.86866	0.55271	4.07036	0.665949	4.90285	0.899097	6.60407	0.394148	2.90035	0.531888	3.89237	0.761617	5.60234	0.95457	7.01093
0.392897	2.8647	0.255217	1.82842	0.39368	2.86118	0.553991	4.05199	0.667272	4.87912	0.899903	6.56507	0.396257	2.89601	0.533285	3.87617	0.762455	5.57033	0.955302	6.96862
0.394551	2.85735	0.257251	1.83076	0.395343	2.85395	0.555278	4.03391	0.668601	4.85576	0.900714	6.52662	0.398366	2.89173	0.534689	3.86023	0.763299	5.53879	0.956038	6.92691
0.396225	2.85024	0.259284	1.83308	0.397026	2.84695	0.55657	4.01612	0.669935	4.83275	0.90153	6.48873	0.400474	2.88751	0.536099	3.84455	0.764147	5.50771	0.956779	6.8858
0.397918	2.84336	0.261318	1.83537	0.398729	2.84018	0.557869	3.9986	0.671276	4.81009	0.902351	6.45137	0.402583	2.88335	0.537516	3.82913	0.765	5.47708	0.957524	6.84526
0.399631	2.83672	0.263352	1.83763	0.400451	2.83364	0.559172	3.98136	0.672621	4.78777	0.903176	6.41455	0.404692	2.87924	0.538939	3.81395	0.765859	5.44689	0.958274	6.80529
0.401363	2.8303	0.265386	1.83986	0.402193	2.82733	0.560481	3.96438	0.673973	4.76578	0.904006	6.37824	0.406801	2.87518	0.540368	3.79901	0.766722	5.41713	0.959028	6.76588
0.403116	2.8241	0.26742	1.84206	0.403955	2.82124	0.561796	3.94767	0.67533	4.74412	0.904842	6.34244	0.40891	2.87118	0.541803	3.78432	0.76759	5.3878	0.959786	6.72701
0.404888	2.81812	0.269454	1.84424	0.405736	2.81536	0.563117	3.93121	0.676692	4.72278	0.905681	6.30714	0.411019	2.86723	0.543245	3.76985	0.768464	5.35889	0.960549	6.68868
0.40668	2.81236	0.271488	1.84639	0.407538	2.8097	0.564442	3.915	0.67806	4.70176	0.906526	6.27232	0.413128	2.86333	0.544693	3.75562	0.769342	5.33038	0.961316	6.65088
0.408492	2.8068	0.273522	1.84851	0.409359	2.80424	0.565773	3.89903	0.679434	4.68104	0.907375	6.23799	0.415236	2.85948	0.546147	3.74161	0.770226	5.30227	0.962088	6.61358
0.410324	2.80146	0.275556	1.8506	0.4112	2.79899	0.56711	3.88331	0.680812	4.66062	0.90823	6.20412	0.417345	2.85568	0.547607	3.72782	0.771114	5.27456	0.962864	6.5768
0.412175	2.79631	0.277591	1.85267	0.413061	2.79393	0.568452	3.86782	0.682196	4.6405	0.909088	6.17071	0.419453	2.85192	0.549073	3.71424	0.772007	5.24723	0.963645	6.54051
0.414046	2.79135	0.279625	1.85472	0.41494	2.78907	0.569799	3.85257	0.683586	4.62066	0.909952	6.13776	0.421561	2.84822	0.550546	3.70088	0.772905	5.22027	0.96443	6.5047
0.415936	2.78659	0.281659	1.85674	0.416839	2.7844	0.571152	3.83754	0.68498	4.60111	0.91082	6.10525	0.423669	2.84455	0.552024	3.68772	0.773808	5.19369	0.965219	6.46937
0.417845	2.78202	0.283694	1.85873	0.418757	2.77991	0.572509	3.82273	0.68638	4.58184	0.911693	6.07317	0.425777	2.84093	0.553508	3.67476	0.774716	5.16747	0.966012	6.43451
0.419772	2.77762	0.285728	1.8607	0.420693	2.77559	0.573872	3.80814	0.687785	4.56284	0.912571	6.04152	0.427884	2.83735	0.554999	3.66201	0.775629	5.14161	0.96681	6.40011
0.421718	2.7734	0.287762	1.86265	0.422648	2.77145	0.57524	3.79376	0.689195	4.54411	0.913453	6.01029	0.429991	2.83382	0.556495	3.64944	0.776547	5.11609	0.967613	6.36615
0.423682	2.76934	0.289797	1.86457	0.42462	2.76748	0.576613	3.77959	0.690611	4.52564	0.91434	5.97947	0.432098	2.83033	0.557997	3.63707	0.77747	5.09092	0.968419	6.33264
0.425663	2.76545	0.291831	1.86647	0.426609	2.76366	0.577992	3.76563	0.692031	4.50743	0.915232	5.94905	0.434205	2.82687	0.559505	3.62489	0.778397	5.06609	0.96923	6.29956
0.427662	2.76172	0.293865	1.86835	0.428616	2.76	0.579375	3.75187	0.693456	4.48947	0.916128	5.91903	0.436311	2.82346	0.561019	3.61289	0.779329	5.04158	0.970046	6.26691
0.429677	2.75814	0.2959	1.87021	0.430639	2.75649	0.580763	3.7383	0.694887	4.47175	0.917029	5.8894	0.438417	2.82008	0.562539	3.60107	0.780266	5.01741	0.970865	6.23468
0.431708	2.7547	0.297934	1.87204	0.432678	2.75312	0.582157	3.72493	0.696322	4.45428	0.917935	5.86015	0.440523	2.81675	0.564064	3.58943	0.781208	4.99355	0.971689	6.20286
0.433756	2.75141	0.299968	1.87385	0.434733	2.74989	0.583555	3.71175	0.697762	4.43705	0.918845	5.83128	0.442628	2.81345	0.565595	3.57796	0.782155	4.97	0.972517	6.17144
0.435818	2.74825	0.302003	1.87564	0.436803	2.7468	0.584958	3.69876	0.699207	4.42005	0.91976	5.80277	0.444733	2.81019	0.567132	3.56666	0.783107	4.94676	0.97335	6.14042
0.437896	2.74522	0.304037	1.87741	0.438887	2.74383	0.586366	3.68595	0.700657	4.40328	0.920679	5.77463	0.446837	2.80696	0.568675	3.55552	0.784063	4.92382	0.974187	6.10979
0.439988	2.74232	0.306071	1.87916	0.440986	2.74099	0.587779	3.67331	0.702111	4.38674	0.921603	5.74684	0.448941	2.80377	0.570223	3.54456	0.785024	4.90118	0.975028	6.07954
0.442094	2.73954	0.308105	1.88089	0.443098	2.73826	0.589196	3.66086	0.70357	4.37042	0.922531	5.7194	0.451045	2.80061	0.571777	3.53375	0.78599	4.87883	0.975873	6.04966
0.444213	2.73687	0.310139	1.8826	0.445223	2.73564	0.590619	3.64857	0.705034	4.35431	0.923464	5.69231	0.453148	2.79748	0.573336	3.5231	0.786961	4.85677	0.976722	6.02016
0.446345	2.73431	0.312173	1.88429	0.447361	2.73313	0.592046	3.63646	0.706503	4.33842	0.924402	5.66555	0.455251	2.79439	0.574901	3.51261	0.787936	4.83499	0.977576	5.99101
0.44849	2.73185	0.314207	1.88596	0.449511	2.73072	0.593477	3.62451	0.707976	4.32273	0.925344	5.63912	0.457353	2.79133	0.576472	3.50227	0.788917	4.81349	0.978434	5.96223
0.450646	2.7295	0.31624	1.88761	0.451673	2.72841	0.594914	3.61273	0.709454	4.30725	0.92629	5.61302	0.459454	2.7883	0.578048	3.49207	0.789901	4.79225	0.979296	5.93379
0.452814	2.72724	0.318274	1.88924	0.453846	2.7262	0.596355	3.6011	0.710937	4.29198	0.927241	5.58724	0.461555	2.7853	0.579629	3.48203	0.790891	4.77129	0.980162	5.9057
0.454993	2.72507	0.320308	1.89086	0.45603	2.72407	0.597801	3.58964	0.712424	4.2769	0.928197	5.56177	0.463656	2.78234	0.581216	3.47213	0.791885	4.75058	0.981032	5.87795
0.457182	2.72299	0.322341	1.89245	0.458224	2.72203	0.599251	3.57833	0.713916	4.26201	0.929157	5.53662	0.465756	2.7794	0.582809	3.46237	0.792884	4.73014	0.981907	5.85053
0.459381	2.72099	0.324374	1.89403	0.460428	2.72007	0.600706	3.56717	0.715412	4.24732	0.930121	5.51176	0.467855	2.77649	0.584406	3.45275	0.793888	4.70994	0.982786	5.82344
0.46159	2.71907	0.326408	1.89559	0.462642	2.71818	0.602165	3.55616	0.716912	4.23282	0.93109	5.48721	0.469954	2.77361	0.586009	3.44327	0.794896	4.69	0.983668	5.79667
0.463809	2.71722	0.328441	1.89713	0.464865	2.71637	0.603629	3.5453	0.718417	4.21849	0.932064	5.46295	0.472052	2.77075	0.587618	3.43392	0.795909	4.67031	0.984555	5.77021
0.466036	2.71545	0.330474	1.89866	0.467096	2.71463	0.605097	3.53458	0.719926	4.20435	0.933041	5.43898	0.47415	2.76793	0.589232	3.42471	0.796926	4.65085	0.985447	5.74407
0.468272	2.71374	0.332507	1.90017	0.469335	2.71296	0.606569	3.524	0.721439	4.19039	0.934024	5.41529	0.476247	2.76513	0.590851	3.41562	0.797949	4.63163	0.986342	5.71823
0.470515	2.7121	0.334539	1.90166	0.471583	2.71134	0.608046	3.51356	0.722957	4.17661	0.93501	5.39189	0.478343	2.76236	0.592475	3.40666	0.798975	4.61265	0.987241	5.6927
0.472767	2.71052	0.336572	1.90313	0.473838	2.70979	0.609527	3.50326	0.724479	4.16299	0.936001	5.36876	0.480438	2.75961	0.594104	3.39783	0.800007	4.59389	0.988145	5.66746
0.475026	2.709	0.338605	1.90459	0.4761	2.7083	0.611013	3.49309	0.726006	4.14955	0.936997	5.3459	0.482533	2.75689	0.595739	3.38912	0.801043	4.57536	0.989052	5.64251
0.477292	2.70754	0.340637	1.90603	0.478369	2.70686	0.612503	3.48306	0.727536	4.13627	0.937997	5.32331	0.484627	2.75419	0.597379	3.38053	0.802083	4.55705	0.989964	5.61785
0.479564	2.70613	0.342669	1.90746	0.480645	2.70548	0.613997	3.47315	0.729071	4.12315	0.939001	5.30098	0.486721	2.75152	0.599024	3.37206	0.803128	4.53896	0.990879	5.59348
0.481843	2.70477	0.344701	1.90887	0.482927	2.70414	0.615495	3.46337	0.730609	4.1102	0.940009	5.2789	0.488813	2.74887	0.600674	3.36371	0.804178	4.52109	0.991799	5.56938
0.484128	2.70346	0.346733	1.91027	0.485215	2.70285	0.616997	3.45372	0.732152	4.0974	0.941022	5.25708	0.490905	2.74625	0.602329	3.35547	0.805232	4.50343	0.992723	5.54555
0.48642	2.70219	0.348765	1.91165	0.487509	2.70161	0.618504	3.44419	0.733699	4.08476	0.942039	5.23552	0.492996	2.74365	0.603989	3.34734	0.806291	4.48597	0.993651	5.52199
0.488716	2.70097	0.350797	1.91302	0.489808	2.70041	0.620015	3.43479	0.73525	4.07227	0.94306	5.21419	0.495087	2.74107	0.605655	3.33933	0.807354	4.46872	0.994582	5.4987
0.491018	2.69979	0.352828	1.91437	0.492113	2.69925	0.62153	3.4255	0.736805	4.05993	0.944086	5.19311	0.497177	2.73851	0.607325	3.33143	0.808422	4.45168	0.995518	5.47567
0.493325	2.69865	0.354859	1.91571	0.494422	2.69813	0.623048	3.41633	0.738363	4.04774	0.945116	5.17227	0.499265	2.73598	0.609	3.32363	0.809494	4.43483	0.996458	5.45289
0.495637	2.69755	0.356891	1.91703	0.496736	2.69704	0.624571	3.40727	0.739926	4.03569	0.946151	5.15166	0.501353	2.73346	0.610681	3.31594	0.81057	4.41817	0.997402	5.43037
0.497954	2.69649	0.358922	1.91834	0.499055	2.696	0.626098	3.39833	0.741493	4.02379	0.947189	5.13129	0.503441	2.73097	0.612366	3.30835	0.811652	4.40171	0.998349	5.4081
0.500275	2.69546	0.360952	1.91963	0.501378	2.69498	0.627629	3.38949	0.743063	4.01203	0.948232	5.11114	0.505527	2.7285	0.614056	3.30087	0.812737	4.38544	0.999301	5.38607
0.502601	2.69446	0.362983	1.92091	0.503706	2.694	0.629164	3.38077	0.744638	4.00041	0.949279	5.09122	0.507612	2.72605	0.615751	3.29348	0.813827	4.36936	1.00026	5.36428
0.50493	2.6935	0.365013	1.92218	0.506037	2.69305	0.630703	3.37216	0.746216	3.98892	0.95033	5.07151	0.509697	2.72361	0.61745	3.2862	0.814922	4.35346		
0.507264	2.69256	0.367044	1.92344	0.508372	2.69213	0.632246	3.36365	0.747798	3.97756	0.951386	5.05203	0.511781	2.7212	0.619155	3.27901	0.816021	4.33774		
0.509601	2.69165	0.369074	1.92468	0.510711	2.69123	0.633792	3.35525	0.749383	3.96634	0.952446	5.03275	0.513864	2.71881	0.620864	3.27192	0.817124	4.3222		
0.511941	2.69078	0.371104	1.92591	0.513053	2.69037	0.635343	3.34695	0.750973	3.95525	0.95351	5.01369	0.515946	2.71643	0.622578	3.26492	0.818232	4.30683		
0.514285	2.68992	0.373133	1.92712	0.515399	2.68953	0.636897	3.33875	0.752566	3.94428	0.954578	4.99484	0.518027	2.71407	0.624297	3.25802	0.819344	4.29164		
0.516632	2.6891	0.375163	1.92832	0.517747	2.68871	0.638455	3.33065	0.754162	3.93345	0.95565	4.97619	0.520107	2.71174	0.626021	3.2512	0.82046	4.27661		
0.518983	2.68829	0.377192	1.92952	0.520099	2.68792	0.640017	3.32265	0.755763	3.92273	0.956726	4.95774	0.522186	2.70941	0.627749	3.24448	0.821581	4.26176		
0.521336	2.68751	0.379222	1.93069	0.522454	2.68715	0.641582	3.31474	0.757366	3.91214	0.957807	4.9395	0.524264	2.70711	0.629482	3.23785	0.822706	4.24707		
0.523692	2.68675	0.38125	1.93186	0.524811	2.6864	0.643151	3.30693	0.758974	3.90166	0.958892	4.92144	0.526342	2.70482	0.63122	3.2313	0.823835	4.23254		
0.526051	2.68602	0.383279	1.93301	0.527171	2.68567	0.644724	3.29921	0.760585	3.89131	0.959981	4.90358	0.528418	2.70256	0.632962	3.22484	0.824969	4.21818		
0.528412	2.6853	0.385308	1.93416	0.529534	2.68497	0.646301	3.29159	0.762199	3.88107	0.961074	4.88591	0.530493	2.7003	0.634709	3.21846	0.826107	4.20397		
0.530776	2.6846	0.387336	1.93529	0.531899	2.68428	0.647881	3.28405	0.763817	3.87094	0.962171	4.86843	0.532568	2.69807	0.63646	3.21216	0.82725	4.18992		
0.533142	2.68392	0.389364	1.93641	0.534266	2.6836	0.649465	3.27661	0.765439	3.86093	0.963272	4.85113	0.534641	2.69585	0.638216	3.20595	0.828396	4.17602		
0.535511	2.68326	0.391392	1.93751	0.536636	2.68295	0.651053	3.26925	0.767063	3.85102	0.964377	4.83402	0.536714	2.69364	0.639977	3.19982	0.829547	4.16227		
0.537881	2.68261	0.39342	1.93861	0.539007	2.68231	0.652644	3.26198	0.768692	3.84123	0.965487	4.81708	0.538785	2.69145	0.641742	3.19377	0.830703	4.14867		
0.540254	2.68198	0.395447	1.9397	0.541381	2.68169	0.654238	3.25479	0.770323	3.83155	0.9666	4.80032	0.540856	2.68928	0.643511	3.18779	0.831862	4.13522		
0.542629	2.68137	0.397475	1.94077	0.543756	2.68109	0.655836	3.24769	0.771958	3.82197	0.967717	4.78374	0.542925	2.68712	0.645285	3.18189	0.833026	4.12192		
0.545005	2.68077	0.399502	1.94184	0.546134	2.68049	0.657438	3.24067	0.773596	3.81249	0.968839	4.76733	0.544993	2.68498	0.647063	3.17607	0.834194	4.10876		
0.547384	2.68019	0.401529	1.94289	0.548513	2.67992	0.659043	3.23373	0.775238	3.80312	0.969964	4.75108	0.547061	2.68285	0.648846	3.17032	0.835366	4.09573		
0.549764	2.67962	0.403556	1.94393	0.550894	2.67935	0.660651	3.22687	0.776883	3.79385	0.971094	4.73501	0.549127	2.68073	0.650633	3.16465	0.836543	4.08285		
0.552145	2.67906	0.405582	1.94496	0.553276	2.6788	0.662263	3.22009	0.77853	3.78467	0.972227	4.7191	0.551192	2.67863	0.652424	3.15904	0.837723	4.07011		
0.554529	2.67852	0.407608	1.94599	0.55566	2.67826	0.663879	3.21339	0.780182	3.7756	0.973365	4.70335	0.553257	2.67654	0.65422	3.15351	0.838908	4.0575		
0.556914	2.67798	0.409634	1.947	0.558046	2.67773	0.665498	3.20676	0.781836	3.76662	0.974506	4.68776	0.55532	2.67447	0.65602	3.14805	0.840097	4.04502		
0.5593	2.67746	0.41166	1.948	0.560433	2.67722	0.66712	3.20021	0.783494	3.75774	0.975652	4.67233	0.557382	2.67241	0.657824	3.14266	0.84129	4.03267		
0.561687	2.67695	0.413686	1.94899	0.562821	2.67671	0.668745	3.19373	0.785154	3.74895	0.976801	4.65705	0.559443	2.67036	0.659632	3.13733	0.842487	4.02046		
0.564076	2.67645	0.415711	1.94998	0.56521	2.67622	0.670374	3.18733	0.786818	3.74026	0.977955	4.64193	0.561503	2.66833	0.661445	3.13207	0.843689	4.00837		
0.566466	2.67596	0.417736	1.95095	0.567601	2.67574	0.672006	3.181	0.788485	3.73165	0.979112	4.62696	0.563562	2.66631	0.663262	3.12688	0.844895	3.99641		
0.568858	2.67549	0.419761	1.95191	0.569993	2.67526	0.673642	3.17474	0.790154	3.72314	0.980273	4.61215	0.56562	2.6643	0.665083	3.12175	0.846104	3.98457		
0.57125	2.67502	0.421786	1.95287	0.572386	2.6748	0.675281	3.16855	0.791827	3.71471	0.981439	4.59747	0.567676	2.6623	0.666908	3.11669	0.847318	3.97285		
0.573644	2.67456	0.42381	1.95381	0.57478	2.67434	0.676922	3.16243	0.793503	3.70638	0.982608	4.58295	0.569732	2.66032	0.668737	3.11169	0.848536	3.96126		
0.576039	2.6741	0.425834	1.95475	0.577175	2.67389	0.678568	3.15638	0.795182	3.69812	0.983781	4.56857	0.571787	2.65835	0.67057	3.10675	0.849758	3.94978		
0.578434	2.67366	0.427858	1.95567	0.579571	2.67345	0.680216	3.15039	0.796864	3.68996	0.984957	4.55433	0.57384	2.65639	0.672407	3.10187	0.850984	3.93843		
0.580831	2.67323	0.429882	1.95659	0.581968	2.67302	0.681868	3.14447	0.798548	3.68187	0.986138	4.54023	0.575892	2.65444	0.674249	3.09706	0.852214	3.92719		
0.583228	2.6728	0.431905	1.9575	0.584366	2.6726	0.683523	3.13862	0.800236	3.67387	0.987323	4.52627	0.577944	2.6525	0.676094	3.0923	0.853449	3.91606		
0.585626	2.67238	0.433929	1.9584	0.586765	2.67218	0.685181	3.13283	0.801926	3.66595	0.988511	4.51244	0.579994	2.65058	0.677943	3.0876	0.854687	3.90505		
0.588025	2.67197	0.435952	1.95929	0.589164	2.67177	0.686842	3.1271	0.80362	3.65811	0.989704	4.49875	0.582043	2.64867	0.679796	3.08296	0.855929	3.89415		
0.590425	2.67156	0.437974	1.96017	0.591564	2.67137	0.688506	3.12144	0.805316	3.65035	0.9909	4.48519	0.584091	2.64676	0.681654	3.07837	0.857175	3.88336		
0.592826	2.67116	0.439997	1.96105	0.593965	2.67097	0.690173	3.11584	0.807014	3.64267	0.9921	4.47176	0.586137	2.64487	0.683515	3.07384	0.858426	3.87267		
0.595227	2.67077	0.442019	1.96192	0.596366	2.67058	0.691844	3.11029	0.808716	3.63506	0.993303	4.45847	0.588183	2.64299	0.685379	3.06937	0.85968	3.8621		
0.597629	2.67038	0.444041	1.96277	0.598768	2.6702	0.693517	3.10481	0.810421	3.62753	0.994511	4.4453	0.590228	2.64112	0.687248	3.06495	0.860939	3.85163		
0.600031	2.67	0.446063	1.96362	0.601171	2.66982	0.695194	3.09939	0.812128	3.62008	0.995722	4.43225	0.592271	2.63926	0.689121	3.06058	0.862201	3.84127		
0.602434	2.66963	0.448084	1.96447	0.603574	2.66945	0.696873	3.09403	0.813838	3.61269	0.996937	4.41933	0.594313	2.63741	0.690997	3.05627	0.863467	3.83101		
0.604837	2.66926	0.450106	1.9653	0.605978	2.66908	0.698556	3.08872	0.81555	3.60538	0.998156	4.40654	0.596355	2.63557	0.692877	3.05201	0.864737	3.82085		
0.607241	2.66889	0.452127	1.96613	0.608382	2.66872	0.700242	3.08347	0.817265	3.59815	0.999379	4.39386	0.598395	2.63375	0.694761	3.0478	0.866012	3.81079		
0.609646	2.66853	0.454148	1.96694	0.610787	2.66836	0.701931	3.07828	0.818983	3.59098	1.00061	4.38131	0.600434	2.63193	0.696648	3.04364	0.86729	3.80083		
0.612051	2.66818	0.456168	1.96775	0.613192	2.66801	0.703622	3.07314	0.820704	3.58388			0.602472	2.63012	0.69854	3.03953	0.868572	3.79097		
0.614456	2.66783	0.458188	1.96856	0.615597	2.66766	0.705317	3.06806	0.822427	3.57685			0.604508	2.62832	0.700434	3.03547	0.869858	3.78121		
0.616862	2.66748	0.460208	1.96935	0.618003	2.66732	0.707014	3.06303	0.824152	3.56989			0.606544	2.62653	0.702333	3.03146	0.871148	3.77154		
0.619267	2.66714	0.462228	1.97014	0.620409	2.66698	0.708715	3.05805	0.82588	3.563			0.608578	2.62475	0.704235	3.02749	0.872442	3.76197		
0.621674	2.6668	0.464248	1.97092	0.622816	2.66664	0.710419	3.05313	0.827611	3.55617			0.610612	2.62298	0.70614	3.02357	0.873739	3.75249		
0.62408	2.66647	0.466267	1.9717	0.625222	2.66631	0.712125	3.04826	0.829344	3.54941			0.612644	2.62122	0.708049	3.0197	0.875041	3.7431		
0.626487	2.66614	0.468286	1.97246	0.627629	2.66598	0.713834	3.04344	0.83108	3.54271			0.614675	2.61947	0.709962	3.01587	0.876346	3.73381		
0.628894	2.66581	0.470305	1.97322	0.630036	2.66566	0.715547	3.03867	0.832818	3.53608			0.616705	2.61773	0.711878	3.01209	0.877656	3.7246		
0.631301	2.66549	0.472324	1.97398	0.632443	2.66534	0.717262	3.03395	0.834559	3.5295			0.618734	2.61599	0.713798	3.00835	0.878969	3.71548		
0.633708	2.66517	0.474342	1.97472	0.634851	2.66502	0.71898	3.02927	0.836302	3.52299			0.620762	2.61427	0.715721	3.00466	0.880286	3.70645		
0.636116	2.66485	0.47636	1.97546	0.637258	2.6647	0.720701	3.02465	0.838047	3.51654			0.622789	2.61255	0.717647	3.00101	0.881607	3.69751		
0.638523	2.66454	0.478378	1.97619	0.639666	2.66439	0.722425	3.02008	0.839795	3.51016			0.624815	2.61085	0.719577	2.9974	0.882932	3.68865		
0.640931	2.66422	0.480395	1.97692	0.642073	2.66408	0.724151	3.01555	0.841545	3.50383			0.626839	2.60915	0.72151	2.99383	0.88426	3.67988		
0.643339	2.66392	0.482412	1.97764	0.644481	2.66377	0.725881	3.01107	0.843297	3.49755			0.628863	2.60746	0.723446	2.99031	0.885592	3.67119		
0.645746	2.66361	0.48443	1.97835	0.646889	2.66346	0.727613	3.00664	0.845052	3.49134			0.630885	2.60578	0.725386	2.98682	0.886928	3.66258		
0.648154	2.66331	0.486446	1.97906	0.649296	2.66316	0.729348	3.00225	0.846809	3.48519			0.632907	2.60411	0.727329	2.98338	0.888268	3.65405		
0.650562	2.663	0.488463	1.97976	0.651704	2.66286	0.731086	2.9979	0.848568	3.47909			0.634927	2.60244	0.729275	2.97997	0.889612	3.64561		
0.652969	2.6627	0.490479	1.98045	0.654112	2.66256	0.732827	2.9936	0.85033	3.47304			0.636946	2.60079	0.731224	2.9766	0.890959	3.63724		
0.655377	2.66241	0.492495	1.98114	0.656519	2.66226	0.73457	2.98935	0.852094	3.46705			0.638964	2.59914	0.733177	2.97328	0.89231	3.62896		
0.657784	2.66211	0.494511	1.98182	0.658926	2.66197	0.736317	2.98514	0.85386	3.46112			0.640981	2.5975	0.735132	2.96998	0.893665	3.62075		
0.660191	2.66182	0.496526	1.98249	0.661334	2.66168	0.738066	2.98097	0.855628	3.45523			0.642997	2.59587	0.737091	2.96673	0.895024	3.61261		
0.662598	2.66152	0.498541	1.98316	0.663741	2.66138	0.739818	2.97684	0.857399	3.44941			0.645012	2.59425	0.739053	2.96351	0.896386	3.60456		
0.665005	2.66123	0.500556	1.98382	0.666147	2.66109	0.741573	2.97276	0.859171	3.44363			0.647026	2.59263	0.741017	2.96033	0.897753	3.59658		
0.667412	2.66094	0.502571	1.98448	0.668554	2.6608	0.74333	2.96872	0.860946	3.4379			0.649039	2.59102	0.742985	2.95719	0.899122	3.58867		
0.669818	2.66065	0.504585	1.98513	0.67096	2.66052	0.74509	2.96472	0.862723	3.43223			0.651051	2.58942	0.744956	2.95408	0.900496	3.58084		
0.672225	2.66036	0.5066	1.98578	0.673366	2.66023	0.746853	2.96076	0.864502	3.42661			0.653062	2.58783	0.74693	2.951	0.901873	3.57307		
0.674631	2.66008	0.508614	1.98642	0.675772	2.65994	0.748619	2.95683	0.866283	3.42103			0.655072	2.58625	0.748907	2.94796	0.903254	3.56538		
0.677036	2.65979	0.510627	1.98705	0.678178	2.65966	0.750388	2.95295	0.868066	3.41551			0.657081	2.58467	0.750886	2.94495	0.904639	3.55777		
0.679442	2.65951	0.512641	1.98768	0.680583	2.65937	0.752159	2.94911	0.869851	3.41003			0.659089	2.5831	0.752869	2.94198	0.906027	3.55022		
0.681846	2.65922	0.514654	1.9883	0.682988	2.65909	0.753933	2.94531	0.871638	3.4046			0.661095	2.58154	0.754854	2.93903	0.907419	3.54274		
0.684251	2.65894	0.516667	1.98892	0.685392	2.6588	0.75571	2.94154	0.873427	3.39922			0.663101	2.57999	0.756842	2.93612	0.908814	3.53532		
0.686655	2.65866	0.518679	1.98953	0.687796	2.65852	0.75749	2.93782	0.875218	3.39388			0.665106	2.57844	0.758833	2.93325	0.910213	3.52798		
0.689059	2.65837	0.520691	1.99014	0.690199	2.65824	0.759272	2.93413	0.877011	3.38859			0.66711	2.5769	0.760827	2.9304	0.911616	3.5207		
0.691462	2.65809	0.522704	1.99074	0.692602	2.65796	0.761058	2.93047	0.878806	3.38335			0.669113	2.57537	0.762823	2.92758	0.913023	3.51349		
0.693865	2.65781	0.524715	1.99134	0.695005	2.65767	0.762845	2.92686	0.880603	3.37815			0.671115	2.57385	0.764822	2.9248	0.914433	3.50635		
0.696267	2.65752	0.526727	1.99193	0.697407	2.65739	0.764636	2.92328	0.882402	3.373			0.673116	2.57233	0.766824	2.92204	0.915846	3.49927		
0.698669	2.65724	0.528738	1.99251	0.699808	2.65711	0.76643	2.91974	0.884203	3.36789			0.675116	2.57082	0.768828	2.91931	0.917264	3.49225		
0.70107	2.65696	0.530749	1.99309	0.702209	2.65683	0.768226	2.91623	0.886006	3.36282			0.677115	2.56932	0.770835	2.91662	0.918684	3.4853		
0.703471	2.65668	0.53276	1.99367	0.704609	2.65654	0.770025	2.91276	0.88781	3.35779			0.679114	2.56782	0.772845	2.91395	0.920109	3.47841		
0.70587	2.65639	0.53477	1.99424	0.707009	2.65626	0.771827	2.90932	0.889617	3.35281			0.681111	2.56633	0.774857	2.91131	0.921537	3.47158		
0.70827	2.65611	0.536781	1.9948	0.709408	2.65597	0.773631	2.90592	0.891425	3.34787			0.683107	2.56485	0.776872	2.90869	0.922968	3.46481		
0.710668	2.65582	0.538791	1.99536	0.711806	2.65569	0.775439	2.90255	0.893235	3.34297			0.685103	2.56338	0.778889	2.90611	0.924404	3.4581		
0.713066	2.65554	0.5408	1.99592	0.714204	2.6554	0.777249	2.89921	0.895047	3.33811			0.687097	2.56191	0.780908	2.90355	0.925842	3.45145		
0.715463	2.65525	0.54281	1.99647	0.716601	2.65512	0.779062	2.89591	0.896861	3.33329			0.689091	2.56045	0.78293	2.90102	0.927284	3.44487		
0.71786	2.65497	0.544819	1.99702	0.718997	2.65483	0.780878	2.89264	0.898676	3.32852			0.691084	2.55899	0.784955	2.89851	0.92873	3.43834		
0.720255	2.65468	0.546828	1.99756	0.721392	2.65454	0.782697	2.88941	0.900493	3.32378			0.693076	2.55755	0.786982	2.89603	0.93018	3.43186		
0.72265	2.65439	0.548837	1.9981	0.723786	2.65425	0.784518	2.8862	0.902312	3.31908			0.695067	2.55611	0.789011	2.89358	0.931632	3.42545		
0.725044	2.6541	0.550845	1.99863	0.726179	2.65396	0.786342	2.88303	0.904133	3.31441			0.697057	2.55467	0.791042	2.89115	0.933089	3.41909		
0.727437	2.65381	0.552853	1.99916	0.728572	2.65367	0.78817	2.8799	0.905955	3.30979			0.699047	2.55324	0.793076	2.88875	0.934549	3.41279		
0.729829	2.65352	0.554861	1.99968	0.730964	2.65338	0.79	2.87679	0.907779	3.3052			0.701036	2.55182	0.795112	2.88637	0.936012	3.40654		
0.73222	2.65322	0.556868	2.0002	0.733354	2.65308	0.791833	2.87371	0.909605	3.30065			0.703023	2.55041	0.79715	2.88401	0.937479	3.40035		
0.73461	2.65293	0.558876	2.00072	0.735744	2.65279	0.793669	2.87067	0.911432	3.29614			0.70501	2.549	0.79919	2.88168	0.938949	3.39421		
0.736999	2.65263	0.560883	2.00123	0.738132	2.65249	0.795507	2.86766	0.913261	3.29166			0.706997	2.5476	0.801233	2.87937	0.940423	3.38813		
0.739387	2.65233	0.56289	2.00173	0.74052	2.65219	0.797349	2.86467	0.915091	3.28722			0.708982	2.54621	0.803277	2.87709	0.9419	3.3821		
0.741774	2.65203	0.564896	2.00223	0.742906	2.65188	0.799194	2.86172	0.916924	3.28282			0.710967	2.54482	0.805324	2.87482	0.943381	3.37612		
0.74416	2.65172	0.566902	2.00273	0.745291	2.65158	0.801041	2.8588	0.918757	3.27845			0.712951	2.54344	0.807373	2.87258	0.944865	3.3702		
0.746544	2.65142	0.568909	2.00322	0.747675	2.65127	0.802892	2.85591	0.920593	3.27411			0.714934	2.54207	0.809424	2.87037	0.946353	3.36432		
0.748928	2.65111	0.570914	2.00371	0.750058	2.65096	0.804746	2.85305	0.92243	3.26981			0.716916	2.5407	0.811477	2.86817	0.947844	3.3585		
0.75131	2.6508	0.57292	2.0042	0.75244	2.65065	0.806602	2.85022	0.924268	3.26554			0.718898	2.53934	0.813531	2.86599	0.949338	3.35273		
0.75369	2.65049	0.574925	2.00468	0.75482	2.65034	0.808462	2.84741	0.926108	3.26131			0.720879	2.53798	0.815588	2.86384	0.950836	3.347		
0.75607	2.65017	0.57693	2.00516	0.757199	2.65002	0.810325	2.84464	0.927949	3.2571			0.722859	2.53663	0.817647	2.86171	0.952338	3.34133		
0.758448	2.64986	0.578935	2.00563	0.759576	2.6497	0.812191	2.84189	0.929792	3.25293			0.724838	2.53529	0.819708	2.85959	0.953842	3.33571		
0.760825	2.64953	0.580939	2.0061	0.761952	2.64938	0.81406	2.83918	0.931637	3.2488			0.726817	2.53395	0.82177	2.8575	0.955351	3.33013		
0.7632	2.64921	0.582943	2.00656	0.764327	2.64906	0.815932	2.83649	0.933483	3.24469			0.728795	2.53262	0.823834	2.85543	0.956862	3.3246		
0.765574	2.64888	0.584947	2.00702	0.7667	2.64873	0.817807	2.83383	0.93533	3.24062			0.730773	2.5313	0.8259	2.85338	0.958377	3.31912		
0.767946	2.64855	0.586951	2.00748	0.769071	2.6484	0.819686	2.8312	0.937179	3.23658			0.732749	2.52998	0.827968	2.85134	0.959896	3.31369		
0.770316	2.64822	0.588954	2.00793	0.771441	2.64806	0.821567	2.8286	0.939029	3.23257			0.734725	2.52867	0.830038	2.84933	0.961418	3.3083		
0.772685	2.64788	0.590957	2.00838	0.773809	2.64772	0.823452	2.82602	0.940881	3.22859			0.736701	2.52736	0.832109	2.84733	0.962943	3.30296		
0.775053	2.64754	0.59296	2.00883	0.776176	2.64738	0.825341	2.82347	0.942734	3.22463			0.738676	2.52606	0.834182	2.84535	0.964471	3.29766		
0.777418	2.6472	0.594963	2.00927	0.77854	2.64703	0.827232	2.82095	0.944588	3.22071			0.74065	2.52477	0.836257	2.84339	0.966003	3.29241		
0.779782	2.64685	0.596965	2.00971	0.780903	2.64668	0.829127	2.81846	0.946444	3.21682			0.742623	2.52348	0.838333	2.84145	0.967538	3.28721		
0.782144	2.6465	0.598967	2.01015	0.783264	2.64633	0.831025	2.816	0.948301	3.21296			0.744596	2.5222	0.840411	2.83953	0.969077	3.28205		
0.784504	2.64614	0.600969	2.01058	0.785623	2.64597	0.832927	2.81356	0.95016	3.20913			0.746569	2.52093	0.842491	2.83762	0.970619	3.27693		
0.786862	2.64578	0.602971	2.01101	0.78798	2.64561	0.834832	2.81115	0.95202	3.20532			0.74854	2.51966	0.844572	2.83573	0.972164	3.27185		
0.789218	2.64541	0.604972	2.01143	0.790336	2.64524	0.836741	2.80876	0.953881	3.20155			0.750512	2.5184	0.846655	2.83386	0.973713	3.26682		
0.791572	2.64504	0.606973	2.01185	0.792689	2.64487	0.838653	2.8064	0.955743	3.1978			0.752482	2.51714	0.848739	2.832	0.975265	3.26183		
0.793924	2.64467	0.608974	2.01227	0.795039	2.64449	0.840569	2.80407	0.957607	3.19408			0.754452	2.51589	0.850824	2.83016	0.976821	3.25689		
0.796274	2.64429	0.610974	2.01268	0.797388	2.64411	0.842489	2.80177	0.959472	3.19038			0.756422	2.51464	0.852911	2.82834	0.978379	3.25198		
0.798622	2.64391	0.612974	2.01309	0.799735	2.64372	0.844412	2.79949	0.961339	3.18671			0.75839	2.5134	0.855	2.82653	0.979941	3.24712		
0.800967	2.64352	0.614974	2.0135	0.802079	2.64333	0.846339	2.79724	0.963206	3.18307			0.760359	2.51217	0.857089	2.82474	0.981507	3.2423		
0.80331	2.64312	0.616974	2.0139	0.804421	2.64293	0.848269	2.79501	0.965075	3.17946			0.762327	2.51094	0.859181	2.82297	0.983075	3.23751		
0.80565	2.64272	0.618974	2.01431	0.80676	2.64253	0.850204	2.79281	0.966945	3.17587			0.764294	2.50972	0.861273	2.8212	0.984647	3.23277		
0.807988	2.64232	0.620973	2.0147	0.809097	2.64212	0.852142	2.79064	0.968816	3.17231			0.766261	2.5085	0.863367	2.81946	0.986223	3.22807		
0.810324	2.6419	0.622972	2.0151	0.811431	2.64171	0.854084	2.78849	0.970689	3.16878			0.768227	2.50729	0.865462	2.81773	0.987801	3.22341		
0.812657	2.64149	0.624971	2.01549	0.813763	2.64129	0.85603	2.78637	0.972562	3.16527			0.770193	2.50609	0.867558	2.81601	0.989383	3.21878		
0.814987	2.64106	0.626969	2.01588	0.816092	2.64086	0.85798	2.78427	0.974437	3.16178			0.772158	2.50489	0.869656	2.81431	0.990968	3.2142		
0.817315	2.64063	0.628967	2.01626	0.818419	2.64043	0.859934	2.7822	0.976313	3.15832			0.774123	2.5037	0.871754	2.81262	0.992557	3.20965		
0.81964	2.6402	0.630965	2.01664	0.820742	2.63999	0.861892	2.78015	0.97819	3.15488			0.776088	2.50251	0.873854	2.81094	0.994149	3.20514		
0.821962	2.63975	0.632963	2.01702	0.823063	2.63954	0.863855	2.77813	0.980068	3.15147			0.778052	2.50133	0.875955	2.80928	0.995744	3.20067		
0.824281	2.63931	0.63496	2.0174	0.825381	2.63909	0.865821	2.77614	0.981947	3.14808			0.780015	2.50015	0.878057	2.80763	0.997342	3.19623		
0.826597	2.63885	0.636957	2.01777	0.827695	2.63863	0.867792	2.77417	0.983828	3.14472			0.781978	2.49898	0.88016	2.806	0.998944	3.19184		
0.82891	2.63839	0.638954	2.01814	0.830007	2.63816	0.869767	2.77223	0.98571	3.14138			0.783941	2.49782	0.882264	2.80438	1.00055	3.18747		
0.83122	2.63792	0.640951	2.0185	0.832316	2.63769	0.871747	2.77031	0.987592	3.13806			0.785903	2.49666	0.88437	2.80277				
0.833527	2.63744	0.642947	2.01887	0.834621	2.63721	0.87373	2.76842	0.989476	3.13476			0.787865	2.4955	0.886476	2.80117				
0.835831	2.63695	0.644943	2.01923	0.836923	2.63672	0.875719	2.76655	0.991361	3.13149			0.789827	2.49436	0.888583	2.79959				
0.838131	2.63646	0.646939	2.01959	0.839222	2.63623	0.877712	2.76471	0.993247	3.12824			0.791788	2.49321	0.890691	2.79802				
0.840428	2.63596	0.648935	2.01994	0.841517	2.63572	0.879709	2.76289	0.995134	3.12501			0.793749	2.49208	0.8928	2.79646				
0.842722	2.63545	0.65093	2.02029	0.843809	2.63521	0.881711	2.7611	0.997021	3.12181			0.795709	2.49094	0.89491	2.79491				
0.845012	2.63494	0.652925	2.02064	0.846097	2.63469	0.883718	2.75934	0.99891	3.11863			0.797669	2.48982	0.897021	2.79338				
0.847298	2.63441	0.65492	2.02099	0.848382	2.63416	0.885729	2.75759	1.0008	3.11546			0.799629	2.4887	0.899133	2.79185				
0.849581	2.63388	0.656915	2.02133	0.850663	2.63363	0.887745	2.75588					0.801588	2.48758	0.901245	2.79034				
0.85186	2.63334	0.658909	2.02167	0.85294	2.63308	0.889766	2.75419					0.803547	2.48647	0.903359	2.78884				
0.854136	2.63279	0.660903	2.02201	0.855214	2.63253	0.891792	2.75252					0.805505	2.48537	0.905473	2.78735				
0.856407	2.63223	0.662897	2.02235	0.857484	2.63197	0.893823	2.75088					0.807464	2.48427	0.907588	2.78587				
0.858675	2.63167	0.664891	2.02268	0.85975	2.6314	0.895859	2.74926					0.809422	2.48317	0.909703	2.7844				
0.860939	2.63109	0.666884	2.02301	0.862011	2.63082	0.8979	2.74767					0.811379	2.48208	0.911819	2.78294				
0.863198	2.63051	0.668877	2.02334	0.864269	2.63023	0.899946	2.7461					0.813337	2.481	0.913936	2.78149				
0.865454	2.62992	0.67087	2.02366	0.866523	2.62963	0.901997	2.74455					0.815294	2.47992	0.916054	2.78005				
0.867706	2.62931	0.672862	2.02398	0.868773	2.62903	0.904054	2.74303					0.817251	2.47885	0.918172	2.77862				
0.869953	2.6287	0.674855	2.0243	0.871018	2.62841	0.906115	2.74154					0.819207	2.47778	0.92029	2.7772				
0.872196	2.62808	0.676847	2.02462	0.87326	2.62779	0.908182	2.74007					0.821163	2.47672	0.92241	2.77579				
0.874435	2.62745	0.678839	2.02493	0.875497	2.62715	0.910254	2.73862					0.823119	2.47566	0.92453	2.7744				
0.87667	2.62681	0.68083	2.02525	0.877729	2.62651	0.912332	2.7372					0.825075	2.47461	0.92665	2.773				
0.878901	2.62617	0.682821	2.02556	0.879958	2.62586	0.914414	2.7358					0.827031	2.47356	0.928771	2.77162				
0.881127	2.62551	0.684813	2.02586	0.882182	2.62519	0.916503	2.73443					0.828986	2.47252	0.930892	2.77025				
0.883348	2.62484	0.686803	2.02617	0.884401	2.62452	0.918596	2.73307					0.830941	2.47148	0.933014	2.76889				
0.885566	2.62417	0.688794	2.02647	0.886616	2.62384	0.920695	2.73175					0.832896	2.47045	0.935136	2.76753				
0.887779	2.62348	0.690784	2.02677	0.888827	2.62315	0.922799	2.73044					0.83485	2.46943	0.937258	2.76619				
0.889987	2.62278	0.692774	2.02707	0.891033	2.62245	0.924909	2.72916					0.836805	2.4684	0.939381	2.76485				
0.892191	2.62208	0.694764	2.02736	0.893235	2.62174	0.927025	2.7279					0.838759	2.46739	0.941505	2.76352				
0.89439	2.62137	0.696754	2.02766	0.895432	2.62102	0.929145	2.72667					0.840713	2.46638	0.943628	2.7622				
0.896585	2.62064	0.698743	2.02795	0.897625	2.6203	0.931272	2.72546					0.842667	2.46537	0.945752	2.76089				
0.898775	2.61991	0.700732	2.02824	0.899813	2.61956	0.933403	2.72427					0.84462	2.46437	0.947876	2.75958				
0.900961	2.61917	0.702721	2.02852	0.901997	2.61881	0.935541	2.7231					0.846574	2.46337	0.950001	2.75829				
0.903142	2.61842	0.70471	2.02881	0.904176	2.61806	0.937683	2.72196					0.848527	2.46238	0.952125	2.757				
0.905319	2.61766	0.706698	2.02909	0.906351	2.61729	0.939831	2.72083					0.85048	2.46139	0.95425	2.75572				
0.907491	2.61689	0.708686	2.02937	0.908521	2.61652	0.941985	2.71973					0.852433	2.46041	0.956375	2.75444				
0.909659	2.61611	0.710674	2.02965	0.910686	2.61574	0.944144	2.71865					0.854386	2.45943	0.9585	2.75318				
0.911822	2.61532	0.712662	2.02992	0.912847	2.61495	0.946308	2.71759					0.856338	2.45846	0.960626	2.75192				
0.913981	2.61453	0.714649	2.03019	0.915004	2.61415	0.948478	2.71656					0.858291	2.45749	0.962751	2.75066				
0.916136	2.61373	0.716636	2.03046	0.917156	2.61334	0.950653	2.71554					0.860243	2.45653	0.964877	2.74942				
0.918286	2.61291	0.718623	2.03073	0.919304	2.61253	0.952833	2.71454					0.862195	2.45557	0.967002	2.74818				
0.920431	2.61209	0.72061	2.031	0.921448	2.6117	0.955019	2.71357					0.864147	2.45462	0.969128	2.74695				
0.922572	2.61127	0.722596	2.03126	0.923587	2.61087	0.957209	2.71261					0.866099	2.45367	0.971254	2.74572				
0.924709	2.61043	0.724582	2.03153	0.925722	2.61003	0.959405	2.71167					0.868051	2.45272	0.973379	2.7445				
0.926842	2.60959	0.726568	2.03179	0.927853	2.60919	0.961606	2.71075					0.870003	2.45178	0.975505	2.74329				
0.928971	2.60874	0.728554	2.03205	0.929979	2.60833	0.963812	2.70986					0.871955	2.45085	0.977631	2.74208				
0.931095	2.60788	0.730539	2.0323	0.932102	2.60747	0.966023	2.70898					0.873906	2.44992	0.979756	2.74088				
0.933215	2.60702	0.732525	2.03256	0.93422	2.6066	0.968239	2.70811					0.875858	2.44899	0.981882	2.73969				
0.935331	2.60614	0.73451	2.03281	0.936334	2.60573	0.97046	2.70727					0.877809	2.44807	0.984007	2.7385				
0.937444	2.60527	0.736494	2.03306	0.938445	2.60485	0.972686	2.70645					0.879761	2.44715	0.986132	2.73731				
0.939552	2.60438	0.738479	2.03331	0.940551	2.60396	0.974916	2.70564					0.881712	2.44624	0.988258	2.73614				
0.941656	2.60349	0.740463	2.03356	0.942654	2.60307	0.977151	2.70485					0.883663	2.44533	0.990383	2.73496				
0.943757	2.6026	0.742447	2.0338	0.944752	2.60217	0.979391	2.70407					0.885614	2.44443	0.992507	2.7338				
0.945854	2.60169	0.744431	2.03404	0.946847	2.60126	0.981635	2.70331					0.887565	2.44353	0.994632	2.73264				
0.947947	2.60079	0.746415	2.03429	0.948939	2.60035	0.983883	2.70257					0.889516	2.44264	0.996756	2.73148				
0.950036	2.59987	0.748398	2.03452	0.951027	2.59944	0.986136	2.70185					0.891467	2.44175	0.99888	2.73033				
0.952122	2.59895	0.750381	2.03476	0.953111	2.59852	0.988394	2.70114					0.893418	2.44086	1.001	2.72919				
0.954205	2.59803	0.752364	2.035	0.955192	2.59759	0.990655	2.70044					0.895369	2.43998						
0.956284	2.5971	0.754346	2.03523	0.957269	2.59666	0.992921	2.69976					0.89732	2.43911						
0.95836	2.59617	0.756329	2.03546	0.959344	2.59573	0.995191	2.69909					0.899271	2.43823						
0.960432	2.59524	0.758311	2.03569	0.961414	2.59479	0.997464	2.69844					0.901222	2.43737						
0.962501	2.5943	0.760293	2.03592	0.963482	2.59385	0.999742	2.6978					0.903173	2.4365						
0.964568	2.59335	0.762275	2.03615	0.965547	2.5929	1.00202	2.69718					0.905124	2.43564						
0.966631	2.59241	0.764256	2.03637	0.967609	2.59196							0.907074	2.43479						
0.968691	2.59146	0.766237	2.0366	0.969667	2.591							0.909025	2.43394						
0.970748	2.5905	0.768218	2.03682	0.971723	2.59005							0.910976	2.43309						
0.972803	2.58955	0.770199	2.03704	0.973776	2.58909							0.912927	2.43225						
0.974854	2.58859	0.77218	2.03725	0.975827	2.58813							0.914877	2.43141						
0.976903	2.58763	0.77416	2.03747	0.977875	2.58717							0.916828	2.43058						
0.978949	2.58666	0.77614	2.03769	0.97992	2.58621							0.918779	2.42975						
0.980993	2.5857	0.77812	2.0379	0.981962	2.58524							0.92073	2.42892						
0.983035	2.58473	0.780099	2.03811	0.984003	2.58427							0.922681	2.4281						
0.985074	2.58376	0.782079	2.03832	0.98604	2.5833							0.924632	2.42728						
0.98711	2.58279	0.784058	2.03853	0.988076	2.58233							0.926583	2.42647						
0.989144	2.58182	0.786037	2.03874	0.990109	2.58136							0.928534	2.42566						
0.991177	2.58085	0.788016	2.03894	0.99214	2.58039							0.930485	2.42486						
0.993206	2.57988	0.789994	2.03914	0.994169	2.57941							0.932436	2.42406						
0.995234	2.5789	0.791972	2.03935	0.996196	2.57844							0.934387	2.42326						
0.99726	2.57793	0.79395	2.03955	0.998221	2.57747							0.936338	2.42246						
0.999284	2.57695	0.795928	2.03974	1.00024	2.57649							0.938289	2.42168						
1.00131	2.57598	0.797906	2.03994									0.94024	2.42089						
		0.799883	2.04014									0.942192	2.42011						
		0.80186	2.04033									0.944143	2.41933						
		0.803837	2.04052									0.946094	2.41856						
		0.805814	2.04072									0.948046	2.41779						
		0.80779	2.04091									0.949997	2.41702						
		0.809767	2.04109									0.951949	2.41626						
		0.811743	2.04128									0.953901	2.4155						
		0.813719	2.04147									0.955853	2.41475						
		0.815694	2.04165									0.957804	2.414						
		0.81767	2.04183									0.959756	2.41325						
		0.819645	2.04202									0.961709	2.41251						
		0.82162	2.0422									0.963661	2.41177						
		0.823594	2.04237									0.965613	2.41103						
		0.825569	2.04255									0.967565	2.4103						
		0.827543	2.04273									0.969518	2.40957						
		0.829517	2.0429									0.97147	2.40884						
		0.831491	2.04308									0.973423	2.40812						
		0.833465	2.04325									0.975376	2.4074						
		0.835438	2.04342									0.977329	2.40669						
		0.837412	2.04359									0.979282	2.40598						
		0.839385	2.04376									0.981235	2.40527						
		0.841357	2.04392									0.983188	2.40457						
		0.84333	2.04409									0.985141	2.40387						
		0.845303	2.04425									0.987095	2.40317						
		0.847275	2.04441									0.989048	2.40248						
		0.849247	2.04458									0.991002	2.40179						
		0.851218	2.04474									0.992956	2.4011						
		0.85319	2.0449									0.99491	2.40042						
		0.855161	2.04505									0.996864	2.39974						
		0.857133	2.04521									0.998818	2.39906						
		0.859103	2.04537									1.00077	2.39839						
		0.861074	2.04552																
		0.863045	2.04568																
		0.865015	2.04583																
		0.866985	2.04598																
		0.868955	2.04613																
		0.870925	2.04628																
		0.872894	2.04643																
		0.874864	2.04657																
		0.876833	2.04672																
		0.878802	2.04686																
		0.88077	2.04701																
		0.882739	2.04715																
		0.884707	2.04729																
		0.886675	2.04743																
		0.888643	2.04757																
		0.890611	2.04771																
		0.892578	2.04784																
		0.894546	2.04798																
		0.896513	2.04811																
		0.89848	2.04825																
		0.900446	2.04838																
		0.902413	2.04851																
		0.904379	2.04864																
		0.906345	2.04877																
		0.908311	2.0489																
		0.910277	2.04903																
		0.912243	2.04916																
		0.914208	2.04928																
		0.916173	2.04941																
		0.918138	2.04953																
		0.920103	2.04965																
		0.922068	2.04978																
		0.924032	2.0499																
		0.925996	2.05002																
		0.927961	2.05014																
		0.929924	2.05026																
		0.931888	2.05037																
		0.933852	2.05049																
		0.935815	2.05061																
		0.937778	2.05072																
		0.939741	2.05084																
		0.941704	2.05095																
		0.943666	2.05106																
		0.945629	2.05117																
		0.947591	2.05128																
		0.949553	2.05139																
		0.951515	2.0515																
		0.953477	2.05161																
		0.955438	2.05172																
		0.9574	2.05183																
		0.959361	2.05193																
		0.961322	2.05204																
		0.963283	2.05214																
		0.965243	2.05224																
		0.967204	2.05235																
		0.969164	2.05245																
		0.971124	2.05255																
		0.973084	2.05265																
		0.975044	2.05275																
		0.977003	2.05285																
		0.978963	2.05295																
		0.980922	2.05304																
		0.982881	2.05314																
		0.98484	2.05324																
		0.986799	2.05333																
		0.988757	2.05343																
		0.990716	2.05352																
		0.992674	2.05361																
		0.994632	2.05371																
		0.99659	2.0538																
		0.998548	2.05389																
		1.00051	2.05398																
