Sym0		Asym0		Sym1		Sym2		Sym3		Sym4		Asym1		Asym2		Asym3		Asym4	
419  Points		525  Points		419  Points		401  Points		349  Points		249  Points		452  Points		396  Points		340  Points		205  Points	
Freq (MHz)	Vph (m/ms)	Freq (MHz)	Vph (m/ms)	Freq (MHz)	Vph (m/ms)	Freq (MHz)	Vph (m/ms)	Freq (MHz)	Vph (m/ms)	Freq (MHz)	Vph (m/ms)	Freq (MHz)	Vph (m/ms)	Freq (MHz)	Vph (m/ms)	Freq (MHz)	Vph (m/ms)	Freq (MHz)	Vph (m/ms)
0.279511	450.246	0.000316484	0.110119	0.279514	303.101	0.450086	9534.54	0.559017	5872.46	0.838526	2050.48	0.139755	898.275	0.419268	459.335	0.698771	3296.96	0.900173	2167.68
0.279524	180.049	0.000553943	0.145556	0.279531	150.782	0.450092	459.793	0.559024	544.386	0.838532	625.473	0.1398	128.578	0.419286	227.321	0.698776	611.011	0.900178	668.301
0.279548	112.531	0.000856538	0.180803	0.279559	100.36	0.450109	235.586	0.559042	285.432	0.838543	369.023	0.139913	69.2991	0.419316	151.041	0.698787	336.71	0.900188	395.052
0.279584	81.8482	0.00122335	0.215793	0.279598	75.216	0.450136	158.371	0.559072	193.432	0.838561	261.721	0.140093	47.4783	0.419357	113.1	0.698804	232.39	0.900204	280.406
0.279631	64.3187	0.00165335	0.250478	0.279648	60.1528	0.450175	119.284	0.559114	146.289	0.838584	202.766	0.140339	36.1479	0.419411	90.3989	0.698827	177.425	0.900224	217.338
0.279688	52.9786	0.00214547	0.284828	0.27971	50.1213	0.450224	95.6767	0.559166	117.628	0.838614	165.491	0.140652	29.2169	0.419476	75.293	0.698856	143.49	0.90025	177.433
0.279758	45.0425	0.00269833	0.318794	0.279782	42.9618	0.450284	79.8747	0.559231	98.3632	0.838649	139.796	0.141029	24.545	0.419553	64.5174	0.698892	120.455	0.900282	149.911
0.279838	39.1784	0.0033106	0.352346	0.279866	37.596	0.450355	68.5568	0.559307	84.525	0.83869	121.009	0.141471	21.1864	0.419642	56.4442	0.698934	103.795	0.900318	129.782
0.279929	34.6689	0.00398068	0.385442	0.279961	33.4253	0.450436	60.052	0.559394	74.1041	0.838738	106.676	0.141976	18.6586	0.419743	50.1705	0.698982	91.1853	0.90036	114.421
0.280032	31.0938	0.00470715	0.418069	0.280068	30.0907	0.450529	53.4279	0.559492	65.9744	0.838791	95.3801	0.142542	16.6895	0.419856	45.1554	0.699036	81.3097	0.900407	102.313
0.280146	28.1901	0.00548824	0.45019	0.280185	27.3641	0.450632	48.123	0.559603	59.4554	0.83885	86.2492	0.143169	15.1141	0.419981	41.055	0.699096	73.3659	0.900459	92.5235
0.280271	25.7852	0.00632223	0.48178	0.280314	25.0934	0.450745	43.7793	0.559724	54.1119	0.838916	78.7153	0.143854	13.8265	0.420118	37.6402	0.699163	66.8378	0.900517	84.4452
0.280407	23.761	0.00720742	0.512825	0.280453	23.1731	0.45087	40.1575	0.559857	49.6524	0.838987	72.3933	0.144596	12.7556	0.420266	34.7525	0.699236	61.378	0.900579	77.6656
0.280554	22.0339	0.00814204	0.543308	0.280604	21.5283	0.451005	37.0916	0.560002	45.8746	0.839064	67.0127	0.145394	11.8519	0.420426	32.2789	0.699315	56.7442	0.900648	71.8948
0.280713	20.5432	0.00912422	0.573211	0.280766	20.1037	0.451152	34.4629	0.560157	42.6334	0.839147	62.3777	0.146246	11.0798	0.420599	30.1364	0.6994	52.7623	0.900721	66.9233
0.280882	19.2435	0.0101523	0.602528	0.28094	18.858	0.451308	32.1843	0.560325	39.8223	0.839236	58.3436	0.147031	10.4938	0.420783	28.2628	0.699492	49.3038	0.900799	62.596
0.281063	18.1005	0.0112244	0.631251	0.281124	17.7597	0.451476	30.1903	0.560503	37.3611	0.839331	54.8007	0.14773	10.0474	0.420978	26.6107	0.699589	46.272	0.900883	58.7952
0.281255	17.0876	0.0123387	0.659373	0.281319	16.7842	0.451654	28.4309	0.560693	35.1885	0.839432	51.6645	0.148329	9.71013	0.421186	25.1431	0.699693	43.5925	0.900972	55.4305
0.281458	16.1838	0.0134936	0.686889	0.281526	15.912	0.451843	26.8671	0.560895	33.2565	0.839539	48.8688	0.148815	9.46166	0.421405	23.8307	0.699803	41.2074	0.901067	52.4309
0.281672	15.3726	0.0146874	0.713805	0.281743	15.1276	0.452043	25.4681	0.561107	31.5275	0.839652	46.361	0.14918	9.28834	0.421637	22.6504	0.69992	39.0708	0.901166	49.7402
0.281897	14.6404	0.0159184	0.740119	0.281972	14.4186	0.452254	24.2091	0.561331	29.9711	0.83977	44.099	0.149416	9.18133	0.421879	21.5832	0.700042	37.1457	0.901271	47.3129
0.282133	13.9764	0.017185	0.765834	0.282211	13.7746	0.452475	23.0704	0.561566	28.5628	0.839895	42.0483	0.14976	9.03256	0.422134	20.6137	0.700171	35.4023	0.901381	45.1122
0.28238	13.3715	0.0184856	0.790954	0.282462	13.1872	0.452706	22.0354	0.561813	27.2824	0.840026	40.1806	0.15014	8.8773	0.4224	19.7291	0.700306	33.8161	0.901496	43.1079
0.282638	12.8182	0.0198187	0.815485	0.282723	12.6492	0.452949	21.0907	0.562071	26.1135	0.840162	38.4726	0.150665	8.67622	0.422678	18.9188	0.700447	32.3668	0.901617	41.2748
0.282907	12.3102	0.0211828	0.839434	0.282996	12.1547	0.453202	20.2251	0.56234	25.042	0.840305	36.9046	0.151345	8.43728	0.422968	18.1738	0.700594	31.0373	0.901742	39.5919
0.283187	11.8423	0.0225766	0.862811	0.28328	11.6987	0.453465	19.429	0.56262	24.0564	0.840453	35.4602	0.152188	8.16909	0.423269	17.4867	0.700747	29.8136	0.901874	38.0415
0.283478	11.4099	0.0239987	0.885622	0.283574	11.277	0.453739	18.6945	0.562911	23.1467	0.840607	34.1252	0.153207	7.88033	0.423582	16.851	0.700907	28.6834	0.90201	36.6085
0.28378	11.0092	0.0254477	0.90788	0.283879	10.8858	0.454024	18.0147	0.563214	22.3047	0.840768	32.8878	0.154413	7.57917	0.423906	16.2612	0.701073	27.6364	0.902151	35.2802
0.284092	10.6369	0.0269224	0.929594	0.284196	10.522	0.454319	17.3838	0.563528	21.5229	0.840934	31.7377	0.155658	7.30615	0.424242	15.7125	0.701245	26.6639	0.902298	34.0455
0.284416	10.29	0.0284217	0.950776	0.28448	10.2252	0.454625	16.7967	0.563853	20.7954	0.841106	30.6659	0.15694	7.05768	0.42459	15.2009	0.701423	25.7581	0.90245	32.8948
0.28475	9.96619	0.0299443	0.971434	0.284729	9.98572	0.454942	16.249	0.564189	20.1165	0.841284	29.6647	0.158257	6.83071	0.424949	14.7227	0.701607	24.9125	0.902607	31.8199
0.285096	9.66317	0.0314893	0.991583	0.28494	9.79646	0.455269	15.737	0.564536	19.4817	0.841468	28.7274	0.159608	6.62269	0.42532	14.2747	0.701797	24.1213	0.90277	30.8135
0.285452	9.37906	0.0330554	1.01123	0.285109	9.65211	0.455606	15.2573	0.564894	18.8868	0.841658	27.8481	0.160991	6.43145	0.425702	13.8543	0.701994	23.3794	0.902937	29.8694
0.285819	9.11217	0.034642	1.0304	0.285235	9.54881	0.455954	14.807	0.565263	18.3282	0.841853	27.0216	0.162405	6.25512	0.426095	13.459	0.702197	22.6823	0.90311	28.9819
0.286197	8.86102	0.0362477	1.04909	0.285317	9.48393	0.456312	14.3834	0.565643	17.8027	0.842055	26.2432	0.163849	6.09211	0.4265	13.0867	0.702406	22.0262	0.903288	28.146
0.286585	8.62427	0.037872	1.06732	0.285435	9.39228	0.456681	13.9844	0.566034	17.3075	0.842263	25.509	0.16532	5.94102	0.426916	12.7354	0.702621	21.4075	0.903471	27.3575
0.286985	8.40074	0.0395138	1.0851	0.285564	9.29478	0.45706	13.6077	0.566436	16.8401	0.842476	24.8152	0.166819	5.80066	0.427344	12.4034	0.702842	20.8231	0.90366	26.6124
0.287395	8.18939	0.0411724	1.10244	0.285743	9.16558	0.457449	13.2517	0.566849	16.3981	0.842695	24.1587	0.168343	5.66998	0.427783	12.0892	0.703069	20.2703	0.903854	25.9073
0.287815	7.98927	0.0428469	1.11935	0.285972	9.00758	0.457849	12.9147	0.567272	15.9797	0.842921	23.5365	0.169892	5.54805	0.428233	11.7915	0.703302	19.7466	0.904053	25.239
0.288247	7.79953	0.0445367	1.13585	0.286255	8.82412	0.458259	12.5953	0.567707	15.5829	0.843152	22.946	0.171465	5.43406	0.428694	11.5089	0.703542	19.2498	0.904257	24.6047
0.288688	7.6194	0.0462411	1.15194	0.286595	8.61887	0.458679	12.2921	0.568152	15.2063	0.843389	22.3849	0.17306	5.3273	0.429167	11.2404	0.703788	18.7778	0.904466	24.0019
0.289141	7.44819	0.0479594	1.16765	0.286994	8.39564	0.45911	12.0039	0.568608	14.8482	0.843631	21.851	0.174676	5.22714	0.42965	10.9851	0.704039	18.3289	0.904681	23.4284
0.289604	7.28527	0.049691	1.18297	0.287404	8.18457	0.459551	11.7297	0.569075	14.5075	0.84388	21.3424	0.176313	5.13301	0.430145	10.7418	0.704297	17.9014	0.904901	22.882
0.290077	7.13007	0.0514352	1.19792	0.287825	7.9847	0.460002	11.4685	0.569553	14.1828	0.844134	20.8573	0.177969	5.0444	0.430651	10.5099	0.704561	17.4938	0.905126	22.3608
0.290562	6.98207	0.0531915	1.21252	0.288257	7.79519	0.460463	11.2194	0.570041	13.8731	0.844395	20.3943	0.179644	4.96086	0.431101	10.3165	0.704831	17.1049	0.905356	21.8633
0.291056	6.8408	0.0549593	1.22676	0.288699	7.61528	0.460934	10.9816	0.57054	13.5773	0.844661	19.9517	0.181336	4.882	0.431491	10.1576	0.705108	16.7332	0.905591	21.3878
0.291561	6.70583	0.0567383	1.24067	0.289152	7.44427	0.461416	10.7543	0.571049	13.2947	0.844933	19.5284	0.183046	4.80745	0.431819	10.0302	0.70539	16.3778	0.905832	20.9328
0.292077	6.57676	0.0585277	1.25425	0.289615	7.28154	0.461908	10.537	0.571569	13.0243	0.845211	19.123	0.184772	4.73687	0.43208	9.93185	0.705678	16.0376	0.906078	20.4972
0.292603	6.45321	0.0603273	1.2675	0.290089	7.12652	0.462344	10.3551	0.5721	12.7654	0.845495	18.7345	0.186514	4.66998	0.432274	9.86088	0.705973	15.7116	0.906329	20.0797
0.293139	6.33487	0.0621365	1.28045	0.290573	6.97868	0.462722	10.2054	0.572641	12.5172	0.845784	18.3619	0.188271	4.6065	0.432399	9.81605	0.706273	15.399	0.906585	19.6791
0.293685	6.22142	0.0639549	1.2931	0.291068	6.83757	0.463039	10.0851	0.573192	12.2792	0.84608	18.0041	0.190042	4.5462	0.43258	9.75237	0.70658	15.0989	0.906846	19.2946
0.294242	6.11257	0.0657823	1.30545	0.291573	6.70273	0.463293	9.99213	0.573754	12.0507	0.846381	17.6604	0.191826	4.48884	0.432778	9.68418	0.706893	14.8107	0.907113	18.9251
0.29481	6.00807	0.067618	1.31752	0.292089	6.57379	0.463481	9.92495	0.574326	11.8312	0.846688	17.3299	0.193624	4.43423	0.433049	9.59311	0.707211	14.5337	0.907384	18.5698
0.295387	5.90767	0.0694618	1.32931	0.292615	6.45038	0.463601	9.88247	0.574908	11.6202	0.847001	17.0119	0.195434	4.38219	0.433395	9.48058	0.707536	14.2672	0.907661	18.2279
0.295975	5.81114	0.0713134	1.34084	0.293152	6.33215	0.463776	9.8221	0.575501	11.4172	0.847319	16.7057	0.197257	4.33253	0.43382	9.34833	0.707867	14.0107	0.907943	17.8987
0.296573	5.71827	0.0731724	1.35211	0.293698	6.21881	0.463967	9.75738	0.576104	11.2217	0.847644	16.4106	0.19909	4.28512	0.434325	9.19829	0.708204	13.7635	0.908231	17.5814
0.297181	5.62888	0.0750386	1.36313	0.294256	6.11007	0.464229	9.67085	0.576717	11.0334	0.847974	16.1261	0.200935	4.23981	0.434915	9.03257	0.708547	13.5253	0.908523	17.2755
0.297799	5.54277	0.0769115	1.37389	0.294823	6.00567	0.464563	9.56379	0.577341	10.8519	0.84831	15.8517	0.202791	4.19646	0.435516	8.87335	0.708896	13.2955	0.908821	16.9804
0.298427	5.45979	0.078791	1.38443	0.295401	5.90536	0.464973	9.43775	0.577974	10.6768	0.848652	15.5867	0.204656	4.15496	0.436128	8.72028	0.709251	13.0737	0.909123	16.6954
0.299066	5.37977	0.0806767	1.39473	0.295989	5.80892	0.46546	9.29447	0.578534	10.5293	0.848999	15.3307	0.206532	4.11519	0.436751	8.57302	0.709612	12.8595	0.909431	16.4201
0.299714	5.30256	0.0825685	1.40481	0.296587	5.71614	0.466028	9.13585	0.579018	10.407	0.849353	15.0833	0.208417	4.07706	0.437384	8.43125	0.709978	12.6525	0.909744	16.154
0.300373	5.22804	0.084466	1.41467	0.297195	5.62682	0.466607	8.98312	0.579422	10.3082	0.849712	14.8441	0.21031	4.04047	0.438027	8.29469	0.710351	12.4524	0.910062	15.8967
0.301041	5.15606	0.0863691	1.42431	0.297814	5.54079	0.467195	8.83595	0.579744	10.2315	0.850076	14.6126	0.212213	4.00532	0.438682	8.16306	0.71073	12.2588	0.910386	15.6476
0.30172	5.08651	0.0882774	1.43375	0.298442	5.45788	0.467792	8.69405	0.579982	10.176	0.850447	14.3886	0.214124	3.97155	0.439347	8.03611	0.711115	12.0715	0.910714	15.4066
0.302408	5.01928	0.0901909	1.443	0.299081	5.37792	0.4684	8.55717	0.580135	10.1408	0.850823	14.1715	0.216042	3.93906	0.440022	7.9136	0.711506	11.8901	0.911048	15.1731
0.303106	4.95426	0.0921092	1.45204	0.299729	5.30078	0.469017	8.42504	0.580356	10.0907	0.851205	13.9613	0.217969	3.9078	0.440708	7.79531	0.711903	11.7143	0.911386	14.9468
0.303815	4.89135	0.0940323	1.4609	0.300388	5.22632	0.469644	8.29744	0.580598	10.0368	0.851593	13.7574	0.219902	3.8777	0.441404	7.68104	0.712306	11.544	0.91173	14.7274
0.304533	4.83045	0.0959599	1.46958	0.301057	5.1544	0.47028	8.17413	0.580929	9.96455	0.851986	13.5596	0.221843	3.8487	0.44211	7.57059	0.712715	11.3788	0.912079	14.5146
0.305167	4.77896	0.0978917	1.47807	0.301736	5.08491	0.470927	8.05492	0.58135	9.87484	0.852385	13.3678	0.223791	3.82073	0.442827	7.46379	0.713129	11.2185	0.912433	14.3081
0.305713	4.73618	0.0998278	1.4864	0.302424	5.01773	0.471582	7.9396	0.581865	9.76874	0.85279	13.1815	0.225746	3.79375	0.443554	7.36046	0.71355	11.063	0.912792	14.1076
0.306169	4.70156	0.101768	1.49455	0.303123	4.95276	0.472247	7.82801	0.582475	9.64748	0.853201	13.0006	0.227706	3.76771	0.444291	7.26044	0.713977	10.912	0.913157	13.9129
0.306532	4.67465	0.103712	1.50254	0.303831	4.8899	0.472922	7.71997	0.583185	9.51245	0.853617	12.8249	0.229673	3.74256	0.445038	7.16358	0.714353	10.7839	0.913526	13.7237
0.3068	4.65512	0.105659	1.51037	0.30455	4.82905	0.473606	7.61531	0.583904	9.38161	0.854039	12.6541	0.231646	3.71826	0.445796	7.06975	0.714678	10.6773	0.913901	13.5398
0.306973	4.64273	0.107611	1.51804	0.305278	4.77012	0.474299	7.51389	0.584633	9.25478	0.854466	12.4881	0.233625	3.69476	0.446564	6.97881	0.714949	10.5907	0.91428	13.361
0.307221	4.62508	0.109565	1.52557	0.306016	4.71304	0.475002	7.41557	0.585372	9.13179	0.8549	12.3265	0.235609	3.67203	0.447341	6.89063	0.715164	10.5234	0.914665	13.1871
0.307493	4.60609	0.111523	1.53294	0.306764	4.65773	0.475714	7.32022	0.58612	9.01247	0.855338	12.1694	0.237598	3.65003	0.448129	6.8051	0.715324	10.4745	0.915055	13.0178
0.307864	4.58061	0.113484	1.54017	0.307522	4.6041	0.476435	7.22769	0.586878	8.89667	0.855783	12.0164	0.239592	3.62873	0.448926	6.7221	0.715426	10.4434	0.915449	12.8531
0.308337	4.54891	0.115196	1.54636	0.308289	4.55209	0.477166	7.13789	0.587645	8.78423	0.856233	11.8675	0.241592	3.6081	0.449734	6.64154	0.715574	10.3991	0.915849	12.6927
0.308914	4.51135	0.116656	1.55155	0.309066	4.50164	0.477906	7.05069	0.588422	8.67503	0.856689	11.7224	0.243596	3.5881	0.450551	6.5633	0.715736	10.3514	0.916254	12.5364
0.309598	4.46835	0.117865	1.55579	0.309853	4.45267	0.478655	6.96599	0.589208	8.56891	0.85715	11.5811	0.245604	3.56872	0.451378	6.4873	0.715957	10.2872	0.916664	12.3841
0.310391	4.42036	0.118822	1.5591	0.31065	4.40514	0.479413	6.88368	0.590003	8.46577	0.857617	11.4434	0.247618	3.54991	0.452215	6.41345	0.716238	10.2073	0.91708	12.2357
0.311194	4.37377	0.119526	1.56152	0.311456	4.35899	0.48018	6.80368	0.590808	8.36548	0.85809	11.3091	0.249635	3.53166	0.453061	6.34166	0.716581	10.1125	0.9175	12.091
0.312007	4.32851	0.119977	1.56306	0.312272	4.31415	0.480956	6.72589	0.591622	8.26794	0.858568	11.1781	0.251657	3.51394	0.453917	6.27185	0.716987	10.0036	0.917925	11.9499
0.312829	4.28454	0.120625	1.56526	0.313098	4.27059	0.481741	6.65022	0.592445	8.17302	0.858989	11.0666	0.253682	3.49674	0.454783	6.20394	0.717459	9.88173	0.918355	11.8123
0.313662	4.24181	0.12133	1.56764	0.313933	4.22825	0.482535	6.5766	0.593277	8.08064	0.859352	10.9734	0.255712	3.48002	0.455658	6.13787	0.717937	9.76302	0.918791	11.6779
0.314503	4.20027	0.122289	1.57085	0.314778	4.18709	0.483338	6.50494	0.594119	7.9907	0.859654	10.8977	0.257745	3.46377	0.456543	6.07357	0.718421	9.64737	0.919231	11.5468
0.315355	4.15988	0.123502	1.57486	0.315632	4.14706	0.48415	6.43517	0.594969	7.9031	0.859894	10.8385	0.259782	3.44797	0.457437	6.01096	0.71891	9.53465	0.919676	11.4187
0.316216	4.1206	0.124971	1.57965	0.316497	4.10812	0.484971	6.36723	0.595828	7.81776	0.860072	10.7955	0.261822	3.4326	0.458341	5.94999	0.719406	9.42476	0.920127	11.2937
0.317087	4.08238	0.126696	1.58519	0.31737	4.07024	0.4858	6.30105	0.596697	7.73461	0.860186	10.7681	0.263866	3.41765	0.459254	5.89059	0.719907	9.3176	0.920523	11.1871
0.317967	4.04519	0.128678	1.59143	0.318254	4.03337	0.486639	6.23655	0.597574	7.65354	0.86035	10.7291	0.265913	3.4031	0.460176	5.83272	0.720414	9.21307	0.920864	11.0979
0.318857	4.00899	0.130662	1.59756	0.319147	3.99749	0.487486	6.17369	0.59846	7.57451	0.860529	10.687	0.267963	3.38892	0.461108	5.77631	0.720927	9.11106	0.921149	11.0252
0.319756	3.97375	0.132648	1.60358	0.320049	3.96255	0.488341	6.11241	0.599355	7.49742	0.860774	10.6303	0.270016	3.37512	0.462049	5.72132	0.721445	9.01151	0.921375	10.9685
0.320665	3.93944	0.134637	1.60949	0.320961	3.92853	0.489205	6.05264	0.600258	7.42222	0.861086	10.5595	0.272072	3.36167	0.462998	5.6677	0.72197	8.91432	0.921542	10.9272
0.321584	3.90601	0.136627	1.61529	0.321883	3.89539	0.490078	5.99434	0.60117	7.34884	0.861466	10.4752	0.274131	3.34857	0.463958	5.61539	0.7225	8.81941	0.921649	10.901
0.322512	3.87346	0.138619	1.62099	0.322814	3.8631	0.490959	5.93745	0.602091	7.27721	0.861915	10.3782	0.276193	3.33579	0.464926	5.56436	0.723036	8.7267	0.921803	10.8635
0.32345	3.84173	0.140614	1.62659	0.323756	3.83164	0.491849	5.88194	0.60302	7.20728	0.862436	10.2693	0.278257	3.32333	0.465903	5.51457	0.723578	8.63613	0.921972	10.823
0.324398	3.81081	0.14261	1.63209	0.324706	3.80098	0.492747	5.82775	0.603958	7.13899	0.862963	10.1628	0.280325	3.31117	0.466889	5.46596	0.724125	8.54761	0.922202	10.7685
0.325355	3.78068	0.144607	1.63749	0.325666	3.77109	0.493654	5.77483	0.604905	7.07229	0.863495	10.0587	0.282394	3.29931	0.467884	5.41851	0.724678	8.46109	0.922495	10.7004
0.326322	3.7513	0.146607	1.6428	0.326636	3.74196	0.494569	5.72316	0.60586	7.00713	0.864032	9.95692	0.284466	3.28773	0.468888	5.37217	0.725237	8.37649	0.922852	10.6193
0.327298	3.72265	0.148608	1.64802	0.327616	3.71354	0.495492	5.67268	0.606823	6.94345	0.864575	9.85734	0.286541	3.27642	0.4699	5.32691	0.725802	8.29376	0.923274	10.5258
0.328284	3.69472	0.150611	1.65314	0.328605	3.68583	0.496423	5.62336	0.607794	6.88121	0.865124	9.75992	0.288617	3.26538	0.470922	5.28269	0.726372	8.21284	0.923763	10.4207
0.32928	3.66747	0.152615	1.65818	0.329604	3.6588	0.497363	5.57517	0.608774	6.82036	0.865678	9.66459	0.290696	3.25459	0.471952	5.23949	0.726948	8.13367	0.924257	10.3178
0.330286	3.64089	0.15462	1.66314	0.330613	3.63243	0.498311	5.52806	0.609762	6.76086	0.866237	9.57127	0.292777	3.24405	0.472991	5.19726	0.72753	8.0562	0.924755	10.2171
0.331301	3.61496	0.156627	1.66801	0.331632	3.6067	0.499267	5.482	0.610759	6.70266	0.866802	9.47992	0.29486	3.23375	0.474038	5.15599	0.728117	7.98037	0.925259	10.1186
0.332327	3.58965	0.158636	1.6728	0.33266	3.5816	0.500231	5.43697	0.611763	6.64573	0.867372	9.39048	0.296946	3.22368	0.475094	5.11563	0.72871	7.90614	0.925768	10.022
0.333362	3.56495	0.160645	1.67751	0.333699	3.55709	0.501203	5.39292	0.612775	6.59003	0.867948	9.30287	0.299033	3.21383	0.476159	5.07617	0.729309	7.83345	0.926282	9.92743
0.334407	3.54085	0.162656	1.68214	0.334747	3.53318	0.502183	5.34983	0.613796	6.53552	0.868529	9.21706	0.301121	3.20419	0.477232	5.03757	0.729914	7.76226	0.926801	9.83479
0.335462	3.51732	0.164668	1.6867	0.335805	3.50983	0.503171	5.30768	0.614824	6.48216	0.869116	9.13298	0.303212	3.19477	0.478313	4.99982	0.730524	7.69253	0.927324	9.74401
0.336527	3.49435	0.166681	1.69118	0.336873	3.48704	0.504166	5.26642	0.61586	6.42993	0.869708	9.05059	0.305305	3.18554	0.479403	4.96288	0.731139	7.62421	0.927853	9.65504
0.337602	3.47193	0.168696	1.69559	0.337952	3.46479	0.50517	5.22604	0.616905	6.37878	0.870305	8.96984	0.307399	3.17652	0.480501	4.92673	0.731761	7.55727	0.928386	9.56783
0.338687	3.45003	0.170711	1.69993	0.33904	3.44306	0.506182	5.18652	0.617957	6.32869	0.870908	8.89068	0.309495	3.16768	0.481608	4.89135	0.732388	7.49166	0.928924	9.48233
0.339782	3.42865	0.172727	1.7042	0.340139	3.42184	0.507201	5.14782	0.619016	6.27963	0.871516	8.81306	0.311592	3.15902	0.482723	4.85671	0.73302	7.42734	0.929468	9.39849
0.340888	3.40777	0.174745	1.7084	0.341248	3.40112	0.508228	5.10992	0.620084	6.23156	0.872129	8.73695	0.313691	3.15054	0.483846	4.8228	0.733658	7.36429	0.930016	9.31626
0.342004	3.38737	0.176763	1.71253	0.342367	3.38088	0.509262	5.0728	0.621159	6.18446	0.872748	8.6623	0.315791	3.14223	0.484977	4.78959	0.734302	7.30245	0.930569	9.23561
0.34313	3.36746	0.178782	1.7166	0.343497	3.36111	0.510304	5.03644	0.622242	6.1383	0.873372	8.58906	0.317893	3.13409	0.486116	4.75707	0.734951	7.24181	0.931127	9.15648
0.344267	3.348	0.180802	1.7206	0.344637	3.34181	0.511354	5.00082	0.623332	6.09305	0.874002	8.51721	0.319997	3.12611	0.487263	4.72522	0.735606	7.18233	0.93169	9.07883
0.345415	3.329	0.182823	1.72454	0.345789	3.32295	0.512411	4.96591	0.62443	6.0487	0.874636	8.44671	0.322101	3.11829	0.488418	4.69401	0.736266	7.12397	0.932258	9.00263
0.346574	3.31044	0.184845	1.72843	0.346951	3.30453	0.513476	4.9317	0.625535	6.0052	0.875276	8.37751	0.324207	3.11062	0.489581	4.66343	0.736932	7.0667	0.93283	8.92783
0.347743	3.29231	0.186868	1.73225	0.348123	3.28653	0.514548	4.89816	0.626648	5.96256	0.875922	8.30959	0.326314	3.1031	0.490753	4.63347	0.737603	7.01051	0.933408	8.85441
0.348923	3.2746	0.188891	1.73601	0.349307	3.26896	0.515628	4.86529	0.627768	5.92073	0.876573	8.24291	0.328422	3.09572	0.491931	4.6041	0.73828	6.95535	0.93399	8.78231
0.350115	3.2573	0.190915	1.73971	0.350502	3.25179	0.516715	4.83306	0.628895	5.87969	0.877228	8.17743	0.330532	3.08848	0.493118	4.57531	0.738963	6.9012	0.934577	8.71151
0.351317	3.2404	0.19294	1.74336	0.351709	3.23502	0.517809	4.80145	0.63003	5.83944	0.87789	8.11313	0.332642	3.08137	0.494313	4.54708	0.73965	6.84804	0.935169	8.64198
0.352531	3.22389	0.194965	1.74696	0.352927	3.21864	0.51891	4.77045	0.631172	5.79993	0.878556	8.04998	0.334754	3.0744	0.495515	4.51941	0.740344	6.79584	0.935766	8.57368
0.353757	3.20777	0.196992	1.7505	0.354156	3.20264	0.520019	4.74004	0.632321	5.76117	0.879228	7.98794	0.336866	3.06755	0.496725	4.49227	0.741043	6.74457	0.936368	8.50657
0.354995	3.19203	0.199018	1.75399	0.355398	3.18701	0.521135	4.71021	0.633477	5.72312	0.879905	7.92699	0.33898	3.06083	0.497943	4.46565	0.741747	6.69422	0.936974	8.44064
0.356244	3.17665	0.201045	1.75742	0.356651	3.17175	0.522258	4.68094	0.634641	5.68577	0.880587	7.8671	0.341095	3.05423	0.499168	4.43955	0.742457	6.64475	0.937585	8.37585
0.357506	3.16163	0.203073	1.76081	0.357917	3.15685	0.523388	4.65222	0.635811	5.6491	0.881275	7.80825	0.34321	3.04774	0.500401	4.41394	0.743172	6.59615	0.938201	8.31217
0.35878	3.14697	0.205102	1.76414	0.359195	3.1423	0.524525	4.62403	0.636988	5.6131	0.881967	7.75041	0.345326	3.04137	0.501641	4.38881	0.743892	6.54839	0.938822	8.24957
0.360066	3.13265	0.207131	1.76743	0.360485	3.12809	0.525669	4.59636	0.638172	5.57774	0.882665	7.69355	0.347444	3.03512	0.502889	4.36415	0.744618	6.50146	0.939448	8.18803
0.361366	3.11868	0.20916	1.77067	0.361789	3.11423	0.526819	4.5692	0.639363	5.54301	0.883368	7.63765	0.349561	3.02896	0.504144	4.33995	0.74535	6.45533	0.940078	8.12753
0.362678	3.10503	0.21119	1.77386	0.363105	3.10069	0.527977	4.54254	0.640561	5.5089	0.884076	7.58269	0.35168	3.02292	0.505406	4.3162	0.746086	6.40999	0.940713	8.06803
0.364003	3.09172	0.21322	1.77701	0.364435	3.08748	0.529142	4.51635	0.641766	5.47539	0.884789	7.52865	0.3538	3.01698	0.506676	4.29289	0.746828	6.36541	0.941353	8.00952
0.365342	3.07873	0.215251	1.78011	0.365778	3.0746	0.530313	4.49064	0.642977	5.44246	0.885508	7.4755	0.35592	3.01113	0.507953	4.27	0.747576	6.32158	0.941998	7.95197
0.366695	3.06606	0.217282	1.78317	0.367136	3.06203	0.531491	4.46539	0.644195	5.4101	0.886231	7.42322	0.358041	3.00538	0.509238	4.24753	0.748329	6.27849	0.942648	7.89535
0.368062	3.0537	0.219313	1.78619	0.368507	3.04977	0.532676	4.44058	0.64542	5.37831	0.88696	7.37179	0.360162	2.99973	0.510529	4.22547	0.749087	6.2361	0.943302	7.83965
0.369443	3.04164	0.221345	1.78916	0.369893	3.03781	0.533867	4.41621	0.646651	5.34705	0.887694	7.3212	0.362284	2.99417	0.511828	4.2038	0.749851	6.19441	0.943961	7.78485
0.370839	3.02989	0.223378	1.79209	0.371294	3.02616	0.535065	4.39227	0.647889	5.31633	0.888433	7.27142	0.364406	2.9887	0.513134	4.18252	0.750619	6.1534	0.944624	7.73092
0.37225	3.01844	0.22541	1.79498	0.372709	3.0148	0.53627	4.36875	0.649134	5.28613	0.889177	7.22243	0.36653	2.98332	0.514447	4.16162	0.751394	6.11306	0.945293	7.67785
0.373676	3.00729	0.227443	1.79783	0.37414	3.00374	0.537481	4.34563	0.650384	5.25643	0.889926	7.17423	0.368653	2.97802	0.515767	4.14109	0.752173	6.07336	0.945966	7.62561
0.375117	2.99642	0.229476	1.80064	0.375587	2.99297	0.538699	4.32291	0.651642	5.22723	0.89068	7.12678	0.370777	2.9728	0.517094	4.12091	0.752958	6.0343	0.946643	7.57418
0.376575	2.98584	0.23151	1.80341	0.37705	2.98248	0.539923	4.30058	0.652905	5.19852	0.891439	7.08007	0.372902	2.96767	0.518428	4.10109	0.753748	5.99586	0.947326	7.52356
0.378048	2.97555	0.233544	1.80615	0.378529	2.97227	0.541153	4.27863	0.654175	5.17027	0.892204	7.03409	0.375027	2.96261	0.519769	4.08162	0.754543	5.95803	0.948013	7.47371
0.379539	2.96553	0.235578	1.80884	0.380024	2.96235	0.54239	4.25705	0.655451	5.14249	0.892973	6.98882	0.377152	2.95763	0.521116	4.06248	0.755343	5.9208	0.948705	7.42463
0.381046	2.95579	0.237612	1.8115	0.381537	2.95269	0.543633	4.23583	0.656733	5.11516	0.893747	6.94424	0.379277	2.95272	0.522471	4.04367	0.756149	5.88414	0.949401	7.3763
0.38257	2.94632	0.239647	1.81413	0.383067	2.94331	0.544883	4.21497	0.658022	5.08827	0.894526	6.90034	0.381403	2.94789	0.523832	4.02518	0.75696	5.84805	0.950102	7.3287
0.384112	2.93712	0.241681	1.81672	0.384615	2.9342	0.546138	4.19445	0.659317	5.06182	0.895311	6.85711	0.38353	2.94313	0.5252	4.007	0.757776	5.81252	0.950808	7.28181
0.385672	2.92818	0.243716	1.81927	0.38618	2.92535	0.5474	4.17427	0.660617	5.03578	0.8961	6.81453	0.385656	2.93844	0.526575	3.98914	0.758598	5.77753	0.951518	7.23562
0.38725	2.91951	0.245751	1.82179	0.387764	2.91676	0.548668	4.15442	0.661924	5.01016	0.896894	6.77259	0.387783	2.93382	0.527957	3.97157	0.759424	5.74307	0.952233	7.19012
0.388846	2.9111	0.247787	1.82428	0.389367	2.90843	0.549942	4.1349	0.663237	4.98494	0.897694	6.73126	0.38991	2.92926	0.529345	3.9543	0.760256	5.70913	0.952953	7.14528
0.390461	2.90294	0.249822	1.82674	0.390988	2.90036	0.551222	4.11569	0.664556	4.96012	0.898498	6.69055	0.392037	2.92477	0.53074	3.93731	0.761093	5.67571	0.953677	7.1011
0.392096	2.89504	0.251858	1.82916	0.392628	2.89254	0.552508	4.09679	0.66588	4.93568	0.899307	6.65044	0.394164	2.92034	0.532141	3.92061	0.761935	5.64278	0.954406	7.05757
0.393749	2.88739	0.253893	1.83155	0.394288	2.88496	0.553799	4.0782	0.667211	4.91163	0.900121	6.61091	0.396292	2.91598	0.533549	3.90418	0.762782	5.61034	0.955139	7.01466
0.395422	2.87998	0.255929	1.83391	0.395968	2.87763	0.555097	4.0599	0.668547	4.88794	0.90094	6.57195	0.398419	2.91167	0.534963	3.88803	0.763634	5.57838	0.955877	6.97238
0.397115	2.87281	0.257965	1.83624	0.397667	2.87055	0.556401	4.04189	0.669889	4.86461	0.901764	6.53356	0.400547	2.90742	0.536384	3.87213	0.764491	5.5469	0.95662	6.93069
0.398828	2.86589	0.260001	1.83854	0.399386	2.8637	0.557711	4.02417	0.671237	4.84164	0.902592	6.49571	0.402675	2.90323	0.537811	3.8565	0.765354	5.51587	0.957367	6.8896
0.40056	2.85919	0.262038	1.84081	0.401125	2.85708	0.559026	4.00672	0.672591	4.81902	0.903426	6.45841	0.404802	2.8991	0.539245	3.84112	0.766222	5.48529	0.958119	6.84908
0.402313	2.85273	0.264074	1.84306	0.402884	2.85069	0.560347	3.98955	0.67395	4.79674	0.904265	6.42163	0.40693	2.89502	0.540685	3.82598	0.767094	5.45515	0.958875	6.80914
0.404086	2.8465	0.26611	1.84527	0.404664	2.84453	0.561674	3.97265	0.675315	4.77479	0.905108	6.38537	0.409058	2.891	0.542131	3.81109	0.767972	5.42544	0.959635	6.76975
0.405879	2.84049	0.268147	1.84745	0.406463	2.83859	0.563006	3.956	0.676685	4.75317	0.905956	6.34962	0.411186	2.88702	0.543584	3.79644	0.768855	5.39616	0.960401	6.73091
0.407692	2.83469	0.270183	1.84961	0.408283	2.83286	0.564344	3.93961	0.678061	4.73187	0.906809	6.31437	0.413313	2.8831	0.545042	3.78201	0.769742	5.3673	0.96117	6.6926
0.409525	2.82911	0.27222	1.85174	0.410123	2.82735	0.565688	3.92347	0.679442	4.71088	0.907667	6.2796	0.415441	2.87923	0.546507	3.76782	0.770635	5.33884	0.961945	6.65482
0.411378	2.82374	0.274256	1.85385	0.411982	2.82204	0.567037	3.90758	0.680829	4.69019	0.90853	6.24531	0.417568	2.87541	0.547978	3.75385	0.771533	5.31078	0.962723	6.61756
0.413251	2.81857	0.276293	1.85593	0.413861	2.81694	0.568392	3.89193	0.682221	4.66981	0.909397	6.21149	0.419696	2.87163	0.549456	3.7401	0.772436	5.28311	0.963507	6.5808
0.415144	2.8136	0.27833	1.85798	0.41576	2.81203	0.569752	3.87651	0.683619	4.64972	0.91027	6.17814	0.421823	2.86791	0.550939	3.72656	0.773344	5.25583	0.964294	6.54453
0.417056	2.80882	0.280366	1.86001	0.417679	2.80732	0.571118	3.86132	0.685022	4.62993	0.911147	6.14523	0.42395	2.86422	0.552429	3.71324	0.774257	5.22892	0.965087	6.50875
0.418987	2.80423	0.282403	1.86201	0.419616	2.80278	0.572489	3.84636	0.68643	4.61041	0.912028	6.11276	0.426077	2.86059	0.553924	3.70012	0.775174	5.20239	0.965883	6.47345
0.420937	2.79982	0.28444	1.86399	0.421572	2.79843	0.573865	3.83163	0.687843	4.59117	0.912915	6.08073	0.428203	2.85699	0.555426	3.6872	0.776097	5.17621	0.966684	6.43861
0.422905	2.79559	0.286476	1.86594	0.423546	2.79426	0.575247	3.81711	0.689262	4.57221	0.913806	6.04913	0.43033	2.85344	0.556933	3.67448	0.777025	5.15039	0.96749	6.40423
0.424892	2.79153	0.288513	1.86787	0.425538	2.79025	0.576633	3.8028	0.690685	4.55351	0.914702	6.01795	0.432456	2.84993	0.558447	3.66196	0.777957	5.12493	0.9683	6.37031
0.426896	2.78763	0.29055	1.86978	0.427547	2.7864	0.578026	3.7887	0.692114	4.53507	0.915603	5.98717	0.434581	2.84647	0.559966	3.64962	0.778895	5.0998	0.969114	6.33682
0.428917	2.78389	0.292586	1.87166	0.429574	2.78271	0.579423	3.77481	0.693548	4.5169	0.916508	5.9568	0.436707	2.84304	0.561491	3.63747	0.779837	5.07501	0.969933	6.30377
0.430955	2.78031	0.294623	1.87353	0.431617	2.77918	0.580825	3.76111	0.694987	4.49897	0.917418	5.92683	0.438832	2.83965	0.563022	3.62551	0.780784	5.05055	0.970756	6.27115
0.433009	2.77687	0.296659	1.87536	0.433677	2.77579	0.582233	3.74762	0.696431	4.48129	0.918333	5.89724	0.440957	2.8363	0.564559	3.61372	0.781737	5.02642	0.971584	6.23895
0.435079	2.77357	0.298696	1.87718	0.435752	2.77253	0.583646	3.73432	0.69788	4.46385	0.919252	5.86804	0.443082	2.83299	0.566102	3.60212	0.782694	5.00261	0.972416	6.20715
0.437165	2.77041	0.300732	1.87898	0.437843	2.76942	0.585063	3.7212	0.699334	4.44665	0.920176	5.83921	0.445206	2.82971	0.56765	3.59068	0.783656	4.9791	0.973252	6.17576
0.439265	2.76738	0.302769	1.88075	0.439947	2.76643	0.586486	3.70828	0.700793	4.42968	0.921105	5.81075	0.447329	2.82647	0.569204	3.57942	0.784622	4.95591	0.974093	6.14477
0.44138	2.76448	0.304805	1.88251	0.442067	2.76356	0.587914	3.69554	0.702256	4.41295	0.922039	5.78264	0.449453	2.82327	0.570764	3.56832	0.785594	4.93301	0.974938	6.11416
0.443508	2.76169	0.306841	1.88424	0.4442	2.76082	0.589346	3.68297	0.703725	4.39643	0.922977	5.7549	0.451576	2.8201	0.572329	3.55739	0.78657	4.91042	0.975787	6.08394
0.44565	2.75902	0.308878	1.88596	0.446346	2.75818	0.590784	3.67058	0.705198	4.38014	0.923919	5.7275	0.453698	2.81696	0.5739	3.54661	0.787551	4.88811	0.976641	6.0541
0.447805	2.75646	0.310914	1.88765	0.448504	2.75566	0.592226	3.65837	0.706676	4.36407	0.924866	5.70045	0.45582	2.81386	0.575477	3.536	0.788537	4.86609	0.977498	6.02462
0.449972	2.75401	0.31295	1.88932	0.450675	2.75324	0.593673	3.64632	0.708159	4.3482	0.925818	5.67374	0.457941	2.81079	0.577059	3.52554	0.789528	4.84435	0.978361	5.9955
0.45215	2.75165	0.314986	1.89098	0.452858	2.75091	0.595125	3.63444	0.709646	4.33255	0.926774	5.64735	0.460062	2.80775	0.578647	3.51523	0.790524	4.82289	0.979227	5.96675
0.454341	2.74939	0.317021	1.89261	0.455052	2.74868	0.596582	3.62272	0.711138	4.3171	0.927735	5.62129	0.462183	2.80474	0.58024	3.50507	0.791524	4.8017	0.980098	5.93834
0.456542	2.74722	0.319057	1.89423	0.457256	2.74654	0.598043	3.61117	0.712635	4.30186	0.9287	5.59555	0.464303	2.80177	0.581839	3.49505	0.792529	4.78078	0.980973	5.91028
0.458753	2.74514	0.321093	1.89583	0.459471	2.74448	0.599509	3.59977	0.714136	4.28681	0.92967	5.57013	0.466422	2.79882	0.583443	3.48519	0.793539	4.76011	0.981853	5.88256
0.460975	2.74314	0.323128	1.89741	0.461696	2.74251	0.60098	3.58852	0.715641	4.27195	0.930645	5.54501	0.468541	2.7959	0.585053	3.47546	0.794553	4.73971	0.982736	5.85517
0.463206	2.74122	0.325164	1.89897	0.46393	2.74061	0.602456	3.57743	0.717151	4.25729	0.931624	5.5202	0.470659	2.79301	0.586668	3.46587	0.795572	4.71956	0.983624	5.82811
0.465446	2.73937	0.327199	1.90052	0.466173	2.73879	0.603936	3.56649	0.718666	4.24282	0.932607	5.49569	0.472776	2.79015	0.588288	3.45642	0.796596	4.69966	0.984516	5.80137
0.467695	2.7376	0.329234	1.90205	0.468425	2.73704	0.60542	3.55569	0.720185	4.22852	0.933595	5.47147	0.474893	2.78732	0.589914	3.4471	0.797625	4.68	0.985413	5.77494
0.469953	2.73589	0.331269	1.90356	0.470685	2.73535	0.606909	3.54504	0.721708	4.21441	0.934587	5.44754	0.477009	2.78451	0.591545	3.43791	0.798658	4.66058	0.986313	5.74883
0.472218	2.73425	0.333304	1.90505	0.472953	2.73373	0.608402	3.53453	0.723236	4.20048	0.935584	5.4239	0.479125	2.78173	0.593181	3.42886	0.799696	4.64141	0.987218	5.72302
0.474492	2.73267	0.335339	1.90653	0.475228	2.73217	0.6099	3.52415	0.724768	4.18672	0.936586	5.40053	0.48124	2.77898	0.594823	3.41993	0.800738	4.62246	0.988127	5.69752
0.476772	2.73115	0.337374	1.90799	0.477511	2.73067	0.611403	3.51392	0.726304	4.17314	0.937591	5.37744	0.483354	2.77625	0.59647	3.41112	0.801785	4.60374	0.98904	5.67231
0.479059	2.72968	0.339408	1.90943	0.479801	2.72922	0.612909	3.50381	0.727845	4.15972	0.938601	5.35462	0.485467	2.77355	0.598122	3.40244	0.802837	4.58525	0.989957	5.6474
0.481354	2.72827	0.341442	1.91086	0.482097	2.72783	0.61442	3.49384	0.729389	4.14647	0.939616	5.33207	0.48758	2.77087	0.599779	3.39388	0.803893	4.56698	0.990879	5.62277
0.483654	2.72691	0.343477	1.91228	0.484399	2.72648	0.615936	3.484	0.730938	4.13338	0.940635	5.30978	0.489692	2.76821	0.601442	3.38544	0.804954	4.54893	0.991804	5.59842
0.485961	2.7256	0.345511	1.91368	0.486708	2.72518	0.617456	3.47429	0.732492	4.12046	0.941658	5.28774	0.491803	2.76558	0.603109	3.37712	0.80602	4.5311	0.992734	5.57435
0.488273	2.72433	0.347545	1.91506	0.489022	2.72393	0.618979	3.4647	0.734049	4.10769	0.942686	5.26596	0.493913	2.76297	0.604782	3.36891	0.80709	4.51347	0.993668	5.55056
0.490591	2.72311	0.349578	1.91643	0.491342	2.72272	0.620508	3.45523	0.73561	4.09508	0.943718	5.24443	0.496023	2.76039	0.606459	3.36081	0.808165	4.49606	0.994606	5.52703
0.492914	2.72193	0.351612	1.91778	0.493666	2.72155	0.62204	3.44589	0.737175	4.08261	0.944754	5.22315	0.498131	2.75782	0.608142	3.35282	0.809244	4.47885	0.995548	5.50377
0.495242	2.72078	0.353645	1.91912	0.495996	2.72042	0.623576	3.43666	0.738745	4.0703	0.945795	5.20211	0.500239	2.75528	0.60983	3.34494	0.810327	4.46184	0.996494	5.48077
0.497575	2.71968	0.355679	1.92044	0.498331	2.71933	0.625117	3.42755	0.740318	4.05814	0.94684	5.18131	0.502346	2.75276	0.611522	3.33717	0.811416	4.44503	0.997444	5.45803
0.499913	2.71861	0.357712	1.92175	0.50067	2.71828	0.626662	3.41856	0.741895	4.04612	0.94789	5.16074	0.504453	2.75026	0.61322	3.32951	0.812508	4.42841	0.998398	5.43554
0.502255	2.71758	0.359745	1.92305	0.503013	2.71725	0.628211	3.40968	0.743477	4.03425	0.948943	5.1404	0.506558	2.74778	0.614923	3.32195	0.813606	4.41199	0.999357	5.4133
0.504601	2.71658	0.361777	1.92433	0.505361	2.71626	0.629763	3.40091	0.745062	4.02251	0.950001	5.12029	0.508663	2.74532	0.61663	3.31449	0.814707	4.39575	1.00032	5.3913
0.506951	2.71561	0.36381	1.9256	0.507712	2.71531	0.63132	3.39225	0.746651	4.01091	0.951064	5.1004	0.510766	2.74288	0.618342	3.30713	0.815814	4.3797		
0.509305	2.71467	0.365842	1.92685	0.510068	2.71438	0.632881	3.3837	0.748243	3.99945	0.95213	5.08073	0.512869	2.74046	0.62006	3.29988	0.816924	4.36384		
0.511663	2.71376	0.367875	1.9281	0.512427	2.71348	0.634446	3.37525	0.74984	3.98813	0.953201	5.06128	0.514971	2.73806	0.621782	3.29271	0.818039	4.34815		
0.514024	2.71288	0.369907	1.92932	0.514789	2.7126	0.636015	3.36691	0.75144	3.97693	0.954276	5.04205	0.517071	2.73568	0.623509	3.28565	0.819159	4.33265		
0.516389	2.71203	0.371938	1.93054	0.517154	2.71175	0.637587	3.35867	0.753044	3.96587	0.955355	5.02302	0.519171	2.73332	0.62524	3.27868	0.820283	4.31732		
0.518757	2.71119	0.37397	1.93174	0.519523	2.71093	0.639164	3.35053	0.754652	3.95493	0.956439	5.00421	0.52127	2.73097	0.626977	3.2718	0.821411	4.30216		
0.521127	2.71039	0.376002	1.93293	0.521895	2.71013	0.640744	3.34249	0.756264	3.94412	0.957526	4.98559	0.523368	2.72864	0.628718	3.26501	0.822544	4.28717		
0.523501	2.7096	0.378033	1.93411	0.52427	2.70935	0.642328	3.33454	0.757879	3.93343	0.958618	4.96718	0.525465	2.72633	0.630464	3.25831	0.823681	4.27235		
0.525878	2.70884	0.380064	1.93528	0.526647	2.7086	0.643916	3.3267	0.759498	3.92286	0.959714	4.94897	0.527561	2.72404	0.632214	3.2517	0.824823	4.2577		
0.528257	2.7081	0.382095	1.93643	0.529027	2.70786	0.645508	3.31894	0.76112	3.91241	0.960814	4.93095	0.529656	2.72176	0.63397	3.24518	0.825968	4.24321		
0.530639	2.70738	0.384125	1.93758	0.531409	2.70715	0.647104	3.31129	0.762746	3.90208	0.961919	4.91313	0.53175	2.7195	0.63573	3.23874	0.827119	4.22887		
0.533023	2.70667	0.386156	1.93871	0.533794	2.70645	0.648703	3.30372	0.764375	3.89187	0.963027	4.89549	0.533843	2.71726	0.637494	3.23239	0.828273	4.2147		
0.535409	2.70599	0.388186	1.93983	0.536182	2.70577	0.650306	3.29624	0.766008	3.88177	0.96414	4.87805	0.535935	2.71503	0.639263	3.22612	0.829432	4.20068		
0.537798	2.70532	0.390216	1.94093	0.538571	2.70511	0.651912	3.28885	0.767645	3.87178	0.965256	4.86078	0.538026	2.71282	0.641037	3.21993	0.830595	4.18682		
0.540189	2.70467	0.392246	1.94203	0.540962	2.70447	0.653522	3.28155	0.769285	3.8619	0.966377	4.8437	0.540115	2.71062	0.642815	3.21382	0.831763	4.1731		
0.542581	2.70404	0.394276	1.94312	0.543356	2.70384	0.655136	3.27434	0.770928	3.85213	0.967502	4.8268	0.542204	2.70844	0.644598	3.20779	0.832935	4.15954		
0.544976	2.70342	0.396305	1.94419	0.545751	2.70323	0.656754	3.26721	0.772575	3.84247	0.968631	4.81007	0.544292	2.70627	0.646385	3.20184	0.834111	4.14612		
0.547373	2.70282	0.398334	1.94525	0.548148	2.70263	0.658375	3.26016	0.774225	3.83292	0.969765	4.79352	0.546378	2.70412	0.648176	3.19596	0.835291	4.13285		
0.549771	2.70223	0.400363	1.94631	0.550547	2.70204	0.659999	3.25319	0.775878	3.82347	0.970902	4.77714	0.548464	2.70198	0.649972	3.19016	0.836476	4.11972		
0.552171	2.70166	0.402392	1.94735	0.552948	2.70147	0.661627	3.24631	0.777535	3.81412	0.972043	4.76093	0.550548	2.69986	0.651773	3.18444	0.837665	4.10673		
0.554573	2.70109	0.404421	1.94838	0.55535	2.70092	0.663259	3.23951	0.779195	3.80488	0.973188	4.74489	0.552631	2.69775	0.653578	3.17879	0.838858	4.09388		
0.556976	2.70054	0.406449	1.9494	0.557754	2.70037	0.664894	3.23278	0.780858	3.79573	0.974338	4.72901	0.554713	2.69565	0.655387	3.17321	0.840055	4.08117		
0.559381	2.70001	0.408477	1.95042	0.560159	2.69984	0.666532	3.22613	0.782525	3.78668	0.975491	4.7133	0.556794	2.69357	0.657201	3.1677	0.841257	4.06859		
0.561787	2.69948	0.410505	1.95142	0.562566	2.69931	0.668174	3.21956	0.784195	3.77773	0.976648	4.69774	0.558874	2.6915	0.659018	3.16226	0.842462	4.05614		
0.564195	2.69897	0.412533	1.95241	0.564974	2.6988	0.669819	3.21307	0.785867	3.76887	0.97781	4.68234	0.560953	2.68945	0.660841	3.15689	0.843672	4.04383		
0.566603	2.69846	0.41456	1.95339	0.567383	2.6983	0.671468	3.20664	0.787544	3.76011	0.978975	4.6671	0.563031	2.6874	0.662667	3.15159	0.844886	4.03164		
0.569013	2.69797	0.416588	1.95436	0.569793	2.69781	0.67312	3.20029	0.789223	3.75144	0.980144	4.65201	0.565107	2.68537	0.664498	3.14635	0.846105	4.01959		
0.571424	2.69748	0.418615	1.95533	0.572205	2.69733	0.674775	3.19401	0.790905	3.74286	0.981318	4.63708	0.567182	2.68335	0.666332	3.14118	0.847327	4.00765		
0.573837	2.69701	0.420641	1.95628	0.574617	2.69686	0.676434	3.18781	0.79259	3.73437	0.982495	4.62229	0.569256	2.68135	0.668171	3.13608	0.848554	3.99585		
0.57625	2.69654	0.422668	1.95723	0.577031	2.69639	0.678096	3.18167	0.794279	3.72597	0.983676	4.60765	0.571329	2.67935	0.670015	3.13103	0.849784	3.98416		
0.578664	2.69609	0.424694	1.95816	0.579445	2.69594	0.679762	3.1756	0.79597	3.71765	0.984861	4.59315	0.573401	2.67737	0.671862	3.12606	0.851019	3.9726		
0.581079	2.69564	0.42672	1.95909	0.581861	2.69549	0.68143	3.1696	0.797665	3.70943	0.98605	4.5788	0.575472	2.6754	0.673713	3.12114	0.852258	3.96115		
0.583496	2.6952	0.428746	1.96	0.584277	2.69506	0.683102	3.16367	0.799362	3.70128	0.987243	4.56459	0.577541	2.67344	0.675569	3.11629	0.853501	3.94983		
0.585913	2.69476	0.430772	1.96091	0.586695	2.69463	0.684777	3.1578	0.801063	3.69322	0.98844	4.55053	0.579609	2.67149	0.677428	3.11149	0.854748	3.93862		
0.58833	2.69434	0.432797	1.96181	0.589113	2.6942	0.686455	3.152	0.802766	3.68525	0.98964	4.53659	0.581676	2.66955	0.679292	3.10676	0.856	3.92752		
0.590749	2.69392	0.434823	1.9627	0.591531	2.69379	0.688137	3.14626	0.804472	3.67735	0.990845	4.5228	0.583742	2.66763	0.681159	3.10208	0.857255	3.91654		
0.593168	2.69351	0.436848	1.96358	0.593951	2.69338	0.689821	3.14058	0.806181	3.66954	0.992053	4.50914	0.585807	2.66571	0.683031	3.09746	0.858514	3.90567		
0.595588	2.6931	0.438872	1.96446	0.596371	2.69297	0.691509	3.13497	0.807893	3.6618	0.993265	4.49561	0.58787	2.66381	0.684906	3.0929	0.859778	3.89491		
0.598009	2.69271	0.440897	1.96532	0.598792	2.69258	0.6932	3.12941	0.809608	3.65414	0.994482	4.48221	0.589932	2.66192	0.686786	3.08839	0.861045	3.88425		
0.60043	2.69231	0.442921	1.96618	0.601213	2.69219	0.694894	3.12392	0.811326	3.64656	0.995701	4.46895	0.591993	2.66003	0.688669	3.08394	0.862316	3.87371		
0.602852	2.69193	0.444945	1.96703	0.603635	2.6918	0.696591	3.11849	0.813046	3.63905	0.996925	4.45581	0.594053	2.65816	0.690556	3.07954	0.863592	3.86327		
0.605274	2.69155	0.446969	1.96787	0.606058	2.69142	0.698292	3.11312	0.814769	3.63162	0.998153	4.44279	0.596112	2.6563	0.692447	3.0752	0.864871	3.85293		
0.607697	2.69117	0.448992	1.96871	0.608481	2.69105	0.699995	3.1078	0.816495	3.62426	0.999384	4.4299	0.598169	2.65444	0.694342	3.0709	0.866155	3.8427		
0.61012	2.6908	0.451016	1.96953	0.610904	2.69068	0.701701	3.10254	0.818224	3.61698	1.00062	4.41713	0.600225	2.6526	0.696241	3.06667	0.867442	3.83257		
0.612544	2.69043	0.453039	1.97035	0.613328	2.69032	0.703411	3.09734	0.819955	3.60976			0.60228	2.65077	0.698143	3.06248	0.868734	3.82254		
0.614968	2.69007	0.455062	1.97116	0.615752	2.68996	0.705123	3.0922	0.821689	3.60262			0.604334	2.64895	0.700049	3.05834	0.870029	3.81261		
0.617392	2.68971	0.457084	1.97196	0.618177	2.6896	0.706839	3.08711	0.823426	3.59555			0.606387	2.64713	0.701959	3.05425	0.871328	3.80278		
0.619817	2.68936	0.459106	1.97276	0.620602	2.68925	0.708557	3.08207	0.825165	3.58854			0.608438	2.64533	0.703873	3.05021	0.872631	3.79304		
0.622242	2.68901	0.461128	1.97355	0.623027	2.6889	0.710279	3.07709	0.826907	3.58161			0.610488	2.64353	0.70579	3.04622	0.873939	3.7834		
0.624668	2.68867	0.46315	1.97433	0.625452	2.68856	0.712003	3.07216	0.828651	3.57474			0.612537	2.64175	0.707711	3.04228	0.87525	3.77386		
0.627093	2.68833	0.465172	1.9751	0.627878	2.68822	0.71373	3.06728	0.830398	3.56793			0.614584	2.63997	0.709635	3.03838	0.876565	3.7644		
0.629519	2.68799	0.467193	1.97587	0.630304	2.68788	0.715461	3.06246	0.832148	3.56119			0.616631	2.6382	0.711563	3.03453	0.877884	3.75504		
0.631945	2.68766	0.469214	1.97662	0.63273	2.68755	0.717194	3.05768	0.8339	3.55452			0.618676	2.63644	0.713494	3.03072	0.879206	3.74577		
0.634371	2.68733	0.471235	1.97738	0.635156	2.68722	0.71893	3.05296	0.835655	3.54791			0.62072	2.63469	0.715429	3.02696	0.880533	3.73659		
0.636797	2.687	0.473256	1.97812	0.637582	2.6869	0.72067	3.04828	0.837412	3.54136			0.622763	2.63295	0.717368	3.02325	0.881864	3.7275		
0.639224	2.68668	0.475276	1.97886	0.640008	2.68657	0.722412	3.04366	0.839171	3.53487			0.624804	2.63122	0.71931	3.01958	0.883198	3.7185		
0.64165	2.68636	0.477296	1.97959	0.642435	2.68625	0.724157	3.03908	0.840933	3.52845			0.626845	2.62949	0.721255	3.01595	0.884536	3.70958		
0.644076	2.68604	0.479316	1.98032	0.644861	2.68593	0.725904	3.03455	0.842697	3.52208			0.628884	2.62778	0.723204	3.01236	0.885878	3.70075		
0.646503	2.68572	0.481336	1.98104	0.647288	2.68562	0.727655	3.03007	0.844464	3.51577			0.630922	2.62607	0.725156	3.00881	0.887224	3.692		
0.648929	2.68541	0.483355	1.98175	0.649714	2.6853	0.729409	3.02563	0.846233	3.50953			0.632959	2.62437	0.727112	3.00531	0.888574	3.68334		
0.651355	2.68509	0.485374	1.98245	0.65214	2.68499	0.731165	3.02124	0.848005	3.50334			0.634995	2.62268	0.72907	3.00185	0.889928	3.67476		
0.653782	2.68478	0.487393	1.98315	0.654567	2.68468	0.732925	3.01689	0.849779	3.4972			0.637029	2.621	0.731033	2.99842	0.891285	3.66626		
0.656208	2.68448	0.489412	1.98385	0.656993	2.68438	0.734687	3.01259	0.851555	3.49113			0.639062	2.61932	0.732998	2.99504	0.892646	3.65784		
0.658634	2.68417	0.49143	1.98453	0.659419	2.68407	0.736452	3.00834	0.853333	3.48511			0.641094	2.61765	0.734966	2.99169	0.894011	3.6495		
0.66106	2.68387	0.493448	1.98521	0.661845	2.68377	0.738219	3.00413	0.855114	3.47914			0.643125	2.61599	0.736938	2.98839	0.89538	3.64124		
0.663486	2.68356	0.495466	1.98589	0.66427	2.68347	0.73999	2.99996	0.856897	3.47323			0.645155	2.61434	0.738913	2.98512	0.896752	3.63305		
0.665911	2.68326	0.497484	1.98656	0.666696	2.68317	0.741764	2.99583	0.858682	3.46737			0.647184	2.6127	0.740891	2.98188	0.898128	3.62494		
0.668336	2.68296	0.499501	1.98722	0.669121	2.68287	0.74354	2.99175	0.860469	3.46156			0.649211	2.61106	0.742873	2.97869	0.899508	3.61691		
0.670761	2.68266	0.501518	1.98787	0.671546	2.68257	0.745319	2.98771	0.862259	3.45581			0.651237	2.60943	0.744857	2.97553	0.900892	3.60896		
0.673186	2.68237	0.503535	1.98853	0.67397	2.68227	0.747101	2.98371	0.864051	3.45011			0.653262	2.60781	0.746844	2.97241	0.902279	3.60107		
0.675611	2.68207	0.505552	1.98917	0.676395	2.68197	0.748886	2.97975	0.865845	3.44446			0.655286	2.6062	0.748835	2.96932	0.903671	3.59327		
0.678035	2.68177	0.507568	1.98981	0.678819	2.68168	0.750673	2.97583	0.867641	3.43886			0.657309	2.60459	0.750828	2.96626	0.905065	3.58553		
0.680458	2.68148	0.509584	1.99044	0.681242	2.68138	0.752464	2.97195	0.869439	3.43331			0.659331	2.60299	0.752824	2.96324	0.906464	3.57786		
0.682882	2.68119	0.5116	1.99107	0.683666	2.68109	0.754257	2.96811	0.871239	3.4278			0.661351	2.6014	0.754823	2.96025	0.907866	3.57027		
0.685305	2.68089	0.513616	1.99169	0.686088	2.6808	0.756053	2.96431	0.873042	3.42235			0.663371	2.59982	0.756826	2.9573	0.909272	3.56274		
0.687727	2.6806	0.515631	1.99231	0.688511	2.6805	0.757851	2.96054	0.874846	3.41694			0.665389	2.59824	0.758831	2.95438	0.910682	3.55529		
0.690149	2.6803	0.517646	1.99292	0.690933	2.68021	0.759653	2.95682	0.876653	3.41158			0.667407	2.59667	0.760839	2.95149	0.912095	3.5479		
0.692571	2.68001	0.519661	1.99353	0.693354	2.67992	0.761457	2.95313	0.878461	3.40627			0.669423	2.59511	0.762849	2.94863	0.913512	3.54058		
0.694992	2.67972	0.521676	1.99413	0.695775	2.67962	0.763265	2.94949	0.880272	3.40101			0.671438	2.59355	0.764863	2.94581	0.914933	3.53333		
0.697412	2.67943	0.52369	1.99473	0.698195	2.67933	0.765075	2.94587	0.882084	3.39578			0.673452	2.592	0.766879	2.94301	0.916357	3.52614		
0.699832	2.67913	0.525704	1.99532	0.700615	2.67904	0.766887	2.9423	0.883899	3.39061			0.675465	2.59046	0.768898	2.94025	0.917785	3.51902		
0.702251	2.67884	0.527718	1.9959	0.703034	2.67874	0.768703	2.93876	0.885715	3.38548			0.677477	2.58893	0.77092	2.93751	0.919216	3.51196		
0.70467	2.67855	0.529732	1.99648	0.705452	2.67845	0.770521	2.93526	0.887534	3.38039			0.679487	2.5874	0.772944	2.93481	0.920651	3.50497		
0.707088	2.67825	0.531745	1.99706	0.70787	2.67816	0.772343	2.93179	0.889354	3.37534			0.681497	2.58588	0.774971	2.93213	0.92209	3.49804		
0.709505	2.67796	0.533758	1.99763	0.710287	2.67786	0.774167	2.92836	0.891176	3.37034			0.683506	2.58436	0.777001	2.92948	0.923532	3.49117		
0.711922	2.67766	0.535771	1.99819	0.712703	2.67757	0.775993	2.92496	0.893	3.36538			0.685514	2.58286	0.779033	2.92686	0.924978	3.48436		
0.714338	2.67737	0.537784	1.99876	0.715119	2.67727	0.777823	2.92159	0.894826	3.36047			0.68752	2.58136	0.781067	2.92427	0.926427	3.47762		
0.716753	2.67707	0.539796	1.99931	0.717534	2.67697	0.779656	2.91827	0.896654	3.35559			0.689526	2.57986	0.783105	2.92171	0.92788	3.47093		
0.719167	2.67677	0.541808	1.99986	0.719948	2.67668	0.781491	2.91497	0.898484	3.35075			0.691531	2.57837	0.785144	2.91917	0.929337	3.46431		
0.72158	2.67647	0.54382	2.00041	0.722361	2.67638	0.78333	2.91171	0.900315	3.34596			0.693535	2.57689	0.787187	2.91666	0.930797	3.45774		
0.723992	2.67617	0.545832	2.00095	0.724773	2.67607	0.785171	2.90848	0.902148	3.3412			0.695537	2.57542	0.789231	2.91418	0.932261	3.45123		
0.726404	2.67587	0.547843	2.00149	0.727184	2.67577	0.787015	2.90528	0.903984	3.33648			0.697539	2.57395	0.791278	2.91172	0.933728	3.44478		
0.728815	2.67557	0.549854	2.00202	0.729594	2.67547	0.788862	2.90212	0.90582	3.33181			0.69954	2.57249	0.793327	2.90928	0.935199	3.43839		
0.731224	2.67526	0.551865	2.00255	0.732003	2.67516	0.790712	2.89899	0.907659	3.32717			0.70154	2.57103	0.795379	2.90688	0.936673	3.43206		
0.733633	2.67496	0.553875	2.00307	0.734412	2.67486	0.792565	2.89589	0.909499	3.32257			0.703538	2.56959	0.797433	2.90449	0.938151	3.42578		
0.73604	2.67465	0.555886	2.00359	0.736819	2.67455	0.79442	2.89282	0.911341	3.318			0.705536	2.56814	0.799489	2.90213	0.939633	3.41955		
0.738447	2.67434	0.557896	2.00411	0.739225	2.67424	0.796279	2.88979	0.913185	3.31348			0.707533	2.56671	0.801548	2.8998	0.941118	3.41338		
0.740852	2.67403	0.559906	2.00462	0.74163	2.67393	0.798141	2.88678	0.915031	3.30898			0.709529	2.56528	0.803608	2.89749	0.942606	3.40727		
0.743256	2.67371	0.561915	2.00512	0.744033	2.67361	0.800006	2.88381	0.916878	3.30453			0.711525	2.56386	0.805671	2.8952	0.944098	3.4012		
0.745659	2.6734	0.563924	2.00563	0.746436	2.67329	0.801873	2.88087	0.918727	3.30011			0.713519	2.56244	0.807736	2.89293	0.945593	3.3952		
0.748061	2.67308	0.565934	2.00612	0.748837	2.67298	0.803744	2.87795	0.920577	3.29573			0.715512	2.56103	0.809803	2.89069	0.947092	3.38924		
0.750461	2.67276	0.567942	2.00662	0.751237	2.67265	0.805618	2.87507	0.922429	3.29138			0.717505	2.55963	0.811873	2.88847	0.948595	3.38334		
0.75286	2.67243	0.569951	2.00711	0.753636	2.67233	0.807495	2.87222	0.924283	3.28707			0.719496	2.55823	0.813944	2.88627	0.9501	3.37748		
0.755258	2.67211	0.571959	2.00759	0.756033	2.672	0.809375	2.8694	0.926138	3.28279			0.721487	2.55684	0.816017	2.8841	0.95161	3.37168		
0.757654	2.67178	0.573967	2.00807	0.758429	2.67167	0.811258	2.86661	0.927995	3.27854			0.723477	2.55545	0.818093	2.88194	0.953122	3.36593		
0.760049	2.67145	0.575975	2.00855	0.760823	2.67134	0.813144	2.86384	0.929853	3.27433			0.725466	2.55407	0.82017	2.87981	0.954639	3.36023		
0.762442	2.67111	0.577983	2.00902	0.763216	2.671	0.815034	2.86111	0.931713	3.27015			0.727455	2.5527	0.822249	2.87769	0.956158	3.35457		
0.764834	2.67077	0.57999	2.00949	0.765607	2.67066	0.816926	2.8584	0.933575	3.26601			0.729442	2.55133	0.82433	2.8756	0.957681	3.34897		
0.767224	2.67043	0.581997	2.00996	0.767997	2.67032	0.818822	2.85573	0.935438	3.26189			0.731429	2.54997	0.826413	2.87353	0.959208	3.34342		
0.769612	2.67009	0.584004	2.01042	0.770385	2.66997	0.820721	2.85308	0.937302	3.25781			0.733415	2.54862	0.828498	2.87148	0.960738	3.33791		
0.771999	2.66974	0.58601	2.01088	0.772771	2.66962	0.822624	2.85046	0.939168	3.25376			0.7354	2.54727	0.830585	2.86944	0.962271	3.33245		
0.774384	2.66938	0.588017	2.01133	0.775156	2.66927	0.824529	2.84787	0.941036	3.24974			0.737384	2.54592	0.832673	2.86743	0.963808	3.32704		
0.776768	2.66903	0.590023	2.01178	0.777538	2.66891	0.826439	2.84531	0.942905	3.24575			0.739368	2.54459	0.834764	2.86543	0.965348	3.32167		
0.779149	2.66867	0.592029	2.01223	0.779919	2.66855	0.828351	2.84277	0.944775	3.24179			0.74135	2.54326	0.836856	2.86346	0.966891	3.31635		
0.781529	2.6683	0.594034	2.01267	0.782298	2.66818	0.830267	2.84027	0.946647	3.23786			0.743332	2.54193	0.838949	2.8615	0.968438	3.31107		
0.783906	2.66793	0.59604	2.01311	0.784675	2.66781	0.832186	2.83779	0.94852	3.23396			0.745314	2.54061	0.841045	2.85956	0.969989	3.30584		
0.786282	2.66756	0.598045	2.01355	0.78705	2.66744	0.834109	2.83534	0.950395	3.23009			0.747294	2.5393	0.843142	2.85763	0.971543	3.30066		
0.788656	2.66718	0.600049	2.01398	0.789423	2.66706	0.836036	2.83291	0.952271	3.22625			0.749274	2.53799	0.84524	2.85573	0.9731	3.29552		
0.791027	2.6668	0.602054	2.01441	0.791794	2.66668	0.837966	2.83052	0.954148	3.22244			0.751253	2.53669	0.847341	2.85384	0.97466	3.29042		
0.793396	2.66641	0.604058	2.01484	0.794162	2.66629	0.839899	2.82815	0.956027	3.21866			0.753232	2.53539	0.849442	2.85197	0.976224	3.28537		
0.795764	2.66602	0.606062	2.01526	0.796529	2.66589	0.841837	2.82581	0.957907	3.21491			0.75521	2.5341	0.851546	2.85012	0.977791	3.28035		
0.798128	2.66562	0.608066	2.01568	0.798893	2.66549	0.843777	2.82349	0.959789	3.21118			0.757187	2.53282	0.853651	2.84828	0.979362	3.27539		
0.800491	2.66522	0.61007	2.01609	0.801255	2.66509	0.845722	2.8212	0.961672	3.20748			0.759163	2.53154	0.855757	2.84646	0.980936	3.27046		
0.802851	2.66481	0.612073	2.0165	0.803614	2.66468	0.847671	2.81894	0.963556	3.20381			0.761139	2.53027	0.857865	2.84465	0.982513	3.26557		
0.805209	2.6644	0.614076	2.01691	0.805971	2.66426	0.849623	2.81671	0.965441	3.20017			0.763114	2.529	0.859974	2.84287	0.984094	3.26073		
0.807564	2.66398	0.616079	2.01732	0.808325	2.66384	0.851579	2.8145	0.967328	3.19655			0.765089	2.52774	0.862084	2.84109	0.985678	3.25593		
0.809916	2.66355	0.618082	2.01772	0.810677	2.66341	0.853539	2.81232	0.969216	3.19296			0.767062	2.52648	0.864196	2.83933	0.987265	3.25117		
0.812266	2.66312	0.620084	2.01812	0.813026	2.66298	0.855504	2.81016	0.971105	3.18939			0.769036	2.52523	0.866309	2.83759	0.988856	3.24644		
0.814613	2.66268	0.622086	2.01851	0.815372	2.66254	0.857472	2.80804	0.972996	3.18585			0.771008	2.52399	0.868424	2.83586	0.99045	3.24176		
0.816957	2.66224	0.624088	2.0189	0.817715	2.66209	0.859444	2.80593	0.974888	3.18234			0.772981	2.52275	0.870539	2.83415	0.992047	3.23712		
0.819299	2.66178	0.62609	2.01929	0.820056	2.66164	0.861421	2.80386	0.976781	3.17885			0.774952	2.52152	0.872656	2.83245	0.993648	3.23251		
0.821637	2.66133	0.628091	2.01968	0.822393	2.66118	0.863401	2.80181	0.978675	3.17538			0.776923	2.52029	0.874775	2.83076	0.995252	3.22795		
0.823973	2.66086	0.630092	2.02006	0.824728	2.66071	0.865386	2.79978	0.98057	3.17195			0.778893	2.51907	0.876894	2.82909	0.996859	3.22342		
0.826306	2.66039	0.632093	2.02044	0.827059	2.66024	0.867375	2.79778	0.982467	3.16853			0.780863	2.51785	0.879015	2.82743	0.998469	3.21893		
0.828635	2.65991	0.634093	2.02082	0.829388	2.65975	0.869369	2.79581	0.984365	3.16514			0.782833	2.51664	0.881136	2.82579	1.00008	3.21448		
0.830961	2.65942	0.636094	2.02119	0.831713	2.65927	0.871367	2.79387	0.986263	3.16177			0.784801	2.51544	0.883259	2.82416				
0.833284	2.65893	0.638094	2.02156	0.834035	2.65877	0.873369	2.79195	0.988163	3.15843			0.786769	2.51424	0.885383	2.82254				
0.835604	2.65843	0.640094	2.02193	0.836354	2.65826	0.875376	2.79005	0.990065	3.15511			0.788737	2.51304	0.887508	2.82094				
0.83792	2.65792	0.642093	2.02229	0.838669	2.65775	0.877387	2.78818	0.991967	3.15182			0.790704	2.51186	0.889634	2.81935				
0.840233	2.6574	0.644093	2.02266	0.84098	2.65723	0.879403	2.78634	0.99387	3.14854			0.792671	2.51067	0.891761	2.81777				
0.842542	2.65688	0.646092	2.02302	0.843288	2.6567	0.881424	2.78452	0.995775	3.14529			0.794637	2.50949	0.893888	2.8162				
0.844848	2.65634	0.648091	2.02337	0.845593	2.65617	0.88345	2.78273	0.99768	3.14207			0.796603	2.50832	0.896017	2.81464				
0.84715	2.6558	0.65009	2.02373	0.847894	2.65562	0.88548	2.78097	0.999587	3.13886			0.798568	2.50715	0.898147	2.8131				
0.849448	2.65525	0.652088	2.02408	0.850191	2.65507	0.887515	2.77922	1.00149	3.13568			0.800533	2.50599	0.900278	2.81157				
0.851743	2.65469	0.654086	2.02442	0.852484	2.65451	0.889555	2.77751					0.802497	2.50484	0.902409	2.81005				
0.854033	2.65412	0.656084	2.02477	0.854774	2.65394	0.8916	2.77582					0.804461	2.50369	0.904541	2.80854				
0.85632	2.65355	0.658082	2.02511	0.857059	2.65336	0.89365	2.77415					0.806425	2.50254	0.906674	2.80704				
0.858603	2.65296	0.660079	2.02545	0.859341	2.65277	0.895705	2.77252					0.808388	2.5014	0.908808	2.80556				
0.860882	2.65237	0.662077	2.02579	0.861618	2.65217	0.897765	2.7709					0.81035	2.50026	0.910943	2.80408				
0.863156	2.65176	0.664074	2.02612	0.863891	2.65157	0.89983	2.76931					0.812313	2.49913	0.913078	2.80262				
0.865427	2.65115	0.66607	2.02645	0.86616	2.65095	0.901901	2.76775					0.814274	2.49801	0.915214	2.80116				
0.867693	2.65053	0.668067	2.02678	0.868425	2.65032	0.903976	2.76621					0.816236	2.49689	0.917351	2.79972				
0.869955	2.6499	0.670063	2.02711	0.870686	2.64969	0.906057	2.76469					0.818197	2.49578	0.919488	2.79829				
0.872213	2.64925	0.672059	2.02743	0.872942	2.64904	0.908144	2.7632					0.820158	2.49467	0.921626	2.79686				
0.874467	2.6486	0.674055	2.02775	0.875195	2.64839	0.910235	2.76174					0.822118	2.49356	0.923765	2.79545				
0.876716	2.64794	0.676051	2.02807	0.877442	2.64773	0.912332	2.7603					0.824078	2.49246	0.925904	2.79404				
0.87896	2.64727	0.678046	2.02839	0.879685	2.64705	0.914434	2.75888					0.826037	2.49137	0.928044	2.79265				
0.8812	2.64659	0.680041	2.0287	0.881924	2.64637	0.916542	2.75749					0.827997	2.49028	0.930184	2.79126				
0.883436	2.64591	0.682036	2.02902	0.884158	2.64568	0.918655	2.75612					0.829956	2.4892	0.932324	2.78989				
0.885667	2.64521	0.68403	2.02932	0.886388	2.64498	0.920774	2.75478					0.831914	2.48812	0.934465	2.78852				
0.887894	2.6445	0.686025	2.02963	0.888613	2.64427	0.922898	2.75346					0.833872	2.48705	0.936607	2.78716				
0.890116	2.64378	0.688019	2.02994	0.890834	2.64355	0.925028	2.75216					0.83583	2.48598	0.938749	2.78581				
0.892334	2.64305	0.690013	2.03024	0.89305	2.64282	0.927163	2.75089					0.837788	2.48491	0.940891	2.78447				
0.894547	2.64232	0.692007	2.03054	0.895262	2.64208	0.929304	2.74964					0.839746	2.48386	0.943034	2.78314				
0.896755	2.64157	0.694	2.03083	0.897469	2.64133	0.93145	2.74841					0.841703	2.4828	0.945177	2.78181				
0.898959	2.64081	0.695993	2.03113	0.899671	2.64057	0.933602	2.74721					0.843659	2.48175	0.947321	2.7805				
0.901158	2.64005	0.697986	2.03142	0.901869	2.6398	0.935759	2.74603					0.845616	2.48071	0.949464	2.77919				
0.903353	2.63927	0.699979	2.03171	0.904062	2.63902	0.937921	2.74487					0.847572	2.47967	0.951608	2.77789				
0.905543	2.63849	0.701971	2.032	0.90625	2.63823	0.940089	2.74373					0.849528	2.47864	0.953752	2.7766				
0.907728	2.6377	0.703964	2.03229	0.908434	2.63744	0.942263	2.74262					0.851484	2.47761	0.955897	2.77531				
0.909909	2.63689	0.705956	2.03257	0.910614	2.63663	0.944442	2.74153					0.853439	2.47659	0.958041	2.77403				
0.912085	2.63608	0.707948	2.03285	0.912788	2.63582	0.946627	2.74046					0.855395	2.47557	0.960186	2.77276				
0.914257	2.63526	0.709939	2.03313	0.914959	2.635	0.948816	2.73941					0.85735	2.47455	0.962331	2.7715				
0.916425	2.63444	0.71193	2.03341	0.917125	2.63417	0.951012	2.73838					0.859304	2.47354	0.964476	2.77025				
0.918587	2.6336	0.713922	2.03368	0.919286	2.63333	0.953212	2.73737					0.861259	2.47254	0.966621	2.769				
0.920746	2.63276	0.715913	2.03396	0.921443	2.63248	0.955418	2.73638					0.863213	2.47154	0.968767	2.76775				
0.9229	2.6319	0.717903	2.03423	0.923596	2.63163	0.957629	2.73542					0.865168	2.47054	0.970912	2.76652				
0.925049	2.63104	0.719894	2.0345	0.925744	2.63076	0.959845	2.73447					0.867121	2.46955	0.973057	2.76529				
0.927195	2.63018	0.721884	2.03476	0.927888	2.62989	0.962066	2.73354					0.869075	2.46857	0.975202	2.76407				
0.929336	2.6293	0.723874	2.03503	0.930028	2.62902	0.964293	2.73264					0.871029	2.46758	0.977348	2.76285				
0.931473	2.62842	0.725864	2.03529	0.932163	2.62813	0.966524	2.73175					0.872982	2.46661	0.979493	2.76164				
0.933606	2.62753	0.727853	2.03555	0.934295	2.62724	0.96876	2.73087					0.874935	2.46564	0.981638	2.76044				
0.935734	2.62663	0.729842	2.03581	0.936422	2.62634	0.971001	2.73002					0.876888	2.46467	0.983783	2.75924				
0.937859	2.62573	0.731831	2.03607	0.938545	2.62543	0.973247	2.72919					0.878841	2.46371	0.985928	2.75805				
0.939979	2.62482	0.73382	2.03632	0.940665	2.62452	0.975498	2.72837					0.880794	2.46275	0.988073	2.75687				
0.942096	2.6239	0.735809	2.03658	0.94278	2.62361	0.977753	2.72757					0.882747	2.46179	0.990218	2.75569				
0.944209	2.62298	0.737797	2.03683	0.944892	2.62268	0.980013	2.72679					0.884699	2.46084	0.992362	2.75451				
0.946318	2.62205	0.739785	2.03708	0.947	2.62175	0.982278	2.72602					0.886651	2.4599	0.994507	2.75335				
0.948423	2.62112	0.741773	2.03732	0.949104	2.62082	0.984547	2.72527					0.888604	2.45896	0.996651	2.75218				
0.950525	2.62018	0.743761	2.03757	0.951204	2.61988	0.98682	2.72454					0.890556	2.45802	0.998795	2.75103				
0.952623	2.61924	0.745748	2.03781	0.953301	2.61893	0.989098	2.72382					0.892508	2.45709	1.00094	2.74987				
0.954718	2.61829	0.747736	2.03805	0.955395	2.61798	0.991379	2.72312					0.894459	2.45617						
0.956809	2.61734	0.749723	2.03829	0.957485	2.61703	0.993665	2.72243					0.896411	2.45524						
0.958897	2.61638	0.75171	2.03853	0.959571	2.61607	0.995955	2.72176					0.898363	2.45433						
0.960981	2.61542	0.753696	2.03877	0.961655	2.61511	0.998249	2.7211					0.900314	2.45341						
0.963063	2.61445	0.755683	2.039	0.963735	2.61414	1.00055	2.72045					0.902265	2.4525						
0.965141	2.61349	0.757669	2.03923	0.965812	2.61317							0.904217	2.4516						
0.967216	2.61251	0.759655	2.03946	0.967886	2.6122							0.906168	2.4507						
0.969288	2.61154	0.76164	2.03969	0.969957	2.61122							0.908119	2.4498						
0.971357	2.61056	0.763626	2.03992	0.972026	2.61024							0.91007	2.44891						
0.973423	2.60958	0.765611	2.04015	0.974091	2.60926							0.912021	2.44802						
0.975487	2.6086	0.767596	2.04037	0.976154	2.60828							0.913972	2.44714						
0.977547	2.60761	0.769581	2.04059	0.978214	2.60729							0.915923	2.44626						
0.979606	2.60662	0.771566	2.04081	0.980271	2.6063							0.917874	2.44539						
0.981661	2.60563	0.77355	2.04103	0.982325	2.60531							0.919824	2.44452						
0.983714	2.60464	0.775534	2.04125	0.984378	2.60432							0.921775	2.44365						
0.985765	2.60365	0.777518	2.04147	0.986428	2.60332							0.923726	2.44279						
0.987813	2.60265	0.779502	2.04168	0.988475	2.60233							0.925676	2.44193						
0.989859	2.60165	0.781485	2.04189	0.99052	2.60133							0.927627	2.44107						
0.991902	2.60066	0.783469	2.0421	0.992563	2.60033							0.929577	2.44022						
0.993944	2.59966	0.785452	2.04231	0.994604	2.59934							0.931528	2.43938						
0.995983	2.59866	0.787435	2.04252	0.996643	2.59834							0.933478	2.43854						
0.998021	2.59766	0.789417	2.04273	0.998679	2.59734							0.935429	2.4377						
1.00006	2.59666	0.7914	2.04293	1.00071	2.59634							0.937379	2.43686						
		0.793382	2.04313									0.93933	2.43603						
		0.795364	2.04334									0.94128	2.43521						
		0.797346	2.04354									0.94323	2.43439						
		0.799327	2.04373									0.945181	2.43357						
		0.801309	2.04393									0.947131	2.43276						
		0.80329	2.04413									0.949082	2.43194						
		0.805271	2.04432									0.951032	2.43114						
		0.807252	2.04451									0.952983	2.43034						
		0.809232	2.0447									0.954933	2.42954						
		0.811213	2.04489									0.956884	2.42874						
		0.813193	2.04508									0.958834	2.42795						
		0.815173	2.04527									0.960785	2.42717						
		0.817152	2.04546									0.962735	2.42638						
		0.819132	2.04564									0.964686	2.4256						
		0.821111	2.04582									0.966637	2.42483						
		0.82309	2.046									0.968587	2.42405						
		0.825069	2.04618									0.970538	2.42329						
		0.827048	2.04636									0.972489	2.42252						
		0.829026	2.04654									0.97444	2.42176						
		0.831005	2.04672									0.976391	2.421						
		0.832983	2.04689									0.978342	2.42025						
		0.834961	2.04707									0.980293	2.4195						
		0.836938	2.04724									0.982244	2.41875						
		0.838916	2.04741									0.984195	2.41801						
		0.840893	2.04758									0.986146	2.41727						
		0.84287	2.04775									0.988097	2.41653						
		0.844847	2.04791									0.990049	2.4158						
		0.846824	2.04808									0.992	2.41507						
		0.8488	2.04824									0.993952	2.41435						
		0.850776	2.04841									0.995903	2.41363						
		0.852752	2.04857									0.997855	2.41291						
		0.854728	2.04873									0.999807	2.41219						
		0.856704	2.04889									1.00176	2.41148						
		0.858679	2.04905																
		0.860655	2.04921																
		0.86263	2.04936																
		0.864605	2.04952																
		0.866579	2.04967																
		0.868554	2.04983																
		0.870528	2.04998																
		0.872502	2.05013																
		0.874476	2.05028																
		0.87645	2.05043																
		0.878423	2.05057																
		0.880397	2.05072																
		0.88237	2.05087																
		0.884343	2.05101																
		0.886315	2.05115																
		0.888288	2.0513																
		0.89026	2.05144																
		0.892233	2.05158																
		0.894205	2.05172																
		0.896176	2.05185																
		0.898148	2.05199																
		0.900119	2.05213																
		0.902091	2.05226																
		0.904062	2.05239																
		0.906033	2.05253																
		0.908003	2.05266																
		0.909974	2.05279																
		0.911944	2.05292																
		0.913914	2.05305																
		0.915884	2.05318																
		0.917854	2.0533																
		0.919824	2.05343																
		0.921793	2.05356																
		0.923762	2.05368																
		0.925731	2.0538																
		0.9277	2.05393																
		0.929669	2.05405																
		0.931637	2.05417																
		0.933606	2.05429																
		0.935574	2.05441																
		0.937542	2.05453																
		0.93951	2.05464																
		0.941477	2.05476																
		0.943445	2.05488																
		0.945412	2.05499																
		0.947379	2.0551																
		0.949346	2.05522																
		0.951313	2.05533																
		0.953279	2.05544																
		0.955246	2.05555																
		0.957212	2.05566																
		0.959178	2.05577																
		0.961144	2.05588																
		0.96311	2.05599																
		0.965075	2.05609																
		0.967041	2.0562																
		0.969006	2.0563																
		0.970971	2.05641																
		0.972936	2.05651																
		0.974901	2.05661																
		0.976865	2.05671																
		0.97883	2.05682																
		0.980794	2.05692																
		0.982758	2.05702																
		0.984722	2.05712																
		0.986686	2.05721																
		0.988649	2.05731																
		0.990613	2.05741																
		0.992576	2.0575																
		0.994539	2.0576																
		0.996502	2.05769																
		0.998465	2.05779																
		1.00043	2.05788																
