Sym0		Asym0		Sym1		Sym2		Sym3		Sym4		Asym1		Asym2		Asym3	
461  Points		493  Points		192  Points		157  Points		142  Points		104  Points		315  Points		170  Points		137  Points	
Freq (MHz)	Vph (m/ms)	Freq (MHz)	Vph (m/ms)	Freq (MHz)	Vph (m/ms)	Freq (MHz)	Vph (m/ms)	Freq (MHz)	Vph (m/ms)	Freq (MHz)	Vph (m/ms)	Freq (MHz)	Vph (m/ms)	Freq (MHz)	Vph (m/ms)	Freq (MHz)	Vph (m/ms)
0.000744637	6.53173	0.000506501	0.218428	0.279519	675.101	0.499803	566.359	0.559036	784.852	0.838526	6260.11	0.13989	153.47	0.419276	761.233	0.69878	1195.43
0.00683016	6.53167	0.000989381	0.304374	0.279618	207.781	0.499847	275.522	0.559119	340.101	0.838551	786.897	0.140308	76.1217	0.419359	282.877	0.69883	460.897
0.012915	6.53135	0.00162513	0.388579	0.279823	122.868	0.499922	182.063	0.559268	217.135	0.838613	419.866	0.141005	50.8145	0.419519	173.773	0.698925	285.516
0.0189985	6.53074	0.0024068	0.470637	0.280133	87.2927	0.500027	135.967	0.559481	159.516	0.838714	286.345	0.141976	38.3036	0.419755	125.455	0.699065	206.847
0.0250801	6.52995	0.00332637	0.550211	0.280548	67.7517	0.500164	108.513	0.559761	126.099	0.838854	217.279	0.143213	30.8763	0.420068	98.2025	0.699249	162.189
0.0311591	6.52891	0.00437488	0.627015	0.281066	55.4096	0.500332	90.297	0.560105	104.288	0.839031	175.075	0.144708	25.9799	0.420456	80.7131	0.699478	133.411
0.0372348	6.52765	0.00554289	0.700832	0.281688	46.915	0.500532	77.3302	0.560514	88.9358	0.839247	146.616	0.146449	22.5248	0.420919	68.543	0.699751	113.325
0.0433067	6.52616	0.00682077	0.771519	0.282412	40.7173	0.500763	67.631	0.560987	77.547	0.839501	126.13	0.148426	19.9675	0.421459	59.5899	0.700068	98.5122
0.0493741	6.52443	0.00819887	0.838982	0.283237	36.0004	0.501028	60.1038	0.561524	68.765	0.839793	110.681	0.150627	18.0067	0.422073	52.7305	0.70043	87.1387
0.0554362	6.52247	0.00966778	0.903185	0.284162	32.2937	0.501326	54.0937	0.562125	61.7887	0.840123	98.6152	0.15304	16.4617	0.422762	47.3097	0.700836	78.1329
0.0614925	6.52028	0.0112184	0.964132	0.285186	29.307	0.501658	49.1849	0.56279	56.1149	0.840491	88.9324	0.155653	15.2177	0.423525	42.9202	0.701287	70.8263
0.0675421	6.51784	0.0128422	1.02186	0.286307	26.8513	0.502024	45.1009	0.563517	51.4114	0.840897	80.991	0.158454	14.1982	0.424362	39.2948	0.701781	64.7806
0.0735843	6.51514	0.0145312	1.07645	0.287524	24.7986	0.502426	41.6508	0.564306	47.4501	0.84134	74.3609	0.16143	13.3503	0.425272	36.2516	0.702319	59.6962
0.0796185	6.51221	0.016278	1.128	0.288836	23.0587	0.502864	38.6982	0.565157	44.0692	0.841822	68.7427	0.164571	12.6364	0.426255	33.6619	0.702901	55.3615
0.0856437	6.509	0.0180759	1.17662	0.29024	21.5667	0.50334	36.1433	0.56607	41.1507	0.842341	63.9218	0.167866	12.0289	0.42731	31.4325	0.703527	51.6226
0.0916593	6.50554	0.0199186	1.22243	0.291734	20.2742	0.503853	33.9114	0.567042	38.6066	0.842898	59.7403	0.171303	11.507	0.428436	29.494	0.704196	48.3652
0.0976642	6.50179	0.0218007	1.26557	0.293318	19.1446	0.504405	31.9454	0.568075	36.3699	0.843493	56.0793	0.174409	11.1096	0.429633	27.7938	0.704909	45.5025
0.103658	6.49777	0.0237171	1.30618	0.294988	18.1499	0.504997	30.2008	0.569168	34.3885	0.844125	52.8478	0.177131	10.8066	0.4309	26.2911	0.705665	42.9672
0.109639	6.49346	0.0256634	1.34439	0.296744	17.2681	0.505629	28.6427	0.570319	32.6217	0.844794	49.9746	0.179433	10.5777	0.432237	24.9541	0.706464	40.7065
0.115607	6.48886	0.0276359	1.38034	0.298583	16.4815	0.506304	27.2431	0.571528	31.0369	0.8455	47.4037	0.181283	10.4091	0.433643	23.7573	0.707306	38.6786
0.12156	6.48395	0.0296307	1.41417	0.300503	15.7761	0.507022	25.9793	0.572795	29.6077	0.846244	45.0901	0.18266	10.2915	0.435116	22.6804	0.708191	36.8495
0.127499	6.47872	0.0316449	1.446	0.302501	15.1405	0.507784	24.8328	0.574119	28.3126	0.847025	42.9972	0.183548	10.219	0.436656	21.7065	0.709118	35.1917
0.13342	6.47317	0.0336759	1.47597	0.304577	14.5652	0.508591	23.7884	0.575499	27.1339	0.847842	41.0951	0.184835	10.1182	0.438262	20.822	0.710087	33.6824
0.139324	6.46728	0.0354576	1.50066	0.306728	14.0424	0.509445	22.8333	0.576935	26.057	0.848697	39.3591	0.186247	10.013	0.439934	20.0154	0.711099	32.3028
0.14521	6.46103	0.0369838	1.5207	0.308952	13.5656	0.510346	21.9568	0.578425	25.0694	0.849588	37.7685	0.188187	9.87704	0.44167	19.2772	0.712152	31.037
0.151075	6.45442	0.0382505	1.53663	0.311247	13.1292	0.511296	21.1499	0.57997	24.1607	0.850515	36.306	0.190673	9.71569	0.443469	18.5994	0.713247	29.8718
0.156918	6.44743	0.0392549	1.54882	0.31361	12.7287	0.512297	20.4049	0.581568	23.3221	0.851479	34.9568	0.193727	9.53502	0.445332	17.9751	0.714383	28.7958
0.162738	6.44004	0.0399947	1.55756	0.316042	12.36	0.513348	19.7152	0.583219	22.5459	0.852479	33.7085	0.197371	9.34109	0.447256	17.3985	0.715561	27.7992
0.168534	6.43224	0.0404688	1.56306	0.318538	12.0196	0.514452	19.075	0.584923	21.8257	0.853515	32.5503	0.20163	9.13965	0.44924	16.8645	0.716779	26.8738
0.174304	6.42402	0.0411511	1.57084	0.321099	11.7047	0.51561	18.4796	0.586678	21.1557	0.854587	31.4729	0.205966	8.95789	0.451285	16.3687	0.718038	26.0124
0.180046	6.41534	0.0418937	1.57913	0.323721	11.4127	0.516823	17.9245	0.588484	20.531	0.855695	30.4683	0.210374	8.7933	0.453388	15.9074	0.719338	25.2086
0.185758	6.4062	0.0429051	1.59013	0.326056	11.1752	0.518093	17.4061	0.59034	19.9474	0.856839	29.5294	0.214849	8.64374	0.455549	15.4773	0.720678	24.457
0.191438	6.39657	0.0441865	1.60361	0.328082	10.9841	0.519419	16.921	0.592246	19.401	0.858018	28.6501	0.219387	8.50741	0.457767	15.0755	0.722057	23.7528
0.197085	6.38642	0.0457392	1.61928	0.329782	10.8334	0.520805	16.4664	0.594202	18.8886	0.859232	27.825	0.223983	8.38277	0.460041	14.6993	0.723476	23.0918
0.202695	6.37575	0.0475644	1.63685	0.331142	10.7187	0.522251	16.0396	0.596206	18.4071	0.860481	27.0493	0.228633	8.26848	0.46237	14.3466	0.724935	22.4701
0.208268	6.36451	0.0496631	1.65598	0.33215	10.6368	0.523759	15.6384	0.598257	17.954	0.861765	26.3188	0.233334	8.16341	0.464752	14.0154	0.726432	21.8845
0.2138	6.3527	0.0517655	1.67407	0.332799	10.5854	0.525328	15.2607	0.600356	17.527	0.863084	25.6298	0.238081	8.06657	0.467188	13.7038	0.727968	21.332
0.219289	6.34027	0.053871	1.69121	0.333737	10.5129	0.526962	14.9048	0.602502	17.1238	0.864437	24.9789	0.242872	7.97709	0.469675	13.4103	0.729543	20.81
0.224732	6.32721	0.0559789	1.70744	0.334764	10.4358	0.52866	14.5689	0.604694	16.7428	0.865824	24.3631	0.247704	7.89422	0.472214	13.1334	0.731155	20.3161
0.230127	6.31348	0.0580887	1.72283	0.336172	10.3339	0.530425	14.2516	0.606932	16.3821	0.867246	23.7797	0.252574	7.81729	0.474802	12.8718	0.732805	19.8481
0.23547	6.29905	0.0602	1.73744	0.337971	10.2096	0.532257	13.9516	0.609214	16.0404	0.868702	23.2262	0.257479	7.74574	0.47744	12.6245	0.734493	19.4042
0.240759	6.28391	0.0623123	1.75131	0.340175	10.0657	0.534156	13.6676	0.611541	15.7161	0.870191	22.7006	0.262416	7.67904	0.480125	12.3902	0.736218	18.9825
0.24599	6.26802	0.0644254	1.7645	0.342799	9.90541	0.536125	13.3986	0.613912	15.4081	0.871714	22.2007	0.267383	7.61674	0.482858	12.1682	0.73798	18.5816
0.25116	6.25135	0.066539	1.77704	0.345861	9.73188	0.538164	13.1435	0.616326	15.1152	0.87327	21.7248	0.272379	7.55843	0.485637	11.9575	0.739778	18.1999
0.256265	6.23387	0.0686528	1.78898	0.348977	9.5687	0.540274	12.9014	0.618783	14.8365	0.874859	21.2714	0.2774	7.50376	0.488461	11.7573	0.741613	17.8362
0.261304	6.21556	0.0707667	1.80035	0.352147	9.4151	0.542456	12.6716	0.621283	14.5709	0.876482	20.8387	0.282445	7.45241	0.491329	11.5669	0.743483	17.4893
0.266271	6.19638	0.0728805	1.8112	0.355371	9.27037	0.54471	12.4532	0.623824	14.3177	0.878136	20.4256	0.287511	7.40408	0.493864	11.4086	0.745389	17.158
0.271164	6.17633	0.0749941	1.82155	0.358649	9.1339	0.547037	12.2456	0.626407	14.0759	0.879824	20.0308	0.292598	7.35852	0.496051	11.2787	0.74733	16.8415
0.275978	6.15537	0.0771073	1.83143	0.361982	9.00511	0.549437	12.048	0.62903	13.845	0.881543	19.653	0.297703	7.31549	0.497877	11.1748	0.749306	16.5388
0.280712	6.1335	0.07922	1.84087	0.365371	8.88351	0.551911	11.86	0.631694	13.6243	0.883295	19.2914	0.302825	7.27479	0.499331	11.0948	0.751316	16.249
0.285361	6.11069	0.0813322	1.84991	0.368816	8.76864	0.55446	11.6809	0.634398	13.4131	0.885078	18.9448	0.307961	7.23622	0.500407	11.0371	0.753361	15.9714
0.289923	6.08693	0.0834438	1.85855	0.372318	8.66008	0.556742	11.5317	0.637142	13.2108	0.886893	18.6125	0.313111	7.19962	0.501098	11.0007	0.755439	15.7053
0.294395	6.06223	0.0855548	1.86683	0.375879	8.55744	0.558732	11.4094	0.639924	13.0171	0.888739	18.2936	0.318273	7.16482	0.502095	10.949	0.757551	15.4499
0.298774	6.03659	0.0876651	1.87476	0.379499	8.4604	0.560409	11.3114	0.642746	12.8313	0.890616	17.9872	0.323446	7.13168	0.503184	10.8937	0.759696	15.2047
0.303058	6.01001	0.0897747	1.88237	0.383179	8.36862	0.561755	11.236	0.645605	12.653	0.892524	17.6928	0.328628	7.10008	0.504674	10.8199	0.761873	14.9692
0.307245	5.9825	0.0918836	1.88967	0.386921	8.28183	0.562756	11.1816	0.648502	12.4819	0.894463	17.4097	0.333818	7.0699	0.50657	10.7289	0.764084	14.7427
0.311333	5.95409	0.0939918	1.89669	0.390726	8.19975	0.563401	11.1472	0.651437	12.3175	0.896432	17.1373	0.339014	7.04102	0.508883	10.6222	0.766326	14.5249
0.315322	5.92481	0.0960992	1.90343	0.394595	8.12213	0.564336	11.0985	0.654409	12.1595	0.898431	16.8749	0.344216	7.01335	0.511624	10.5014	0.7686	14.3152
0.31921	5.89468	0.0982059	1.90991	0.398528	8.04873	0.565361	11.0464	0.657417	12.0075	0.90046	16.6222	0.349422	6.98679	0.514804	10.3684	0.770906	14.1132
0.322998	5.86374	0.100312	1.91615	0.402527	7.97935	0.56677	10.9769	0.660462	11.8613	0.902519	16.3785	0.354632	6.96127	0.518022	10.2411	0.773242	13.9186
0.326686	5.83204	0.102417	1.92215	0.406592	7.91377	0.568578	10.8911	0.663145	11.7383	0.904607	16.1434	0.359843	6.9367	0.521275	10.119	0.77561	13.731
0.330273	5.79962	0.104522	1.92794	0.410723	7.85179	0.570802	10.7907	0.665453	11.6366	0.906724	15.9166	0.365055	6.91302	0.524564	10.0019	0.778008	13.5499
0.333762	5.76654	0.106625	1.93351	0.414921	7.79323	0.573462	10.6771	0.667377	11.5546	0.908871	15.6975	0.370267	6.89015	0.527888	9.88963	0.780436	13.3752
0.337153	5.73285	0.108729	1.93889	0.419184	7.7379	0.576584	10.5522	0.668908	11.4911	0.911046	15.4859	0.375478	6.86803	0.531245	9.78179	0.782893	13.2064
0.340449	5.69861	0.110831	1.94409	0.423513	7.68563	0.579778	10.4327	0.670038	11.4451	0.913249	15.2813	0.380686	6.84662	0.534636	9.6782	0.78538	13.0434
0.343651	5.66388	0.112933	1.9491	0.427906	7.63624	0.583045	10.3185	0.670764	11.4159	0.915481	15.0835	0.385891	6.82585	0.53806	9.57863	0.787896	12.8858
0.346762	5.62871	0.115034	1.95394	0.432363	7.58958	0.586383	10.2093	0.671811	11.3745	0.91774	14.8921	0.391091	6.80568	0.541516	9.48287	0.790441	12.7334
0.349784	5.59318	0.117134	1.95863	0.436881	7.54549	0.589792	10.1047	0.672954	11.33	0.920027	14.7069	0.396286	6.78606	0.545003	9.39072	0.793014	12.5859
0.352719	5.55733	0.119234	1.96315	0.441459	7.50381	0.59327	10.0046	0.674514	11.2704	0.922342	14.5275	0.401474	6.76694	0.548522	9.30201	0.795616	12.4432
0.355572	5.52123	0.121334	1.96754	0.446095	7.4644	0.596817	9.90872	0.676499	11.1965	0.924684	14.3538	0.406655	6.74829	0.55207	9.21657	0.798245	12.305
0.358345	5.48492	0.123432	1.97178	0.450787	7.42712	0.600431	9.81688	0.678918	11.1093	0.927053	14.1854	0.411828	6.73007	0.555649	9.13424	0.800902	12.1712
0.36104	5.44848	0.12553	1.97589	0.455531	7.39182	0.604112	9.72886	0.681779	11.0098	0.929449	14.0222	0.416991	6.71225	0.559257	9.05486	0.803239	12.0579
0.363661	5.41195	0.127628	1.97987	0.460327	7.35839	0.607857	9.64447	0.685094	10.8994	0.931871	13.8638	0.422144	6.69479	0.562894	8.97831	0.805247	11.9638
0.366212	5.37537	0.129725	1.98373	0.46517	7.32669	0.611667	9.56353	0.688443	10.7927	0.934319	13.7102	0.427285	6.67765	0.566559	8.90444	0.806919	11.8875
0.368694	5.33879	0.131822	1.98747	0.470058	7.2966	0.615538	9.48588	0.691827	10.6896	0.936793	13.5611	0.432414	6.66082	0.570252	8.83315	0.808249	11.8282
0.371112	5.30227	0.133918	1.99111	0.474989	7.26803	0.61947	9.41134	0.695244	10.5899	0.939294	13.4164	0.437529	6.64426	0.573973	8.7643	0.80923	11.7852
0.373467	5.26582	0.136013	1.99463	0.479959	7.24085	0.623461	9.33978	0.698695	10.4936	0.941819	13.2758	0.44263	6.62795	0.577721	8.69779	0.809859	11.7579
0.375764	5.22951	0.138109	1.99806	0.484966	7.21498	0.62751	9.27103	0.702179	10.4004	0.94437	13.1392	0.447716	6.61186	0.581496	8.63352	0.810767	11.719
0.378004	5.19335	0.140203	2.00139	0.490007	7.19031	0.631614	9.20497	0.705697	10.3102	0.946946	13.0064	0.452785	6.59597	0.585298	8.5714	0.811757	11.6772
0.380191	5.15738	0.142297	2.00462	0.49508	7.16676	0.635774	9.14145	0.709248	10.2229	0.949546	12.8773	0.457837	6.58025	0.589126	8.51133	0.813108	11.6209
0.382055	5.12621	0.144391	2.00776	0.500181	7.14425	0.639985	9.08037	0.712833	10.1384	0.952172	12.7518	0.462871	6.56469	0.59298	8.45322	0.814826	11.551
0.383615	5.09978	0.146485	2.01082	0.505309	7.1227	0.644248	9.02159	0.716451	10.0566	0.954821	12.6297	0.467885	6.54927	0.59686	8.397	0.816917	11.4681
0.384886	5.07804	0.148578	2.0138	0.51046	7.10204	0.64856	8.965	0.720103	9.97742	0.957495	12.5109	0.472879	6.53396	0.600765	8.34259	0.819387	11.3732
0.385878	5.06091	0.15067	2.0167	0.515632	7.08221	0.652919	8.9105	0.723788	9.90067	0.959844	12.4099	0.477852	6.51875	0.604695	8.28992	0.822244	11.2671
0.386602	5.04837	0.152763	2.01952	0.520824	7.06313	0.657323	8.85799	0.727507	9.82631	0.961861	12.3257	0.482803	6.50363	0.608651	8.23891	0.825127	11.1641
0.387062	5.04036	0.154855	2.02226	0.526033	7.04476	0.661772	8.80735	0.73126	9.75425	0.963538	12.2573	0.48773	6.48857	0.612632	8.18951	0.828035	11.064
0.387719	5.02887	0.156946	2.02494	0.531257	7.02704	0.666262	8.75851	0.735047	9.6844	0.964871	12.204	0.492633	6.47356	0.616637	8.14165	0.830966	10.9666
0.388428	5.01642	0.159038	2.02755	0.536494	7.00992	0.670793	8.71138	0.738868	9.61669	0.965854	12.1652	0.497511	6.45858	0.620667	8.09528	0.833922	10.8719
0.389384	4.99955	0.161129	2.03009	0.541742	6.99336	0.675362	8.66586	0.742723	9.55105	0.966485	12.1406	0.502363	6.44363	0.624722	8.05033	0.836901	10.7798
0.39058	4.97832	0.163219	2.03257	0.547	6.97732	0.679967	8.62187	0.746613	9.4874	0.967394	12.1055	0.507187	6.42869	0.628801	8.00677	0.839904	10.6902
0.392006	4.95281	0.16531	2.035	0.552265	6.96174	0.684607	8.57935	0.750538	9.42568	0.968385	12.0676	0.511984	6.41374	0.632904	7.96452	0.842931	10.603
0.393654	4.92312	0.1674	2.03736	0.557537	6.94661	0.689279	8.53821	0.754498	9.36583	0.969737	12.0167	0.516752	6.39878	0.637031	7.92356	0.84598	10.5181
0.395511	4.88937	0.16949	2.03966	0.562814	6.93189	0.693982	8.49839	0.758493	9.30778	0.971455	11.9532	0.521489	6.3838	0.641183	7.88384	0.849052	10.4354
0.397334	4.85599	0.171579	2.04191	0.568093	6.91753	0.698714	8.45981	0.762525	9.25148	0.973544	11.8778	0.526196	6.36878	0.645358	7.84531	0.852147	10.3549
0.399126	4.82297	0.173668	2.04411	0.573375	6.90353	0.703472	8.42241	0.766593	9.19688	0.97601	11.7911	0.530871	6.35372	0.649558	7.80792	0.855264	10.2764
0.400888	4.79032	0.175757	2.04626	0.578658	6.88984	0.708256	8.38614	0.770699	9.14392	0.978861	11.6939	0.535514	6.3386	0.653781	7.77165	0.858403	10.1999
0.402621	4.75806	0.177846	2.04836	0.58394	6.87645	0.713063	8.35093	0.774841	9.09256	0.981734	11.5991	0.540123	6.32343	0.658028	7.73645	0.861563	10.1254
0.404327	4.72619	0.179935	2.05041	0.58922	6.86333	0.717891	8.31673	0.779022	9.04276	0.984629	11.5067	0.544698	6.30818	0.662299	7.70229	0.864746	10.0527
0.406009	4.69471	0.182023	2.05242	0.594498	6.85047	0.722738	8.28347	0.783241	8.99446	0.987545	11.4164	0.549239	6.29286	0.666593	7.66914	0.86795	9.98186
0.407666	4.66363	0.184111	2.05438	0.599773	6.83783	0.727603	8.25112	0.787499	8.94763	0.990483	11.3284	0.553743	6.27746	0.670911	7.63695	0.871175	9.91274
0.4093	4.63295	0.186199	2.0563	0.605042	6.82541	0.732483	8.21961	0.791797	8.90222	0.993442	11.2424	0.558211	6.26197	0.675251	7.6057	0.874421	9.8453
0.410913	4.60267	0.188287	2.05818	0.610306	6.81318	0.737377	8.18892	0.796136	8.85821	0.996422	11.1585	0.562642	6.24639	0.679615	7.57535	0.877687	9.77949
0.412507	4.57279	0.190374	2.06002	0.615564	6.80114	0.742282	8.15898	0.800515	8.81555	0.999422	11.0765	0.567035	6.23071	0.684002	7.54589	0.880975	9.71526
0.414081	4.54332	0.192461	2.06182	0.620814	6.78926	0.747198	8.12975	0.804936	8.77421	1.00244	10.9965	0.571389	6.21493	0.688412	7.51727	0.884282	9.65256
0.415637	4.51425	0.194548	2.06358	0.626056	6.77753	0.752123	8.10121	0.809399	8.73415			0.575705	6.19905	0.692844	7.48947	0.887611	9.59135
0.417177	4.48558	0.196635	2.06531	0.631289	6.76594	0.757053	8.0733	0.813904	8.69535			0.579981	6.18307	0.697299	7.46247	0.890958	9.53156
0.4187	4.45731	0.198722	2.067	0.636513	6.75447	0.761989	8.046	0.818453	8.65777			0.584217	6.16698	0.701775	7.43623	0.894326	9.47317
0.420209	4.42944	0.200809	2.06865	0.641726	6.74313	0.766929	8.01926	0.823046	8.62139			0.588413	6.15077	0.706273	7.41073	0.897714	9.41613
0.421704	4.40197	0.202895	2.07028	0.646928	6.73188	0.77187	7.99305	0.827683	8.58616			0.592568	6.13446	0.710793	7.38595	0.901121	9.36039
0.423186	4.37489	0.204981	2.07187	0.652119	6.72074	0.776811	7.96736	0.832365	8.55208			0.596682	6.11804	0.715334	7.36186	0.904547	9.30592
0.424656	4.3482	0.207067	2.07343	0.657297	6.70968	0.781752	7.94214	0.837093	8.51909			0.600755	6.10152	0.719895	7.33844	0.907993	9.25267
0.426114	4.32189	0.209153	2.07495	0.662462	6.6987	0.786691	7.91737	0.841865	8.48719			0.604786	6.08488	0.724477	7.31566	0.911457	9.20063
0.427561	4.29598	0.211239	2.07645	0.667614	6.68778	0.791626	7.89303	0.846684	8.45634			0.608775	6.06813	0.729079	7.29351	0.914941	9.14974
0.428998	4.27044	0.213325	2.07793	0.672752	6.67693	0.796557	7.86909	0.851548	8.42651			0.612723	6.05128	0.7337	7.27197	0.918443	9.09997
0.430426	4.24528	0.21541	2.07937	0.677875	6.66614	0.801483	7.84554	0.856458	8.39768			0.616628	6.03432	0.73834	7.251	0.921963	9.0513
0.431844	4.22049	0.217496	2.08078	0.682982	6.65539	0.806402	7.82236	0.861415	8.36981			0.620491	6.01726	0.742999	7.23059	0.925502	9.00368
0.433255	4.19607	0.219581	2.08217	0.688074	6.64468	0.811315	7.79952	0.866417	8.34289			0.624312	6.0001	0.747676	7.21072	0.929059	8.9571
0.434658	4.17201	0.221666	2.08354	0.69315	6.63401	0.81622	7.77702	0.871465	8.31689			0.628091	5.98285	0.75237	7.19138	0.932635	8.91153
0.436054	4.14831	0.223751	2.08488	0.698209	6.62337	0.821118	7.75484	0.876559	8.29177			0.631827	5.9655	0.757081	7.17253	0.936228	8.86692
0.437443	4.12496	0.225836	2.08619	0.703251	6.61275	0.826007	7.73298	0.881697	8.26751			0.635522	5.94806	0.761808	7.15417	0.939839	8.82326
0.438826	4.10197	0.22792	2.08748	0.708275	6.60215	0.830888	7.71141	0.88688	8.24409			0.639175	5.93054	0.766551	7.13627	0.943468	8.78053
0.440203	4.07932	0.230005	2.08875	0.713281	6.59157	0.835761	7.69013	0.892107	8.22147			0.642787	5.91293	0.771308	7.11881	0.947114	8.73869
0.441576	4.057	0.23209	2.09	0.718268	6.58099	0.840625	7.66914	0.897377	8.19964			0.646357	5.89525	0.776081	7.10179	0.950777	8.69773
0.442943	4.03503	0.234174	2.09123	0.723236	6.57042	0.84548	7.64843	0.90269	8.17856			0.649886	5.87749	0.780866	7.08518	0.954458	8.65761
0.444306	4.01338	0.236258	2.09243	0.728185	6.55986	0.850327	7.62799	0.908044	8.1582			0.653374	5.85966	0.785665	7.06896	0.958156	8.61832
0.445665	3.99206	0.238342	2.09361	0.733114	6.54929	0.855167	7.60781	0.913439	8.13855			0.656821	5.84176	0.790477	7.05312	0.961872	8.57983
0.447021	3.97106	0.240427	2.09477	0.738022	6.53872	0.859998	7.5879	0.918874	8.11957			0.660228	5.82381	0.7953	7.03765	0.965603	8.54213
0.448373	3.95038	0.242511	2.09592	0.74291	6.52813	0.864823	7.56825	0.924348	8.10124			0.663595	5.80579	0.800134	7.02253	0.969352	8.50519
0.449722	3.93	0.244594	2.09704	0.747777	6.51754	0.86964	7.54886	0.929859	8.08354			0.666923	5.78773	0.804978	7.00774	0.973118	8.469
0.451068	3.90993	0.246678	2.09815	0.752622	6.50693	0.874451	7.52973	0.935407	8.06643			0.670211	5.76962	0.809832	6.99328	0.976899	8.43353
0.452412	3.89017	0.248762	2.09924	0.757445	6.4963	0.879256	7.51085	0.940991	8.04991			0.673461	5.75146	0.814695	6.97912	0.980698	8.39876
0.453754	3.8707	0.250846	2.10031	0.762246	6.48565	0.884056	7.49222	0.946609	8.03394			0.676673	5.73327	0.819565	6.96525	0.984512	8.36469
0.455094	3.85152	0.252929	2.10136	0.767024	6.47497	0.888851	7.47385	0.952261	8.01849			0.679846	5.71505	0.824444	6.95167	0.988343	8.33129
0.456433	3.83263	0.255012	2.10239	0.77178	6.46428	0.893642	7.45572	0.957944	8.00356			0.682982	5.69679	0.829329	6.93835	0.99219	8.29854
0.45777	3.81402	0.257096	2.10341	0.776512	6.45355	0.898429	7.43784	0.963659	7.98912			0.686082	5.67851	0.834221	6.92529	0.996052	8.26643
0.459106	3.79568	0.259179	2.10442	0.78122	6.4428	0.903213	7.42021	0.969403	7.97514			0.689144	5.66021	0.839117	6.91248	0.99993	8.23494
0.460442	3.77763	0.261262	2.1054	0.785905	6.43201	0.907995	7.40283	0.975177	7.96161			0.692171	5.6419	0.844019	6.8999	1.00382	8.20406
0.461776	3.75984	0.263345	2.10637	0.790566	6.42119	0.912774	7.3857	0.980978	7.94851			0.695162	5.62357	0.848924	6.88754		
0.463111	3.74231	0.265428	2.10733	0.795202	6.41033	0.917552	7.3688	0.986805	7.93582			0.698118	5.60524	0.853833	6.8754		
0.464444	3.72504	0.267511	2.10827	0.799813	6.39944	0.922328	7.35215	0.992658	7.92352			0.70104	5.58691	0.858745	6.86346		
0.465778	3.70803	0.269594	2.1092	0.8044	6.38852	0.927105	7.33575	0.998535	7.9116			0.703928	5.56857	0.863658	6.85171		
0.467112	3.69127	0.271677	2.11012	0.808961	6.37755	0.931881	7.31957	1.00444	7.90003			0.706782	5.55024	0.868573	6.84014		
0.468446	3.67476	0.27376	2.11102	0.813496	6.36654	0.936657	7.30364					0.709603	5.53192	0.873489	6.82875		
0.469781	3.65849	0.275843	2.1119	0.818006	6.3555	0.941434	7.28794					0.712392	5.51362	0.878405	6.81752		
0.471116	3.64246	0.277925	2.11278	0.822491	6.34441	0.946212	7.27248					0.715149	5.49533	0.88332	6.80645		
0.472452	3.62666	0.280008	2.11364	0.826949	6.33329	0.950991	7.25724					0.717874	5.47706	0.888234	6.79553		
0.473788	3.6111	0.28209	2.11449	0.831381	6.32212	0.955772	7.24224					0.720569	5.45881	0.893146	6.78475		
0.475126	3.59576	0.284173	2.11532	0.835786	6.31091	0.960555	7.22745					0.723233	5.4406	0.898056	6.7741		
0.476465	3.58064	0.286255	2.11615	0.840165	6.29965	0.96534	7.21289					0.725867	5.42241	0.902963	6.76358		
0.477805	3.56574	0.288337	2.11696	0.844517	6.28836	0.970127	7.19855					0.728472	5.40426	0.907867	6.75318		
0.479146	3.55106	0.29042	2.11776	0.848843	6.27702	0.974917	7.18442					0.731049	5.38614	0.912766	6.7429		
0.480488	3.53659	0.292502	2.11855	0.853141	6.26563	0.97971	7.17051					0.733597	5.36806	0.917661	6.73272		
0.481832	3.52233	0.294584	2.11933	0.857413	6.25421	0.984505	7.1568					0.736117	5.35003	0.922551	6.72264		
0.483178	3.50827	0.296666	2.1201	0.861657	6.24274	0.989303	7.1433					0.73861	5.33204	0.927434	6.71265		
0.484525	3.49442	0.298748	2.12086	0.865874	6.23124	0.994104	7.13					0.741076	5.3141	0.932312	6.70275		
0.485875	3.48076	0.30083	2.1216	0.870064	6.21969	0.998909	7.1169					0.743516	5.29621	0.937183	6.69294		
0.487225	3.46729	0.302912	2.12234	0.874227	6.2081	1.00372	7.10399					0.74593	5.27838	0.942046	6.68321		
0.488578	3.45402	0.304994	2.12307	0.878363	6.19647							0.748318	5.2606	0.946902	6.67354		
0.489933	3.44093	0.307075	2.12379	0.882471	6.1848							0.750682	5.24288	0.951749	6.66395		
0.49129	3.42803	0.309157	2.12449	0.886551	6.17309							0.753022	5.22522	0.956588	6.65442		
0.492649	3.41531	0.311239	2.12519	0.890605	6.16134							0.755338	5.20762	0.961417	6.64494		
0.494011	3.40277	0.313321	2.12588	0.894631	6.14956							0.75763	5.19009	0.966237	6.63553		
0.495374	3.39041	0.315402	2.12656	0.89863	6.13773							0.7599	5.17262	0.971047	6.62616		
0.49674	3.37821	0.317484	2.12724	0.902601	6.12588							0.762147	5.15522	0.975846	6.61684		
0.498108	3.36619	0.319565	2.1279	0.906545	6.11399							0.764372	5.13789	0.980634	6.60756		
0.499479	3.35433	0.321647	2.12855	0.910463	6.10206							0.766576	5.12064	0.98541	6.59833		
0.500852	3.34264	0.323728	2.1292	0.914353	6.0901							0.768759	5.10346	0.990175	6.58912		
0.502228	3.33111	0.32581	2.12984	0.918216	6.07812							0.770921	5.08635	0.994928	6.57996		
0.503606	3.31973	0.327891	2.13047	0.922052	6.0661							0.773063	5.06932	0.999668	6.57082		
0.504987	3.30851	0.329972	2.13109	0.925861	6.05405							0.775185	5.05237	1.0044	6.5617		
0.50637	3.29745	0.332054	2.13171	0.929643	6.04197							0.777287	5.03549				
0.507756	3.28653	0.334135	2.13231	0.933399	6.02987							0.779371	5.0187				
0.509145	3.27577	0.336216	2.13291	0.937128	6.01774							0.781437	5.00199				
0.510536	3.26515	0.338297	2.13351	0.94083	6.00558							0.783484	4.98537				
0.51193	3.25467	0.340378	2.13409	0.944506	5.9934							0.785513	4.96882				
0.513327	3.24433	0.34246	2.13467	0.948156	5.9812							0.787526	4.95236				
0.514727	3.23413	0.344541	2.13524	0.95178	5.96898							0.789521	4.93599				
0.516129	3.22407	0.346622	2.1358	0.955378	5.95674							0.7915	4.91971				
0.517534	3.21414	0.348703	2.13636	0.95895	5.94448							0.793463	4.90351				
0.518942	3.20435	0.350784	2.13691	0.962496	5.9322							0.795409	4.8874				
0.520353	3.19468	0.352864	2.13746	0.966017	5.91991							0.797341	4.87138				
0.521767	3.18514	0.354945	2.138	0.969513	5.9076							0.799257	4.85545				
0.523184	3.17573	0.357026	2.13853	0.972983	5.89527							0.801159	4.83961				
0.524604	3.16644	0.359107	2.13906	0.976428	5.88294							0.803046	4.82386				
0.526026	3.15727	0.361188	2.13958	0.979848	5.87059							0.804919	4.8082				
0.527452	3.14822	0.363269	2.14009	0.983243	5.85823							0.806779	4.79264				
0.52888	3.13929	0.365349	2.1406	0.986614	5.84586							0.808625	4.77717				
0.530312	3.13048	0.36743	2.1411	0.98996	5.83349							0.810458	4.76179				
0.531746	3.12177	0.369511	2.1416	0.993282	5.8211							0.812279	4.7465				
0.533184	3.11318	0.371591	2.14209	0.99658	5.80871							0.814086	4.7313				
0.534624	3.1047	0.373672	2.14258	0.999854	5.79632							0.815882	4.7162				
0.536067	3.09633	0.375753	2.14306	1.0031	5.78392							0.817666	4.7012				
0.537513	3.08807	0.377833	2.14354									0.819439	4.68628				
0.538963	3.07991	0.379914	2.14401									0.8212	4.67146				
0.540415	3.07185	0.381994	2.14447									0.82295	4.65674				
0.54187	3.0639	0.384075	2.14493									0.824689	4.64211				
0.543328	3.05604	0.386155	2.14539									0.826418	4.62757				
0.54479	3.04829	0.388235	2.14584									0.828137	4.61313				
0.546254	3.04063	0.390316	2.14628									0.829846	4.59878				
0.547721	3.03306	0.392396	2.14673									0.831545	4.58452				
0.549191	3.0256	0.394476	2.14716									0.833235	4.57036				
0.550664	3.01822	0.396557	2.1476									0.834915	4.5563				
0.55214	3.01093	0.398637	2.14802									0.836587	4.54233				
0.553619	3.00374	0.400717	2.14845									0.83825	4.52845				
0.555101	2.99663	0.402798	2.14887									0.839904	4.51466				
0.556586	2.98961	0.404878	2.14928									0.841551	4.50097				
0.558074	2.98268	0.406958	2.14969									0.843189	4.48737				
0.559565	2.97583	0.409038	2.1501									0.844819	4.47386				
0.561059	2.96906	0.411118	2.1505									0.846442	4.46045				
0.562556	2.96237	0.413199	2.1509									0.848057	4.44713				
0.564055	2.95577	0.415279	2.15129									0.849665	4.4339				
0.565558	2.94924	0.417359	2.15168									0.851266	4.42076				
0.567063	2.9428	0.419439	2.15207									0.85286	4.40771				
0.568572	2.93643	0.421519	2.15245									0.854448	4.39475				
0.570083	2.93013	0.423599	2.15283									0.856029	4.38189				
0.571597	2.92391	0.425679	2.15321									0.857604	4.36911				
0.573114	2.91777	0.427759	2.15358									0.859173	4.35643				
0.574634	2.9117	0.429839	2.15395									0.860736	4.34383				
0.576157	2.90569	0.431919	2.15431									0.862293	4.33132				
0.577683	2.89976	0.433999	2.15467									0.863845	4.3189				
0.579211	2.8939	0.436079	2.15503									0.865391	4.30657				
0.580742	2.88811	0.438158	2.15539									0.866932	4.29433				
0.582276	2.88238	0.440238	2.15574									0.868467	4.28218				
0.583813	2.87672	0.442318	2.15608									0.869998	4.27011				
0.585353	2.87113	0.444398	2.15643									0.871524	4.25812				
0.586896	2.8656	0.446478	2.15677									0.873045	4.24623				
0.588441	2.86013	0.448558	2.15711									0.874562	4.23442				
0.589989	2.85473	0.450637	2.15744									0.876074	4.22269				
0.59154	2.84939	0.452717	2.15778									0.877582	4.21105				
0.593093	2.8441	0.454797	2.15811									0.879086	4.19949				
0.594649	2.83888	0.456877	2.15843									0.880586	4.18802				
0.596208	2.83372	0.458956	2.15875									0.882082	4.17662				
0.59777	2.82862	0.461036	2.15908									0.883575	4.16531				
0.599334	2.82357	0.463116	2.15939									0.885063	4.15409				
0.600901	2.81858	0.465195	2.15971									0.886549	4.14294				
0.602471	2.81365	0.467275	2.16002									0.88803	4.13188				
0.604043	2.80877	0.469355	2.16033									0.889509	4.12089				
0.605618	2.80395	0.471434	2.16063									0.890984	4.10999				
0.607195	2.79918	0.473514	2.16094									0.892457	4.09916				
0.608776	2.79446	0.475594	2.16124									0.893926	4.08841				
0.610358	2.78979	0.477673	2.16154									0.895392	4.07774				
0.611944	2.78518	0.479753	2.16183									0.896856	4.06715				
0.613531	2.78061	0.481832	2.16213									0.898317	4.05664				
0.615122	2.7761	0.483912	2.16242									0.899776	4.0462				
0.616715	2.77163	0.485991	2.16271									0.901232	4.03584				
0.61831	2.76722	0.488071	2.16299									0.902685	4.02555				
0.619908	2.76285	0.49015	2.16328									0.904137	4.01534				
0.621509	2.75853	0.49223	2.16356									0.905586	4.00521				
0.623112	2.75425	0.494309	2.16384									0.907033	3.99514				
0.624717	2.75002	0.496389	2.16411									0.908478	3.98515				
0.626325	2.74584	0.498468	2.16439									0.909921	3.97524				
0.627936	2.7417	0.500547	2.16466									0.911362	3.96539				
0.629549	2.73761	0.502627	2.16493									0.912801	3.95562				
0.631164	2.73356	0.504706	2.1652									0.914239	3.94592				
0.632782	2.72955	0.506786	2.16546									0.915675	3.93629				
0.634402	2.72558	0.508865	2.16572									0.917109	3.92673				
0.636024	2.72166	0.510944	2.16598									0.918542	3.91724				
0.637649	2.71778	0.513024	2.16624									0.919974	3.90781				
0.639276	2.71393	0.515103	2.1665									0.921404	3.89846				
0.640905	2.71013	0.517182	2.16675									0.922833	3.88917				
0.642537	2.70637	0.519262	2.16701									0.924261	3.87996				
0.644171	2.70265	0.521341	2.16726									0.925687	3.8708				
0.645808	2.69896	0.52342	2.16751									0.927113	3.86172				
0.647447	2.69532	0.5255	2.16775									0.928537	3.8527				
0.649088	2.69171	0.527579	2.168									0.92996	3.84375				
0.650731	2.68814	0.529658	2.16824									0.931383	3.83486				
0.652376	2.6846	0.531737	2.16848									0.932804	3.82604				
0.654024	2.6811	0.533816	2.16872									0.934225	3.81728				
0.655674	2.67764	0.535896	2.16896									0.935645	3.80858				
0.657326	2.67421	0.537975	2.16919									0.937065	3.79995				
0.658981	2.67082	0.540054	2.16943									0.938483	3.79137				
0.660637	2.66746	0.542133	2.16966									0.939901	3.78286				
0.662296	2.66413	0.544212	2.16989									0.941319	3.77442				
0.663957	2.66084	0.546291	2.17012									0.942736	3.76603				
0.66562	2.65758	0.548371	2.17034									0.944152	3.7577				
0.667285	2.65436	0.55045	2.17057									0.945569	3.74943				
0.668952	2.65116	0.552529	2.17079									0.946984	3.74123				
0.670621	2.648	0.554608	2.17101									0.9484	3.73308				
0.672293	2.64487	0.556687	2.17123									0.949815	3.72499				
0.673966	2.64177	0.558766	2.17145									0.95123	3.71696				
0.675642	2.6387	0.560845	2.17167									0.952645	3.70898				
0.67732	2.63567	0.562924	2.17188									0.954059	3.70106				
0.678999	2.63266	0.565003	2.1721									0.955474	3.6932				
0.680681	2.62968	0.567082	2.17231									0.956888	3.6854				
0.682365	2.62673	0.569161	2.17252									0.958302	3.67765				
0.68405	2.62381	0.571241	2.17273									0.959717	3.66995				
0.685738	2.62091	0.573319	2.17294									0.961131	3.66231				
0.687428	2.61805	0.575398	2.17314									0.962546	3.65473				
0.689119	2.61521	0.577477	2.17335									0.96396	3.6472				
0.690813	2.6124	0.579556	2.17355									0.965375	3.63972				
0.692509	2.60962	0.581635	2.17375									0.96679	3.63229				
0.694206	2.60686	0.583714	2.17395									0.968205	3.62492				
0.695905	2.60413	0.585793	2.17415									0.96962	3.6176				
0.697607	2.60143	0.587872	2.17435									0.971035	3.61033				
0.69931	2.59875	0.589951	2.17454									0.972451	3.60311				
0.701015	2.5961	0.59203	2.17474									0.973867	3.59595				
0.702722	2.59347	0.594109	2.17493									0.975284	3.58883				
0.704431	2.59087	0.596188	2.17512									0.976701	3.58177				
0.706141	2.58829	0.598267	2.17531									0.978118	3.57475				
0.707854	2.58574	0.600346	2.1755									0.979536	3.56778				
0.709568	2.58321	0.602425	2.17569									0.980954	3.56086				
0.711284	2.58071	0.604504	2.17587									0.982372	3.55399				
0.713002	2.57822	0.606582	2.17606									0.983791	3.54717				
0.714722	2.57576	0.608661	2.17624									0.985211	3.5404				
0.716444	2.57333	0.61074	2.17643									0.986631	3.53367				
0.718167	2.57091	0.612819	2.17661									0.988052	3.52699				
0.719892	2.56852	0.614898	2.17679									0.989473	3.52035				
0.721619	2.56615	0.616977	2.17697									0.990895	3.51376				
0.723347	2.56381	0.619055	2.17714									0.992318	3.50722				
0.725077	2.56148	0.621134	2.17732									0.993741	3.50072				
0.726809	2.55917	0.623213	2.1775									0.995165	3.49427				
0.728543	2.55689	0.625292	2.17767									0.996589	3.48786				
0.730278	2.55463	0.627371	2.17784									0.998015	3.4815				
0.732015	2.55239	0.629449	2.17802									0.999441	3.47518				
0.733754	2.55016	0.631528	2.17819									1.00087	3.4689				
0.735494	2.54796	0.633607	2.17836														
0.737236	2.54578	0.635686	2.17852														
0.73898	2.54362	0.637764	2.17869														
0.740725	2.54147	0.639843	2.17886														
0.742472	2.53935	0.641922	2.17902														
0.744221	2.53725	0.644001	2.17919														
0.745971	2.53516	0.646079	2.17935														
0.747723	2.53309	0.648158	2.17951														
0.749476	2.53104	0.650237	2.17967														
0.751231	2.52901	0.652315	2.17983														
0.752987	2.527	0.654394	2.17999														
0.754745	2.525	0.656473	2.18015														
0.756504	2.52302	0.658551	2.18031														
0.758265	2.52106	0.66063	2.18046														
0.760028	2.51912	0.662709	2.18062														
0.761792	2.51719	0.664787	2.18077														
0.763558	2.51528	0.666866	2.18093														
0.765325	2.51339	0.668945	2.18108														
0.767093	2.51151	0.671023	2.18123														
0.768863	2.50965	0.673102	2.18138														
0.770635	2.50781	0.675181	2.18153														
0.772407	2.50598	0.677259	2.18168														
0.774182	2.50417	0.679338	2.18183														
0.775958	2.50237	0.681416	2.18197														
0.777735	2.50059	0.683495	2.18212														
0.779513	2.49882	0.685573	2.18226														
0.781293	2.49707	0.687652	2.18241														
0.783075	2.49533	0.689731	2.18255														
0.784858	2.49361	0.691809	2.18269														
0.786642	2.4919	0.693888	2.18283														
0.788428	2.49021	0.695966	2.18297														
0.790214	2.48853	0.698045	2.18311														
0.792003	2.48687	0.700123	2.18325														
0.793792	2.48522	0.702202	2.18339														
0.795584	2.48358	0.70428	2.18353														
0.797376	2.48195	0.706359	2.18366														
0.799169	2.48034	0.708437	2.1838														
0.800964	2.47875	0.710516	2.18393														
0.802761	2.47716	0.712594	2.18407														
0.804558	2.47559	0.714673	2.1842														
0.806357	2.47404	0.716751	2.18433														
0.808157	2.47249	0.71883	2.18447														
0.809959	2.47096	0.720908	2.1846														
0.811761	2.46944	0.722987	2.18473														
0.813565	2.46793	0.725065	2.18486														
0.815371	2.46644	0.727143	2.18499														
0.817177	2.46496	0.729222	2.18511														
0.818985	2.46349	0.7313	2.18524														
0.820794	2.46203	0.733379	2.18537														
0.822604	2.46058	0.735457	2.18549														
0.824415	2.45914	0.737536	2.18562														
0.826228	2.45772	0.739614	2.18574														
0.828042	2.45631	0.741692	2.18587														
0.829857	2.45491	0.743771	2.18599														
0.831673	2.45352	0.745849	2.18611														
0.83349	2.45214	0.747928	2.18623														
0.835308	2.45077	0.750006	2.18635														
0.837128	2.44941	0.752084	2.18647														
0.838949	2.44807	0.754163	2.18659														
0.840771	2.44673	0.756241	2.18671														
0.842594	2.44541	0.758319	2.18683														
0.844418	2.44409	0.760398	2.18695														
0.846244	2.44279	0.762476	2.18706														
0.84807	2.4415	0.764554	2.18718														
0.849898	2.44021	0.766633	2.1873														
0.851726	2.43894	0.768711	2.18741														
0.853556	2.43767	0.770789	2.18753														
0.855387	2.43642	0.772868	2.18764														
0.857219	2.43518	0.774946	2.18775														
0.859052	2.43394	0.777024	2.18787														
0.860886	2.43272	0.779103	2.18798														
0.862721	2.4315	0.781181	2.18809														
0.864558	2.43029	0.783259	2.1882														
0.866395	2.4291	0.785337	2.18831														
0.868233	2.42791	0.787416	2.18842														
0.870073	2.42673	0.789494	2.18853														
0.871913	2.42556	0.791572	2.18864														
0.873755	2.4244	0.79365	2.18874														
0.875597	2.42325	0.795729	2.18885														
0.877441	2.4221	0.797807	2.18896														
0.879285	2.42097	0.799885	2.18906														
0.881131	2.41984	0.801963	2.18917														
0.882977	2.41873	0.804042	2.18928														
0.884825	2.41762	0.80612	2.18938														
0.886673	2.41651	0.808198	2.18948														
0.888523	2.41542	0.810276	2.18959														
0.890373	2.41434	0.812355	2.18969														
0.892225	2.41326	0.814433	2.18979														
0.894077	2.41219	0.816511	2.18989														
0.89593	2.41113	0.818589	2.19														
0.897785	2.41008	0.820667	2.1901														
0.89964	2.40903	0.822745	2.1902														
0.901496	2.408	0.824824	2.1903														
0.903353	2.40697	0.826902	2.1904														
0.905211	2.40595	0.82898	2.1905														
0.90707	2.40493	0.831058	2.19059														
0.90893	2.40392	0.833136	2.19069														
0.910791	2.40293	0.835214	2.19079														
0.912653	2.40193	0.837293	2.19089														
0.914516	2.40095	0.839371	2.19098														
0.916379	2.39997	0.841449	2.19108														
0.918244	2.399	0.843527	2.19117														
0.920109	2.39804	0.845605	2.19127														
0.921975	2.39708	0.847683	2.19136														
0.923842	2.39613	0.849761	2.19146														
0.92571	2.39519	0.851839	2.19155														
0.927579	2.39425	0.853918	2.19164														
0.929449	2.39332	0.855996	2.19174														
0.931319	2.3924	0.858074	2.19183														
0.933191	2.39148	0.860152	2.19192														
0.935063	2.39057	0.86223	2.19201														
0.936936	2.38967	0.864308	2.1921														
0.93881	2.38877	0.866386	2.19219														
0.940685	2.38788	0.868464	2.19228														
0.94256	2.38699	0.870542	2.19237														
0.944437	2.38612	0.87262	2.19246														
0.946314	2.38525	0.874698	2.19255														
0.948192	2.38438	0.876776	2.19264														
0.950071	2.38352	0.878854	2.19272														
0.95195	2.38267	0.880932	2.19281														
0.953831	2.38182	0.88301	2.1929														
0.955712	2.38098	0.885088	2.19298														
0.957594	2.38014	0.887166	2.19307														
0.959477	2.37931	0.889244	2.19316														
0.961361	2.37849	0.891323	2.19324														
0.963245	2.37767	0.893401	2.19333														
0.96513	2.37685	0.895479	2.19341														
0.967016	2.37605	0.897557	2.1935														
0.968903	2.37525	0.899635	2.19358														
0.97079	2.37445	0.901713	2.19366														
0.972679	2.37366	0.903791	2.19375														
0.974568	2.37287	0.905869	2.19383														
0.976457	2.37209	0.907946	2.19391														
0.978348	2.37132	0.910024	2.19399														
0.980239	2.37055	0.912102	2.19407														
0.982131	2.36979	0.91418	2.19415														
0.984024	2.36903	0.916258	2.19423														
0.985917	2.36827	0.918336	2.19432														
0.987811	2.36752	0.920414	2.1944														
0.989706	2.36678	0.922492	2.19447														
0.991602	2.36604	0.92457	2.19455														
0.993498	2.36531	0.926648	2.19463														
0.995395	2.36458	0.928726	2.19471														
0.997292	2.36386	0.930804	2.19479														
0.999191	2.36314	0.932882	2.19487														
1.00109	2.36242	0.93496	2.19494														
		0.937038	2.19502														
		0.939116	2.1951														
		0.941193	2.19517														
		0.943271	2.19525														
		0.945349	2.19533														
		0.947427	2.1954														
		0.949505	2.19548														
		0.951583	2.19555														
		0.953661	2.19563														
		0.955739	2.1957														
		0.957817	2.19577														
		0.959894	2.19585														
		0.961972	2.19592														
		0.96405	2.19599														
		0.966128	2.19606														
		0.968206	2.19614														
		0.970284	2.19621														
		0.972362	2.19628														
		0.974439	2.19635														
		0.976517	2.19642														
		0.978595	2.19649														
		0.980673	2.19656														
		0.982751	2.19663														
		0.984828	2.1967														
		0.986906	2.19677														
		0.988984	2.19684														
		0.991062	2.19691														
		0.99314	2.19698														
		0.995217	2.19705														
		0.997295	2.19711														
		0.999373	2.19718														
		1.00145	2.19725														
