Sym0		Asym0		Sym1		Sym2		Sym3		Asym1		Asym2		Asym3	
453  Points		492  Points		150  Points		120  Points		103  Points		288  Points		131  Points		105  Points	
Freq (MHz)	Vph (m/ms)	Freq (MHz)	Vph (m/ms)	Freq (MHz)	Vph (m/ms)	Freq (MHz)	Vph (m/ms)	Freq (MHz)	Vph (m/ms)	Freq (MHz)	Vph (m/ms)	Freq (MHz)	Vph (m/ms)	Freq (MHz)	Vph (m/ms)
0.000907775	8.57344	4.33538e-005	0.0734265	0.279573	362.658	0.539921	741.943	0.559019	3628.39	0.139957	161.828	0.419298	617.385	0.698784	1333.59
0.00889507	8.57293	0.000286943	0.188513	0.279825	164.352	0.539968	325.398	0.559109	514.946	0.140627	78.2764	0.419462	260.399	0.698867	480.097
0.0168803	8.57184	0.000740499	0.301773	0.280266	106.391	0.540053	208.426	0.559333	277.247	0.141757	51.9592	0.41976	165.094	0.69903	292.803
0.0248616	8.57009	0.00139535	0.412153	0.280895	78.7706	0.540178	153.338	0.559691	189.78	0.143334	39.163	0.42019	120.945	0.69927	210.683
0.0328369	8.56765	0.00223962	0.518765	0.28171	62.6345	0.540345	121.303	0.56018	144.345	0.145341	31.6534	0.420753	95.4969	0.69959	164.58
0.0408046	8.56456	0.00325909	0.620908	0.282709	52.0703	0.540558	100.36	0.560798	116.528	0.147755	26.7512	0.421447	78.9578	0.699988	135.069
0.0487625	8.56076	0.0044379	0.718036	0.28389	44.6293	0.54082	85.6015	0.561542	97.7574	0.150556	23.3238	0.422273	67.3555	0.700463	114.564
0.0567088	8.55627	0.00575959	0.809807	0.28525	39.1141	0.541134	74.6436	0.562408	84.2441	0.153716	20.8098	0.423229	58.7735	0.701017	99.4937
0.0646413	8.55107	0.00720765	0.896029	0.286786	34.8699	0.541505	66.1884	0.563394	74.0564	0.157212	18.8993	0.424314	52.1738	0.701649	87.953
0.072558	8.54515	0.00876623	0.976663	0.288494	31.5082	0.541936	59.4687	0.564495	66.1054	0.161019	17.4072	0.425527	46.9449	0.702358	78.8348
0.0804567	8.53848	0.0104203	1.05177	0.29037	28.7841	0.542431	54.0019	0.56571	59.7306	0.165111	16.2163	0.426867	42.7034	0.703145	71.451
0.0883352	8.53107	0.0121563	1.12152	0.29241	26.5356	0.542993	49.4694	0.567034	54.5083	0.169467	15.2487	0.428332	39.1966	0.704008	65.3516
0.0961911	8.52288	0.0139618	1.18614	0.294611	24.651	0.543627	45.652	0.568465	50.1539	0.174063	14.4508	0.429921	36.2512	0.704949	60.2297
0.104022	8.51389	0.0158259	1.24589	0.296966	23.0511	0.544334	42.3945	0.570001	46.4696	0.178879	13.7844	0.431632	33.7445	0.705965	55.8692
0.111825	8.50409	0.0177391	1.30108	0.299473	21.6779	0.545119	39.5833	0.571639	43.3132	0.183896	13.2218	0.433463	31.5869	0.707057	52.1132
0.119599	8.49343	0.0196931	1.35201	0.302125	20.4882	0.545984	37.1339	0.573376	40.5801	0.189097	12.7421	0.435413	29.7117	0.708225	48.8451
0.127339	8.48191	0.0216809	1.39899	0.304919	19.4488	0.546933	34.9817	0.575211	38.1916	0.194464	12.3297	0.43748	28.0683	0.709467	45.9764
0.135043	8.46948	0.0236963	1.44232	0.307849	18.5343	0.547968	33.0768	0.577142	36.0875	0.199984	11.9725	0.439661	26.6171	0.710784	43.439
0.142709	8.45611	0.0254712	1.47735	0.310912	17.7245	0.549092	31.3799	0.579168	34.2205	0.204907	11.6986	0.441955	25.3274	0.712175	41.1793
0.150332	8.44177	0.0269957	1.50534	0.314102	17.0032	0.550308	29.8595	0.581286	32.5536	0.209181	11.4886	0.444359	24.1745	0.71364	39.1546
0.157909	8.42641	0.028263	1.52727	0.317415	16.3576	0.551617	28.4903	0.583495	31.0568	0.212765	11.3293	0.446872	23.1384	0.715177	37.3307
0.165437	8.41	0.0292689	1.54387	0.320847	15.7769	0.553024	27.2515	0.585794	29.7061	0.215629	11.2116	0.449492	22.2029	0.716787	35.6795
0.172912	8.39248	0.0300104	1.55568	0.324394	15.2525	0.554529	26.1262	0.588182	28.4815	0.21775	11.1294	0.452215	21.3546	0.718468	34.1782
0.180329	8.37381	0.0304857	1.56306	0.328052	14.7772	0.556136	25.1001	0.590658	27.3667	0.219115	11.0786	0.45504	20.5825	0.720221	32.8075
0.187685	8.35395	0.0311701	1.57345	0.331817	14.3448	0.557847	24.1614	0.59322	26.3481	0.221087	11.0079	0.457965	19.8771	0.722044	31.5514
0.194974	8.33284	0.0319151	1.58445	0.335687	13.9502	0.559664	23.2999	0.595868	25.414	0.223241	10.934	0.460987	19.2306	0.723937	30.3966
0.202192	8.31041	0.0329302	1.59892	0.339659	13.5891	0.56159	22.507	0.598601	24.5548	0.226191	10.8383	0.464103	18.6363	0.7259	29.3316
0.209334	8.28662	0.0342168	1.61647	0.343731	13.2578	0.563626	21.7755	0.601417	23.7622	0.229952	10.7244	0.467313	18.0884	0.72793	28.3465
0.216394	8.26141	0.0357763	1.63663	0.3479	12.9531	0.565775	21.0991	0.604317	23.029	0.234542	10.5964	0.470613	17.5821	0.730029	27.4329
0.223367	8.23472	0.0376097	1.65889	0.352165	12.6723	0.568038	20.4721	0.6073	22.3492	0.239982	10.4586	0.474	17.113	0.732195	26.5836
0.230247	8.20648	0.0397179	1.68273	0.356524	12.413	0.570417	19.89	0.610364	21.7173	0.246293	10.3148	0.477474	16.6774	0.734427	25.7921
0.237028	8.17665	0.0418294	1.70489	0.360978	12.1732	0.572914	19.3485	0.613509	21.1288	0.252668	10.1844	0.481031	16.2721	0.736725	25.0531
0.243704	8.14516	0.0439434	1.72553	0.364935	11.9787	0.57553	18.8439	0.616735	20.5796	0.259103	10.0657	0.484669	15.8942	0.739087	24.3616
0.250269	8.11196	0.0460591	1.74477	0.368365	11.8227	0.578267	18.3731	0.620041	20.066	0.265591	9.95735	0.488387	15.5413	0.741514	23.7133
0.256716	8.07701	0.0481758	1.76274	0.37124	11.7	0.581126	17.933	0.623427	19.5851	0.272125	9.85801	0.492181	15.2111	0.744004	23.1046
0.263039	8.04026	0.050293	1.77954	0.373538	11.6069	0.584106	17.5212	0.626892	19.1339	0.278702	9.76663	0.496051	14.9016	0.746557	22.5319
0.269232	8.00169	0.0524103	1.79527	0.375242	11.5405	0.58721	17.1354	0.630436	18.71	0.285317	9.6823	0.499993	14.611	0.749172	21.9924
0.275289	7.96127	0.0545273	1.81003	0.376339	11.499	0.590436	16.7736	0.634059	18.3112	0.291965	9.60423	0.504005	14.3379	0.751848	21.4834
0.281206	7.91899	0.056644	1.82388	0.377924	11.4404	0.593786	16.4337	0.637761	17.9356	0.298641	9.53172	0.508087	14.0808	0.754584	21.0024
0.286976	7.87487	0.0587599	1.8369	0.379659	11.3783	0.597258	16.1143	0.641541	17.5812	0.305342	9.46417	0.512235	13.8385	0.757379	20.5474
0.292595	7.82891	0.0608752	1.84917	0.382037	11.2964	0.600852	15.8138	0.6454	17.2466	0.312064	9.40104	0.516448	13.6097	0.760233	20.1164
0.29806	7.78116	0.0629895	1.86074	0.385078	11.1968	0.604566	15.5307	0.649338	16.9303	0.318804	9.34188	0.520725	13.3936	0.763145	19.7076
0.303368	7.73167	0.0651029	1.87165	0.388802	11.0821	0.6084	15.2638	0.653355	16.631	0.325559	9.28627	0.525062	13.1891	0.766114	19.3194
0.308516	7.6805	0.0672153	1.88197	0.393238	10.955	0.61235	15.0121	0.657451	16.3476	0.332324	9.23385	0.52946	12.9954	0.769139	18.9504
0.313504	7.62774	0.0693267	1.89174	0.398418	10.8185	0.616417	14.7743	0.661627	16.0789	0.339098	9.1843	0.533915	12.8118	0.77222	18.5994
0.31833	7.57348	0.071437	1.901	0.403694	10.6913	0.620595	14.5495	0.665883	15.8241	0.345876	9.13732	0.538427	12.6375	0.775355	18.265
0.322995	7.51783	0.0735463	1.90978	0.409065	10.5726	0.624883	14.3369	0.67022	15.5822	0.352657	9.09266	0.542994	12.472	0.778544	17.9463
0.327501	7.46092	0.0756545	1.91812	0.41453	10.462	0.629277	14.1355	0.67464	15.3523	0.359438	9.05009	0.547018	12.3344	0.781786	17.6421
0.33185	7.40286	0.0777618	1.92604	0.42009	10.3587	0.633773	13.9447	0.679141	15.1339	0.366216	9.00939	0.550479	12.2217	0.78508	17.3516
0.336044	7.34379	0.079868	1.93359	0.425741	10.2623	0.638368	13.7636	0.683727	14.9262	0.372988	8.97039	0.553363	12.1316	0.788426	17.074
0.340088	7.28386	0.0819734	1.94079	0.431482	10.1722	0.643056	13.5917	0.688397	14.7286	0.379753	8.93291	0.555657	12.0622	0.791822	16.8084
0.343985	7.22318	0.0840778	1.94765	0.43731	10.088	0.647834	13.4282	0.693154	14.5405	0.386507	8.8968	0.557351	12.0122	0.795269	16.5542
0.34774	7.16191	0.0861812	1.9542	0.443222	10.0093	0.652696	13.2727	0.697998	14.3615	0.393248	8.86192	0.558438	11.9806	0.798764	16.3106
0.351357	7.10017	0.0882839	1.96046	0.449214	9.93556	0.657638	13.1245	0.702932	14.1909	0.399974	8.82814	0.560006	11.9359	0.802307	16.0771
0.354842	7.03809	0.0903857	1.96645	0.455282	9.86646	0.662654	12.9832	0.707955	14.0285	0.406683	8.79534	0.561717	11.888	0.805899	15.8531
0.3582	6.97579	0.0924866	1.97218	0.461423	9.80162	0.667738	12.8483	0.713071	13.8737	0.413372	8.76343	0.564052	11.8242	0.809537	15.638
0.361437	6.91338	0.0945869	1.97767	0.46763	9.74071	0.672886	12.7193	0.718281	13.7263	0.420039	8.73229	0.567023	11.7456	0.813221	15.4315
0.364558	6.85098	0.0966864	1.98294	0.473901	9.6834	0.677419	12.6115	0.723586	13.5858	0.426681	8.70184	0.570639	11.6534	0.81695	15.2329
0.367568	6.78868	0.0987852	1.988	0.480229	9.62939	0.681315	12.5226	0.728988	13.4519	0.433298	8.67199	0.574914	11.5492	0.820724	15.042
0.370473	6.72658	0.100883	1.99286	0.486611	9.57841	0.684557	12.4512	0.734488	13.3243	0.439885	8.64268	0.579862	11.4346	0.824542	14.8582
0.373277	6.66476	0.102981	1.99753	0.493041	9.5302	0.687133	12.3961	0.740088	13.2027	0.446442	8.61383	0.584856	11.325	0.828403	14.6813
0.375987	6.6033	0.105078	2.00202	0.499515	9.48453	0.689034	12.3562	0.745788	13.0869	0.452966	8.58537	0.589894	11.2201	0.832306	14.5109
0.378607	6.54225	0.107174	2.00635	0.506028	9.44118	0.690253	12.331	0.75159	12.9765	0.459455	8.55725	0.594975	11.1197	0.836251	14.3466
0.381141	6.4817	0.10927	2.01051	0.512576	9.39995	0.692009	12.2951	0.757494	12.8714	0.465907	8.5294	0.600099	11.0235	0.840238	14.1882
0.383595	6.42168	0.111365	2.01453	0.519155	9.36066	0.693923	12.2566	0.762722	12.7839	0.472319	8.50177	0.605265	10.9313	0.844265	14.0354
0.385972	6.36224	0.11346	2.0184	0.52576	9.32314	0.696533	12.2052	0.76724	12.7121	0.47869	8.47433	0.610473	10.843	0.848331	13.8879
0.388278	6.30344	0.115554	2.02214	0.532389	9.28723	0.699846	12.1415	0.771018	12.6547	0.485017	8.44701	0.615721	10.7581	0.852437	13.7455
0.390515	6.2453	0.117648	2.02576	0.539036	9.25281	0.703868	12.0664	0.774033	12.6106	0.491298	8.41978	0.621011	10.6768	0.856581	13.6079
0.392689	6.18786	0.119741	2.02925	0.5457	9.21974	0.708606	11.9808	0.776265	12.5787	0.497532	8.39261	0.62634	10.5986	0.860764	13.4749
0.394801	6.13114	0.121834	2.03262	0.552376	9.1879	0.714066	11.8859	0.777701	12.5587	0.503715	8.36545	0.631709	10.5235	0.864983	13.3463
0.396857	6.07516	0.123927	2.03589	0.559061	9.1572	0.719548	11.7943	0.779773	12.5302	0.509848	8.33827	0.637117	10.4514	0.869239	13.2219
0.398859	6.01995	0.126019	2.03905	0.565754	9.12752	0.725048	11.7056	0.782038	12.4997	0.515927	8.31105	0.642564	10.3821	0.872978	13.1167
0.40081	5.96551	0.128111	2.04211	0.57245	9.09879	0.730564	11.6199	0.785139	12.4592	0.52195	8.28375	0.648049	10.3154	0.876186	13.0294
0.402714	5.91187	0.130202	2.04508	0.579148	9.07093	0.736092	11.5369	0.789094	12.4093	0.527917	8.25636	0.653573	10.2513	0.878854	12.9588
0.404573	5.85901	0.132293	2.04795	0.585845	9.04385	0.741631	11.4564	0.793927	12.3508	0.533824	8.22885	0.659133	10.1896	0.880972	12.904
0.406389	5.80696	0.134384	2.05074	0.59254	9.01749	0.747179	11.3783	0.799665	12.2849	0.539672	8.2012	0.664731	10.1303	0.882535	12.8641
0.408165	5.75572	0.136475	2.05345	0.599229	8.9918	0.752735	11.3026	0.806339	12.2126	0.545457	8.17339	0.670366	10.0731	0.883538	12.8389
0.409904	5.70529	0.138565	2.05608	0.605911	8.9667	0.758297	11.229	0.813106	12.1438	0.551179	8.14542	0.676037	10.0181	0.884983	12.8029
0.411608	5.65566	0.140655	2.05863	0.612584	8.94216	0.763866	11.1575	0.819965	12.0781	0.556836	8.11726	0.681743	9.96505	0.886557	12.7643
0.413279	5.60684	0.142745	2.06111	0.619246	8.91812	0.769441	11.0881	0.826912	12.0156	0.562428	8.0889	0.687485	9.91396	0.888705	12.7124
0.414918	5.55881	0.144834	2.06352	0.625896	8.89455	0.775021	11.0205	0.833945	11.9559	0.567952	8.06035	0.693261	9.86472	0.891432	12.6478
0.416528	5.51159	0.146923	2.06586	0.632532	8.87138	0.780607	10.9548	0.84106	11.899	0.573408	8.03158	0.69907	9.81724	0.894748	12.5714
0.417909	5.47108	0.149012	2.06814	0.639152	8.84861	0.786199	10.8909	0.848256	11.8447	0.578795	8.00261	0.704913	9.77144	0.89866	12.484
0.41907	5.43702	0.151101	2.07036	0.645755	8.82617	0.791797	10.8287	0.855529	11.7928	0.584113	7.97342	0.710788	9.72725	0.903181	12.3865
0.42002	5.40918	0.15319	2.07252	0.652339	8.80405	0.797401	10.7681	0.862876	11.7433	0.58936	7.94401	0.716695	9.68461	0.907733	12.2918
0.420765	5.38737	0.155278	2.07462	0.658903	8.78222	0.803012	10.7091	0.870294	11.6959	0.594537	7.91439	0.722632	9.64342	0.912316	12.2
0.421309	5.37146	0.157366	2.07667	0.665446	8.76063	0.808631	10.6517	0.87778	11.6506	0.599642	7.88456	0.728599	9.60365	0.916931	12.1108
0.421656	5.36132	0.159454	2.07866	0.671967	8.73929	0.814257	10.5958	0.885332	11.6073	0.604675	7.85452	0.734595	9.5652	0.921577	12.0242
0.422152	5.34682	0.161542	2.08061	0.678464	8.71814	0.819892	10.5413	0.892945	11.5659	0.609636	7.82427	0.740617	9.52804	0.926252	11.9401
0.422689	5.33115	0.163629	2.08251	0.684936	8.69718	0.825536	10.4883	0.900618	11.5261	0.614526	7.79383	0.746667	9.49208	0.930957	11.8583
0.423415	5.31	0.165717	2.08436	0.691382	8.67638	0.83119	10.4365	0.908348	11.4881	0.619344	7.7632	0.752741	9.45729	0.935691	11.7788
0.424326	5.2835	0.167804	2.08616	0.6978	8.65573	0.836854	10.3862	0.916131	11.4516	0.62409	7.73239	0.758839	9.4236	0.940454	11.7015
0.425417	5.25183	0.169891	2.08793	0.70419	8.6352	0.842529	10.3371	0.923966	11.4166	0.628764	7.7014	0.76496	9.39096	0.945246	11.6264
0.426684	5.2152	0.171978	2.08965	0.710551	8.61477	0.848214	10.2892	0.931849	11.3829	0.633367	7.67025	0.771103	9.35932	0.950065	11.5532
0.428122	5.17385	0.174065	2.09133	0.716881	8.59444	0.853912	10.2426	0.939778	11.3506	0.6379	7.63895	0.777265	9.32862	0.954912	11.4821
0.429542	5.13322	0.176151	2.09297	0.72318	8.57418	0.859621	10.1971	0.947751	11.3195	0.642362	7.60751	0.783446	9.29883	0.959787	11.4128
0.430947	5.0933	0.178238	2.09457	0.729447	8.55399	0.865343	10.1527	0.955766	11.2896	0.646754	7.57593	0.789645	9.26988	0.964687	11.3454
0.432338	5.05408	0.180324	2.09614	0.73568	8.53384	0.871078	10.1095	0.963819	11.2608	0.651077	7.54424	0.795859	9.24175	0.969615	11.2798
0.433714	5.01555	0.182411	2.09767	0.741878	8.51373	0.876826	10.0674	0.971908	11.2331	0.655332	7.51243	0.802088	9.21439	0.974568	11.2158
0.435078	4.97769	0.184497	2.09917	0.748042	8.49365	0.882588	10.0263	0.980032	11.2063	0.659519	7.48053	0.80833	9.18776	0.979547	11.1535
0.43643	4.9405	0.186583	2.10064	0.754169	8.47358	0.888363	9.98619	0.988188	11.1804	0.663638	7.44855	0.814583	9.16181	0.984551	11.0928
0.437771	4.90395	0.188669	2.10207	0.76026	8.45352	0.894153	9.94709	0.996373	11.1554	0.667692	7.41649	0.820847	9.13652	0.98958	11.0337
0.439102	4.86805	0.190754	2.10347	0.766312	8.43345	0.899956	9.90895	1.00458	11.1313	0.671681	7.38437	0.827119	9.11184	0.994634	10.976
0.440423	4.83278	0.19284	2.10485	0.772326	8.41337	0.905774	9.87174			0.675605	7.3522	0.833399	9.08775	0.999712	10.9198
0.441735	4.79813	0.194926	2.10619	0.778301	8.39327	0.911607	9.83543			0.679465	7.32	0.839684	9.0642	1.00481	10.8649
0.44304	4.76408	0.197011	2.10751	0.784236	8.37314	0.917454	9.8			0.683263	7.28776	0.845975	9.04117		
0.444336	4.73062	0.199096	2.1088	0.79013	8.35298	0.923315	9.76543			0.687	7.25551	0.852268	9.01863		
0.445625	4.69775	0.201182	2.11007	0.795983	8.33278	0.929191	9.73168			0.690675	7.22326	0.858563	8.99655		
0.446908	4.66545	0.203267	2.1113	0.801794	8.31253	0.935082	9.69873			0.694292	7.19101	0.864859	8.9749		
0.448185	4.63372	0.205352	2.11252	0.807562	8.29224	0.940987	9.66656			0.697849	7.15878	0.871154	8.95365		
0.449457	4.60253	0.207437	2.11371	0.813287	8.27189	0.946906	9.63515			0.70135	7.12657	0.877447	8.93279		
0.450724	4.57188	0.209522	2.11487	0.818969	8.25148	0.952839	9.60447			0.704794	7.0944	0.883736	8.91228		
0.451986	4.54177	0.211607	2.11602	0.824606	8.23102	0.958786	9.5745			0.708182	7.06228	0.890021	8.89212		
0.453244	4.51217	0.213691	2.11714	0.830199	8.21049	0.964747	9.54521			0.711516	7.0302	0.8963	8.87226		
0.454499	4.48307	0.215776	2.11824	0.835748	8.1899	0.970721	9.5166			0.714796	6.9982	0.902572	8.8527		
0.45575	4.45448	0.217861	2.11932	0.841251	8.16924	0.976708	9.48862			0.718025	6.96626	0.908835	8.83341		
0.456999	4.42637	0.219945	2.12038	0.846708	8.14851	0.982708	9.46128			0.721202	6.9344	0.91509	8.81438		
0.458245	4.39875	0.22203	2.12142	0.85212	8.12772	0.98872	9.43453			0.724329	6.90263	0.921333	8.79559		
0.459488	4.37159	0.224114	2.12244	0.857486	8.10686	0.994744	9.40837			0.727406	6.87095	0.927566	8.77702		
0.46073	4.34489	0.226198	2.12345	0.862805	8.08592	1.00078	9.38277			0.730436	6.83938	0.933785	8.75865		
0.46197	4.31864	0.228283	2.12443	0.868079	8.06492					0.733418	6.80791	0.939991	8.74048		
0.463209	4.29283	0.230367	2.1254	0.873305	8.04386					0.736354	6.77656	0.946183	8.72249		
0.464447	4.26745	0.232451	2.12635	0.878486	8.02272					0.739245	6.74533	0.952358	8.70465		
0.465684	4.2425	0.234535	2.12728	0.883619	8.00152					0.742092	6.71422	0.958517	8.68697		
0.46692	4.21796	0.236619	2.1282	0.888706	7.98025					0.744895	6.68325	0.964659	8.66943		
0.468156	4.19383	0.238703	2.1291	0.893746	7.95893					0.747657	6.65242	0.970782	8.65201		
0.469392	4.1701	0.240787	2.12999	0.89874	7.93754					0.750377	6.62173	0.976885	8.63471		
0.470628	4.14675	0.242871	2.13086	0.903686	7.91609					0.753057	6.59118	0.982969	8.61751		
0.471864	4.12379	0.244954	2.13172	0.908587	7.89459					0.755697	6.56079	0.989031	8.60041		
0.473101	4.10121	0.247038	2.13256	0.913441	7.87303					0.758299	6.53056	0.995072	8.5834		
0.474338	4.07899	0.249122	2.13339	0.918249	7.85142					0.760863	6.50048	1.00109	8.56646		
0.475577	4.05713	0.251206	2.1342	0.92301	7.82976					0.763391	6.47057				
0.476816	4.03562	0.253289	2.13501	0.927726	7.80805					0.765883	6.44083				
0.478056	4.01446	0.255373	2.1358	0.932396	7.7863					0.76834	6.41126				
0.479297	3.99364	0.257456	2.13657	0.937021	7.76451					0.770763	6.38186				
0.48054	3.97316	0.25954	2.13734	0.9416	7.74268					0.773153	6.35265				
0.481784	3.95299	0.261623	2.13809	0.946135	7.72081					0.77551	6.32361				
0.48303	3.93315	0.263706	2.13883	0.950624	7.69891					0.777836	6.29475				
0.484278	3.91362	0.26579	2.13956	0.955069	7.67698					0.780131	6.26607				
0.485528	3.8944	0.267873	2.14028	0.95947	7.65503					0.782396	6.23759				
0.48678	3.87547	0.269956	2.14098	0.963827	7.63305					0.784632	6.20929				
0.488033	3.85684	0.272039	2.14168	0.96814	7.61105					0.786839	6.18118				
0.489289	3.83851	0.274123	2.14237	0.97241	7.58903					0.789018	6.15326				
0.490547	3.82045	0.276206	2.14304	0.976637	7.567					0.79117	6.12554				
0.491807	3.80267	0.278289	2.14371	0.980822	7.54496					0.793296	6.09801				
0.49307	3.78517	0.280372	2.14436	0.984964	7.52291					0.795396	6.07068				
0.494335	3.76793	0.282455	2.14501	0.989064	7.50085					0.797471	6.04354				
0.495603	3.75096	0.284538	2.14565	0.993123	7.47878					0.799522	6.0166				
0.496874	3.73424	0.286621	2.14628	0.997141	7.45672					0.801549	5.98985				
0.498147	3.71778	0.288704	2.14689	1.00112	7.43466					0.803553	5.96331				
0.499423	3.70156	0.290787	2.1475							0.805534	5.93697				
0.500701	3.68559	0.292869	2.14811							0.807494	5.91082				
0.501983	3.66985	0.294952	2.1487							0.809432	5.88487				
0.503267	3.65435	0.297035	2.14929							0.811349	5.85913				
0.504554	3.63908	0.299118	2.14986							0.813247	5.83358				
0.505845	3.62403	0.301201	2.15043							0.815125	5.80823				
0.507138	3.60921	0.303283	2.15099							0.816983	5.78308				
0.508434	3.5946	0.305366	2.15155							0.818824	5.75813				
0.509734	3.5802	0.307449	2.15209							0.820646	5.73338				
0.511036	3.56601	0.309531	2.15263							0.822451	5.70883				
0.512342	3.55203	0.311614	2.15316							0.824238	5.68448				
0.513651	3.53825	0.313696	2.15369							0.826009	5.66032				
0.514963	3.52467	0.315779	2.15421							0.827764	5.63636				
0.516279	3.51128	0.317861	2.15472							0.829504	5.6126				
0.517597	3.49808	0.319944	2.15522							0.831228	5.58903				
0.518919	3.48507	0.322026	2.15572							0.832937	5.56566				
0.520244	3.47225	0.324109	2.15622							0.834632	5.54248				
0.521573	3.4596	0.326191	2.1567							0.836313	5.51949				
0.522905	3.44713	0.328274	2.15718							0.83798	5.4967				
0.52424	3.43484	0.330356	2.15765							0.839635	5.47409				
0.525579	3.42271	0.332439	2.15812							0.841276	5.45168				
0.526921	3.41076	0.334521	2.15858							0.842905	5.42946				
0.528266	3.39897	0.336603	2.15904							0.844523	5.40742				
0.529615	3.38734	0.338686	2.15949							0.846128	5.38557				
0.530967	3.37587	0.340768	2.15994							0.847722	5.36391				
0.532322	3.36456	0.34285	2.16038							0.849305	5.34243				
0.533681	3.3534	0.344932	2.16081							0.850877	5.32114				
0.535044	3.3424	0.347015	2.16124							0.852439	5.30002				
0.53641	3.33154	0.349097	2.16167							0.853991	5.27909				
0.537779	3.32083	0.351179	2.16209							0.855533	5.25834				
0.539151	3.31026	0.353261	2.1625							0.857066	5.23776				
0.540528	3.29983	0.355343	2.16291							0.858589	5.21737				
0.541907	3.28954	0.357425	2.16332							0.860104	5.19715				
0.54329	3.27939	0.359508	2.16372							0.861609	5.1771				
0.544676	3.26937	0.36159	2.16411							0.863107	5.15723				
0.546066	3.25948	0.363672	2.16451							0.864596	5.13752				
0.547459	3.24973	0.365754	2.16489							0.866078	5.11799				
0.548856	3.2401	0.367836	2.16528							0.867552	5.09863				
0.550256	3.23059	0.369918	2.16565							0.869018	5.07944				
0.551659	3.22121	0.372	2.16603							0.870477	5.06041				
0.553066	3.21195	0.374082	2.1664							0.87193	5.04154				
0.554476	3.20281	0.376164	2.16677							0.873375	5.02285				
0.55589	3.19379	0.378246	2.16713							0.874815	5.00431				
0.557307	3.18488	0.380328	2.16749							0.876247	4.98593				
0.558727	3.17609	0.38241	2.16784							0.877674	4.96771				
0.560151	3.16741	0.384492	2.16819							0.879095	4.94965				
0.561578	3.15883	0.386574	2.16854							0.88051	4.93175				
0.563008	3.15037	0.388656	2.16888							0.88192	4.914				
0.564442	3.14201	0.390737	2.16922							0.883325	4.89641				
0.565879	3.13376	0.392819	2.16956							0.884724	4.87897				
0.567319	3.12561	0.394901	2.16989							0.886118	4.86168				
0.568763	3.11756	0.396983	2.17022							0.887508	4.84454				
0.57021	3.10961	0.399065	2.17054							0.888893	4.82755				
0.57166	3.10176	0.401147	2.17087							0.890273	4.8107				
0.573114	3.094	0.403229	2.17118							0.891649	4.794				
0.57457	3.08634	0.40531	2.1715							0.893021	4.77745				
0.57603	3.07878	0.407392	2.17181							0.894389	4.76104				
0.577494	3.0713	0.409474	2.17212							0.895753	4.74477				
0.57896	3.06392	0.411556	2.17243							0.897114	4.72863				
0.58043	3.05663	0.413637	2.17273							0.898471	4.71264				
0.581902	3.04942	0.415719	2.17303							0.899824	4.69679				
0.583378	3.0423	0.417801	2.17333							0.901174	4.68107				
0.584858	3.03527	0.419883	2.17362							0.902521	4.66549				
0.58634	3.02832	0.421964	2.17391							0.903865	4.65004				
0.587825	3.02145	0.424046	2.1742							0.905206	4.63472				
0.589314	3.01467	0.426128	2.17449							0.906544	4.61954				
0.590806	3.00796	0.428209	2.17477							0.907879	4.60448				
0.5923	3.00133	0.430291	2.17505							0.909212	4.58955				
0.593798	2.99479	0.432373	2.17533							0.910542	4.57475				
0.595299	2.98831	0.434454	2.1756							0.91187	4.56008				
0.596803	2.98192	0.436536	2.17588							0.913196	4.54553				
0.59831	2.97559	0.438618	2.17615							0.914519	4.5311				
0.59982	2.96935	0.440699	2.17641							0.915841	4.5168				
0.601333	2.96317	0.442781	2.17668							0.91716	4.50262				
0.602849	2.95706	0.444862	2.17694							0.918477	4.48855				
0.604368	2.95103	0.446944	2.1772							0.919793	4.47461				
0.60589	2.94506	0.449026	2.17746							0.921107	4.46079				
0.607415	2.93916	0.451107	2.17771							0.92242	4.44708				
0.608943	2.93333	0.453189	2.17797							0.923731	4.43348				
0.610474	2.92757	0.45527	2.17822							0.92504	4.42				
0.612007	2.92187	0.457352	2.17846							0.926348	4.40663				
0.613544	2.91623	0.459433	2.17871							0.927655	4.39338				
0.615083	2.91066	0.461515	2.17895							0.928961	4.38024				
0.616626	2.90515	0.463596	2.1792							0.930265	4.3672				
0.618171	2.8997	0.465678	2.17944							0.931569	4.35427				
0.619719	2.89431	0.467759	2.17967							0.932871	4.34146				
0.621269	2.88898	0.469841	2.17991							0.934173	4.32874				
0.622823	2.88371	0.471922	2.18014							0.935473	4.31614				
0.624379	2.8785	0.474004	2.18037							0.936773	4.30363				
0.625938	2.87335	0.476085	2.1806							0.938072	4.29123				
0.6275	2.86825	0.478167	2.18083							0.939371	4.27894				
0.629065	2.86321	0.480248	2.18105							0.940669	4.26674				
0.630632	2.85822	0.48233	2.18128							0.941966	4.25465				
0.632202	2.85329	0.484411	2.1815							0.943263	4.24265				
0.633775	2.84841	0.486493	2.18172							0.94456	4.23075				
0.63535	2.84358	0.488574	2.18194							0.945856	4.21895				
0.636928	2.8388	0.490655	2.18215							0.947152	4.20725				
0.638509	2.83408	0.492737	2.18236							0.948447	4.19564				
0.640092	2.82941	0.494818	2.18258							0.949743	4.18412				
0.641678	2.82478	0.4969	2.18279							0.951038	4.1727				
0.643266	2.82021	0.498981	2.183							0.952333	4.16137				
0.644857	2.81568	0.501062	2.1832							0.953628	4.15014				
0.646451	2.8112	0.503144	2.18341							0.954923	4.13899				
0.648047	2.80677	0.505225	2.18361							0.956218	4.12793				
0.649645	2.80239	0.507306	2.18381							0.957513	4.11697				
0.651246	2.79805	0.509388	2.18401							0.958809	4.10609				
0.65285	2.79376	0.511469	2.18421							0.960104	4.09529				
0.654456	2.78951	0.51355	2.18441							0.9614	4.08459				
0.656065	2.7853	0.515632	2.1846							0.962695	4.07397				
0.657676	2.78114	0.517713	2.1848							0.963992	4.06343				
0.659289	2.77702	0.519794	2.18499							0.965288	4.05298				
0.660905	2.77295	0.521876	2.18518							0.966585	4.04261				
0.662524	2.76891	0.523957	2.18537							0.967882	4.03232				
0.664144	2.76492	0.526038	2.18556							0.96918	4.02212				
0.665768	2.76097	0.52812	2.18575							0.970478	4.01199				
0.667393	2.75706	0.530201	2.18593							0.971777	4.00195				
0.669021	2.75319	0.532282	2.18611							0.973076	3.99198				
0.670651	2.74935	0.534364	2.1863							0.974375	3.98209				
0.672284	2.74556	0.536445	2.18648							0.975676	3.97228				
0.673918	2.7418	0.538526	2.18666							0.976977	3.96255				
0.675555	2.73808	0.540607	2.18683							0.978278	3.95289				
0.677195	2.7344	0.542689	2.18701							0.979581	3.9433				
0.678836	2.73076	0.54477	2.18719							0.980883	3.93379				
0.68048	2.72715	0.546851	2.18736							0.982187	3.92436				
0.682127	2.72358	0.548932	2.18753							0.983492	3.915				
0.683775	2.72004	0.551014	2.1877							0.984797	3.90571				
0.685425	2.71654	0.553095	2.18787							0.986103	3.89649				
0.687078	2.71307	0.555176	2.18804							0.98741	3.88734				
0.688733	2.70964	0.557257	2.18821							0.988718	3.87827				
0.69039	2.70624	0.559338	2.18837							0.990026	3.86926				
0.69205	2.70287	0.56142	2.18854							0.991336	3.86032				
0.693711	2.69954	0.563501	2.1887							0.992646	3.85145				
0.695375	2.69623	0.565582	2.18887							0.993958	3.84265				
0.69704	2.69296	0.567663	2.18903							0.99527	3.83391				
0.698708	2.68973	0.569744	2.18919							0.996583	3.82524				
0.700378	2.68652	0.571826	2.18935							0.997898	3.81664				
0.70205	2.68334	0.573907	2.1895							0.999213	3.8081				
0.703724	2.6802	0.575988	2.18966							1.00053	3.79962				
0.7054	2.67708	0.578069	2.18982												
0.707078	2.67399	0.58015	2.18997												
0.708758	2.67094	0.582231	2.19012												
0.71044	2.66791	0.584313	2.19028												
0.712124	2.66491	0.586394	2.19043												
0.71381	2.66194	0.588475	2.19058												
0.715499	2.65899	0.590556	2.19073												
0.717189	2.65608	0.592637	2.19088												
0.718881	2.65319	0.594718	2.19102												
0.720575	2.65033	0.596799	2.19117												
0.72227	2.64749	0.598881	2.19131												
0.723968	2.64468	0.600962	2.19146												
0.725668	2.6419	0.603043	2.1916												
0.727369	2.63914	0.605124	2.19174												
0.729073	2.63641	0.607205	2.19188												
0.730778	2.63371	0.609286	2.19202												
0.732485	2.63102	0.611367	2.19216												
0.734194	2.62837	0.613448	2.1923												
0.735905	2.62573	0.615529	2.19244												
0.737618	2.62312	0.61761	2.19257												
0.739332	2.62054	0.619691	2.19271												
0.741048	2.61798	0.621773	2.19284												
0.742766	2.61544	0.623854	2.19298												
0.744486	2.61292	0.625935	2.19311												
0.746208	2.61043	0.628016	2.19324												
0.747931	2.60795	0.630097	2.19337												
0.749656	2.6055	0.632178	2.1935												
0.751383	2.60308	0.634259	2.19363												
0.753111	2.60067	0.63634	2.19376												
0.754842	2.59829	0.638421	2.19389												
0.756574	2.59592	0.640502	2.19402												
0.758307	2.59358	0.642583	2.19414												
0.760042	2.59126	0.644664	2.19427												
0.761779	2.58896	0.646745	2.19439												
0.763518	2.58667	0.648826	2.19451												
0.765258	2.58441	0.650907	2.19464												
0.767	2.58217	0.652988	2.19476												
0.768743	2.57995	0.655069	2.19488												
0.770488	2.57774	0.65715	2.195												
0.772235	2.57556	0.659231	2.19512												
0.773983	2.57339	0.661312	2.19524												
0.775733	2.57125	0.663393	2.19536												
0.777485	2.56912	0.665474	2.19547												
0.779238	2.56701	0.667555	2.19559												
0.780992	2.56491	0.669636	2.19571												
0.782748	2.56284	0.671717	2.19582												
0.784506	2.56078	0.673798	2.19594												
0.786265	2.55874	0.675879	2.19605												
0.788026	2.55672	0.67796	2.19616												
0.789788	2.55471	0.680041	2.19628												
0.791551	2.55273	0.682122	2.19639												
0.793316	2.55075	0.684203	2.1965												
0.795083	2.5488	0.686284	2.19661												
0.796851	2.54686	0.688365	2.19672												
0.798621	2.54494	0.690446	2.19683												
0.800392	2.54303	0.692527	2.19694												
0.802164	2.54114	0.694608	2.19704												
0.803938	2.53926	0.696689	2.19715												
0.805713	2.5374	0.69877	2.19726												
0.80749	2.53556	0.700851	2.19736												
0.809268	2.53373	0.702932	2.19747												
0.811047	2.53192	0.705012	2.19757												
0.812828	2.53012	0.707093	2.19768												
0.81461	2.52833	0.709174	2.19778												
0.816394	2.52656	0.711255	2.19788												
0.818179	2.52481	0.713336	2.19799												
0.819965	2.52306	0.715417	2.19809												
0.821753	2.52134	0.717498	2.19819												
0.823542	2.51962	0.719579	2.19829												
0.825332	2.51792	0.72166	2.19839												
0.827124	2.51624	0.723741	2.19849												
0.828917	2.51456	0.725822	2.19859												
0.830711	2.5129	0.727903	2.19869												
0.832507	2.51126	0.729983	2.19878												
0.834304	2.50963	0.732064	2.19888												
0.836102	2.50801	0.734145	2.19898												
0.837901	2.5064	0.736226	2.19907												
0.839702	2.5048	0.738307	2.19917												
0.841504	2.50322	0.740388	2.19926												
0.843307	2.50165	0.742469	2.19936												
0.845111	2.50009	0.74455	2.19945												
0.846917	2.49855	0.74663	2.19954												
0.848724	2.49702	0.748711	2.19964												
0.850532	2.4955	0.750792	2.19973												
0.852341	2.49399	0.752873	2.19982												
0.854151	2.49249	0.754954	2.19991												
0.855963	2.491	0.757035	2.2												
0.857776	2.48953	0.759116	2.20009												
0.85959	2.48807	0.761197	2.20018												
0.861405	2.48661	0.763277	2.20027												
0.863222	2.48517	0.765358	2.20036												
0.865039	2.48374	0.767439	2.20045												
0.866858	2.48233	0.76952	2.20054												
0.868678	2.48092	0.771601	2.20062												
0.870499	2.47952	0.773682	2.20071												
0.872321	2.47813	0.775762	2.2008												
0.874144	2.47676	0.777843	2.20088												
0.875969	2.47539	0.779924	2.20097												
0.877794	2.47404	0.782005	2.20105												
0.879621	2.47269	0.784086	2.20114												
0.881448	2.47136	0.786167	2.20122												
0.883277	2.47003	0.788247	2.20131												
0.885107	2.46872	0.790328	2.20139												
0.886938	2.46741	0.792409	2.20147												
0.88877	2.46612	0.79449	2.20155												
0.890603	2.46483	0.796571	2.20164												
0.892437	2.46356	0.798651	2.20172												
0.894273	2.46229	0.800732	2.2018												
0.896109	2.46103	0.802813	2.20188												
0.897946	2.45978	0.804894	2.20196												
0.899784	2.45854	0.806975	2.20204												
0.901624	2.45732	0.809055	2.20212												
0.903464	2.45609	0.811136	2.2022												
0.905306	2.45488	0.813217	2.20228												
0.907148	2.45368	0.815298	2.20235												
0.908991	2.45248	0.817379	2.20243												
0.910836	2.4513	0.819459	2.20251												
0.912681	2.45012	0.82154	2.20259												
0.914528	2.44895	0.823621	2.20266												
0.916375	2.44779	0.825702	2.20274												
0.918223	2.44664	0.827782	2.20281												
0.920073	2.4455	0.829863	2.20289												
0.921923	2.44436	0.831944	2.20297												
0.923774	2.44324	0.834025	2.20304												
0.925627	2.44212	0.836106	2.20311												
0.92748	2.44101	0.838186	2.20319												
0.929334	2.4399	0.840267	2.20326												
0.931189	2.43881	0.842348	2.20333												
0.933045	2.43772	0.844429	2.20341												
0.934902	2.43664	0.846509	2.20348												
0.93676	2.43557	0.84859	2.20355												
0.938618	2.4345	0.850671	2.20362												
0.940478	2.43345	0.852752	2.2037												
0.942339	2.4324	0.854832	2.20377												
0.9442	2.43135	0.856913	2.20384												
0.946062	2.43032	0.858994	2.20391												
0.947926	2.42929	0.861075	2.20398												
0.94979	2.42827	0.863155	2.20405												
0.951655	2.42726	0.865236	2.20412												
0.953521	2.42625	0.867317	2.20419												
0.955387	2.42525	0.869398	2.20425												
0.957255	2.42426	0.871478	2.20432												
0.959124	2.42327	0.873559	2.20439												
0.960993	2.42229	0.87564	2.20446												
0.962863	2.42132	0.87772	2.20453												
0.964734	2.42036	0.879801	2.20459												
0.966606	2.4194	0.881882	2.20466												
0.968479	2.41844	0.883963	2.20473												
0.970352	2.4175	0.886043	2.20479												
0.972227	2.41656	0.888124	2.20486												
0.974102	2.41563	0.890205	2.20492												
0.975978	2.4147	0.892285	2.20499												
0.977855	2.41378	0.894366	2.20505												
0.979732	2.41286	0.896447	2.20512												
0.981611	2.41196	0.898528	2.20518												
0.98349	2.41105	0.900608	2.20525												
0.98537	2.41016	0.902689	2.20531												
0.987251	2.40927	0.90477	2.20537												
0.989132	2.40838	0.90685	2.20544												
0.991015	2.4075	0.908931	2.2055												
0.992898	2.40663	0.911012	2.20556												
0.994782	2.40577	0.913092	2.20563												
0.996666	2.40491	0.915173	2.20569												
0.998552	2.40405	0.917254	2.20575												
1.00044	2.4032	0.919334	2.20581												
		0.921415	2.20587												
		0.923496	2.20593												
		0.925576	2.20599												
		0.927657	2.20605												
		0.929738	2.20611												
		0.931819	2.20617												
		0.933899	2.20623												
		0.93598	2.20629												
		0.938061	2.20635												
		0.940141	2.20641												
		0.942222	2.20647												
		0.944303	2.20653												
		0.946383	2.20658												
		0.948464	2.20664												
		0.950544	2.2067												
		0.952625	2.20676												
		0.954706	2.20681												
		0.956786	2.20687												
		0.958867	2.20693												
		0.960948	2.20698												
		0.963028	2.20704												
		0.965109	2.20709												
		0.96719	2.20715												
		0.96927	2.2072												
		0.971351	2.20726												
		0.973432	2.20731												
		0.975512	2.20737												
		0.977593	2.20742												
		0.979673	2.20748												
		0.981754	2.20753												
		0.983835	2.20758												
		0.985915	2.20764												
		0.987996	2.20769												
		0.990077	2.20774												
		0.992157	2.2078												
		0.994238	2.20785												
		0.996318	2.2079												
		0.998399	2.20795												
		1.00048	2.20801												
