Sym0		Asym0		Sym1		Sym2		Sym3		Sym4		Asym1		Asym2		Asym3	
460  Points		493  Points		185  Points		151  Points		134  Points		99  Points		314  Points		163  Points		131  Points	
Freq (MHz)	Vph (m/ms)	Freq (MHz)	Vph (m/ms)	Freq (MHz)	Vph (m/ms)	Freq (MHz)	Vph (m/ms)	Freq (MHz)	Vph (m/ms)	Freq (MHz)	Vph (m/ms)	Freq (MHz)	Vph (m/ms)	Freq (MHz)	Vph (m/ms)	Freq (MHz)	Vph (m/ms)
0.000928089	6.81641	0.000437524	0.207453	0.279523	609.27	0.506116	761.803	0.55904	754.764	0.838538	1161.02	0.139756	1254	0.419278	740.737	0.698776	1760.27
0.00727862	6.81614	0.000904048	0.297314	0.279637	201.109	0.506157	317.129	0.559133	334.334	0.838591	507.026	0.139946	134.158	0.41937	280.005	0.698821	525.957
0.0136283	6.81569	0.00153073	0.38534	0.279867	120.519	0.506231	200.269	0.559299	214.779	0.838686	324.364	0.140441	71.1152	0.419545	172.694	0.698914	309.205
0.0199763	6.81498	0.00231013	0.47106	0.280211	86.1163	0.50634	146.364	0.559536	158.25	0.838822	238.483	0.141236	48.5927	0.419804	124.9	0.699057	218.999
0.0263219	6.81396	0.00323351	0.554082	0.28067	67.0566	0.506482	115.342	0.559845	125.316	0.839	188.581	0.142325	37.081	0.420145	97.8718	0.699248	169.566
0.0326643	6.81268	0.00429119	0.634088	0.281242	54.9594	0.506659	95.1859	0.560226	103.762	0.839219	155.968	0.1437	30.1263	0.420568	80.4992	0.699487	138.363
0.0390026	6.81111	0.00547291	0.710843	0.281926	46.6074	0.506872	81.0407	0.560677	88.5627	0.83948	132.989	0.145349	25.4926	0.421074	68.3984	0.699775	116.88
0.0453362	6.80926	0.00676817	0.78418	0.282722	40.5009	0.50712	70.5683	0.5612	77.2731	0.839783	115.926	0.147262	22.2003	0.421662	59.4905	0.700111	101.189
0.0516641	6.80712	0.00816643	0.853999	0.283629	35.8464	0.507404	62.5042	0.561792	68.5594	0.840127	102.758	0.149424	19.752	0.422331	52.6625	0.700496	89.2291
0.0579855	6.80469	0.00965757	0.92027	0.284644	32.1849	0.507725	56.1046	0.562454	61.6325	0.840512	92.2879	0.151824	17.8685	0.423082	47.2649	0.700929	79.8122
0.0642996	6.80195	0.0112318	0.983008	0.285767	29.2323	0.508085	50.9036	0.563185	55.9958	0.840938	83.7655	0.154447	16.381	0.423913	42.8932	0.70141	72.2066
0.0706054	6.79892	0.01288	1.04227	0.286995	26.8034	0.508482	46.5941	0.563985	51.3212	0.841406	76.6944	0.157279	15.1812	0.424824	39.2822	0.701939	65.9369
0.0769021	6.79557	0.0145936	1.09814	0.288328	24.7723	0.50892	42.966	0.564853	47.3829	0.841915	70.7338	0.160308	14.1969	0.425814	36.2507	0.702515	60.6804
0.0831887	6.79192	0.0163647	1.15074	0.289762	23.0504	0.509397	39.8702	0.565788	44.0209	0.842464	65.6417	0.16352	13.3776	0.426883	33.671	0.70314	56.2107
0.0894642	6.78794	0.0181863	1.2002	0.291297	21.5735	0.509917	37.1982	0.566789	41.1181	0.843055	61.2419	0.166904	12.6873	0.42803	31.4502	0.703812	52.3642
0.0957276	6.78362	0.020052	1.24667	0.292929	20.2941	0.510479	34.8693	0.567857	38.5874	0.843687	57.4028	0.170447	12.0997	0.429255	29.5194	0.704531	49.0198
0.101978	6.77897	0.0219559	1.2903	0.294657	19.176	0.511085	32.8219	0.568989	36.3623	0.844359	54.0239	0.174138	11.5948	0.430555	27.826	0.705298	46.0856
0.108214	6.77397	0.023893	1.33125	0.296479	18.1916	0.511736	31.0083	0.570186	34.3911	0.845072	51.0277	0.177467	11.2104	0.431932	26.3295	0.706112	43.4911
0.114435	6.7686	0.0258587	1.36967	0.298392	17.3189	0.512433	29.3913	0.571447	32.6333	0.845825	48.3529	0.180382	10.9173	0.433384	24.9983	0.706972	41.1809
0.120638	6.76286	0.0278491	1.40572	0.300395	16.5407	0.513178	27.9409	0.572771	31.0565	0.846619	45.9509	0.182844	10.6958	0.434909	23.8068	0.707879	39.1111
0.126824	6.75675	0.0298606	1.43956	0.302484	15.8429	0.513971	26.633	0.574156	29.6345	0.847453	43.7821	0.184822	10.5327	0.436507	22.7348	0.708833	37.2465
0.132991	6.75023	0.0318902	1.47131	0.304658	15.2144	0.514815	25.4481	0.575604	28.3461	0.848327	41.8146	0.186293	10.419	0.438178	21.7656	0.709832	35.5582
0.139137	6.7433	0.0336714	1.49741	0.306914	14.6456	0.51571	24.37	0.577111	27.1736	0.849241	40.0217	0.187242	10.3488	0.439919	20.8856	0.710878	34.0227
0.145262	6.73594	0.0351979	1.51855	0.30925	14.1289	0.516657	23.3852	0.578679	26.1023	0.850195	38.3814	0.188616	10.2513	0.441731	20.0832	0.711969	32.6203
0.151362	6.72814	0.0364651	1.53531	0.311665	13.6578	0.517659	22.4824	0.580306	25.12	0.851189	36.8752	0.190123	10.1496	0.443612	19.3491	0.713106	31.3348
0.157437	6.71988	0.0374699	1.54812	0.314154	13.2269	0.518716	21.6522	0.581991	24.2162	0.852222	35.4876	0.192192	10.0181	0.44556	18.6752	0.714288	30.1523
0.163485	6.71113	0.0382102	1.55729	0.316718	12.8315	0.51983	20.8864	0.583733	23.3823	0.853294	34.2052	0.194843	9.86202	0.447576	18.0546	0.715515	29.0611
0.169504	6.70189	0.0386846	1.56306	0.319353	12.4676	0.521003	20.1782	0.585533	22.6105	0.854405	33.0166	0.198096	9.68731	0.449658	17.4816	0.716786	28.0513
0.175492	6.69213	0.0393673	1.57122	0.322058	12.132	0.522235	19.5215	0.587388	21.8945	0.855555	31.9121	0.201974	9.49979	0.451804	16.951	0.718102	27.1141
0.181447	6.68182	0.0401104	1.57989	0.324831	11.8215	0.523529	18.9112	0.589299	21.2285	0.856744	30.8832	0.206503	9.30504	0.454014	16.4586	0.719462	26.2423
0.187367	6.67095	0.0411227	1.5914	0.327671	11.5338	0.524885	18.3429	0.591265	20.6076	0.857972	29.9225	0.21111	9.12934	0.456287	16.0006	0.720865	25.4293
0.193249	6.65948	0.0424052	1.60547	0.330199	11.2998	0.526305	17.8125	0.593285	20.0277	0.859238	29.0236	0.215788	8.97024	0.458621	15.5736	0.722312	24.6695
0.199092	6.64739	0.0439593	1.62181	0.332392	11.1117	0.527791	17.3168	0.595358	19.4848	0.860542	28.1808	0.220534	8.82569	0.461015	15.1748	0.723802	23.9581
0.204892	6.63466	0.0457862	1.64008	0.334232	10.9635	0.529343	16.8525	0.597484	18.9758	0.861884	27.3891	0.225341	8.69392	0.463469	14.8017	0.725335	23.2905
0.210647	6.62125	0.0478869	1.65993	0.335703	10.8507	0.530964	16.4172	0.599661	18.4976	0.863263	26.644	0.230206	8.57344	0.465981	14.4519	0.72691	22.6631
0.216354	6.60713	0.0499913	1.67867	0.336795	10.7701	0.532654	16.0083	0.60189	18.0477	0.864681	25.9418	0.235125	8.46297	0.46855	14.1234	0.728527	22.0724
0.22201	6.59229	0.0520986	1.69636	0.337497	10.7196	0.534415	15.6237	0.60417	17.6237	0.866135	25.2788	0.240093	8.36139	0.471174	13.8146	0.730186	21.5153
0.227611	6.57667	0.0542083	1.71308	0.338513	10.6483	0.536248	15.2616	0.6065	17.2236	0.867627	24.652	0.245107	8.26774	0.473854	13.5237	0.731887	20.9892
0.233155	6.56026	0.0563198	1.7289	0.339624	10.5726	0.538154	14.9202	0.608879	16.8454	0.869155	24.0586	0.250163	8.18119	0.476587	13.2494	0.733628	20.4916
0.238638	6.54301	0.0584326	1.74389	0.341148	10.4725	0.540135	14.5981	0.611308	16.4876	0.870721	23.4959	0.255259	8.101	0.479372	12.9904	0.73541	20.0204
0.244057	6.52491	0.0605464	1.75809	0.343096	10.3504	0.542191	14.2937	0.613784	16.1486	0.872322	22.9619	0.260391	8.02653	0.482209	12.7455	0.737233	19.5735
0.249408	6.50591	0.0626608	1.77155	0.345481	10.2092	0.544324	14.0059	0.616308	15.8271	0.87396	22.4543	0.265556	7.95722	0.485097	12.5136	0.739095	19.1493
0.254687	6.48599	0.0647755	1.78434	0.348322	10.052	0.546534	13.7335	0.61888	15.5217	0.875633	21.9713	0.270752	7.89258	0.488034	12.2939	0.740997	18.7461
0.259891	6.46511	0.0668903	1.79649	0.351639	9.88202	0.548822	13.4756	0.621498	15.2315	0.877343	21.5113	0.275976	7.83215	0.491019	12.0855	0.742938	18.3624
0.265016	6.44327	0.069005	1.80804	0.355015	9.72234	0.55119	13.231	0.624162	14.9553	0.879087	21.0727	0.281227	7.77556	0.494051	11.8875	0.744918	17.9969
0.270058	6.42042	0.0711195	1.81904	0.358452	9.57222	0.553637	12.999	0.626871	14.6922	0.880867	20.6541	0.2865	7.72244	0.49713	11.6993	0.746937	17.6484
0.275014	6.39655	0.0732336	1.82951	0.361949	9.43096	0.556164	12.7788	0.629626	14.4414	0.882682	20.2542	0.291796	7.67249	0.49985	11.5427	0.748993	17.3158
0.27988	6.37165	0.0753473	1.8395	0.365507	9.29796	0.558772	12.5697	0.632425	14.2021	0.884531	19.8718	0.297111	7.62543	0.502195	11.4145	0.751087	16.9981
0.284653	6.34571	0.0774604	1.84903	0.369128	9.17266	0.561461	12.3709	0.635269	13.9736	0.886415	19.5058	0.302443	7.58102	0.504152	11.3118	0.753219	16.6943
0.289329	6.31872	0.0795728	1.85813	0.372811	9.05455	0.564231	12.1818	0.638156	13.7552	0.888333	19.1553	0.307791	7.53901	0.505711	11.2327	0.755387	16.4036
0.293906	6.29068	0.0816846	1.86683	0.376558	8.94319	0.567082	12.002	0.641086	13.5463	0.890284	18.8193	0.313154	7.49921	0.506864	11.1758	0.757592	16.1253
0.298382	6.2616	0.0837956	1.87515	0.38037	8.83816	0.570014	11.8307	0.644059	13.3464	0.89227	18.497	0.318528	7.46144	0.507605	11.1398	0.759834	15.8585
0.302753	6.23151	0.0859059	1.88311	0.384248	8.73908	0.572636	11.6882	0.647075	13.1549	0.894288	18.1875	0.323913	7.42552	0.508674	11.0887	0.76211	15.6026
0.30702	6.20041	0.0880155	1.89074	0.388193	8.6456	0.574919	11.5713	0.650133	12.9714	0.89634	17.8903	0.329308	7.39132	0.50984	11.0341	0.764423	15.357
0.311179	6.16835	0.0901242	1.89805	0.392206	8.55741	0.576841	11.4778	0.653232	12.7954	0.898424	17.6045	0.334709	7.35868	0.511436	10.9613	0.76677	15.1211
0.315231	6.13535	0.0922321	1.90506	0.396288	8.47421	0.578382	11.4057	0.656372	12.6265	0.900541	17.3296	0.340117	7.32748	0.513467	10.8715	0.769152	14.8944
0.319174	6.10147	0.0943394	1.9118	0.400439	8.3957	0.579527	11.3538	0.659554	12.4643	0.902691	17.065	0.34553	7.29761	0.515944	10.7662	0.771568	14.6764
0.323011	6.06675	0.0964458	1.91826	0.40466	8.32165	0.580265	11.321	0.662777	12.3084	0.904872	16.8102	0.350946	7.26896	0.518877	10.647	0.774018	14.4666
0.326739	6.03124	0.0985514	1.92448	0.408952	8.2518	0.581333	11.2746	0.666039	12.1587	0.907085	16.5646	0.356364	7.24144	0.52228	10.5158	0.776501	14.2647
0.330362	5.99502	0.100656	1.93046	0.413313	8.1859	0.582504	11.2248	0.669343	12.0146	0.909329	16.3278	0.361783	7.21496	0.525721	10.3902	0.779017	14.0701
0.333881	5.95813	0.10276	1.93622	0.417744	8.12375	0.584113	11.1585	0.672254	11.8935	0.911605	16.0993	0.367201	7.18943	0.5292	10.2698	0.781566	13.8825
0.337296	5.92064	0.104864	1.94176	0.422243	8.06513	0.586174	11.0768	0.674759	11.7935	0.913911	15.8787	0.372618	7.16478	0.532716	10.1544	0.784148	13.7016
0.340611	5.88262	0.106966	1.94711	0.426811	8.00982	0.588706	10.981	0.676848	11.7128	0.916248	15.6658	0.378031	7.14094	0.536267	10.0437	0.786761	13.527
0.343829	5.84415	0.109068	1.95226	0.431444	7.95764	0.59173	10.8728	0.678509	11.6503	0.918615	15.46	0.38344	7.11784	0.539854	9.93751	0.789405	13.3585
0.346951	5.80528	0.11117	1.95723	0.436142	7.90839	0.595272	10.7538	0.679737	11.6051	0.921013	15.261	0.388844	7.09543	0.543475	9.83549	0.792081	13.1958
0.34998	5.76609	0.11327	1.96203	0.440902	7.86189	0.59889	10.64	0.680526	11.5765	0.92344	15.0686	0.394241	7.07366	0.54713	9.73745	0.794788	13.0385
0.352921	5.72663	0.115371	1.96667	0.445723	7.81797	0.602582	10.5313	0.681663	11.5357	0.925896	14.8824	0.39963	7.05246	0.550819	9.6432	0.797525	12.8864
0.355776	5.68698	0.11747	1.97115	0.450601	7.77645	0.606347	10.4273	0.682904	11.492	0.928382	14.7022	0.40501	7.03178	0.55454	9.55254	0.800292	12.7393
0.358548	5.64719	0.119569	1.97548	0.455535	7.73718	0.610183	10.3278	0.684599	11.4335	0.930896	14.5277	0.41038	7.0116	0.558294	9.46528	0.803089	12.597
0.361241	5.60733	0.121667	1.97968	0.46052	7.70001	0.614088	10.2325	0.686757	11.3609	0.93344	14.3586	0.415739	6.99186	0.562079	9.38127	0.805916	12.4593
0.363858	5.56743	0.123765	1.98374	0.465555	7.66479	0.618062	10.1413	0.689386	11.2753	0.936011	14.1947	0.421085	6.97252	0.565895	9.30034	0.808771	12.3259
0.366403	5.52757	0.125862	1.98767	0.470636	7.63138	0.622102	10.0539	0.692498	11.1778	0.938611	14.0358	0.426418	6.95354	0.569742	9.22234	0.811283	12.213
0.368878	5.48777	0.127958	1.99147	0.47576	7.59966	0.626207	9.97011	0.696106	11.0696	0.941238	13.8817	0.431736	6.9349	0.573619	9.14715	0.813441	12.1193
0.371287	5.4481	0.130054	1.99517	0.480924	7.56949	0.630374	9.88976	0.699754	10.9651	0.943893	13.7322	0.437038	6.91656	0.577525	9.07462	0.815237	12.0433
0.373634	5.40858	0.13215	1.99875	0.486126	7.54078	0.634602	9.81266	0.70344	10.8643	0.946576	13.587	0.442324	6.89849	0.581461	9.00465	0.816665	11.9843
0.37592	5.36926	0.134245	2.00222	0.491361	7.51341	0.638889	9.73864	0.707167	10.7669	0.949285	13.4461	0.447591	6.88066	0.585426	8.9371	0.817719	11.9415
0.378149	5.33017	0.13634	2.00559	0.496628	7.48728	0.643233	9.66755	0.710932	10.6728	0.952021	13.3092	0.452839	6.86303	0.58942	8.87188	0.818395	11.9143
0.380324	5.29134	0.138434	2.00887	0.501924	7.4623	0.64763	9.59923	0.714738	10.5819	0.954783	13.1762	0.458066	6.8456	0.593442	8.80889	0.81937	11.8756
0.382448	5.2528	0.140528	2.01205	0.507245	7.43837	0.652081	9.53354	0.718584	10.4941	0.957572	13.0469	0.463272	6.82833	0.597492	8.74803	0.820433	11.8339
0.384523	5.21457	0.142621	2.01514	0.51259	7.41543	0.656581	9.47033	0.722471	10.4093	0.960386	12.9212	0.468456	6.81119	0.60157	8.6892	0.821884	11.7779
0.386293	5.18153	0.144714	2.01815	0.517955	7.3934	0.661129	9.40948	0.726398	10.3272	0.963226	12.799	0.473616	6.79418	0.605676	8.63233	0.823729	11.7083
0.387776	5.15358	0.146807	2.02107	0.523338	7.3722	0.665722	9.35086	0.730366	10.2479	0.966092	12.6801	0.478751	6.77726	0.609809	8.57734	0.825973	11.6259
0.388985	5.13061	0.148899	2.02391	0.528738	7.35177	0.670359	9.29435	0.734376	10.1712	0.968609	12.5791	0.48386	6.76042	0.613969	8.52414	0.828624	11.5314
0.389929	5.11256	0.150991	2.02668	0.534152	7.33206	0.675036	9.23985	0.738428	10.097	0.97077	12.4949	0.488942	6.74364	0.618156	8.47268	0.831692	11.426
0.390618	5.09934	0.153083	2.02938	0.539577	7.31301	0.679752	9.18723	0.742522	10.0253	0.972567	12.4265	0.493996	6.72691	0.62237	8.42287	0.834785	11.3235
0.391056	5.0909	0.155174	2.032	0.545012	7.29456	0.684504	9.13641	0.74666	9.95589	0.973995	12.3732	0.499021	6.71019	0.62661	8.37467	0.837905	11.224
0.391682	5.07881	0.157265	2.03456	0.550456	7.27668	0.689289	9.08727	0.750841	9.88879	0.975048	12.3344	0.504015	6.69349	0.630877	8.32799	0.84105	11.1272
0.392358	5.06572	0.159356	2.03706	0.555906	7.25931	0.694106	9.03974	0.755067	9.8239	0.975724	12.3098	0.508978	6.67679	0.635171	8.2828	0.84422	11.0332
0.39327	5.048	0.161446	2.03949	0.56136	7.24243	0.698951	8.99371	0.759337	9.76114	0.976698	12.2747	0.513909	6.66007	0.63949	8.23903	0.847415	10.9417
0.39441	5.02572	0.163536	2.04186	0.566818	7.22598	0.703822	8.9491	0.763653	9.70044	0.977759	12.2368	0.518806	6.64332	0.643836	8.19663	0.850635	10.8527
0.395772	4.99899	0.165626	2.04417	0.572277	7.20994	0.708717	8.90584	0.768016	9.64175	0.979208	12.1859	0.523668	6.62653	0.648208	8.15555	0.85388	10.7661
0.397347	4.96792	0.167716	2.04643	0.577737	7.19428	0.713634	8.86385	0.772426	9.585	0.981047	12.1225	0.528496	6.60969	0.652605	8.11574	0.857148	10.6819
0.399123	4.93268	0.169805	2.04863	0.583196	7.17896	0.71857	8.82305	0.776884	9.53014	0.983284	12.0471	0.533287	6.59279	0.657029	8.07717	0.860441	10.5998
0.40087	4.89787	0.171894	2.05078	0.588652	7.16397	0.723522	8.78337	0.78139	9.4771	0.985925	11.9605	0.538041	6.57582	0.661478	8.03977	0.863757	10.5199
0.402588	4.86349	0.173983	2.05289	0.594105	7.14927	0.728488	8.74475	0.785946	9.42585	0.988977	11.8634	0.542756	6.55877	0.665952	8.00352	0.867096	10.4421
0.404279	4.82956	0.176071	2.05494	0.599554	7.13484	0.733466	8.70713	0.790553	9.37632	0.992052	11.7688	0.547433	6.54163	0.670452	7.96837	0.870459	10.3663
0.405944	4.79608	0.17816	2.05694	0.604997	7.12066	0.738455	8.67045	0.79521	9.32848	0.99515	11.6765	0.55207	6.5244	0.674976	7.93429	0.873844	10.2924
0.407586	4.76305	0.180248	2.05891	0.610433	7.10672	0.74345	8.63465	0.799919	9.28227	0.998271	11.5864	0.556666	6.50707	0.679526	7.90123	0.877252	10.2204
0.409205	4.73046	0.182336	2.06082	0.615861	7.09298	0.748452	8.59968	0.804681	9.23765	1.00141	11.4986	0.561221	6.48964	0.6841	7.86917	0.880683	10.1502
0.410803	4.69833	0.184424	2.0627	0.621282	7.07944	0.753457	8.56549	0.809495	9.19458			0.565735	6.4721	0.688698	7.83806	0.884135	10.0817
0.412381	4.66665	0.186511	2.06453	0.626692	7.06608	0.758464	8.53205	0.814363	9.153			0.570205	6.45445	0.69332	7.80788	0.88761	10.0149
0.413939	4.63541	0.188598	2.06633	0.632093	7.05288	0.763471	8.49929	0.819284	9.11289			0.574633	6.43668	0.697966	7.77858	0.891106	9.9498
0.41548	4.60463	0.190685	2.06808	0.637482	7.03983	0.768476	8.46719	0.82426	9.0742			0.579017	6.4188	0.702636	7.75015	0.894624	9.88623
0.417005	4.57429	0.192772	2.0698	0.64286	7.02691	0.773479	8.43572	0.82929	9.03688			0.583357	6.4008	0.707328	7.72254	0.898163	9.8242
0.418513	4.54439	0.194859	2.07149	0.648225	7.01412	0.778478	8.40483	0.834374	9.00089			0.587652	6.38269	0.712043	7.69574	0.901723	9.76364
0.420007	4.51493	0.196946	2.07314	0.653576	7.00145	0.783472	8.37451	0.839512	8.96621			0.591903	6.36445	0.71678	7.6697	0.905304	9.70451
0.421486	4.48591	0.199032	2.07475	0.658914	6.98887	0.788459	8.34471	0.844704	8.93277			0.596108	6.34609	0.721539	7.64442	0.908906	9.64678
0.422953	4.45732	0.201119	2.07633	0.664237	6.97639	0.79344	8.31543	0.84995	8.90056			0.600269	6.32762	0.726319	7.61984	0.912528	9.59038
0.424407	4.42916	0.203205	2.07789	0.669545	6.96399	0.798413	8.28663	0.85525	8.86951			0.604383	6.30903	0.731119	7.59596	0.916171	9.5353
0.42585	4.40142	0.205291	2.07941	0.674836	6.95166	0.803378	8.25831	0.860601	8.83961			0.608452	6.29033	0.73594	7.57274	0.919834	9.48148
0.427283	4.3741	0.207377	2.0809	0.680111	6.9394	0.808335	8.23044	0.866005	8.81079			0.612475	6.27151	0.74078	7.55016	0.923516	9.42889
0.428705	4.3472	0.209463	2.08236	0.685369	6.92719	0.813283	8.20301	0.87146	8.78304			0.616452	6.25258	0.745639	7.5282	0.927219	9.37749
0.430118	4.32071	0.211548	2.08379	0.690609	6.91504	0.818223	8.176	0.876965	8.7563			0.620384	6.23355	0.750516	7.50682	0.930941	9.32724
0.431522	4.29462	0.213634	2.08519	0.695831	6.90293	0.823155	8.14941	0.882519	8.73054			0.62427	6.21442	0.755411	7.48602	0.934682	9.27812
0.432918	4.26893	0.215719	2.08657	0.701034	6.89085	0.828079	8.12323	0.888122	8.70572			0.62811	6.19519	0.760323	7.46576	0.938443	9.23008
0.434307	4.24363	0.217804	2.08793	0.706218	6.87881	0.832995	8.09745	0.893771	8.6818			0.631904	6.17586	0.76525	7.44603	0.942222	9.1831
0.435688	4.21873	0.219889	2.08926	0.711381	6.86678	0.837904	8.07206	0.899465	8.65875			0.635654	6.15645	0.770194	7.4268	0.946021	9.13716
0.437063	4.1942	0.221974	2.09056	0.716524	6.85478	0.842806	8.04705	0.905204	8.63653			0.639358	6.13695	0.775151	7.40805	0.949838	9.09221
0.438432	4.17005	0.224059	2.09184	0.721646	6.84279	0.847701	8.02243	0.910986	8.61511			0.643017	6.11736	0.780123	7.38977	0.953674	9.04823
0.439795	4.14628	0.226144	2.0931	0.726747	6.83081	0.852591	7.99818	0.916809	8.59446			0.646633	6.09771	0.785108	7.37193	0.957528	9.00519
0.441154	4.12287	0.228228	2.09433	0.731825	6.81883	0.857475	7.97431	0.922672	8.57453			0.650203	6.07798	0.790106	7.35451	0.961401	8.96307
0.442507	4.09982	0.230313	2.09554	0.736882	6.80685	0.862355	7.9508	0.928574	8.5553			0.653731	6.05819	0.795115	7.3375	0.965291	8.92185
0.443856	4.07713	0.232397	2.09673	0.741915	6.79487	0.867232	7.92766	0.934513	8.53674			0.657214	6.03834	0.800135	7.32088	0.9692	8.88149
0.445202	4.05478	0.234482	2.0979	0.746925	6.78287	0.872105	7.90488	0.940488	8.51882			0.660655	6.01843	0.805165	7.30464	0.973126	8.84198
0.446544	4.03278	0.236566	2.09905	0.751912	6.77087	0.876976	7.88246	0.946498	8.50151			0.664053	5.99848	0.810204	7.28874	0.97707	8.80329
0.447882	4.01112	0.23865	2.10018	0.756874	6.75885	0.881844	7.8604	0.95254	8.48478			0.667409	5.97848	0.815251	7.27319	0.981031	8.7654
0.449218	3.9898	0.240734	2.1013	0.761812	6.74681	0.886712	7.83869	0.958615	8.46861			0.670724	5.95844	0.820307	7.25796	0.98501	8.72829
0.450551	3.96879	0.242818	2.10239	0.766725	6.73475	0.891579	7.81732	0.964719	8.45296			0.673997	5.93837	0.825369	7.24304	0.989006	8.69194
0.451882	3.94812	0.244902	2.10346	0.771612	6.72266	0.896446	7.79631	0.970853	8.43783			0.67723	5.91827	0.830437	7.22842	0.993018	8.65632
0.453211	3.92775	0.246986	2.10452	0.776474	6.71055	0.901313	7.77563	0.977015	8.42317			0.680423	5.89815	0.835511	7.21408	0.997048	8.62143
0.454538	3.9077	0.249069	2.10556	0.78131	6.69841	0.906181	7.7553	0.983203	8.40898			0.683576	5.87801	0.840589	7.2	1.00109	8.58724
0.455864	3.88796	0.251153	2.10658	0.78612	6.68623	0.911051	7.7353	0.989417	8.39523			0.68669	5.85786	0.845671	7.18618		
0.457188	3.86851	0.253237	2.10759	0.790903	6.67403	0.915923	7.71563	0.995655	8.38189			0.689766	5.8377	0.850756	7.17261		
0.458512	3.84937	0.25532	2.10858	0.795659	6.66179	0.920798	7.69629	1.00192	8.36896			0.692804	5.81753	0.855843	7.15926		
0.459835	3.83051	0.257403	2.10955	0.800387	6.64951	0.925675	7.67727					0.695804	5.79737	0.860932	7.14613		
0.461157	3.81194	0.259487	2.11051	0.805088	6.63719	0.930556	7.65857					0.698768	5.77722	0.866021	7.13321		
0.462479	3.79365	0.26157	2.11145	0.809762	6.62483	0.93544	7.64018					0.701696	5.75708	0.871111	7.12049		
0.463801	3.77564	0.263653	2.11238	0.814407	6.61243	0.940328	7.6221					0.704588	5.73695	0.876199	7.10796		
0.465122	3.75789	0.265736	2.1133	0.819024	6.59999	0.94522	7.60433					0.707444	5.71684	0.881287	7.0956		
0.466444	3.74042	0.267819	2.1142	0.823613	6.58751	0.950116	7.58685					0.710267	5.69676	0.886373	7.08341		
0.467766	3.7232	0.269902	2.11508	0.828173	6.57499	0.955017	7.56967					0.713056	5.67671	0.891455	7.07138		
0.469089	3.70625	0.271985	2.11596	0.832704	6.56242	0.959923	7.55277					0.715811	5.65669	0.896535	7.05949		
0.470412	3.68954	0.274068	2.11682	0.837207	6.54981	0.964833	7.53616					0.718534	5.6367	0.90161	7.04775		
0.471737	3.67309	0.276151	2.11766	0.84168	6.53716	0.969748	7.51983					0.721224	5.61675	0.906681	7.03615		
0.473062	3.65688	0.278233	2.1185	0.846123	6.52446	0.974668	7.50377					0.723883	5.59685	0.911746	7.02467		
0.474388	3.64091	0.280316	2.11932	0.850538	6.51171	0.979593	7.48797					0.726511	5.57699	0.916806	7.0133		
0.475715	3.62517	0.282399	2.12013	0.854923	6.49893	0.984523	7.47244					0.729108	5.55719	0.921859	7.00205		
0.477044	3.60967	0.284481	2.12093	0.859278	6.4861	0.989457	7.45716					0.731676	5.53744	0.926905	6.99091		
0.478374	3.59439	0.286564	2.12172	0.863604	6.47323	0.994397	7.44213					0.734214	5.51774	0.931943	6.97986		
0.479705	3.57934	0.288646	2.1225	0.8679	6.46031	0.999341	7.42734					0.736724	5.4981	0.936973	6.9689		
0.481038	3.5645	0.290728	2.12326	0.872167	6.44736	1.00429	7.41279					0.739205	5.47853	0.941994	6.95803		
0.482373	3.54989	0.292811	2.12402	0.876403	6.43436							0.741659	5.45902	0.947006	6.94724		
0.48371	3.53548	0.294893	2.12476	0.88061	6.42132							0.744086	5.43958	0.952008	6.93652		
0.485048	3.52129	0.296975	2.1255	0.884787	6.40825							0.746486	5.42021	0.956999	6.92587		
0.486389	3.50729	0.299057	2.12622	0.888935	6.39513							0.74886	5.40091	0.961979	6.91529		
0.487731	3.4935	0.30114	2.12694	0.893052	6.38198							0.751209	5.38169	0.966948	6.90476		
0.489076	3.47991	0.303222	2.12764	0.897141	6.36879							0.753533	5.36254	0.971906	6.89429		
0.490422	3.46651	0.305304	2.12834	0.901199	6.35556							0.755832	5.34347	0.97685	6.88387		
0.491771	3.4533	0.307386	2.12902	0.905228	6.3423							0.758107	5.32449	0.981782	6.8735		
0.493122	3.44028	0.309467	2.1297	0.909227	6.32901							0.760359	5.30559	0.986701	6.86317		
0.494476	3.42745	0.311549	2.13037	0.913198	6.31569							0.762588	5.28677	0.991606	6.85287		
0.495832	3.41479	0.313631	2.13102	0.917138	6.30233							0.764795	5.26804	0.996496	6.84262		
0.49719	3.40232	0.315713	2.13167	0.92105	6.28895							0.766979	5.2494	1.00137	6.83239		
0.498551	3.39002	0.317795	2.13232	0.924932	6.27553							0.769142	5.23084				
0.499914	3.37789	0.319877	2.13295	0.928786	6.26209							0.771284	5.21238				
0.50128	3.36593	0.321958	2.13358	0.932611	6.24863							0.773405	5.19402				
0.502649	3.35413	0.32404	2.13419	0.936407	6.23514							0.775507	5.17574				
0.50402	3.3425	0.326121	2.1348	0.940174	6.22163							0.777588	5.15757				
0.505394	3.33103	0.328203	2.13541	0.943913	6.20809							0.779651	5.13949				
0.50677	3.31972	0.330285	2.136	0.947624	6.19454							0.781694	5.1215				
0.50815	3.30856	0.332366	2.13659	0.951306	6.18097							0.78372	5.10362				
0.509532	3.29756	0.334448	2.13717	0.954961	6.16738							0.785727	5.08583				
0.510917	3.2867	0.336529	2.13774	0.958588	6.15378							0.787717	5.06815				
0.512305	3.276	0.33861	2.13831	0.962187	6.14016							0.789689	5.05056				
0.513695	3.26543	0.340692	2.13887	0.965759	6.12652							0.791645	5.03308				
0.515089	3.25501	0.342773	2.13942	0.969303	6.11288							0.793585	5.0157				
0.516485	3.24473	0.344854	2.13997	0.972821	6.09922							0.795509	4.99843				
0.517885	3.23459	0.346936	2.14051	0.976311	6.08556							0.797417	4.98126				
0.519287	3.22459	0.349017	2.14104	0.979775	6.07189							0.79931	4.96419				
0.520692	3.21471	0.351098	2.14157	0.983212	6.05821							0.801188	4.94723				
0.522101	3.20497	0.353179	2.14209	0.986623	6.04452							0.803051	4.93037				
0.523512	3.19536	0.35526	2.1426	0.990008	6.03084							0.804901	4.91362				
0.524926	3.18588	0.357341	2.14311	0.993366	6.01715							0.806736	4.89697				
0.526343	3.17652	0.359422	2.14361	0.996699	6.00345							0.808558	4.88043				
0.527764	3.16728	0.361503	2.14411	1.00001	5.98976							0.810368	4.86399				
0.529187	3.15816	0.363584	2.1446									0.812164	4.84767				
0.530613	3.14916	0.365665	2.14509									0.813948	4.83145				
0.532042	3.14028	0.367746	2.14557									0.815719	4.81533				
0.533475	3.13151	0.369827	2.14605									0.817479	4.79932				
0.53491	3.12286	0.371908	2.14652									0.819227	4.78342				
0.536349	3.11432	0.373989	2.14698									0.820964	4.76763				
0.53779	3.10589	0.37607	2.14744									0.82269	4.75194				
0.539235	3.09756	0.378151	2.14789									0.824406	4.73636				
0.540682	3.08934	0.380232	2.14834									0.826111	4.72089				
0.542133	3.08123	0.382312	2.14879									0.827805	4.70552				
0.543587	3.07322	0.384393	2.14923									0.82949	4.69025				
0.545043	3.06531	0.386474	2.14967									0.831165	4.6751				
0.546503	3.0575	0.388555	2.1501									0.832831	4.66005				
0.547966	3.04978	0.390635	2.15052									0.834488	4.6451				
0.549432	3.04217	0.392716	2.15094									0.836136	4.63026				
0.550901	3.03464	0.394797	2.15136									0.837775	4.61552				
0.552373	3.02722	0.396877	2.15178									0.839406	4.60089				
0.553847	3.01988	0.398958	2.15218									0.841028	4.58636				
0.555325	3.01263	0.401038	2.15259									0.842643	4.57194				
0.556806	3.00548	0.403119	2.15299									0.84425	4.55762				
0.55829	2.99841	0.405199	2.15339									0.845849	4.5434				
0.559777	2.99142	0.40728	2.15378									0.847441	4.52928				
0.561267	2.98453	0.40936	2.15417									0.849026	4.51527				
0.56276	2.97771	0.411441	2.15455									0.850604	4.50136				
0.564256	2.97098	0.413521	2.15493									0.852175	4.48755				
0.565755	2.96433	0.415602	2.15531									0.85374	4.47384				
0.567257	2.95776	0.417682	2.15568									0.855298	4.46023				
0.568761	2.95127	0.419763	2.15605									0.85685	4.44672				
0.570269	2.94486	0.421843	2.15642									0.858396	4.4333				
0.57178	2.93852	0.423923	2.15678									0.859937	4.41999				
0.573293	2.93226	0.426004	2.15714									0.861471	4.40678				
0.57481	2.92607	0.428084	2.15749									0.863	4.39366				
0.576329	2.91996	0.430164	2.15785									0.864524	4.38064				
0.577852	2.91391	0.432245	2.1582									0.866043	4.36771				
0.579377	2.90794	0.434325	2.15854									0.867557	4.35488				
0.580905	2.90204	0.436405	2.15888									0.869065	4.34215				
0.582436	2.89621	0.438485	2.15922									0.870569	4.32951				
0.583969	2.89044	0.440565	2.15956									0.872069	4.31696				
0.585506	2.88475	0.442646	2.15989									0.873564	4.30451				
0.587045	2.87911	0.444726	2.16022									0.875055	4.29215				
0.588587	2.87355	0.446806	2.16055									0.876542	4.27989				
0.590132	2.86804	0.448886	2.16087									0.878024	4.26771				
0.59168	2.8626	0.450966	2.16119									0.879503	4.25563				
0.59323	2.85723	0.453046	2.16151									0.880978	4.24363				
0.594784	2.85191	0.455127	2.16182									0.882449	4.23173				
0.59634	2.84665	0.457207	2.16213									0.883917	4.21991				
0.597898	2.84146	0.459287	2.16244									0.885382	4.20819				
0.59946	2.83632	0.461367	2.16275									0.886843	4.19655				
0.601024	2.83124	0.463447	2.16305									0.888301	4.185				
0.602591	2.82621	0.465527	2.16335									0.889756	4.17353				
0.60416	2.82125	0.467607	2.16365									0.891208	4.16215				
0.605733	2.81634	0.469687	2.16395									0.892657	4.15086				
0.607307	2.81148	0.471767	2.16424									0.894103	4.13965				
0.608885	2.80668	0.473847	2.16453									0.895547	4.12853				
0.610465	2.80193	0.475927	2.16482									0.896988	4.11748				
0.612048	2.79723	0.478007	2.1651									0.898427	4.10653				
0.613633	2.79258	0.480087	2.16539									0.899863	4.09565				
0.615221	2.78799	0.482167	2.16567									0.901297	4.08485				
0.616811	2.78344	0.484246	2.16594									0.902729	4.07414				
0.618404	2.77895	0.486326	2.16622									0.904159	4.06351				
0.62	2.7745	0.488406	2.16649									0.905587	4.05295				
0.621598	2.7701	0.490486	2.16676									0.907012	4.04248				
0.623199	2.76575	0.492566	2.16703									0.908436	4.03208				
0.624802	2.76145	0.494646	2.1673									0.909859	4.02176				
0.626407	2.75719	0.496726	2.16756									0.911279	4.01152				
0.628015	2.75298	0.498805	2.16783									0.912698	4.00136				
0.629626	2.74881	0.500885	2.16809									0.914116	3.99127				
0.631239	2.74469	0.502965	2.16834									0.915532	3.98125				
0.632854	2.74061	0.505045	2.1686									0.916946	3.97132				
0.634472	2.73658	0.507125	2.16885									0.918359	3.96145				
0.636092	2.73258	0.509204	2.1691									0.919771	3.95166				
0.637715	2.72863	0.511284	2.16935									0.921182	3.94194				
0.63934	2.72472	0.513364	2.1696									0.922592	3.9323				
0.640967	2.72086	0.515443	2.16985									0.924	3.92272				
0.642597	2.71703	0.517523	2.17009									0.925408	3.91322				
0.644229	2.71324	0.519603	2.17033									0.926815	3.90379				
0.645863	2.70949	0.521683	2.17057									0.92822	3.89443				
0.6475	2.70578	0.523762	2.17081									0.929625	3.88513				
0.649139	2.70211	0.525842	2.17104									0.931029	3.87591				
0.65078	2.69848	0.527921	2.17128									0.932433	3.86675				
0.652424	2.69488	0.530001	2.17151									0.933836	3.85767				
0.654069	2.69132	0.532081	2.17174									0.935238	3.84865				
0.655717	2.6878	0.53416	2.17197									0.936639	3.83969				
0.657368	2.68431	0.53624	2.1722									0.93804	3.8308				
0.65902	2.68086	0.53832	2.17242									0.939441	3.82198				
0.660675	2.67744	0.540399	2.17265									0.940841	3.81323				
0.662332	2.67406	0.542479	2.17287									0.942241	3.80453				
0.663991	2.67071	0.544558	2.17309									0.943641	3.7959				
0.665652	2.6674	0.546638	2.17331									0.94504	3.78734				
0.667315	2.66412	0.548717	2.17352									0.946439	3.77884				
0.66898	2.66087	0.550797	2.17374									0.947838	3.77039				
0.670648	2.65765	0.552877	2.17395									0.949237	3.76202				
0.672318	2.65447	0.554956	2.17416									0.950635	3.7537				
0.673989	2.65132	0.557036	2.17437									0.952034	3.74544				
0.675663	2.6482	0.559115	2.17458									0.953432	3.73724				
0.677339	2.6451	0.561195	2.17479									0.954831	3.72911				
0.679017	2.64204	0.563274	2.17499									0.956229	3.72103				
0.680697	2.63901	0.565354	2.1752									0.957628	3.71301				
0.682379	2.63601	0.567433	2.1754									0.959027	3.70505				
0.684064	2.63304	0.569512	2.1756									0.960425	3.69715				
0.68575	2.6301	0.571592	2.1758									0.961825	3.6893				
0.687438	2.62719	0.573671	2.176									0.963224	3.68151				
0.689128	2.6243	0.575751	2.1762									0.964623	3.67378				
0.69082	2.62144	0.57783	2.17639									0.966023	3.6661				
0.692514	2.61861	0.57991	2.17659									0.967423	3.65848				
0.69421	2.61581	0.581989	2.17678									0.968824	3.65091				
0.695908	2.61304	0.584068	2.17697									0.970224	3.6434				
0.697607	2.61029	0.586148	2.17716									0.971626	3.63594				
0.699309	2.60756	0.588227	2.17735									0.973027	3.62853				
0.701013	2.60487	0.590306	2.17753									0.974429	3.62118				
0.702718	2.6022	0.592386	2.17772									0.975832	3.61388				
0.704426	2.59955	0.594465	2.17791									0.977235	3.60663				
0.706135	2.59693	0.596545	2.17809									0.978638	3.59943				
0.707846	2.59433	0.598624	2.17827									0.980042	3.59229				
0.709559	2.59176	0.600703	2.17845									0.981447	3.58519				
0.711274	2.58921	0.602783	2.17863									0.982852	3.57815				
0.71299	2.58669	0.604862	2.17881									0.984258	3.57115				
0.714708	2.58419	0.606941	2.17899									0.985665	3.56421				
0.716429	2.58171	0.60902	2.17916									0.987072	3.55731				
0.718151	2.57925	0.6111	2.17934									0.98848	3.55046				
0.719874	2.57682	0.613179	2.17951									0.989889	3.54366				
0.7216	2.57441	0.615258	2.17968									0.991298	3.53691				
0.723327	2.57203	0.617338	2.17985									0.992708	3.53021				
0.725056	2.56966	0.619417	2.18002									0.994119	3.52355				
0.726787	2.56732	0.621496	2.18019									0.99553	3.51694				
0.728519	2.56499	0.623575	2.18036									0.996943	3.51037				
0.730253	2.56269	0.625655	2.18053									0.998356	3.50386				
0.731989	2.56041	0.627734	2.18069									0.99977	3.49738				
0.733726	2.55815	0.629813	2.18086									1.00118	3.49095				
0.735465	2.55591	0.631892	2.18102														
0.737206	2.5537	0.633971	2.18118														
0.738949	2.5515	0.636051	2.18134														
0.740693	2.54932	0.63813	2.1815														
0.742439	2.54716	0.640209	2.18166														
0.744186	2.54502	0.642288	2.18182														
0.745935	2.5429	0.644367	2.18198														
0.747685	2.54079	0.646447	2.18213														
0.749438	2.53871	0.648526	2.18229														
0.751191	2.53665	0.650605	2.18244														
0.752947	2.5346	0.652684	2.1826														
0.754704	2.53257	0.654763	2.18275														
0.756462	2.53056	0.656842	2.1829														
0.758222	2.52857	0.658921	2.18305														
0.759983	2.52659	0.661	2.1832														
0.761746	2.52463	0.66308	2.18335														
0.763511	2.52269	0.665159	2.18349														
0.765277	2.52076	0.667238	2.18364														
0.767044	2.51886	0.669317	2.18379														
0.768813	2.51696	0.671396	2.18393														
0.770584	2.51509	0.673475	2.18407														
0.772356	2.51323	0.675554	2.18422														
0.774129	2.51139	0.677633	2.18436														
0.775904	2.50956	0.679712	2.1845														
0.77768	2.50775	0.681791	2.18464														
0.779458	2.50595	0.68387	2.18478														
0.781237	2.50417	0.685949	2.18492														
0.783018	2.5024	0.688028	2.18506														
0.7848	2.50065	0.690107	2.18519														
0.786583	2.49892	0.692186	2.18533														
0.788368	2.49719	0.694265	2.18546														
0.790154	2.49549	0.696344	2.1856														
0.791941	2.49379	0.698423	2.18573														
0.79373	2.49212	0.700502	2.18587														
0.79552	2.49045	0.702581	2.186														
0.797312	2.4888	0.70466	2.18613														
0.799104	2.48716	0.706739	2.18626														
0.800899	2.48554	0.708818	2.18639														
0.802694	2.48393	0.710897	2.18652														
0.804491	2.48233	0.712976	2.18665														
0.806289	2.48075	0.715055	2.18677														
0.808088	2.47918	0.717134	2.1869														
0.809889	2.47762	0.719213	2.18703														
0.811691	2.47608	0.721292	2.18715														
0.813494	2.47454	0.723371	2.18728														
0.815298	2.47302	0.72545	2.1874														
0.817104	2.47152	0.727529	2.18752														
0.818911	2.47002	0.729608	2.18764														
0.820719	2.46854	0.731687	2.18777														
0.822529	2.46707	0.733766	2.18789														
0.824339	2.46561	0.735845	2.18801														
0.826151	2.46416	0.737923	2.18813														
0.827964	2.46272	0.740002	2.18825														
0.829778	2.4613	0.742081	2.18836														
0.831594	2.45989	0.74416	2.18848														
0.833411	2.45848	0.746239	2.1886														
0.835228	2.45709	0.748318	2.18872														
0.837047	2.45571	0.750397	2.18883														
0.838868	2.45435	0.752476	2.18895														
0.840689	2.45299	0.754554	2.18906														
0.842511	2.45164	0.756633	2.18917														
0.844335	2.4503	0.758712	2.18929														
0.84616	2.44898	0.760791	2.1894														
0.847985	2.44766	0.76287	2.18951														
0.849812	2.44636	0.764949	2.18962														
0.851641	2.44506	0.767027	2.18973														
0.85347	2.44378	0.769106	2.18984														
0.8553	2.4425	0.771185	2.18995														
0.857131	2.44123	0.773264	2.19006														
0.858964	2.43998	0.775343	2.19017														
0.860797	2.43873	0.777421	2.19028														
0.862632	2.4375	0.7795	2.19039														
0.864468	2.43627	0.781579	2.19049														
0.866305	2.43505	0.783658	2.1906														
0.868142	2.43385	0.785737	2.1907														
0.869981	2.43265	0.787815	2.19081														
0.871821	2.43146	0.789894	2.19091														
0.873662	2.43028	0.791973	2.19102														
0.875504	2.4291	0.794052	2.19112														
0.877347	2.42794	0.79613	2.19122														
0.879191	2.42679	0.798209	2.19132														
0.881036	2.42564	0.800288	2.19143														
0.882882	2.42451	0.802367	2.19153														
0.884729	2.42338	0.804445	2.19163														
0.886577	2.42226	0.806524	2.19173														
0.888426	2.42115	0.808603	2.19183														
0.890276	2.42004	0.810682	2.19193														
0.892127	2.41895	0.81276	2.19202														
0.893979	2.41786	0.814839	2.19212														
0.895832	2.41678	0.816918	2.19222														
0.897686	2.41571	0.818996	2.19232														
0.899541	2.41465	0.821075	2.19241														
0.901397	2.4136	0.823154	2.19251														
0.903253	2.41255	0.825232	2.1926														
0.905111	2.41151	0.827311	2.1927														
0.90697	2.41048	0.82939	2.19279														
0.908829	2.40945	0.831468	2.19289														
0.910689	2.40844	0.833547	2.19298														
0.912551	2.40743	0.835626	2.19307														
0.914413	2.40642	0.837704	2.19317														
0.916276	2.40543	0.839783	2.19326														
0.91814	2.40444	0.841862	2.19335														
0.920005	2.40346	0.84394	2.19344														
0.921871	2.40249	0.846019	2.19353														
0.923738	2.40152	0.848098	2.19362														
0.925605	2.40056	0.850176	2.19371														
0.927474	2.39961	0.852255	2.1938														
0.929343	2.39867	0.854334	2.19389														
0.931213	2.39773	0.856412	2.19398														
0.933084	2.39679	0.858491	2.19407														
0.934956	2.39587	0.860569	2.19416														
0.936829	2.39495	0.862648	2.19424														
0.938703	2.39404	0.864727	2.19433														
0.940577	2.39313	0.866805	2.19442														
0.942452	2.39223	0.868884	2.1945														
0.944328	2.39134	0.870962	2.19459														
0.946205	2.39045	0.873041	2.19467														
0.948083	2.38957	0.87512	2.19476														
0.949962	2.3887	0.877198	2.19484														
0.951841	2.38783	0.879277	2.19493														
0.953721	2.38697	0.881355	2.19501														
0.955602	2.38611	0.883434	2.19509														
0.957484	2.38526	0.885512	2.19518														
0.959366	2.38441	0.887591	2.19526														
0.96125	2.38358	0.889669	2.19534														
0.963134	2.38274	0.891748	2.19542														
0.965019	2.38192	0.893827	2.1955														
0.966904	2.38109	0.895905	2.19558														
0.968791	2.38028	0.897984	2.19567														
0.970678	2.37947	0.900062	2.19575														
0.972566	2.37866	0.902141	2.19583														
0.974455	2.37786	0.904219	2.1959														
0.976344	2.37707	0.906298	2.19598														
0.978234	2.37628	0.908376	2.19606														
0.980125	2.3755	0.910455	2.19614														
0.982017	2.37472	0.912533	2.19622														
0.98391	2.37395	0.914612	2.1963														
0.985803	2.37318	0.91669	2.19637														
0.987697	2.37242	0.918769	2.19645														
0.989591	2.37166	0.920847	2.19653														
0.991487	2.37091	0.922926	2.1966														
0.993383	2.37017	0.925004	2.19668														
0.995279	2.36942	0.927083	2.19675														
0.997177	2.36869	0.929161	2.19683														
0.999075	2.36796	0.93124	2.1969														
1.00097	2.36723	0.933318	2.19698														
		0.935397	2.19705														
		0.937475	2.19713														
		0.939553	2.1972														
		0.941632	2.19727														
		0.94371	2.19735														
		0.945789	2.19742														
		0.947867	2.19749														
		0.949946	2.19756														
		0.952024	2.19763														
		0.954103	2.1977														
		0.956181	2.19778														
		0.958259	2.19785														
		0.960338	2.19792														
		0.962416	2.19799														
		0.964495	2.19806														
		0.966573	2.19812														
		0.968651	2.19819														
		0.97073	2.19826														
		0.972808	2.19833														
		0.974887	2.1984														
		0.976965	2.19847														
		0.979043	2.19853														
		0.981122	2.1986														
		0.9832	2.19867														
		0.985278	2.19874														
		0.987357	2.1988														
		0.989435	2.19887														
		0.991514	2.19893														
		0.993592	2.199														
		0.99567	2.19906														
		0.997749	2.19913														
		0.999827	2.19919														
		1.00191	2.19926														
