Sym0		Asym0		Sym1		Sym2		Sym3		Sym4		Asym1		Asym2		Asym3		Asym4	
468  Points		496  Points		236  Points		206  Points		192  Points		132  Points		334  Points		217  Points		178  Points		106  Points	
Freq (MHz)	Vph (m/ms)	Freq (MHz)	Vph (m/ms)	Freq (MHz)	Vph (m/ms)	Freq (MHz)	Vph (m/ms)	Freq (MHz)	Vph (m/ms)	Freq (MHz)	Vph (m/ms)	Freq (MHz)	Vph (m/ms)	Freq (MHz)	Vph (m/ms)	Freq (MHz)	Vph (m/ms)	Freq (MHz)	Vph (m/ms)
0.00389973	5.01387	0.000454026	0.181331	0.279536	313.196	0.473421	1635.17	0.559019	1758.56	0.838536	944.699	0.139756	974.054	0.419263	2459.19	0.698771	32783.1	0.94684	2519.71
0.00857101	5.0138	0.000851452	0.247836	0.279622	153.283	0.473435	387.675	0.559051	447.391	0.838568	460.925	0.139873	130.093	0.419294	380.421	0.698785	733.24	0.946846	724.183
0.013242	5.01368	0.00136876	0.313415	0.279769	101.516	0.473468	219.92	0.559121	256.328	0.838624	304.842	0.140166	69.843	0.41937	206.192	0.698824	370.787	0.94686	422.863
0.0179125	5.01347	0.00200244	0.377895	0.279974	75.9229	0.473519	153.51	0.55923	179.645	0.838701	227.74	0.140634	47.8581	0.419491	141.453	0.69889	248.15	0.94688	298.619
0.0225824	5.01322	0.0027481	0.441064	0.280238	60.6668	0.473588	117.916	0.559376	138.3	0.838802	181.779	0.141275	36.5028	0.419656	107.68	0.698981	186.49	0.946907	230.809
0.0272515	5.0129	0.00360103	0.502774	0.280562	50.5426	0.473675	95.7306	0.559561	112.444	0.838924	151.264	0.142086	29.5892	0.419867	86.9476	0.699098	149.387	0.946941	188.1
0.0319196	5.01252	0.00455589	0.562871	0.280944	43.3375	0.473781	80.5792	0.559783	94.7491	0.839069	129.53	0.143061	24.9512	0.420122	72.9295	0.699241	124.609	0.946982	158.731
0.0365865	5.01209	0.00560722	0.621249	0.281384	37.951	0.473905	69.5754	0.560043	81.8806	0.839237	113.265	0.144197	21.6338	0.420422	62.8213	0.69941	106.891	0.94703	137.298
0.0412521	5.01158	0.00674937	0.677824	0.281882	33.7741	0.474047	61.222	0.560341	72.1025	0.839427	100.636	0.145487	19.1505	0.420767	55.1894	0.699605	93.5942	0.947085	120.966
0.0459162	5.01102	0.00797644	0.732516	0.282437	30.4423	0.474209	54.6652	0.560676	64.4223	0.83964	90.5479	0.146926	17.2272	0.421156	49.2249	0.699825	83.2474	0.947148	108.109
0.0505786	5.0104	0.00928284	0.785297	0.28305	27.7242	0.474389	49.3822	0.561049	58.2313	0.839875	82.3038	0.148508	15.6978	0.421589	44.4365	0.700072	74.9681	0.947218	97.7247
0.0552392	5.0097	0.0106627	0.836129	0.283719	25.4658	0.474589	45.0352	0.56146	53.1357	0.840132	75.4411	0.150226	14.4557	0.422066	40.5088	0.700344	68.1934	0.947296	89.1621
0.0598977	5.00895	0.0121107	0.885017	0.284443	23.5605	0.474807	41.3961	0.561907	48.869	0.840411	69.6399	0.152074	13.4295	0.422588	37.2297	0.700642	62.548	0.947381	81.9809
0.0645539	5.00813	0.0136215	0.931968	0.285223	21.9326	0.475046	38.3053	0.562392	45.245	0.840713	64.672	0.154045	12.5695	0.423153	34.4516	0.700965	57.7718	0.947474	75.8719
0.0692077	5.00724	0.0151901	0.977008	0.286058	20.5262	0.475304	35.648	0.562913	42.1291	0.841038	60.3702	0.156134	11.8398	0.423762	32.0686	0.701314	53.6787	0.947575	70.6118
0.0738589	5.00629	0.0168115	1.02016	0.286947	19.2997	0.475582	33.3392	0.563471	39.422	0.841384	56.6091	0.158334	11.2143	0.424414	30.0026	0.701689	50.1323	0.947684	66.0352
0.0785072	5.00527	0.0184814	1.06148	0.287889	18.2212	0.475881	31.3149	0.564066	37.0487	0.841753	53.2933	0.160337	10.7387	0.425109	28.1947	0.702089	47.0303	0.947801	62.0171
0.0831523	5.00417	0.0201955	1.10101	0.288883	17.266	0.4762	29.5257	0.564697	34.9512	0.842144	50.3481	0.162105	10.3761	0.425847	26.6	0.702515	44.2944	0.947926	58.4613
0.0877943	5.00301	0.0219499	1.13881	0.289929	16.4145	0.476541	27.9332	0.565364	33.0847	0.842557	47.715	0.163607	10.1022	0.426628	25.1832	0.702966	41.8636	0.94806	55.2924
0.0924326	5.00177	0.0237408	1.17494	0.291026	15.651	0.476902	26.5067	0.566066	31.4131	0.842993	45.347	0.16482	9.90039	0.427451	23.9164	0.703442	39.6897	0.948202	52.4507
0.0970672	5.00045	0.025565	1.20945	0.292173	14.963	0.477286	25.2219	0.566805	29.9077	0.84345	43.2062	0.165725	9.75968	0.428316	22.7775	0.703944	37.7344	0.948354	49.8879
0.101698	4.99906	0.0274193	1.24241	0.29337	14.34	0.477691	24.0588	0.567578	28.5452	0.84393	41.2615	0.16631	9.67284	0.429223	21.7482	0.704471	35.9664	0.948514	47.5651
0.106324	4.99758	0.0293009	1.27389	0.294615	13.7736	0.478118	23.001	0.568387	27.3064	0.844431	39.4872	0.167159	9.55215	0.430172	20.8136	0.705023	34.3602	0.948683	45.4501
0.110946	4.99603	0.0312071	1.30394	0.295907	13.2566	0.478569	22.0351	0.569231	26.1753	0.844955	37.8622	0.168093	9.42626	0.431161	19.9617	0.7056	32.8946	0.948861	43.5162
0.115563	4.99439	0.0331355	1.33264	0.297246	12.783	0.479043	21.1496	0.570109	25.1387	0.8455	36.3683	0.169379	9.26333	0.432192	19.182	0.706202	31.5522	0.949049	41.7413
0.120174	4.99267	0.035084	1.36004	0.298631	12.3478	0.47954	20.3351	0.571021	24.1853	0.846067	34.9904	0.171034	9.06993	0.433263	18.4659	0.706829	30.3182	0.949246	40.1065
0.124781	4.99086	0.0370506	1.38621	0.30006	11.9467	0.480061	19.5835	0.571968	23.3057	0.846656	33.7156	0.173074	8.8532	0.434374	17.8062	0.707481	29.18	0.949454	38.5959
0.129381	4.98895	0.0390333	1.4112	0.301533	11.5759	0.480607	18.8878	0.572948	22.4918	0.847267	32.5329	0.175521	8.62034	0.435524	17.1966	0.708158	28.1271	0.94967	37.196
0.133976	4.98695	0.0410307	1.43508	0.30305	11.2324	0.481177	18.2423	0.573962	21.7366	0.8479	31.4327	0.178396	8.37815	0.436715	16.6317	0.708859	27.1502	0.949898	35.895
0.138564	4.98486	0.0430412	1.45789	0.304608	10.9133	0.481773	17.6418	0.575009	21.034	0.848554	30.4067	0.181338	8.1593	0.437944	16.107	0.709585	26.2416	0.950135	34.6829
0.143145	4.98266	0.0450633	1.47968	0.305999	10.6532	0.482395	17.0818	0.576088	20.379	0.84923	29.4478	0.184344	7.96082	0.439212	15.6184	0.710335	25.3944	0.950382	33.5508
0.147719	4.98035	0.0470959	1.50052	0.307209	10.4437	0.483043	16.5584	0.577201	19.7669	0.849927	28.5496	0.18741	7.7802	0.440518	15.1625	0.71111	24.6026	0.95064	32.4913
0.152285	4.97794	0.0488749	1.51793	0.308226	10.2783	0.483718	16.0684	0.578345	19.1936	0.850646	27.7067	0.190533	7.61531	0.441862	14.7362	0.711909	23.8611	0.950909	31.4975
0.156844	4.97542	0.0503965	1.53225	0.309041	10.1523	0.48442	15.6086	0.579522	18.6559	0.851386	26.914	0.19371	7.46434	0.443243	14.3368	0.712732	23.1653	0.951188	30.5635
0.161394	4.97278	0.051658	1.54375	0.309646	10.0622	0.48515	15.1765	0.580731	18.1504	0.852148	26.1674	0.196939	7.32573	0.444662	13.9619	0.713579	22.5111	0.951479	29.6842
0.165934	4.97001	0.0526574	1.55261	0.310036	10.0056	0.485908	14.7698	0.581971	17.6745	0.852931	25.4629	0.200215	7.19815	0.446117	13.6095	0.71445	21.8951	0.95178	28.8549
0.170466	4.96713	0.0533933	1.55902	0.310599	9.92571	0.486695	14.3863	0.583242	17.2257	0.853735	24.7972	0.203537	7.08042	0.447608	13.2776	0.715345	21.3139	0.952093	28.0714
0.174987	4.96411	0.0538647	1.56306	0.311217	9.8408	0.487511	14.0242	0.584544	16.8018	0.85456	24.1672	0.206903	6.97154	0.449135	12.9646	0.716264	20.7649	0.952417	27.3302
0.179498	4.96095	0.0545429	1.56881	0.312064	9.72837	0.488358	13.6818	0.585876	16.4009	0.855406	23.5701	0.210309	6.87063	0.450697	12.669	0.717207	20.2454	0.952753	26.6279
0.183998	4.95765	0.0552808	1.57496	0.313148	9.59104	0.489234	13.3577	0.587239	16.0211	0.856273	23.0034	0.213755	6.77691	0.452295	12.3894	0.718173	19.7531	0.9531	25.9616
0.188486	4.9542	0.0562856	1.58317	0.314477	9.43181	0.490141	13.0505	0.588631	15.661	0.857161	22.465	0.217237	6.68971	0.453926	12.1247	0.719162	19.2861	0.953459	25.3286
0.192961	4.9506	0.0575583	1.59332	0.316061	9.25398	0.49108	12.759	0.590054	15.3192	0.85807	21.9528	0.220754	6.60842	0.455592	11.8737	0.720174	18.8425	0.95383	24.7265
0.197423	4.94683	0.0590999	1.60524	0.317912	9.06099	0.492051	12.482	0.591505	14.9941	0.859	21.4649	0.224305	6.5325	0.457292	11.6354	0.72121	18.4205	0.954213	24.153
0.201871	4.9429	0.0609116	1.61875	0.319796	8.87894	0.493054	12.2187	0.592986	14.6849	0.85995	20.9997	0.227886	6.4615	0.459025	11.4091	0.722269	18.0188	0.954609	23.6063
0.206305	4.93879	0.0629944	1.63365	0.321715	8.70697	0.494091	11.9681	0.594495	14.3902	0.860921	20.5558	0.231498	6.39497	0.46079	11.1937	0.723351	17.6359	0.955016	23.0846
0.210723	4.93449	0.0650809	1.64794	0.323666	8.54432	0.49516	11.7293	0.596033	14.1092	0.861913	20.1316	0.235139	6.33254	0.462588	10.9887	0.724455	17.2705	0.955436	22.586
0.215124	4.93	0.0671706	1.66166	0.325649	8.39031	0.496264	11.5016	0.597599	13.841	0.862925	19.726	0.238806	6.27389	0.46418	10.8179	0.725582	16.9215	0.955869	22.1093
0.219508	4.92531	0.0692631	1.67482	0.327664	8.24431	0.497403	11.2843	0.599193	13.5848	0.863957	19.3377	0.242499	6.21869	0.465557	10.6777	0.726732	16.5879	0.956314	21.653
0.223874	4.9204	0.0713581	1.68746	0.329709	8.10575	0.498577	11.0768	0.600815	13.3398	0.86501	18.9658	0.246216	6.16668	0.466708	10.5654	0.727903	16.2687	0.956772	21.2158
0.22822	4.91528	0.0734551	1.6996	0.331784	7.97413	0.499628	10.9035	0.602464	13.1053	0.866083	18.6092	0.249957	6.11761	0.467627	10.4789	0.729098	15.9629	0.957243	20.7966
0.232546	4.90992	0.0755539	1.71128	0.333889	7.84896	0.500547	10.761	0.604139	12.8807	0.867176	18.267	0.253719	6.07125	0.468307	10.4164	0.730314	15.6699	0.957726	20.3943
0.23685	4.90431	0.0776543	1.7225	0.336024	7.72984	0.501321	10.6466	0.605842	12.6654	0.868288	17.9383	0.257502	6.0274	0.468744	10.377	0.731552	15.3889	0.958223	20.0079
0.241131	4.89845	0.0797559	1.7333	0.338187	7.61636	0.501943	10.5584	0.607571	12.4589	0.869421	17.6225	0.261306	5.98589	0.469375	10.3211	0.732812	15.119	0.958734	19.6366
0.245387	4.89233	0.0818586	1.74369	0.340378	7.50817	0.502406	10.4947	0.609326	12.2606	0.870574	17.3188	0.265128	5.94653	0.470065	10.2611	0.734093	14.8598	0.959257	19.2794
0.249618	4.88592	0.0839622	1.75369	0.342598	7.40495	0.502705	10.4544	0.611107	12.0702	0.871746	17.0266	0.268968	5.90917	0.47101	10.1812	0.735397	14.6107	0.959794	18.9356
0.253822	4.87922	0.0860665	1.76333	0.344846	7.30641	0.503138	10.3972	0.612914	11.8871	0.872938	16.7451	0.272825	5.87368	0.472215	10.0825	0.736721	14.371	0.960345	18.6045
0.257997	4.87222	0.0881713	1.77262	0.347122	7.21226	0.503613	10.336	0.614746	11.7111	0.87415	16.474	0.276698	5.83993	0.473686	9.96663	0.738067	14.1402	0.960909	18.2854
0.262142	4.86489	0.0902766	1.78157	0.349426	7.12225	0.504267	10.2541	0.616604	11.5416	0.875381	16.2125	0.280587	5.80779	0.475433	9.83537	0.739434	13.918	0.961487	17.9776
0.266254	4.85723	0.0923821	1.79021	0.351758	7.03617	0.505107	10.1531	0.618486	11.3784	0.876631	15.9602	0.28449	5.77717	0.477465	9.69063	0.740821	13.7038	0.962079	17.6807
0.269811	4.85027	0.0944879	1.79854	0.354119	6.95379	0.506142	10.0343	0.620392	11.2211	0.877901	15.7168	0.288407	5.74796	0.479525	9.55182	0.74223	13.4972	0.962685	17.394
0.272822	4.84412	0.0965937	1.80659	0.356508	6.87492	0.507383	9.89952	0.622074	11.0887	0.87919	15.4816	0.292336	5.72006	0.481614	9.41862	0.743659	13.2979	0.963305	17.1171
0.275296	4.83888	0.0986996	1.81436	0.358926	6.79939	0.508843	9.75076	0.623521	10.9791	0.880498	15.2544	0.296279	5.69341	0.48373	9.29072	0.745108	13.1055	0.963939	16.8494
0.277242	4.83464	0.100805	1.82186	0.361373	6.72702	0.510342	9.60796	0.624728	10.8906	0.881824	15.0347	0.300232	5.6679	0.485873	9.16783	0.746578	12.9196	0.964587	16.5905
0.278668	4.83146	0.102911	1.82912	0.363851	6.65767	0.511881	9.47081	0.625689	10.8219	0.88317	14.8222	0.304197	5.64349	0.488043	9.04968	0.748068	12.74	0.96525	16.3401
0.279577	4.8294	0.105016	1.83613	0.366359	6.59121	0.51346	9.33903	0.626399	10.7722	0.884535	14.6165	0.308172	5.62009	0.49024	8.93603	0.749579	12.5663	0.965928	16.0977
0.280881	4.8264	0.107122	1.84292	0.368899	6.52749	0.515079	9.21236	0.626855	10.7407	0.885918	14.4174	0.312157	5.59765	0.492462	8.82664	0.751108	12.3983	0.96662	15.8629
0.282293	4.82309	0.109227	1.84949	0.371471	6.4664	0.516738	9.09056	0.627513	10.6959	0.887319	14.2245	0.316151	5.57611	0.49471	8.72129	0.752658	12.2357	0.967326	15.6354
0.284206	4.81851	0.111331	1.85585	0.374077	6.40783	0.518439	8.97339	0.62823	10.6477	0.888739	14.0376	0.320153	5.55541	0.496983	8.61979	0.754227	12.0783	0.968048	15.4149
0.28661	4.81257	0.113436	1.86201	0.376717	6.35169	0.52018	8.86064	0.629211	10.5832	0.890178	13.8564	0.324164	5.53551	0.499281	8.52193	0.755816	11.9258	0.968784	15.2011
0.289495	4.80518	0.11554	1.86798	0.379393	6.29787	0.521962	8.7521	0.630459	10.5031	0.891635	13.6807	0.328182	5.51636	0.501603	8.42755	0.757424	11.778	0.969536	14.9937
0.292849	4.7962	0.117643	1.87376	0.382106	6.2463	0.523786	8.64759	0.63198	10.4084	0.89311	13.5102	0.332206	5.49791	0.50395	8.33648	0.759051	11.6348	0.970302	14.7924
0.296653	4.78549	0.119746	1.87937	0.384857	6.19688	0.525652	8.54692	0.633781	10.3003	0.894602	13.3447	0.336238	5.48013	0.50632	8.24855	0.760696	11.4958	0.971084	14.597
0.300409	4.77432	0.121849	1.88481	0.387647	6.14955	0.527559	8.44993	0.635868	10.1801	0.896113	13.184	0.340275	5.46297	0.508713	8.16363	0.762146	11.3781	0.971881	14.4072
0.304114	4.76268	0.123951	1.89009	0.390477	6.10424	0.529508	8.35644	0.637977	10.0637	0.897642	13.0279	0.344318	5.44641	0.511129	8.08157	0.763393	11.2802	0.972694	14.2228
0.307767	4.75057	0.126053	1.89521	0.39335	6.06086	0.531499	8.26632	0.640109	9.95112	0.899188	12.8763	0.348365	5.4304	0.513567	8.00224	0.764432	11.2008	0.973522	14.0436
0.311365	4.73798	0.128154	1.90019	0.396265	6.01937	0.533532	8.17941	0.642263	9.84205	0.900752	12.7288	0.352417	5.41492	0.516028	7.92552	0.765258	11.139	0.974365	13.8694
0.314908	4.72489	0.130255	1.90502	0.399225	5.9797	0.535607	8.09559	0.644438	9.73637	0.902334	12.5855	0.356473	5.39994	0.51851	7.8513	0.765868	11.0942	0.975225	13.6999
0.318392	4.71132	0.132356	1.90972	0.40223	5.9418	0.537723	8.01471	0.646634	9.63395	0.903933	12.446	0.360533	5.38543	0.521014	7.77946	0.76626	11.0657	0.9761	13.5351
0.321818	4.69725	0.134456	1.91428	0.405282	5.90559	0.539882	7.93667	0.648852	9.53464	0.905549	12.3104	0.364596	5.37137	0.523539	7.70991	0.766825	11.0251	0.976991	13.3746
0.325184	4.68269	0.136555	1.91872	0.40838	5.87104	0.542082	7.86133	0.651091	9.43832	0.907182	12.1783	0.368662	5.35772	0.526085	7.64254	0.767441	10.9815	0.977898	13.2185
0.328488	4.66765	0.138654	1.92304	0.411527	5.83808	0.544323	7.7886	0.653351	9.34486	0.908833	12.0498	0.37273	5.34448	0.528651	7.57726	0.768283	10.9228	0.978822	13.0664
0.331729	4.65212	0.140753	1.92724	0.414722	5.80665	0.546606	7.71837	0.655631	9.25415	0.9105	11.9246	0.3768	5.33161	0.531238	7.51399	0.769354	10.8497	0.979761	12.9183
0.334908	4.63612	0.142851	1.93133	0.417966	5.77671	0.54893	7.65053	0.657931	9.16608	0.912184	11.8026	0.380871	5.31909	0.533844	7.45264	0.770658	10.7631	0.980717	12.774
0.338023	4.61966	0.144948	1.93532	0.421258	5.7482	0.551294	7.58499	0.660252	9.08055	0.913666	11.6989	0.384943	5.30691	0.536469	7.39313	0.7722	10.6637	0.98169	12.6333
0.341074	4.60276	0.147046	1.93919	0.4246	5.72107	0.553699	7.52167	0.662592	8.99745	0.914938	11.6123	0.389016	5.29505	0.539114	7.3354	0.773986	10.5526	0.982678	12.4962
0.344062	4.58542	0.149142	1.94297	0.42799	5.69525	0.556145	7.46046	0.664953	8.91668	0.915998	11.5419	0.39309	5.28349	0.541778	7.27936	0.77579	10.4445	0.983684	12.3625
0.346987	4.56768	0.151239	1.94665	0.431429	5.6707	0.55863	7.40129	0.667332	8.83817	0.91684	11.487	0.397163	5.27222	0.544461	7.22496	0.777612	10.3393	0.984706	12.2321
0.349848	4.54956	0.153335	1.95024	0.434915	5.64736	0.561154	7.34408	0.669731	8.76183	0.917462	11.4471	0.401236	5.26121	0.547161	7.17213	0.77945	10.237	0.985746	12.105
0.352648	4.53107	0.15543	1.95374	0.438447	5.62518	0.563718	7.28876	0.672149	8.68757	0.917861	11.4217	0.405307	5.25046	0.54988	7.1208	0.781306	10.1373	0.986802	11.9808
0.355387	4.51224	0.157525	1.95715	0.442026	5.6041	0.56632	7.23525	0.674586	8.61532	0.918436	11.3855	0.409378	5.23995	0.552617	7.07093	0.783178	10.0402	0.987736	11.8751
0.358065	4.4931	0.15962	1.96048	0.445649	5.58408	0.568961	7.18347	0.677042	8.54501	0.919063	11.3464	0.413447	5.22966	0.555372	7.02246	0.785068	9.94564	0.988543	11.7868
0.360685	4.47367	0.161714	1.96373	0.449315	5.56505	0.571639	7.13338	0.679516	8.47656	0.919919	11.2939	0.417513	5.21959	0.558143	6.97533	0.786974	9.85348	0.989217	11.7149
0.363248	4.45398	0.163808	1.96691	0.453024	5.54697	0.574354	7.08489	0.682008	8.40991	0.921007	11.2284	0.421578	5.20972	0.560932	6.9295	0.788896	9.76366	0.989755	11.6587
0.365755	4.43407	0.165901	1.97	0.456772	5.52978	0.577106	7.03795	0.684519	8.34499	0.922331	11.1504	0.425639	5.20003	0.563738	6.88492	0.790835	9.67608	0.990153	11.6179
0.368208	4.41395	0.167994	1.97303	0.46056	5.51345	0.579894	6.9925	0.687048	8.28175	0.923895	11.0608	0.429697	5.19053	0.566561	6.84154	0.792791	9.59067	0.990409	11.5919
0.370608	4.39366	0.170087	1.97598	0.464384	5.49791	0.582718	6.94849	0.689594	8.22013	0.925706	10.9602	0.433752	5.1812	0.5694	6.79933	0.794762	9.50736	0.990778	11.5549
0.372959	4.37321	0.172179	1.97887	0.468244	5.48312	0.585577	6.90586	0.692158	8.16007	0.927532	10.862	0.437802	5.17202	0.572255	6.75824	0.796749	9.42607	0.991182	11.5149
0.37526	4.35265	0.174271	1.98169	0.472137	5.46905	0.588471	6.86456	0.69474	8.10151	0.929374	10.7661	0.441848	5.16299	0.575127	6.71823	0.798752	9.34674	0.991735	11.461
0.377515	4.33199	0.176362	1.98445	0.476063	5.45564	0.591398	6.82453	0.697338	8.04442	0.931232	10.6724	0.44589	5.1541	0.578014	6.67926	0.80077	9.26931	0.99244	11.3938
0.379725	4.31126	0.178453	1.98715	0.480019	5.44286	0.594359	6.78575	0.699954	7.98873	0.933105	10.5809	0.449926	5.14534	0.580917	6.64131	0.802804	9.1937	0.993301	11.3138
0.381892	4.29047	0.180544	1.98979	0.484004	5.43067	0.597353	6.74814	0.702587	7.93441	0.934994	10.4915	0.453956	5.13671	0.583836	6.60433	0.804854	9.11986	0.994324	11.2217
0.384018	4.26966	0.182635	1.99237	0.488015	5.41903	0.600378	6.71168	0.705237	7.8814	0.936898	10.4041	0.457981	5.12818	0.586771	6.5683	0.806918	9.04774	0.995514	11.1182
0.386104	4.24885	0.184725	1.9949	0.492052	5.40791	0.603436	6.67632	0.707903	7.82968	0.938817	10.3187	0.461999	5.11977	0.58972	6.53318	0.808998	8.97727	0.996722	11.0171
0.388153	4.22804	0.186815	1.99737	0.496112	5.39727	0.606524	6.64202	0.710586	7.77919	0.940751	10.2351	0.466011	5.11145	0.592685	6.49895	0.811092	8.90841	0.997948	10.9182
0.390166	4.20727	0.188905	1.99979	0.500195	5.38708	0.609642	6.60875	0.713285	7.72989	0.942701	10.1534	0.470015	5.10322	0.595665	6.46557	0.813202	8.84111	0.999193	10.8215
0.392145	4.18655	0.190994	2.00216	0.504299	5.37732	0.612791	6.57646	0.716	7.68176	0.944665	10.0735	0.474012	5.09507	0.59866	6.43302	0.815326	8.77532	1.00045	10.7269
0.394091	4.16589	0.193083	2.00448	0.508422	5.36795	0.615968	6.54511	0.718732	7.63474	0.946644	9.99526	0.478001	5.087	0.601669	6.40127	0.817465	8.71098		
0.396006	4.14531	0.195172	2.00676	0.512562	5.35896	0.619175	6.51469	0.721479	7.58882	0.948638	9.91874	0.481981	5.079	0.604694	6.3703	0.819618	8.64807		
0.397892	4.12483	0.19726	2.00898	0.51672	5.35031	0.622409	6.48514	0.724242	7.54395	0.950647	9.84385	0.485953	5.07107	0.607733	6.34009	0.821785	8.58652		
0.39975	4.10444	0.199348	2.01117	0.520892	5.34198	0.62567	6.45645	0.727021	7.50011	0.95267	9.77053	0.489915	5.06319	0.610786	6.31061	0.823967	8.52631		
0.401582	4.08418	0.201436	2.01331	0.525079	5.33395	0.628959	6.42857	0.729815	7.45726	0.954707	9.69875	0.493868	5.05536	0.613854	6.28184	0.826162	8.4674		
0.403388	4.06404	0.203524	2.01541	0.529279	5.3262	0.632273	6.40149	0.732625	7.41538	0.956759	9.62846	0.497811	5.04758	0.616937	6.25376	0.828372	8.40974		
0.405171	4.04404	0.205611	2.01746	0.533491	5.31872	0.635614	6.37517	0.73545	7.37443	0.958824	9.55961	0.501743	5.03984	0.620034	6.22634	0.830595	8.3533		
0.40693	4.02418	0.207698	2.01948	0.537714	5.31148	0.638979	6.34959	0.73829	7.33439	0.960904	9.49218	0.505665	5.03214	0.623145	6.19959	0.832832	8.29805		
0.408669	4.00447	0.209785	2.02146	0.541946	5.30447	0.642369	6.32472	0.741145	7.29523	0.962998	9.4261	0.509575	5.02446	0.626271	6.17346	0.835083	8.24394		
0.410387	3.98493	0.211872	2.0234	0.546188	5.29768	0.645783	6.30054	0.744015	7.25693	0.965105	9.36136	0.513473	5.01681	0.629411	6.14795	0.837347	8.19096		
0.412085	3.96555	0.213958	2.0253	0.550437	5.29108	0.64922	6.27702	0.7469	7.21946	0.967226	9.29791	0.517359	5.00919	0.632565	6.12303	0.839625	8.13906		
0.413766	3.94634	0.216044	2.02717	0.554694	5.28467	0.652681	6.25413	0.7498	7.18281	0.969361	9.23571	0.521233	5.00157	0.635733	6.0987	0.841916	8.08821		
0.415429	3.9273	0.21813	2.02901	0.558957	5.27843	0.656163	6.23187	0.752715	7.14694	0.97151	9.17474	0.525093	4.99397	0.638916	6.07493	0.84422	8.0384		
0.417076	3.90845	0.220216	2.03081	0.563225	5.27235	0.659668	6.2102	0.755644	7.11183	0.973672	9.11495	0.528941	4.98637	0.642113	6.05172	0.846537	7.98958		
0.418708	3.88977	0.222302	2.03258	0.567498	5.26641	0.663194	6.18911	0.758587	7.07748	0.975847	9.05633	0.532774	4.97878	0.645324	6.02904	0.848867	7.94174		
0.420325	3.87129	0.224387	2.03432	0.571775	5.26062	0.666741	6.16858	0.761545	7.04384	0.978035	8.99883	0.536593	4.97119	0.648549	6.00688	0.85121	7.89484		
0.421928	3.85299	0.226472	2.03602	0.576056	5.25496	0.670308	6.14858	0.764517	7.01092	0.980236	8.94242	0.540397	4.96358	0.651788	5.98524	0.853565	7.84887		
0.423518	3.83488	0.228557	2.0377	0.580339	5.24942	0.673896	6.12911	0.767504	6.97868	0.982451	8.88709	0.544186	4.95598	0.655042	5.96409	0.855934	7.80379		
0.425096	3.81697	0.230642	2.03934	0.584624	5.24398	0.677502	6.11014	0.770504	6.94711	0.984678	8.83279	0.547959	4.94835	0.65831	5.94342	0.858315	7.75958		
0.426662	3.79925	0.232726	2.04096	0.588911	5.23865	0.681128	6.09165	0.773519	6.91619	0.986918	8.77951	0.551717	4.94071	0.661592	5.92323	0.860708	7.71623		
0.428218	3.78173	0.234811	2.04255	0.593198	5.23342	0.684773	6.07364	0.776548	6.88591	0.989171	8.72722	0.555457	4.93306	0.664888	5.9035	0.863114	7.6737		
0.429763	3.7644	0.236895	2.04412	0.597486	5.22827	0.688435	6.05607	0.77959	6.85624	0.991437	8.67589	0.559182	4.92538	0.668199	5.88422	0.865533	7.63199		
0.431299	3.74727	0.238979	2.04565	0.601774	5.22321	0.692115	6.03895	0.782647	6.82718	0.993715	8.6255	0.562888	4.91767	0.671523	5.86537	0.867963	7.59105		
0.432826	3.73034	0.241063	2.04716	0.606061	5.21822	0.695813	6.02226	0.785717	6.79871	0.996005	8.57602	0.566578	4.90993	0.674863	5.84696	0.870406	7.55089		
0.434344	3.71361	0.243147	2.04865	0.610346	5.2133	0.699528	6.00598	0.788801	6.77081	0.998308	8.52744	0.570249	4.90217	0.678216	5.82896	0.872861	7.51148		
0.435854	3.69707	0.24523	2.05011	0.61463	5.20844	0.703258	5.99009	0.791899	6.74347	1.00062	8.47973	0.573902	4.89437	0.681584	5.81137	0.875328	7.47279		
0.437357	3.68073	0.247314	2.05155	0.618912	5.20364	0.707005	5.9746	0.795011	6.71668			0.577535	4.88653	0.684966	5.79418	0.877808	7.43482		
0.438853	3.66458	0.249397	2.05296	0.623191	5.19889	0.710768	5.95947	0.798136	6.69042			0.58115	4.87866	0.688362	5.77738	0.880299	7.39754		
0.440342	3.64863	0.25148	2.05436	0.627467	5.19419	0.714546	5.94471	0.801275	6.66468			0.584745	4.87074	0.691773	5.76095	0.882802	7.36095		
0.441825	3.63287	0.253563	2.05572	0.63174	5.18954	0.718339	5.9303	0.804427	6.63945			0.588321	4.86279	0.695198	5.7449	0.885316	7.32501		
0.443302	3.61731	0.255645	2.05707	0.636008	5.18492	0.722147	5.91623	0.807593	6.61471			0.591876	4.85478	0.698637	5.72921	0.887843	7.28972		
0.444774	3.60194	0.257728	2.0584	0.640273	5.18034	0.725969	5.90248	0.810773	6.59046			0.595411	4.84674	0.702091	5.71388	0.890381	7.25506		
0.446241	3.58675	0.259811	2.0597	0.644532	5.17579	0.729804	5.88906	0.813966	6.56669			0.598924	4.83864	0.705559	5.69889	0.892931	7.22102		
0.447704	3.57176	0.261893	2.06099	0.648787	5.17126	0.733654	5.87594	0.817173	6.54337			0.602417	4.8305	0.709041	5.68424	0.895493	7.18758		
0.449162	3.55696	0.263975	2.06226	0.653036	5.16676	0.737516	5.86313	0.820393	6.52051			0.605888	4.82231	0.712537	5.66991	0.898066	7.15473		
0.450617	3.54234	0.266057	2.0635	0.65728	5.16228	0.741391	5.8506	0.823626	6.4981			0.609338	4.81406	0.716047	5.65591	0.90065	7.12245		
0.452068	3.52791	0.268139	2.06473	0.661517	5.15782	0.745279	5.83836	0.826874	6.47611			0.612765	4.80577	0.719572	5.64223	0.903246	7.09074		
0.453515	3.51366	0.270221	2.06594	0.665748	5.15337	0.749179	5.82638	0.830134	6.45455			0.616171	4.79742	0.72311	5.62885	0.905854	7.05957		
0.45496	3.49959	0.272303	2.06713	0.669972	5.14893	0.753091	5.81468	0.833409	6.4334			0.619554	4.78902	0.726662	5.61577	0.908473	7.02894		
0.456402	3.4857	0.274384	2.0683	0.674189	5.1445	0.757015	5.80322	0.836696	6.41266			0.622914	4.78057	0.730228	5.60299	0.911103	6.99884		
0.457841	3.47198	0.276466	2.06946	0.678399	5.14008	0.76095	5.79202	0.839998	6.39232			0.626252	4.77206	0.733807	5.59049	0.913745	6.96926		
0.459278	3.45845	0.278547	2.0706	0.6826	5.13567	0.764896	5.78106	0.843312	6.37236			0.629567	4.7635	0.7374	5.57827	0.916398	6.94017		
0.460713	3.44508	0.280628	2.07172	0.686794	5.13125	0.768852	5.77033	0.846641	6.35279			0.632858	4.75489	0.741007	5.56632	0.919062	6.91158		
0.462147	3.43189	0.28271	2.07283	0.69098	5.12683	0.772819	5.75982	0.849983	6.33359			0.636127	4.74622	0.744627	5.55463	0.921737	6.88347		
0.463578	3.41887	0.284791	2.07392	0.695157	5.12241	0.776796	5.74954	0.853339	6.31475			0.639372	4.7375	0.748259	5.54321	0.924424	6.85583		
0.465009	3.40602	0.286872	2.07499	0.699325	5.11799	0.780783	5.73947	0.856708	6.29627			0.642593	4.72873	0.751905	5.53203	0.927122	6.82866		
0.466438	3.39333	0.288952	2.07605	0.703483	5.11356	0.784779	5.7296	0.860091	6.27815			0.645792	4.7199	0.755564	5.5211	0.929831	6.80193		
0.467867	3.3808	0.291033	2.0771	0.707633	5.10912	0.788784	5.71994	0.863488	6.26037			0.648966	4.71102	0.759235	5.51041	0.932551	6.77565		
0.469294	3.36844	0.293114	2.07813	0.711773	5.10467	0.792799	5.71047	0.866898	6.24292			0.652117	4.7021	0.762918	5.49995	0.935282	6.7498		
0.470721	3.35624	0.295194	2.07915	0.715902	5.10021	0.796822	5.70118	0.870323	6.22581			0.655245	4.69312	0.766614	5.48972	0.938024	6.72438		
0.472147	3.34419	0.297275	2.08015	0.720022	5.09573	0.800853	5.69208	0.873761	6.20903			0.658349	4.68409	0.770321	5.47971	0.940777	6.69937		
0.473574	3.33231	0.299355	2.08114	0.724131	5.09125	0.804892	5.68316	0.877213	6.19256			0.661429	4.67501	0.77404	5.46992	0.943542	6.67477		
0.475	3.32057	0.301435	2.08211	0.72823	5.08674	0.80894	5.67441	0.880679	6.1764			0.664485	4.66589	0.777771	5.46033	0.946317	6.65057		
0.476426	3.30899	0.303515	2.08308	0.732317	5.08222	0.812994	5.66582	0.88416	6.16056			0.667518	4.65672	0.781513	5.45094	0.949103	6.62676		
0.477852	3.29755	0.305595	2.08403	0.736394	5.07768	0.817056	5.65739	0.887654	6.14501			0.670528	4.64751	0.785265	5.44175	0.9519	6.60333		
0.479278	3.28627	0.307675	2.08496	0.740459	5.07312	0.821125	5.64912	0.891162	6.12976			0.673514	4.63826	0.789028	5.43276	0.954709	6.58028		
0.480705	3.27513	0.309755	2.08589	0.744513	5.06854	0.825201	5.64101	0.894685	6.11481			0.676476	4.62896	0.792802	5.42394	0.957528	6.5576		
0.482132	3.26413	0.311835	2.0868	0.748555	5.06393	0.829283	5.63303	0.898222	6.10014			0.679416	4.61962	0.796586	5.41531	0.960358	6.53529		
0.48356	3.25328	0.313915	2.0877	0.752584	5.05931	0.833371	5.6252	0.901773	6.08575			0.682332	4.61024	0.800379	5.40685	0.963199	6.51332		
0.484988	3.24256	0.315994	2.08859	0.756602	5.05466	0.837465	5.61751	0.905339	6.07163			0.685225	4.60083	0.804182	5.39857	0.966051	6.49171		
0.486418	3.23199	0.318074	2.08947	0.760607	5.04998	0.841565	5.60995	0.908919	6.05779			0.688095	4.59138	0.807995	5.39044	0.968913	6.47043		
0.487848	3.22155	0.320153	2.09033	0.7646	5.04528	0.84567	5.60252	0.912514	6.04422			0.690943	4.58189	0.811816	5.38248	0.971787	6.4495		
0.489279	3.21124	0.322233	2.09119	0.76858	5.04055	0.84978	5.59521	0.916123	6.03091			0.693768	4.57238	0.815645	5.37467	0.974671	6.42889		
0.490711	3.20107	0.324312	2.09204	0.772547	5.0358	0.853895	5.58803	0.919747	6.01785			0.69657	4.56283	0.819483	5.36701	0.977566	6.4086		
0.492145	3.19102	0.326391	2.09287	0.776502	5.03102	0.858015	5.58096	0.923385	6.00505			0.69935	4.55325	0.823329	5.3595	0.980472	6.38863		
0.493579	3.18111	0.328471	2.09369	0.780442	5.02621	0.862138	5.574	0.927039	5.9925			0.702108	4.54364	0.827183	5.35212	0.983389	6.36897		
0.495015	3.17132	0.33055	2.09451	0.78437	5.02138	0.866266	5.56715	0.930707	5.9802			0.704844	4.53401	0.831043	5.34488	0.986317	6.34961		
0.496453	3.16166	0.332629	2.09531	0.788284	5.01651	0.870398	5.56041	0.93439	5.96814			0.707559	4.52436	0.834911	5.33777	0.989255	6.33056		
0.497892	3.15212	0.334708	2.0961	0.792184	5.01162	0.874533	5.55377	0.938088	5.95631			0.710251	4.51468	0.838786	5.33079	0.992204	6.3118		
0.499332	3.1427	0.336787	2.09689	0.79607	5.00669	0.878671	5.54723	0.941801	5.94472			0.712923	4.50498	0.842666	5.32393	0.995163	6.29333		
0.500774	3.1334	0.338865	2.09766	0.799943	5.00174	0.882812	5.54078	0.94553	5.93336			0.715573	4.49526	0.846553	5.31718	0.998134	6.27514		
0.502218	3.12422	0.340944	2.09843	0.803801	4.99675	0.886956	5.53443	0.949273	5.92222			0.718202	4.48553	0.850446	5.31055	1.00111	6.25723		
0.503663	3.11516	0.343023	2.09919	0.807645	4.99174	0.891102	5.52816	0.953031	5.91131			0.720811	4.47578	0.854343	5.30404				
0.50511	3.10621	0.345101	2.09993	0.811474	4.98669	0.895251	5.52198	0.956805	5.90062			0.723399	4.46601	0.858246	5.29762				
0.506559	3.09737	0.34718	2.10067	0.81529	4.98162	0.899402	5.51588	0.960594	5.89014			0.725967	4.45623	0.862154	5.29131				
0.50801	3.08865	0.349258	2.1014	0.81909	4.97651	0.903554	5.50987	0.964398	5.87988			0.728515	4.44644	0.866066	5.2851				
0.509463	3.08003	0.351337	2.10212	0.822876	4.97137	0.907708	5.50393	0.968217	5.86982			0.731044	4.43664	0.869982	5.27898				
0.510917	3.07152	0.353415	2.10284	0.826647	4.9662	0.911863	5.49806	0.972052	5.85997			0.733552	4.42684	0.873901	5.27296				
0.512374	3.06312	0.355494	2.10354	0.830404	4.961	0.916019	5.49227	0.975902	5.85032			0.736042	4.41703	0.877824	5.26702				
0.513832	3.05483	0.357572	2.10424	0.834145	4.95576	0.920176	5.48654	0.979768	5.84087			0.738512	4.40721	0.881751	5.26116				
0.515293	3.04664	0.35965	2.10493	0.837871	4.9505	0.924334	5.48088	0.983649	5.83162			0.740963	4.39739	0.88568	5.25539				
0.516756	3.03855	0.361728	2.10561	0.841582	4.9452	0.928492	5.47529	0.987545	5.82255			0.743396	4.38757	0.889611	5.2497				
0.518221	3.03056	0.363806	2.10628	0.845278	4.93988	0.93265	5.46976	0.991456	5.81368			0.745811	4.37775	0.893545	5.24408				
0.519688	3.02267	0.365884	2.10695	0.848959	4.93452	0.936808	5.46429	0.995383	5.80499			0.748207	4.36792	0.89748	5.23853				
0.521157	3.01488	0.367962	2.1076	0.852625	4.92913	0.940966	5.45888	0.999325	5.79648			0.750586	4.35811	0.901417	5.23305				
0.522628	3.00718	0.37004	2.10826	0.856275	4.92371	0.945123	5.45352	1.00328	5.78816			0.752947	4.34829	0.905356	5.22764				
0.524102	2.99958	0.372118	2.1089	0.859909	4.91826	0.94928	5.44821					0.755291	4.33848	0.909295	5.22229				
0.525578	2.99207	0.374196	2.10954	0.863529	4.91279	0.953436	5.44296					0.757617	4.32868	0.913235	5.21701				
0.527056	2.98466	0.376274	2.11017	0.867132	4.90728	0.957592	5.43776					0.759927	4.31889	0.917176	5.21178				
0.528537	2.97733	0.378351	2.11079	0.870721	4.90174	0.961746	5.43261					0.76222	4.30911	0.921116	5.20661				
0.53002	2.9701	0.380429	2.11141	0.874293	4.89617	0.965898	5.4275					0.764497	4.29933	0.925057	5.20149				
0.531505	2.96295	0.382507	2.11202	0.87785	4.89057	0.97005	5.42244					0.766758	4.28957	0.928997	5.19642				
0.532992	2.95589	0.384584	2.11262	0.881392	4.88495	0.974199	5.41742					0.769003	4.27982	0.932936	5.1914				
0.534482	2.94891	0.386662	2.11322	0.884918	4.87929	0.978347	5.41245					0.771232	4.27009	0.936874	5.18642				
0.535974	2.94202	0.388739	2.11381	0.888428	4.87361	0.982494	5.40751					0.773446	4.26037	0.940811	5.18149				
0.537469	2.93522	0.390817	2.11439	0.891923	4.8679	0.986638	5.40262					0.775645	4.25066	0.944747	5.1766				
0.538966	2.92849	0.392894	2.11497	0.895402	4.86217	0.99078	5.39776					0.777829	4.24098	0.948681	5.17176				
0.540466	2.92185	0.394971	2.11554	0.898865	4.8564	0.99492	5.39294					0.779998	4.23131	0.952612	5.16695				
0.541968	2.91529	0.397049	2.11611	0.902313	4.85062	0.999057	5.38815					0.782153	4.22166	0.956542	5.16217				
0.543472	2.9088	0.399126	2.11667	0.905745	4.8448	1.00319	5.38341					0.784293	4.21203	0.960468	5.15743				
0.544979	2.90239	0.401203	2.11722	0.909162	4.83896							0.78642	4.20243	0.964392	5.15272				
0.546489	2.89606	0.40328	2.11777	0.912563	4.83309							0.788533	4.19284	0.968313	5.14805				
0.548	2.8898	0.405357	2.11831	0.915948	4.8272							0.790632	4.18328	0.972231	5.1434				
0.549515	2.88362	0.407435	2.11885	0.919318	4.82129							0.792718	4.17375	0.976145	5.13877				
0.551031	2.87751	0.409512	2.11939	0.922672	4.81535							0.794792	4.16423	0.980055	5.13418				
0.552551	2.87148	0.411589	2.11991	0.926011	4.80939							0.796852	4.15475	0.983961	5.1296				
0.554072	2.86551	0.413665	2.12043	0.929334	4.80341							0.7989	4.14529	0.987864	5.12505				
0.555597	2.85961	0.415742	2.12095	0.932642	4.7974							0.800935	4.13586	0.991761	5.12052				
0.557123	2.85379	0.417819	2.12146	0.935935	4.79138							0.802959	4.12645	0.995654	5.11601				
0.558653	2.84803	0.419896	2.12197	0.939212	4.78533							0.80497	4.11708	0.999542	5.11152				
0.560184	2.84233	0.421973	2.12247	0.942474	4.77926							0.80697	4.10773	1.00342	5.10704				
0.561718	2.83671	0.42405	2.12297	0.94572	4.77317							0.808958	4.09841						
0.563255	2.83115	0.426126	2.12346	0.948952	4.76707							0.810935	4.08913						
0.564794	2.82565	0.428203	2.12395	0.952168	4.76094							0.812901	4.07987						
0.566336	2.82022	0.43028	2.12443	0.955369	4.7548							0.814856	4.07065						
0.56788	2.81485	0.432356	2.12491	0.958555	4.74863							0.816801	4.06146						
0.569427	2.80954	0.434433	2.12538	0.961726	4.74245							0.818735	4.0523						
0.570976	2.80429	0.436509	2.12585	0.964882	4.73625							0.820658	4.04318						
0.572527	2.7991	0.438586	2.12632	0.968023	4.73004							0.822572	4.03409						
0.574081	2.79398	0.440662	2.12678	0.971149	4.72381							0.824476	4.02504						
0.575638	2.7889	0.442739	2.12723	0.97426	4.71757							0.82637	4.01602						
0.577197	2.78389	0.444815	2.12769	0.977357	4.71131							0.828255	4.00703						
0.578758	2.77893	0.446892	2.12813	0.980439	4.70503							0.83013	3.99809						
0.580322	2.77403	0.448968	2.12858	0.983506	4.69874							0.831997	3.98917						
0.581889	2.76919	0.451044	2.12902	0.986559	4.69244							0.833854	3.9803						
0.583458	2.7644	0.453121	2.12945	0.989598	4.68613							0.835703	3.97146						
0.585029	2.75966	0.455197	2.12988	0.992621	4.6798							0.837543	3.96266						
0.586602	2.75498	0.457273	2.13031	0.995631	4.67346							0.839375	3.9539						
0.588179	2.75034	0.459349	2.13074	0.998626	4.66711							0.841198	3.94517						
0.589757	2.74576	0.461425	2.13116	1.00161	4.66074							0.843014	3.93649						
0.591338	2.74123	0.463501	2.13157									0.844821	3.92784						
0.592921	2.73675	0.465578	2.13198									0.846621	3.91923						
0.594507	2.73232	0.467654	2.13239									0.848413	3.91066						
0.596095	2.72794	0.46973	2.1328									0.850198	3.90213						
0.597686	2.72361	0.471806	2.1332									0.851976	3.89364						
0.599279	2.71932	0.473882	2.1336									0.853747	3.88519						
0.600874	2.71508	0.475957	2.13399									0.855511	3.87678						
0.602472	2.71089	0.478033	2.13439									0.857268	3.86841						
0.604072	2.70674	0.480109	2.13477									0.859018	3.86008						
0.605674	2.70263	0.482185	2.13516									0.860762	3.85179						
0.607279	2.69857	0.484261	2.13554									0.8625	3.84354						
0.608886	2.69456	0.486337	2.13592									0.864231	3.83533						
0.610495	2.69059	0.488413	2.13629									0.865957	3.82716						
0.612106	2.68666	0.490488	2.13666									0.867676	3.81904						
0.61372	2.68277	0.492564	2.13703									0.86939	3.81095						
0.615336	2.67893	0.49464	2.1374									0.871098	3.80291						
0.616955	2.67512	0.496715	2.13776									0.872801	3.79491						
0.618576	2.67136	0.498791	2.13812									0.874498	3.78695						
0.620199	2.66763	0.500867	2.13848									0.87619	3.77903						
0.621824	2.66395	0.502942	2.13883									0.877877	3.77115						
0.623451	2.6603	0.505018	2.13918									0.879559	3.76331						
0.625081	2.65669	0.507093	2.13953									0.881236	3.75551						
0.626713	2.65312	0.509169	2.13988									0.882908	3.74776						
0.628347	2.64959	0.511244	2.14022									0.884575	3.74005						
0.629983	2.64609	0.51332	2.14056									0.886239	3.73238						
0.631621	2.64263	0.515395	2.14089									0.887897	3.72475						
0.633262	2.63921	0.517471	2.14123									0.889552	3.71716						
0.634905	2.63582	0.519546	2.14156									0.891202	3.70961						
0.63655	2.63247	0.521621	2.14189									0.892848	3.70211						
0.638197	2.62915	0.523697	2.14222									0.89449	3.69464						
0.639846	2.62586	0.525772	2.14254									0.896128	3.68722						
0.641497	2.62261	0.527847	2.14286									0.897762	3.67984						
0.64315	2.61939	0.529923	2.14318									0.899393	3.67249						
0.644806	2.61621	0.531998	2.14349									0.90102	3.66519						
0.646464	2.61306	0.534073	2.14381									0.902644	3.65794						
0.648123	2.60994	0.536148	2.14412									0.904264	3.65072						
0.649785	2.60685	0.538223	2.14443									0.905881	3.64354						
0.651449	2.60379	0.540299	2.14473									0.907494	3.6364						
0.653114	2.60076	0.542374	2.14504									0.909105	3.62931						
0.654782	2.59777	0.544449	2.14534									0.910713	3.62225						
0.656452	2.5948	0.546524	2.14564									0.912317	3.61524						
0.658124	2.59186	0.548599	2.14594									0.913919	3.60826						
0.659798	2.58896	0.550674	2.14623									0.915518	3.60133						
0.661474	2.58608	0.552749	2.14653									0.917114	3.59443						
0.663152	2.58323	0.554824	2.14682									0.918707	3.58758						
0.664831	2.58041	0.556899	2.1471									0.920298	3.58076						
0.666513	2.57761	0.558974	2.14739									0.921887	3.57399						
0.668197	2.57485	0.561049	2.14767									0.923473	3.56725						
0.669882	2.57211	0.563124	2.14796									0.925056	3.56055						
0.67157	2.56939	0.565199	2.14824									0.926638	3.5539						
0.673259	2.56671	0.567274	2.14851									0.928217	3.54728						
0.674951	2.56405	0.569349	2.14879									0.929794	3.5407						
0.676644	2.56142	0.571423	2.14906									0.93137	3.53416						
0.678339	2.55881	0.573498	2.14934									0.932943	3.52766						
0.680036	2.55623	0.575573	2.14961									0.934514	3.52119						
0.681735	2.55367	0.577648	2.14987									0.936083	3.51477						
0.683436	2.55113	0.579723	2.15014									0.937651	3.50838						
0.685138	2.54863	0.581797	2.1504									0.939217	3.50203						
0.686842	2.54614	0.583872	2.15067									0.940781	3.49572						
0.688549	2.54368	0.585947	2.15093									0.942343	3.48944						
0.690257	2.54124	0.588022	2.15119									0.943904	3.48321						
0.691966	2.53883	0.590096	2.15144									0.945464	3.47701						
0.693678	2.53644	0.592171	2.1517									0.947022	3.47084						
0.695391	2.53407	0.594245	2.15195									0.948578	3.46472						
0.697106	2.53173	0.59632	2.1522									0.950134	3.45863						
0.698823	2.5294	0.598395	2.15245									0.951688	3.45258						
0.700542	2.5271	0.600469	2.1527									0.95324	3.44656						
0.702262	2.52482	0.602544	2.15295									0.954792	3.44058						
0.703984	2.52256	0.604618	2.15319									0.956342	3.43464						
0.705708	2.52032	0.606693	2.15343									0.957892	3.42873						
0.707433	2.51811	0.608767	2.15367									0.95944	3.42285						
0.70916	2.51591	0.610842	2.15391									0.960988	3.41702						
0.710889	2.51374	0.612916	2.15415									0.962534	3.41121						
0.71262	2.51158	0.614991	2.15439									0.964079	3.40545						
0.714352	2.50945	0.617065	2.15462									0.965624	3.39971						
0.716086	2.50733	0.61914	2.15486									0.967168	3.39402						
0.717821	2.50523	0.621214	2.15509									0.968711	3.38835						
0.719558	2.50316	0.623289	2.15532									0.970253	3.38272						
0.721297	2.5011	0.625363	2.15555									0.971795	3.37713						
0.723037	2.49906	0.627437	2.15577									0.973336	3.37157						
0.724779	2.49704	0.629512	2.156									0.974876	3.36604						
0.726523	2.49504	0.631586	2.15622									0.976416	3.36055						
0.728268	2.49305	0.63366	2.15644									0.977955	3.35509						
0.730014	2.49109	0.635735	2.15667									0.979494	3.34966						
0.731763	2.48914	0.637809	2.15689									0.981032	3.34426						
0.733512	2.48721	0.639883	2.1571									0.98257	3.3389						
0.735264	2.4853	0.641957	2.15732									0.984108	3.33357						
0.737016	2.4834	0.644032	2.15754									0.985645	3.32827						
0.738771	2.48152	0.646106	2.15775									0.987182	3.32301						
0.740527	2.47966	0.64818	2.15796									0.988718	3.31777						
0.742284	2.47781	0.650254	2.15817									0.990254	3.31257						
0.744043	2.47598	0.652328	2.15838									0.99179	3.3074						
0.745804	2.47417	0.654403	2.15859									0.993326	3.30226						
0.747565	2.47237	0.656477	2.1588									0.994861	3.29716						
0.749329	2.47059	0.658551	2.159									0.996397	3.29208						
0.751094	2.46883	0.660625	2.15921									0.997932	3.28703						
0.75286	2.46708	0.662699	2.15941									0.999467	3.28202						
0.754628	2.46534	0.664773	2.15961									1.001	3.27703						
0.756397	2.46363	0.666847	2.15981																
0.758167	2.46192	0.668921	2.16001																
0.759939	2.46023	0.670995	2.16021																
0.761713	2.45856	0.673069	2.16041																
0.763488	2.4569	0.675143	2.1606																
0.765264	2.45525	0.677217	2.1608																
0.767041	2.45362	0.679291	2.16099																
0.76882	2.452	0.681365	2.16118																
0.770601	2.4504	0.683439	2.16138																
0.772382	2.44881	0.685513	2.16157																
0.774166	2.44724	0.687587	2.16175																
0.77595	2.44567	0.689661	2.16194																
0.777736	2.44412	0.691735	2.16213																
0.779523	2.44259	0.693808	2.16231																
0.781311	2.44107	0.695882	2.1625																
0.783101	2.43956	0.697956	2.16268																
0.784892	2.43806	0.70003	2.16286																
0.786684	2.43657	0.702104	2.16304																
0.788478	2.4351	0.704178	2.16322																
0.790273	2.43364	0.706251	2.1634																
0.792069	2.4322	0.708325	2.16358																
0.793866	2.43076	0.710399	2.16376																
0.795665	2.42934	0.712473	2.16393																
0.797465	2.42793	0.714546	2.16411																
0.799266	2.42653	0.71662	2.16428																
0.801068	2.42514	0.718694	2.16445																
0.802872	2.42376	0.720767	2.16462																
0.804677	2.4224	0.722841	2.16479																
0.806483	2.42105	0.724915	2.16496																
0.80829	2.4197	0.726988	2.16513																
0.810099	2.41837	0.729062	2.1653																
0.811908	2.41705	0.731136	2.16546																
0.813719	2.41574	0.733209	2.16563																
0.815531	2.41444	0.735283	2.16579																
0.817344	2.41315	0.737356	2.16596																
0.819158	2.41188	0.73943	2.16612																
0.820974	2.41061	0.741504	2.16628																
0.822791	2.40935	0.743577	2.16644																
0.824608	2.40811	0.745651	2.1666																
0.826427	2.40687	0.747724	2.16676																
0.828247	2.40564	0.749798	2.16692																
0.830068	2.40442	0.751871	2.16708																
0.831891	2.40322	0.753945	2.16723																
0.833714	2.40202	0.756018	2.16739																
0.835539	2.40083	0.758091	2.16755																
0.837364	2.39965	0.760165	2.1677																
0.839191	2.39848	0.762238	2.16785																
0.841019	2.39732	0.764312	2.168																
0.842847	2.39617	0.766385	2.16816																
0.844677	2.39503	0.768459	2.16831																
0.846508	2.3939	0.770532	2.16846																
0.84834	2.39278	0.772605	2.1686																
0.850173	2.39166	0.774679	2.16875																
0.852007	2.39055	0.776752	2.1689																
0.853842	2.38946	0.778825	2.16905																
0.855679	2.38837	0.780899	2.16919																
0.857516	2.38729	0.782972	2.16934																
0.859354	2.38622	0.785045	2.16948																
0.861193	2.38515	0.787118	2.16962																
0.863033	2.3841	0.789192	2.16977																
0.864875	2.38305	0.791265	2.16991																
0.866717	2.38201	0.793338	2.17005																
0.86856	2.38098	0.795411	2.17019																
0.870404	2.37996	0.797485	2.17033																
0.872249	2.37894	0.799558	2.17047																
0.874096	2.37793	0.801631	2.17061																
0.875943	2.37693	0.803704	2.17074																
0.877791	2.37594	0.805777	2.17088																
0.87964	2.37496	0.80785	2.17102																
0.88149	2.37398	0.809924	2.17115																
0.883341	2.37301	0.811997	2.17128																
0.885192	2.37205	0.81407	2.17142																
0.887045	2.37109	0.816143	2.17155																
0.888899	2.37015	0.818216	2.17168																
0.890754	2.36921	0.820289	2.17182																
0.892609	2.36827	0.822362	2.17195																
0.894465	2.36735	0.824435	2.17208																
0.896323	2.36643	0.826508	2.17221																
0.898181	2.36551	0.828581	2.17234																
0.90004	2.36461	0.830654	2.17246																
0.9019	2.36371	0.832727	2.17259																
0.903761	2.36282	0.8348	2.17272																
0.905623	2.36193	0.836873	2.17284																
0.907486	2.36105	0.838946	2.17297																
0.909349	2.36018	0.841019	2.1731																
0.911214	2.35931	0.843092	2.17322																
0.913079	2.35845	0.845165	2.17334																
0.914945	2.3576	0.847238	2.17347																
0.916812	2.35675	0.849311	2.17359																
0.91868	2.35591	0.851384	2.17371																
0.920548	2.35508	0.853457	2.17383																
0.922418	2.35425	0.85553	2.17395																
0.924288	2.35342	0.857603	2.17407																
0.926159	2.35261	0.859675	2.17419																
0.928031	2.3518	0.861748	2.17431																
0.929904	2.35099	0.863821	2.17443																
0.931778	2.35019	0.865894	2.17455																
0.933652	2.3494	0.867967	2.17467																
0.935527	2.34861	0.87004	2.17478																
0.937403	2.34783	0.872112	2.1749																
0.93928	2.34705	0.874185	2.17501																
0.941157	2.34628	0.876258	2.17513																
0.943036	2.34552	0.878331	2.17524																
0.944915	2.34476	0.880403	2.17536																
0.946795	2.344	0.882476	2.17547																
0.948676	2.34325	0.884549	2.17558																
0.950557	2.34251	0.886622	2.1757																
0.952439	2.34177	0.888694	2.17581																
0.954322	2.34104	0.890767	2.17592																
0.956206	2.34031	0.89284	2.17603																
0.95809	2.33959	0.894912	2.17614																
0.959975	2.33887	0.896985	2.17625																
0.961861	2.33816	0.899058	2.17636																
0.963748	2.33745	0.90113	2.17647																
0.965636	2.33675	0.903203	2.17658																
0.967524	2.33605	0.905276	2.17668																
0.969413	2.33536	0.907348	2.17679																
0.971302	2.33467	0.909421	2.1769																
0.973192	2.33399	0.911493	2.177																
0.975083	2.33331	0.913566	2.17711																
0.976975	2.33263	0.915638	2.17721																
0.978868	2.33196	0.917711	2.17732																
0.980761	2.3313	0.919784	2.17742																
0.982654	2.33064	0.921856	2.17752																
0.984549	2.32998	0.923929	2.17763																
0.986444	2.32933	0.926001	2.17773																
0.98834	2.32869	0.928074	2.17783																
0.990237	2.32804	0.930146	2.17793																
0.992134	2.32741	0.932219	2.17804																
0.994032	2.32677	0.934291	2.17814																
0.99593	2.32615	0.936364	2.17824																
0.99783	2.32552	0.938436	2.17834																
0.99973	2.3249	0.940508	2.17844																
1.00163	2.32428	0.942581	2.17853																
		0.944653	2.17863																
		0.946726	2.17873																
		0.948798	2.17883																
		0.95087	2.17893																
		0.952943	2.17902																
		0.955015	2.17912																
		0.957087	2.17921																
		0.95916	2.17931																
		0.961232	2.1794																
		0.963304	2.1795																
		0.965377	2.17959																
		0.967449	2.17969																
		0.969521	2.17978																
		0.971594	2.17987																
		0.973666	2.17997																
		0.975738	2.18006																
		0.97781	2.18015																
		0.979883	2.18024																
		0.981955	2.18033																
		0.984027	2.18042																
		0.986099	2.18051																
		0.988172	2.1806																
		0.990244	2.18069																
		0.992316	2.18078																
		0.994388	2.18087																
		0.99646	2.18096																
		0.998532	2.18104																
		1.0006	2.18113																
