Sym0		Asym0		Sym1		Sym2		Sym3		Asym1		Asym2		Asym3	
451  Points		491  Points		147  Points		119  Points		101  Points		284  Points		129  Points		103  Points	
Freq (MHz)	Vph (m/ms)	Freq (MHz)	Vph (m/ms)	Freq (MHz)	Vph (m/ms)	Freq (MHz)	Vph (m/ms)	Freq (MHz)	Vph (m/ms)	Freq (MHz)	Vph (m/ms)	Freq (MHz)	Vph (m/ms)	Freq (MHz)	Vph (m/ms)
0.00215235	8.72168	0.000561811	0.265465	0.279519	941.056	0.539912	1517.19	0.559056	796.724	0.139789	396.872	0.419272	1248.1	0.698773	3672
0.0102778	8.72125	0.00115456	0.37879	0.27968	227.619	0.539945	419.356	0.559231	342.374	0.140216	109.209	0.419391	330.848	0.698831	622.848
0.0184007	8.72001	0.00194399	0.488475	0.28004	129.623	0.540014	243.332	0.559543	218.138	0.141124	63.695	0.419649	190.809	0.69897	340.349
0.0265195	8.71815	0.00291608	0.593735	0.280595	90.7456	0.540123	171.416	0.559991	160.145	0.142501	45.2771	0.420046	134.157	0.699191	234.205
0.0346319	8.71557	0.00405475	0.693938	0.281346	69.9204	0.540274	132.334	0.560572	126.584	0.144332	35.3842	0.420581	103.522	0.699495	178.576
0.0427361	8.71231	0.00534317	0.788684	0.28229	56.9649	0.540469	107.785	0.561284	104.714	0.146597	29.2567	0.421252	84.3449	0.699879	144.342
0.0508301	8.70834	0.00676404	0.877707	0.283424	48.1424	0.540712	90.9367	0.562123	89.3413	0.149271	25.1196	0.422061	71.2206	0.700345	121.157
0.058912	8.70366	0.00830091	0.960955	0.284745	41.7583	0.541008	78.6608	0.563087	77.9514	0.15233	22.16	0.423005	61.6823	0.700893	104.421
0.0669795	8.69825	0.00993794	1.03846	0.286251	36.9329	0.541359	69.3212	0.564171	69.1788	0.155747	19.9527	0.424083	54.443	0.701521	91.7758
0.0750306	8.69211	0.0116608	1.11038	0.287938	33.1639	0.541769	61.9794	0.565372	62.218	0.159496	18.2543	0.425295	48.7657	0.70223	81.8874
0.083063	8.6852	0.0134563	1.17694	0.289802	30.1438	0.542244	56.0585	0.566686	56.5632	0.163552	16.9148	0.426639	44.1981	0.703019	73.9456
0.0910744	8.67753	0.015313	1.23842	0.291837	27.6737	0.542785	51.1844	0.568112	51.8808	0.167889	15.8372	0.428113	40.4469	0.703889	67.4291
0.0990624	8.66906	0.0172209	1.29513	0.294041	25.6192	0.543398	47.1037	0.569646	47.9418	0.172483	14.9562	0.429717	37.3139	0.704838	61.9876
0.107024	8.65976	0.0191712	1.3474	0.296408	23.8864	0.544085	43.6389	0.571286	44.5839	0.177313	14.2257	0.431447	34.6601	0.705867	57.3767
0.114958	8.64963	0.0211565	1.39554	0.298933	22.4075	0.54485	40.6617	0.573029	41.6887	0.182357	13.6129	0.433303	32.3852	0.706975	53.421
0.130728	8.62672	0.0231703	1.43989	0.301612	21.1324	0.545696	38.0772	0.574873	39.168	0.187598	13.0934	0.435283	30.4152	0.708161	49.9912
0.138559	8.61387	0.0249444	1.47568	0.304438	20.0234	0.546626	35.8138	0.576816	36.9545	0.193016	12.6491	0.437384	28.694	0.709425	46.9898
0.14635	8.60006	0.0264684	1.50425	0.307408	19.0513	0.547643	33.8162	0.578857	34.9963	0.198597	12.2659	0.439604	27.1784	0.710767	44.3423
0.154096	8.58523	0.0277356	1.52661	0.310516	18.1934	0.54875	32.0412	0.580993	33.2524	0.204325	11.933	0.441942	25.8348	0.712186	41.9901
0.161795	8.56935	0.0287414	1.54352	0.313757	17.4317	0.54995	30.4545	0.583223	31.6902	0.209426	11.6772	0.444395	24.6364	0.713681	39.8872
0.169443	8.55237	0.0294829	1.55555	0.317127	16.7518	0.551245	29.0285	0.585547	30.2834	0.213848	11.4807	0.446961	23.5617	0.715252	37.9964
0.177035	8.53424	0.0299582	1.56306	0.32062	16.1419	0.552638	27.7408	0.587962	29.0104	0.217554	11.3315	0.449637	22.5931	0.716899	36.2878
0.184567	8.51491	0.0306425	1.57363	0.324233	15.5924	0.554132	26.5731	0.590467	27.8535	0.220512	11.2211	0.452421	21.7164	0.71862	34.7368
0.192035	8.49432	0.0313876	1.58481	0.327961	15.0953	0.55573	25.5099	0.593061	26.7982	0.222703	11.1439	0.455312	20.9195	0.720415	33.3228
0.199434	8.47242	0.0324028	1.59953	0.331801	14.6441	0.557433	24.5386	0.595744	25.8319	0.224112	11.0961	0.458305	20.1927	0.722283	32.0289
0.206758	8.44916	0.0336896	1.61735	0.335748	14.233	0.559245	23.6485	0.598514	24.9442	0.226146	11.0296	0.4614	19.5274	0.724224	30.8408
0.214003	8.42445	0.0352492	1.63781	0.339801	13.8575	0.561168	22.8303	0.60137	24.1264	0.228368	10.9602	0.464592	18.9166	0.726237	29.7463
0.221162	8.39825	0.0370828	1.66037	0.343956	13.5135	0.563204	22.0763	0.604312	23.3709	0.231409	10.87	0.467881	18.3543	0.728322	28.7351
0.228229	8.37049	0.0391912	1.6845	0.34821	13.1975	0.565355	21.3799	0.607338	22.671	0.235285	10.7627	0.471264	17.8351	0.730476	27.7983
0.2352	8.34111	0.0413029	1.70691	0.352563	12.9067	0.567624	20.7351	0.610448	22.0213	0.240012	10.642	0.474738	17.3546	0.732701	26.9282
0.242066	8.31004	0.0434171	1.72776	0.357012	12.6386	0.570013	20.137	0.613641	21.4166	0.24561	10.5118	0.4783	16.909	0.734994	26.1181
0.248822	8.27722	0.0455328	1.74717	0.361557	12.3908	0.572523	19.5812	0.616917	20.8529	0.252098	10.3758	0.481949	16.4947	0.737356	25.3624
0.255461	8.24261	0.0476495	1.76528	0.366198	12.1615	0.575156	19.0638	0.620274	20.3262	0.258648	10.2522	0.485682	16.1088	0.739785	24.6558
0.261976	8.20614	0.0497666	1.7822	0.370319	11.9754	0.577915	18.5814	0.623713	19.8334	0.265255	10.1396	0.489497	15.7486	0.74228	23.9939
0.268361	8.16778	0.0518838	1.79803	0.373888	11.8262	0.580799	18.131	0.627232	19.3714	0.271911	10.0366	0.493391	15.4119	0.744841	23.3728
0.27461	8.12749	0.0540007	1.81285	0.37688	11.7089	0.583811	17.7099	0.630832	18.9376	0.278612	9.94205	0.497363	15.0966	0.747467	22.7889
0.280716	8.08527	0.0561171	1.82677	0.379271	11.6198	0.58695	17.3158	0.634512	18.5298	0.285352	9.85494	0.501409	14.8009	0.750158	22.2392
0.286675	8.0411	0.0582329	1.83984	0.381044	11.5563	0.590218	16.9464	0.638271	18.1459	0.292128	9.77442	0.505528	14.5231	0.752911	21.7209
0.29248	7.99499	0.0603478	1.85214	0.382184	11.5165	0.593615	16.5998	0.64211	17.784	0.298933	9.69975	0.509718	14.2617	0.755727	21.2314
0.298127	7.94696	0.0624618	1.86373	0.383833	11.4604	0.59714	16.2744	0.646029	17.4424	0.305765	9.6303	0.513977	14.0155	0.758604	20.7687
0.303613	7.89707	0.0645748	1.87466	0.385637	11.401	0.600792	15.9685	0.650027	17.1197	0.31262	9.5655	0.518302	13.7833	0.761543	20.3305
0.308935	7.84537	0.0666868	1.88499	0.38811	11.3227	0.604572	15.6806	0.654104	16.8145	0.319493	9.50485	0.522692	13.5639	0.764541	19.9152
0.314091	7.79194	0.0687977	1.89476	0.39127	11.2274	0.608477	15.4095	0.65826	16.5256	0.326382	9.44791	0.527145	13.3566	0.767598	19.5211
0.319079	7.73687	0.0709076	1.90401	0.39514	11.1176	0.612507	15.154	0.662497	16.2518	0.333283	9.39431	0.531659	13.1603	0.770713	19.1466
0.323901	7.68028	0.0730165	1.91278	0.399749	10.9961	0.616658	14.913	0.666814	15.9922	0.340193	9.34369	0.536233	12.9743	0.773885	18.7905
0.328556	7.62228	0.0751243	1.92111	0.405128	10.8656	0.620928	14.6853	0.671211	15.7458	0.347108	9.29575	0.540864	12.7978	0.777114	18.4515
0.333048	7.563	0.0772311	1.92903	0.410605	10.744	0.625315	14.4702	0.67569	15.5118	0.354027	9.25022	0.545552	12.6303	0.780398	18.1284
0.337377	7.50258	0.0793369	1.93656	0.416179	10.6307	0.629814	14.2668	0.680251	15.2895	0.360945	9.20687	0.550294	12.4711	0.783737	17.8203
0.341549	7.44117	0.0814418	1.94373	0.421847	10.525	0.634423	14.0741	0.684896	15.0782	0.367861	9.16546	0.554471	12.3387	0.78713	17.5262
0.345566	7.37891	0.0835457	1.95057	0.427611	10.4265	0.639137	13.8916	0.689624	14.8771	0.374772	9.12581	0.558062	12.2303	0.790577	17.2452
0.349433	7.31594	0.0856488	1.9571	0.433466	10.3344	0.643952	13.7184	0.694438	14.6858	0.381676	9.08773	0.561053	12.1435	0.794075	16.9765
0.353155	7.25241	0.0877509	1.96334	0.43941	10.2485	0.648863	13.554	0.699339	14.5036	0.388569	9.05107	0.563432	12.0767	0.797624	16.7193
0.356739	7.18845	0.0898522	1.9693	0.445441	10.1682	0.653864	13.3978	0.704327	14.3302	0.395449	9.01567	0.565188	12.0285	0.801225	16.4731
0.360188	7.1242	0.0919528	1.97501	0.451553	10.0931	0.658952	13.2491	0.709406	14.165	0.402314	8.98141	0.566315	11.9982	0.804875	16.2371
0.363508	7.05979	0.0940527	1.98048	0.457745	10.0228	0.664119	13.1074	0.714576	14.0077	0.409161	8.94816	0.567941	11.9551	0.808573	16.0108
0.366707	6.99532	0.0961518	1.98572	0.46401	9.95682	0.669361	12.9723	0.719838	13.8577	0.415989	8.91581	0.569713	11.909	0.81232	15.7936
0.369788	6.93092	0.0982502	1.99075	0.470345	9.89493	0.674671	12.8434	0.725196	13.7149	0.422795	8.88426	0.572133	11.8475	0.816115	15.5851
0.372758	6.86667	0.100348	1.99559	0.476744	9.83675	0.680044	12.72	0.730649	13.5787	0.429576	8.85342	0.575211	11.7717	0.819955	15.3847
0.375622	6.80268	0.102445	2.00023	0.483203	9.78197	0.684773	12.6169	0.736201	13.4491	0.43633	8.8232	0.578956	11.6829	0.823842	15.192
0.378386	6.73903	0.104542	2.0047	0.489717	9.7303	0.688835	12.5319	0.741853	13.3255	0.443055	8.79352	0.583382	11.5824	0.827774	15.0067
0.381055	6.67579	0.106638	2.009	0.49628	9.68149	0.692214	12.4636	0.747605	13.2078	0.449748	8.7643	0.588504	11.4719	0.83175	14.8283
0.383635	6.61303	0.108733	2.01314	0.502889	9.63528	0.694897	12.4108	0.753459	13.0957	0.456408	8.73548	0.593671	11.3662	0.83577	14.6565
0.386129	6.55082	0.110828	2.01713	0.509537	9.59144	0.696877	12.3726	0.759417	12.9889	0.463032	8.707	0.598882	11.265	0.839832	14.491
0.388542	6.4892	0.112922	2.02098	0.516221	9.54978	0.698146	12.3485	0.765478	12.8872	0.469618	8.67879	0.604136	11.1681	0.843936	14.3314
0.390881	6.42822	0.115016	2.02469	0.522937	9.5101	0.699975	12.3141	0.770845	12.8025	0.476164	8.65081	0.609433	11.0753	0.848082	14.1775
0.393147	6.36792	0.11711	2.02828	0.52968	9.47224	0.701967	12.2773	0.775483	12.7332	0.482667	8.62299	0.614772	10.9863	0.852269	14.029
0.395346	6.30834	0.119203	2.03174	0.536446	9.43602	0.704683	12.228	0.779361	12.6777	0.489125	8.5953	0.620153	10.9009	0.856496	13.8856
0.397481	6.24951	0.121296	2.0351	0.543232	9.40131	0.708128	12.167	0.782456	12.6351	0.495537	8.56769	0.625574	10.8191	0.860762	13.7471
0.399557	6.19144	0.123388	2.03834	0.550034	9.36797	0.71231	12.095	0.784746	12.6043	0.501899	8.54013	0.631036	10.7405	0.865067	13.6133
0.401576	6.13417	0.12548	2.04147	0.556848	9.33589	0.717233	12.013	0.786219	12.5849	0.50821	8.51256	0.636539	10.665	0.86941	13.484
0.403542	6.0777	0.127571	2.04451	0.563673	9.30496	0.722903	11.9219	0.788346	12.5574	0.514468	8.48497	0.642081	10.5925	0.87379	13.3589
0.405458	6.02206	0.129663	2.04745	0.570504	9.27507	0.728591	11.8339	0.79067	12.5281	0.520671	8.45732	0.647662	10.5228	0.878208	13.2379
0.407327	5.96724	0.131754	2.05031	0.577339	9.24614	0.734294	11.7487	0.793852	12.4889	0.526817	8.42958	0.653282	10.4559	0.882087	13.1356
0.409152	5.91327	0.133844	2.05307	0.584175	9.21808	0.740009	11.6663	0.797911	12.4408	0.532904	8.40172	0.658941	10.3915	0.885415	13.0506
0.410935	5.86013	0.135935	2.05576	0.59101	9.19081	0.745734	11.5863	0.802869	12.3844	0.538931	8.37373	0.664637	10.3295	0.888182	12.9819
0.412679	5.80784	0.138024	2.05836	0.597843	9.16428	0.751467	11.5088	0.808755	12.3209	0.544894	8.34558	0.670371	10.2699	0.890379	12.9285
0.414387	5.75639	0.140114	2.06089	0.604669	9.13841	0.757205	11.4335	0.8156	12.2513	0.550794	8.31726	0.676143	10.2126	0.892	12.8897
0.41606	5.70578	0.142204	2.06335	0.611488	9.11315	0.762948	11.3604	0.82254	12.185	0.556629	8.28874	0.681951	10.1574	0.89304	12.8652
0.4177	5.65601	0.144293	2.06574	0.618298	9.08844	0.768695	11.2894	0.829572	12.1219	0.562396	8.26003	0.687795	10.1042	0.894537	12.8302
0.41931	5.60707	0.146382	2.06806	0.625096	9.06423	0.774446	11.2203	0.836693	12.0617	0.568095	8.23109	0.693674	10.053	0.896169	12.7925
0.420891	5.55896	0.148471	2.07032	0.631881	9.04048	0.780199	11.1531	0.843902	12.0044	0.573724	8.20194	0.699589	10.0036	0.898396	12.742
0.422446	5.51167	0.150559	2.07252	0.638652	9.01715	0.785956	11.0877	0.851193	11.9498	0.579283	8.17256	0.705537	9.95604	0.901223	12.6792
0.42378	5.47112	0.152648	2.07466	0.645406	8.9942	0.791717	11.0241	0.858565	11.8976	0.584771	8.14294	0.711519	9.91016	0.904659	12.6048
0.424903	5.43704	0.154736	2.07674	0.652143	8.9716	0.797482	10.9622	0.866015	11.8479	0.590186	8.11309	0.717534	9.86591	0.908712	12.5196
0.425822	5.40918	0.156824	2.07877	0.65886	8.9493	0.80325	10.9018	0.873538	11.8004	0.595528	8.083	0.723581	9.82321	0.913395	12.4247
0.426543	5.38737	0.158912	2.08075	0.665557	8.92729	0.809024	10.8431	0.881132	11.755	0.600796	8.05267	0.729658	9.78199	0.918109	12.3325
0.42707	5.37145	0.161	2.08268	0.672232	8.90552	0.814803	10.7859	0.888795	11.7117	0.605991	8.02212	0.735765	9.74218	0.922855	12.243
0.427406	5.36132	0.163087	2.08456	0.678883	8.88398	0.820588	10.7301	0.896522	11.6702	0.611111	7.99133	0.741901	9.70371	0.927632	12.1561
0.427887	5.34682	0.165174	2.08639	0.68551	8.86265	0.82638	10.6758	0.90431	11.6306	0.616156	7.96032	0.748065	9.66653	0.932439	12.0717
0.428408	5.33116	0.167261	2.08818	0.692111	8.84149	0.83218	10.6228	0.912157	11.5926	0.621126	7.9291	0.754255	9.63058	0.937277	11.9898
0.429111	5.31001	0.169348	2.08992	0.698685	8.82048	0.837987	10.5712	0.920061	11.5562	0.626022	7.89766	0.760471	9.59578	0.942145	11.9101
0.429995	5.28352	0.171435	2.09163	0.70523	8.79962	0.843804	10.521	0.928017	11.5213	0.630844	7.86603	0.76671	9.5621	0.947041	11.8326
0.431054	5.25188	0.173522	2.09329	0.711747	8.77887	0.84963	10.472	0.936024	11.4878	0.635591	7.83421	0.772972	9.52947	0.951967	11.7573
0.432285	5.21529	0.175608	2.09492	0.718232	8.75822	0.855466	10.4242	0.944078	11.4557	0.640264	7.80221	0.779256	9.49784	0.956921	11.684
0.433683	5.17399	0.177695	2.0965	0.724687	8.73765	0.861313	10.3776	0.952178	11.4248	0.644863	7.77004	0.785559	9.46716	0.961902	11.6127
0.435065	5.13342	0.179781	2.09806	0.731109	8.71716	0.867171	10.3322	0.96032	11.3951	0.649389	7.73771	0.791881	9.43738	0.966912	11.5434
0.436433	5.09357	0.181867	2.09957	0.737497	8.69672	0.873041	10.2879	0.968503	11.3665	0.653843	7.70524	0.79822	9.40846	0.971948	11.4759
0.437788	5.05442	0.183953	2.10106	0.74385	8.67631	0.878923	10.2448	0.976723	11.339	0.658225	7.67263	0.804574	9.38034	0.977012	11.4101
0.439131	5.01597	0.186039	2.10251	0.750168	8.65594	0.884817	10.2027	0.984978	11.3125	0.662536	7.63991	0.810943	9.353	0.982101	11.3461
0.440462	4.9782	0.188125	2.10393	0.75645	8.63559	0.890725	10.1616	0.993267	11.2869	0.666776	7.60708	0.817324	9.32638	0.987217	11.2838
0.441783	4.94109	0.190211	2.10532	0.762694	8.61523	0.896645	10.1216	1.00159	11.2622	0.670947	7.57415	0.823717	9.30045	0.992358	11.223
0.443094	4.90465	0.192296	2.10668	0.7689	8.59488	0.90258	10.0825			0.675049	7.54115	0.830119	9.27516	0.997525	11.1638
0.444396	4.86884	0.194382	2.10801	0.775067	8.57451	0.908528	10.0444			0.679083	7.50807	0.83653	9.25049	1.00272	11.1061
0.445689	4.83367	0.196467	2.10931	0.781194	8.55412	0.91449	10.0073			0.683051	7.47493	0.842947	9.2264		
0.446975	4.79912	0.198553	2.11059	0.78728	8.5337	0.920466	9.97101			0.686952	7.44175	0.84937	9.20285		
0.448253	4.76518	0.200638	2.11184	0.793324	8.51325	0.926456	9.93563			0.690789	7.40854	0.855797	9.17982		
0.449525	4.73183	0.202723	2.11306	0.799326	8.49275	0.932461	9.9011			0.694561	7.37531	0.862226	9.15727		
0.450791	4.69907	0.204808	2.11426	0.805286	8.4722	0.93848	9.86739			0.698271	7.34206	0.868657	9.13517		
0.452051	4.66688	0.206893	2.11544	0.811202	8.4516	0.944513	9.83448			0.70192	7.30882	0.875087	9.1135		
0.453306	4.63526	0.208978	2.11659	0.817074	8.43093	0.950561	9.80236			0.705507	7.27559	0.881516	9.09223		
0.454557	4.60418	0.211063	2.11772	0.822901	8.41021	0.956622	9.77099			0.709035	7.24239	0.887942	9.07133		
0.455803	4.57364	0.213147	2.11883	0.828683	8.38941	0.962698	9.74035			0.712504	7.20922	0.894364	9.05079		
0.457046	4.54363	0.215232	2.11992	0.834419	8.36855	0.968787	9.71043			0.715916	7.17609	0.90078	9.03058		
0.458285	4.51414	0.217317	2.12099	0.840109	8.34762	0.97489	9.68119			0.719272	7.14302	0.907189	9.01067		
0.459521	4.48516	0.219401	2.12204	0.845753	8.32661	0.981006	9.65261			0.722572	7.11001	0.913591	8.99105		
0.460755	4.45667	0.221485	2.12307	0.851349	8.30553	0.987134	9.62468			0.725819	7.07707	0.919983	8.9717		
0.461987	4.42867	0.22357	2.12408	0.856899	8.28436	0.993276	9.59738			0.729012	7.04422	0.926366	8.95259		
0.463216	4.40115	0.225654	2.12507	0.862401	8.26313	0.999429	9.57068			0.732153	7.01145	0.932736	8.93372		
0.464444	4.3741	0.227738	2.12604	0.867855	8.24181	1.00559	9.54456			0.735244	6.97878	0.939094	8.91506		
0.46567	4.3475	0.229823	2.127	0.873261	8.22042					0.738285	6.94621	0.945439	8.8966		
0.466896	4.32135	0.231907	2.12794	0.878619	8.19895					0.741277	6.91376	0.951769	8.87833		
0.468121	4.29565	0.233991	2.12886	0.883929	8.1774					0.744221	6.88142	0.958083	8.86022		
0.469345	4.27037	0.236075	2.12977	0.88919	8.15578					0.747119	6.84921	0.96438	8.84227		
0.470568	4.24551	0.238159	2.13066	0.894403	8.13408					0.749972	6.81713	0.970659	8.82446		
0.471792	4.22107	0.240243	2.13154	0.899568	8.11231					0.75278	6.78519	0.97692	8.80679		
0.473015	4.19703	0.242326	2.1324	0.904684	8.09047					0.755544	6.7534	0.983161	8.78923		
0.474239	4.17339	0.24441	2.13325	0.909752	8.06856					0.758266	6.72175	0.989382	8.77178		
0.475464	4.15014	0.246494	2.13408	0.914771	8.04659					0.760946	6.69026	0.995581	8.75443		
0.476689	4.12727	0.248578	2.1349	0.919742	8.02455					0.763586	6.65892	1.00176	8.73716		
0.477915	4.10477	0.250661	2.13571	0.924665	8.00245					0.766187	6.62775				
0.479141	4.08263	0.252745	2.1365	0.92954	7.9803					0.768749	6.59674				
0.480369	4.06086	0.254828	2.13728	0.934367	7.95808					0.771273	6.56591				
0.481598	4.03943	0.256912	2.13805	0.939147	7.93582					0.77376	6.53525				
0.482829	4.01835	0.258995	2.1388	0.943879	7.9135					0.776212	6.50477				
0.484061	3.99761	0.261079	2.13954	0.948563	7.89114					0.778629	6.47447				
0.485295	3.9772	0.263162	2.14028	0.953201	7.86873					0.781012	6.44436				
0.486531	3.95711	0.265246	2.141	0.957792	7.84628					0.783361	6.41444				
0.487768	3.93734	0.267329	2.14171	0.962337	7.8238					0.785679	6.3847				
0.489008	3.91788	0.269412	2.1424	0.966835	7.80128					0.787964	6.35516				
0.490249	3.89872	0.271495	2.14309	0.971288	7.77873					0.79022	6.32581				
0.491493	3.87987	0.273579	2.14377	0.975695	7.75615					0.792445	6.29666				
0.492739	3.86131	0.275662	2.14444	0.980057	7.73354					0.794641	6.26771				
0.493988	3.84303	0.277745	2.1451	0.984373	7.71092					0.796808	6.23896				
0.495238	3.82504	0.279828	2.14574	0.988646	7.68827					0.798948	6.21041				
0.496492	3.80732	0.281911	2.14638	0.992874	7.66561					0.801062	6.18207				
0.497748	3.78987	0.283994	2.14701	0.997058	7.64294					0.803149	6.15392				
0.499006	3.77269	0.286077	2.14763	1.0012	7.62026					0.80521	6.12599				
0.500268	3.75577	0.28816	2.14824							0.807247	6.09826				
0.501532	3.73911	0.290243	2.14885							0.80926	6.07073				
0.502799	3.7227	0.292326	2.14944							0.811249	6.04342				
0.504069	3.70653	0.294409	2.15003							0.813215	6.01631				
0.505342	3.69061	0.296492	2.1506							0.815159	5.98941				
0.506617	3.67492	0.298574	2.15117							0.817082	5.96272				
0.507896	3.65946	0.300657	2.15174							0.818984	5.93623				
0.509178	3.64423	0.30274	2.15229							0.820865	5.90996				
0.510463	3.62923	0.304823	2.15284							0.822726	5.88389				
0.511751	3.61445	0.306905	2.15338							0.824569	5.85803				
0.513042	3.59988	0.308988	2.15391							0.826392	5.83238				
0.514337	3.58552	0.311071	2.15444							0.828197	5.80694				
0.515635	3.57137	0.313153	2.15495							0.829985	5.7817				
0.516935	3.55743	0.315236	2.15547							0.831755	5.75667				
0.51824	3.54368	0.317319	2.15597							0.833508	5.73184				
0.519547	3.53013	0.319401	2.15647							0.835246	5.70723				
0.520858	3.51678	0.321484	2.15696							0.836967	5.68281				
0.522172	3.50361	0.323566	2.15745							0.838674	5.6586				
0.52349	3.49063	0.325649	2.15793							0.840365	5.63459				
0.524811	3.47783	0.327731	2.1584							0.842042	5.61078				
0.526136	3.46521	0.329814	2.15887							0.843705	5.58718				
0.527463	3.45277	0.331896	2.15933							0.845354	5.56377				
0.528795	3.4405	0.333978	2.15979							0.84699	5.54057				
0.530129	3.4284	0.336061	2.16024							0.848613	5.51756				
0.531467	3.41647	0.338143	2.16068							0.850224	5.49474				
0.532809	3.4047	0.340226	2.16112							0.851823	5.47213				
0.534154	3.3931	0.342308	2.16156							0.85341	5.44971				
0.535502	3.38165	0.34439	2.16199							0.854986	5.42748				
0.536854	3.37036	0.346472	2.16241							0.85655	5.40544				
0.53821	3.35922	0.348555	2.16283							0.858104	5.38359				
0.539569	3.34823	0.350637	2.16325							0.859648	5.36193				
0.540931	3.33739	0.352719	2.16366							0.861181	5.34046				
0.542297	3.32669	0.354801	2.16406							0.862705	5.31918				
0.543666	3.31614	0.356884	2.16446							0.864219	5.29808				
0.545039	3.30572	0.358966	2.16486							0.865724	5.27716				
0.546415	3.29545	0.361048	2.16525							0.867221	5.25643				
0.547795	3.28531	0.36313	2.16563							0.868708	5.23588				
0.549178	3.2753	0.365212	2.16602							0.870187	5.21551				
0.550564	3.26543	0.367294	2.16639							0.871659	5.19531				
0.551954	3.25568	0.369377	2.16677							0.873122	5.1753				
0.553348	3.24606	0.371459	2.16714							0.874578	5.15546				
0.554745	3.23657	0.373541	2.1675							0.876026	5.13579				
0.556145	3.2272	0.375623	2.16786							0.877467	5.11629				
0.557549	3.21794	0.377705	2.16822							0.878902	5.09697				
0.558956	3.20881	0.379787	2.16857							0.88033	5.07781				
0.560367	3.19979	0.381869	2.16892							0.881751	5.05882				
0.561781	3.19089	0.383951	2.16927							0.883166	5.04				
0.563198	3.1821	0.386033	2.16961							0.884575	5.02134				
0.564619	3.17343	0.388115	2.16995							0.885979	5.00285				
0.566043	3.16486	0.390197	2.17029							0.887376	4.98452				
0.567471	3.1564	0.392279	2.17062							0.888768	4.96635				
0.568902	3.14804	0.394361	2.17095							0.890155	4.94834				
0.570336	3.13979	0.396443	2.17127							0.891537	4.93048				
0.571774	3.13164	0.398525	2.17159							0.892914	4.91278				
0.573215	3.1236	0.400607	2.17191							0.894287	4.89524				
0.574659	3.11565	0.402688	2.17222							0.895655	4.87785				
0.576107	3.1078	0.40477	2.17254							0.897018	4.86061				
0.577557	3.10004	0.406852	2.17284							0.898377	4.84352				
0.579012	3.09238	0.408934	2.17315							0.899732	4.82659				
0.580469	3.08482	0.411016	2.17345							0.901083	4.80979				
0.58193	3.07734	0.413098	2.17375							0.902431	4.79315				
0.583393	3.06996	0.41518	2.17405							0.903774	4.77665				
0.584861	3.06266	0.417261	2.17434							0.905114	4.76029				
0.586331	3.05545	0.419343	2.17463							0.906451	4.74407				
0.587804	3.04833	0.421425	2.17492							0.907785	4.728				
0.589281	3.0413	0.423507	2.1752							0.909115	4.71206				
0.590761	3.03434	0.425589	2.17548							0.910443	4.69627				
0.592244	3.02747	0.42767	2.17576							0.911768	4.6806				
0.59373	3.02068	0.429752	2.17604							0.913089	4.66508				
0.595219	3.01397	0.431834	2.17631							0.914409	4.64968				
0.596711	3.00734	0.433916	2.17659							0.915725	4.63442				
0.598207	3.00079	0.435997	2.17685							0.91704	4.6193				
0.599705	2.99431	0.438079	2.17712							0.918352	4.6043				
0.601207	2.98791	0.440161	2.17738							0.919662	4.58942				
0.602711	2.98158	0.442242	2.17764							0.920969	4.57468				
0.604219	2.97532	0.444324	2.1779							0.922275	4.56006				
0.60573	2.96914	0.446406	2.17816							0.923579	4.54557				
0.607243	2.96303	0.448487	2.17841							0.924881	4.5312				
0.60876	2.95698	0.450569	2.17867							0.926182	4.51695				
0.61028	2.95101	0.452651	2.17891							0.92748	4.50283				
0.611802	2.94511	0.454732	2.17916							0.928778	4.48882				
0.613328	2.93927	0.456814	2.17941							0.930073	4.47493				
0.614856	2.93349	0.458896	2.17965							0.931368	4.46116				
0.616387	2.92778	0.460977	2.17989							0.932661	4.44751				
0.617922	2.92214	0.463059	2.18013							0.933953	4.43397				
0.619459	2.91656	0.465141	2.18036							0.935243	4.42054				
0.620999	2.91104	0.467222	2.1806							0.936533	4.40723				
0.622542	2.90558	0.469304	2.18083							0.937822	4.39403				
0.624087	2.90018	0.471385	2.18106							0.93911	4.38094				
0.625636	2.89485	0.473467	2.18129							0.940397	4.36796				
0.627187	2.88957	0.475548	2.18151							0.941683	4.35509				
0.628741	2.88435	0.47763	2.18174							0.942968	4.34232				
0.630298	2.87918	0.479712	2.18196							0.944253	4.32966				
0.631857	2.87407	0.481793	2.18218							0.945537	4.31711				
0.63342	2.86902	0.483875	2.1824							0.946821	4.30466				
0.634985	2.86402	0.485956	2.18262							0.948104	4.29231				
0.636552	2.85908	0.488038	2.18283							0.949387	4.28006				
0.638123	2.85419	0.490119	2.18304							0.950669	4.26792				
0.639696	2.84935	0.492201	2.18325							0.951952	4.25587				
0.641272	2.84457	0.494282	2.18346							0.953234	4.24393				
0.64285	2.83983	0.496364	2.18367							0.954515	4.23208				
0.644431	2.83515	0.498445	2.18388							0.955797	4.22033				
0.646015	2.83051	0.500527	2.18408							0.957078	4.20867				
0.647601	2.82592	0.502608	2.18428							0.95836	4.19711				
0.64919	2.82139	0.50469	2.18448							0.959641	4.18564				
0.650781	2.8169	0.506771	2.18468							0.960923	4.17427				
0.652375	2.81245	0.508853	2.18488							0.962204	4.16299				
0.653971	2.80806	0.510934	2.18508							0.963486	4.1518				
0.65557	2.80371	0.513015	2.18527							0.964768	4.1407				
0.657172	2.7994	0.515097	2.18546							0.96605	4.12969				
0.658776	2.79514	0.517178	2.18566							0.967333	4.11877				
0.660382	2.79092	0.51926	2.18584							0.968615	4.10793				
0.661991	2.78675	0.521341	2.18603							0.969899	4.09718				
0.663603	2.78262	0.523423	2.18622							0.971182	4.08652				
0.665216	2.77853	0.525504	2.1864							0.972466	4.07594				
0.666832	2.77449	0.527585	2.18659							0.97375	4.06545				
0.668451	2.77048	0.529667	2.18677							0.975035	4.05504				
0.670072	2.76652	0.531748	2.18695							0.97632	4.04472				
0.671695	2.76259	0.53383	2.18713							0.977606	4.03447				
0.673321	2.75871	0.535911	2.18731							0.978893	4.02431				
0.674949	2.75486	0.537992	2.18749							0.98018	4.01422				
0.67658	2.75105	0.540074	2.18766							0.981467	4.00422				
0.678212	2.74728	0.542155	2.18784							0.982756	3.99429				
0.679847	2.74355	0.544236	2.18801							0.984045	3.98444				
0.681484	2.73986	0.546318	2.18818							0.985335	3.97467				
0.683124	2.7362	0.548399	2.18835							0.986625	3.96497				
0.684766	2.73258	0.55048	2.18852							0.987917	3.95535				
0.68641	2.72899	0.552562	2.18869							0.989209	3.94581				
0.688056	2.72544	0.554643	2.18885							0.990502	3.93634				
0.689704	2.72193	0.556724	2.18902							0.991796	3.92694				
0.691355	2.71845	0.558806	2.18918							0.993091	3.91761				
0.693008	2.715	0.560887	2.18934							0.994386	3.90836				
0.694663	2.71159	0.562968	2.18951							0.995683	3.89918				
0.69632	2.7082	0.56505	2.18967							0.996981	3.89007				
0.69798	2.70486	0.567131	2.18982							0.998279	3.88102				
0.699641	2.70154	0.569212	2.18998							0.999579	3.87205				
0.701305	2.69826	0.571294	2.19014							1.00088	3.86315				
0.70297	2.69501	0.573375	2.1903												
0.704638	2.69178	0.575456	2.19045												
0.706308	2.68859	0.577537	2.1906												
0.70798	2.68544	0.579619	2.19076												
0.709654	2.68231	0.5817	2.19091												
0.71133	2.67921	0.583781	2.19106												
0.713008	2.67613	0.585863	2.19121												
0.714688	2.67309	0.587944	2.19135												
0.71637	2.67008	0.590025	2.1915												
0.718054	2.66709	0.592106	2.19165												
0.71974	2.66414	0.594187	2.19179												
0.721428	2.66121	0.596269	2.19194												
0.723118	2.65831	0.59835	2.19208												
0.72481	2.65543	0.600431	2.19222												
0.726504	2.65258	0.602512	2.19236												
0.7282	2.64976	0.604594	2.1925												
0.729897	2.64696	0.606675	2.19264												
0.731597	2.64419	0.608756	2.19278												
0.733298	2.64145	0.610837	2.19292												
0.735002	2.63873	0.612918	2.19305												
0.736707	2.63603	0.615	2.19319												
0.738414	2.63336	0.617081	2.19332												
0.740122	2.63071	0.619162	2.19346												
0.741833	2.62809	0.621243	2.19359												
0.743546	2.62549	0.623324	2.19372												
0.74526	2.62291	0.625406	2.19385												
0.746976	2.62036	0.627487	2.19398												
0.748694	2.61783	0.629568	2.19411												
0.750413	2.61532	0.631649	2.19424												
0.752134	2.61284	0.63373	2.19437												
0.753858	2.61038	0.635812	2.19449												
0.755582	2.60793	0.637893	2.19462												
0.757309	2.60551	0.639974	2.19474												
0.759037	2.60312	0.642055	2.19487												
0.760767	2.60074	0.644136	2.19499												
0.762499	2.59838	0.646217	2.19511												
0.764232	2.59605	0.648298	2.19523												
0.765967	2.59373	0.65038	2.19536												
0.767703	2.59144	0.652461	2.19548												
0.769442	2.58916	0.654542	2.1956												
0.771182	2.58691	0.656623	2.19571												
0.772923	2.58467	0.658704	2.19583												
0.774666	2.58245	0.660785	2.19595												
0.776411	2.58025	0.662866	2.19607												
0.778157	2.57808	0.664947	2.19618												
0.779905	2.57592	0.667029	2.1963												
0.781655	2.57377	0.66911	2.19641												
0.783406	2.57165	0.671191	2.19652												
0.785158	2.56954	0.673272	2.19664												
0.786912	2.56746	0.675353	2.19675												
0.788668	2.56539	0.677434	2.19686												
0.790425	2.56333	0.679515	2.19697												
0.792184	2.5613	0.681596	2.19708												
0.793944	2.55928	0.683677	2.19719												
0.795706	2.55728	0.685758	2.1973												
0.797469	2.55529	0.687839	2.19741												
0.799234	2.55333	0.689921	2.19752												
0.801	2.55137	0.692002	2.19762												
0.802768	2.54944	0.694083	2.19773												
0.804537	2.54752	0.696164	2.19784												
0.806307	2.54562	0.698245	2.19794												
0.808079	2.54373	0.700326	2.19804												
0.809853	2.54185	0.702407	2.19815												
0.811627	2.54	0.704488	2.19825												
0.813404	2.53816	0.706569	2.19835												
0.815181	2.53633	0.70865	2.19846												
0.81696	2.53452	0.710731	2.19856												
0.818741	2.53272	0.712812	2.19866												
0.820522	2.53094	0.714893	2.19876												
0.822306	2.52917	0.716974	2.19886												
0.82409	2.52741	0.719055	2.19896												
0.825876	2.52567	0.721136	2.19906												
0.827663	2.52395	0.723217	2.19915												
0.829451	2.52224	0.725298	2.19925												
0.831241	2.52054	0.727379	2.19935												
0.833032	2.51885	0.72946	2.19944												
0.834825	2.51718	0.731541	2.19954												
0.836619	2.51552	0.733623	2.19963												
0.838414	2.51388	0.735704	2.19973												
0.84021	2.51225	0.737785	2.19982												
0.842007	2.51063	0.739866	2.19992												
0.843806	2.50902	0.741947	2.20001												
0.845606	2.50743	0.744028	2.2001												
0.847408	2.50584	0.746109	2.20019												
0.84921	2.50428	0.74819	2.20028												
0.851014	2.50272	0.750271	2.20038												
0.852819	2.50117	0.752352	2.20047												
0.854626	2.49964	0.754433	2.20056												
0.856433	2.49812	0.756514	2.20065												
0.858242	2.49661	0.758595	2.20073												
0.860052	2.49511	0.760675	2.20082												
0.861863	2.49363	0.762756	2.20091												
0.863675	2.49215	0.764837	2.201												
0.865489	2.49069	0.766918	2.20109												
0.867303	2.48924	0.768999	2.20117												
0.869119	2.4878	0.77108	2.20126												
0.870936	2.48637	0.773161	2.20134												
0.872754	2.48495	0.775242	2.20143												
0.874573	2.48354	0.777323	2.20151												
0.876394	2.48214	0.779404	2.2016												
0.878215	2.48075	0.781485	2.20168												
0.880038	2.47938	0.783566	2.20176												
0.881862	2.47801	0.785647	2.20185												
0.883687	2.47666	0.787728	2.20193												
0.885512	2.47531	0.789809	2.20201												
0.88734	2.47397	0.79189	2.20209												
0.889168	2.47265	0.793971	2.20218												
0.890997	2.47133	0.796052	2.20226												
0.892827	2.47002	0.798133	2.20234												
0.894659	2.46873	0.800214	2.20242												
0.896491	2.46744	0.802295	2.2025												
0.898325	2.46616	0.804376	2.20257												
0.900159	2.46489	0.806456	2.20265												
0.901995	2.46364	0.808537	2.20273												
0.903831	2.46239	0.810618	2.20281												
0.905669	2.46115	0.812699	2.20289												
0.907508	2.45991	0.81478	2.20296												
0.909348	2.45869	0.816861	2.20304												
0.911188	2.45748	0.818942	2.20312												
0.91303	2.45627	0.821023	2.20319												
0.914873	2.45508	0.823104	2.20327												
0.916717	2.45389	0.825185	2.20334												
0.918561	2.45271	0.827266	2.20342												
0.920407	2.45154	0.829347	2.20349												
0.922254	2.45038	0.831427	2.20357												
0.924101	2.44922	0.833508	2.20364												
0.92595	2.44808	0.835589	2.20371												
0.9278	2.44694	0.83767	2.20379												
0.92965	2.44581	0.839751	2.20386												
0.931502	2.44469	0.841832	2.20393												
0.933354	2.44358	0.843913	2.204												
0.935208	2.44247	0.845994	2.20407												
0.937062	2.44137	0.848075	2.20415												
0.938917	2.44028	0.850155	2.20422												
0.940774	2.4392	0.852236	2.20429												
0.942631	2.43813	0.854317	2.20436												
0.944489	2.43706	0.856398	2.20443												
0.946348	2.436	0.858479	2.2045												
0.948208	2.43495	0.86056	2.20456												
0.950068	2.4339	0.862641	2.20463												
0.95193	2.43287	0.864722	2.2047												
0.953793	2.43184	0.866802	2.20477												
0.955656	2.43081	0.868883	2.20484												
0.95752	2.4298	0.870964	2.20491												
0.959386	2.42879	0.873045	2.20497												
0.961252	2.42779	0.875126	2.20504												
0.963118	2.42679	0.877207	2.20511												
0.964986	2.4258	0.879288	2.20517												
0.966855	2.42482	0.881368	2.20524												
0.968724	2.42384	0.883449	2.2053												
0.970595	2.42288	0.88553	2.20537												
0.972466	2.42191	0.887611	2.20543												
0.974338	2.42096	0.889692	2.2055												
0.976211	2.42001	0.891773	2.20556												
0.978084	2.41907	0.893854	2.20563												
0.979959	2.41813	0.895934	2.20569												
0.981834	2.4172	0.898015	2.20575												
0.98371	2.41628	0.900096	2.20582												
0.985587	2.41536	0.902177	2.20588												
0.987465	2.41445	0.904258	2.20594												
0.989343	2.41354	0.906339	2.206												
0.991223	2.41265	0.908419	2.20607												
0.993103	2.41175	0.9105	2.20613												
0.994984	2.41086	0.912581	2.20619												
0.996865	2.40998	0.914662	2.20625												
0.998748	2.40911	0.916743	2.20631												
1.00063	2.40824	0.918824	2.20637												
		0.920904	2.20643												
		0.922985	2.20649												
		0.925066	2.20655												
		0.927147	2.20661												
		0.929228	2.20667												
		0.931308	2.20673												
		0.933389	2.20679												
		0.93547	2.20685												
		0.937551	2.2069												
		0.939632	2.20696												
		0.941712	2.20702												
		0.943793	2.20708												
		0.945874	2.20713												
		0.947955	2.20719												
		0.950036	2.20725												
		0.952116	2.2073												
		0.954197	2.20736												
		0.956278	2.20742												
		0.958359	2.20747												
		0.96044	2.20753												
		0.96252	2.20758												
		0.964601	2.20764												
		0.966682	2.20769												
		0.968763	2.20775												
		0.970843	2.2078												
		0.972924	2.20785												
		0.975005	2.20791												
		0.977086	2.20796												
		0.979167	2.20801												
		0.981247	2.20807												
		0.983328	2.20812												
		0.985409	2.20817												
		0.98749	2.20823												
		0.98957	2.20828												
		0.991651	2.20833												
		0.993732	2.20838												
		0.995813	2.20843												
		0.997893	2.20848												
		0.999974	2.20853												
		1.00205	2.20859												
