Sym0		Asym0		Sym1		Sym2		Sym3		Sym4		Asym1		Asym2		Asym3	
464  Points		495  Points		215  Points		182  Points		169  Points		118  Points		324  Points		194  Points		157  Points	
Freq (MHz)	Vph (m/ms)	Freq (MHz)	Vph (m/ms)	Freq (MHz)	Vph (m/ms)	Freq (MHz)	Vph (m/ms)	Freq (MHz)	Vph (m/ms)	Freq (MHz)	Vph (m/ms)	Freq (MHz)	Vph (m/ms)	Freq (MHz)	Vph (m/ms)	Freq (MHz)	Vph (m/ms)
0.00301482	5.64558	0.00033815	0.16614	0.27951	1514.02	0.483049	3655.31	0.559024	1087.24	0.838535	1115.86	0.139781	302.33	0.419268	1018.72	0.698787	758.808
0.00827458	5.64545	0.000715527	0.241159	0.279564	250.436	0.483064	454.073	0.559075	386.672	0.838572	498.211	0.139999	100.426	0.419322	312.168	0.698837	377.22
0.0135339	5.64522	0.00122859	0.315126	0.279695	136.57	0.4831	242.09	0.559174	235.189	0.838638	320.72	0.140433	60.3821	0.419433	184.37	0.698919	251.022
0.0187924	5.64489	0.00187278	0.387706	0.279903	93.9367	0.483159	165.057	0.559322	169.018	0.838733	236.492	0.141081	43.3105	0.419601	130.854	0.699035	188.116
0.0240499	5.64445	0.00264277	0.458646	0.280188	71.6338	0.483241	125.227	0.559517	131.932	0.838856	187.318	0.141939	33.8827	0.419826	101.448	0.699184	150.437
0.0293059	5.64391	0.0035325	0.527727	0.280549	57.9278	0.483345	100.894	0.559761	108.216	0.839007	155.086	0.143001	27.9254	0.420108	82.8609	0.699365	125.348
0.0345603	5.64325	0.00453521	0.594743	0.280987	48.6576	0.483471	84.4887	0.560053	91.7467	0.839187	132.33	0.144262	23.835	0.420447	70.0542	0.69958	107.445
0.0398127	5.64248	0.0056439	0.65955	0.2815	41.9743	0.483621	72.6811	0.560392	79.646	0.839396	115.407	0.145714	20.8633	0.420842	60.6975	0.699828	94.0279
0.0450627	5.6416	0.00685143	0.722047	0.282088	36.9314	0.483794	63.777	0.560779	70.3813	0.839633	102.332	0.147349	18.6142	0.421293	53.5647	0.700109	83.6005
0.0503101	5.64061	0.00815042	0.782146	0.282751	32.9936	0.48399	56.8237	0.561214	63.0618	0.839899	91.9256	0.149159	16.8587	0.421801	47.9493	0.700423	75.2644
0.0555545	5.6395	0.0095337	0.839804	0.283487	29.8358	0.48421	51.2441	0.561696	57.1345	0.840193	83.4483	0.151136	15.4547	0.422365	43.4151	0.700769	68.4488
0.0607956	5.63828	0.0109944	0.895016	0.284296	27.249	0.484454	46.6683	0.562225	52.2377	0.840515	76.4097	0.153272	14.3098	0.422984	39.6788	0.701149	62.7732
0.0660331	5.63693	0.0125256	0.947784	0.285177	25.0927	0.484723	42.8485	0.5628	48.1252	0.840866	70.4726	0.155558	13.361	0.423659	36.5478	0.701561	57.9743
0.0712665	5.63548	0.014121	0.998136	0.286129	23.2689	0.485016	39.6119	0.563422	44.6232	0.841245	65.3978	0.157986	12.5641	0.424389	33.8871	0.702005	53.8639
0.0764955	5.63389	0.0157746	1.04613	0.287152	21.7073	0.485334	36.8351	0.56409	41.606	0.841652	61.0105	0.160547	11.887	0.425174	31.599	0.702483	50.3044
0.0817198	5.63218	0.0174807	1.09181	0.288244	20.3561	0.485679	34.4268	0.564804	38.98	0.842088	57.1803	0.163234	11.306	0.426013	29.611	0.702993	47.1924
0.0869388	5.63034	0.0192341	1.13526	0.289403	19.1763	0.486049	32.3186	0.565564	36.6742	0.842552	53.8076	0.165672	10.864	0.426906	27.8683	0.703535	44.4487
0.0921523	5.62837	0.02103	1.17656	0.29063	18.1378	0.486446	30.4581	0.566369	34.634	0.843043	50.8155	0.167818	10.5269	0.427853	26.3288	0.70411	42.012
0.0973598	5.62626	0.0228639	1.21579	0.291922	17.2173	0.48687	28.8043	0.567219	32.8163	0.843563	48.1431	0.169637	10.2723	0.428853	24.9593	0.704716	39.8338
0.102561	5.62402	0.0247318	1.25303	0.293279	16.3964	0.487322	27.3249	0.568113	31.1869	0.844111	45.7422	0.171103	10.0847	0.429905	23.7336	0.705356	37.8753
0.107755	5.62163	0.02663	1.28839	0.294699	15.6601	0.487802	25.9938	0.569051	29.7185	0.844687	43.5734	0.172196	9.95389	0.43101	22.6306	0.706027	36.105
0.112942	5.6191	0.0285553	1.32195	0.296181	14.9964	0.48831	24.7902	0.570034	28.3885	0.84529	41.6049	0.172903	9.87317	0.432167	21.6331	0.706729	34.4973
0.118121	5.61642	0.0305045	1.35379	0.297724	14.3954	0.488849	23.6966	0.571059	27.1785	0.845922	39.8104	0.173926	9.76101	0.433376	20.7269	0.707464	33.031
0.123291	5.61359	0.032475	1.38402	0.299327	13.849	0.489417	22.699	0.572128	26.0732	0.846581	38.1679	0.175051	9.64402	0.434635	19.9004	0.708231	31.6883
0.128453	5.61059	0.0344643	1.4127	0.300987	13.3503	0.490016	21.7854	0.573239	25.0598	0.847268	36.659	0.176599	9.49264	0.435944	19.1437	0.709028	30.4545
0.133605	5.60743	0.0364702	1.43993	0.302704	12.8936	0.490647	20.9459	0.574393	24.1275	0.847982	35.2682	0.178587	9.313	0.437304	18.4486	0.709858	29.3169
0.138747	5.60409	0.0384907	1.46579	0.304477	12.4741	0.491309	20.1718	0.575588	23.2671	0.848724	33.9822	0.181035	9.11176	0.438712	17.808	0.710718	28.2648
0.143878	5.60058	0.0405241	1.49034	0.306303	12.0876	0.492005	19.4561	0.576824	22.4708	0.849493	32.7898	0.183963	8.89565	0.44017	17.2161	0.71161	27.2892
0.148997	5.59688	0.0423054	1.51074	0.308183	11.7304	0.492734	18.7926	0.578102	21.7318	0.85029	31.6812	0.187397	8.67103	0.441675	16.6676	0.712533	26.3819
0.154105	5.59299	0.0438299	1.52743	0.310113	11.3996	0.493497	18.1758	0.57942	21.0443	0.851113	30.648	0.190903	8.46821	0.443228	16.1581	0.713487	25.5363
0.159199	5.5889	0.0450943	1.54077	0.312094	11.0926	0.494296	17.6012	0.580779	20.4032	0.851964	29.6828	0.194478	8.28442	0.444828	15.6837	0.714471	24.7464
0.16428	5.58461	0.0460964	1.55102	0.31386	10.8425	0.49513	17.0648	0.582177	19.8041	0.852842	28.7792	0.198118	8.11731	0.446475	15.2411	0.715486	24.0068
0.169346	5.5801	0.0468344	1.55841	0.315395	10.641	0.496001	16.563	0.583614	19.2431	0.853747	27.9315	0.201819	7.96488	0.448167	14.8273	0.716531	23.3131
0.174397	5.57537	0.0473072	1.56306	0.316683	10.4821	0.496909	16.0926	0.58509	18.7168	0.854678	27.1349	0.205577	7.82544	0.449904	14.4397	0.717606	22.6611
0.179432	5.5704	0.0479875	1.56966	0.317714	10.361	0.497855	15.651	0.586605	18.2222	0.855637	26.3848	0.209388	7.69754	0.451686	14.076	0.718712	22.0474
0.184449	5.56519	0.0487278	1.57672	0.318479	10.2745	0.49884	15.2357	0.588157	17.7565	0.856622	25.6775	0.213251	7.5799	0.453512	13.7341	0.719847	21.4686
0.189448	5.55972	0.049736	1.58611	0.318972	10.2202	0.499865	14.8446	0.589748	17.3174	0.857633	25.0094	0.21716	7.47145	0.455382	13.4123	0.721012	20.922
0.194427	5.55398	0.051013	1.59768	0.319684	10.1435	0.500931	14.4757	0.591375	16.9028	0.858671	24.3773	0.221115	7.37123	0.457293	13.1089	0.722206	20.405
0.199385	5.54797	0.0525602	1.61121	0.320463	10.062	0.502038	14.1274	0.59304	16.5107	0.859735	23.7786	0.225112	7.27841	0.459247	12.8224	0.72343	19.9153
0.204322	5.54166	0.0543787	1.62647	0.321533	9.95412	0.503187	13.7979	0.59474	16.1394	0.860826	23.2106	0.229149	7.19228	0.461243	12.5516	0.724683	19.4509
0.209235	5.53505	0.0564695	1.64322	0.3229	9.82241	0.504379	13.4861	0.596477	15.7873	0.861942	22.6712	0.233224	7.11218	0.463279	12.2953	0.725965	19.0099
0.214123	5.52812	0.0585641	1.65919	0.324575	9.66978	0.505615	13.1905	0.598249	15.4532	0.863084	22.1582	0.237334	7.03756	0.465355	12.0524	0.727276	18.5907
0.218986	5.52085	0.0606618	1.67442	0.32657	9.49943	0.506895	12.9101	0.600057	15.1356	0.864253	21.6699	0.241477	6.96792	0.467471	11.8219	0.728615	18.1917
0.22382	5.51324	0.0627622	1.68896	0.328898	9.3147	0.508221	12.6439	0.601899	14.8335	0.865446	21.2045	0.245652	6.9028	0.469626	11.603	0.729982	17.8115
0.228625	5.50525	0.0648648	1.70285	0.331266	9.1406	0.509593	12.3908	0.603775	14.5457	0.866666	20.7604	0.249856	6.84182	0.471819	11.3949	0.731378	17.4489
0.233399	5.49688	0.0669693	1.71612	0.333675	8.97629	0.511012	12.15	0.605686	14.2714	0.867911	20.3364	0.254088	6.78462	0.47405	11.1968	0.732802	17.1027
0.23814	5.48811	0.0690753	1.72881	0.336123	8.82106	0.512478	11.9208	0.60763	14.0097	0.869181	19.931	0.258347	6.73088	0.476024	11.0319	0.734253	16.7719
0.242846	5.47892	0.0711826	1.74096	0.338609	8.67422	0.513993	11.7025	0.609607	13.7597	0.870476	19.5432	0.26263	6.68031	0.477728	10.8966	0.735732	16.4554
0.247515	5.46929	0.0732908	1.75258	0.341134	8.53519	0.515558	11.4943	0.611617	13.5207	0.871797	19.1718	0.266936	6.63266	0.479153	10.7883	0.737239	16.1526
0.252144	5.4592	0.0753997	1.76372	0.343697	8.40342	0.517171	11.2956	0.61366	13.2921	0.873142	18.8159	0.271265	6.58771	0.480289	10.7048	0.738772	15.8624
0.256733	5.44863	0.0775091	1.77439	0.346298	8.27842	0.518619	11.1299	0.615734	13.0732	0.874512	18.4745	0.275614	6.54522	0.481129	10.6446	0.740333	15.5841
0.261277	5.43756	0.0796188	1.78462	0.348936	8.15975	0.519883	10.9937	0.617841	12.8635	0.875907	18.1468	0.279982	6.50503	0.48167	10.6066	0.74192	15.3171
0.265776	5.42597	0.0817288	1.79444	0.351611	8.04699	0.52095	10.8845	0.619978	12.6624	0.877326	17.832	0.284368	6.46695	0.48245	10.5526	0.743534	15.0607
0.270226	5.41385	0.0838389	1.80387	0.354325	7.93979	0.521808	10.8003	0.622147	12.4694	0.87877	17.5294	0.288771	6.43082	0.483302	10.4949	0.745174	14.8144
0.274625	5.40116	0.0859488	1.81293	0.357076	7.83781	0.522446	10.7396	0.624346	12.2841	0.880238	17.2383	0.29319	6.39651	0.484468	10.4178	0.74684	14.5775
0.27897	5.3879	0.0880587	1.82163	0.359866	7.74075	0.522858	10.7012	0.626575	12.106	0.88173	16.9581	0.297623	6.36388	0.485954	10.3227	0.748532	14.3496
0.28326	5.37404	0.0901683	1.83	0.362695	7.64832	0.523455	10.6467	0.628835	11.9348	0.883245	16.6882	0.302071	6.33282	0.487768	10.2111	0.750249	14.1301
0.28749	5.35957	0.0922777	1.83806	0.365564	7.56027	0.524111	10.5884	0.631124	11.7701	0.884785	16.4281	0.306531	6.3032	0.489919	10.0847	0.751992	13.9187
0.29166	5.34447	0.0943866	1.84581	0.368473	7.47637	0.525013	10.5105	0.633442	11.6116	0.886348	16.1773	0.311003	6.27494	0.492419	9.94547	0.75376	13.7149
0.295766	5.32873	0.0964952	1.85328	0.371423	7.39641	0.526172	10.4144	0.635789	11.4589	0.887935	15.9352	0.315486	6.24794	0.494951	9.81197	0.755553	13.5184
0.299806	5.31234	0.0986033	1.86047	0.374416	7.3202	0.5276	10.3015	0.637858	11.3304	0.889545	15.7016	0.319979	6.22211	0.497515	9.68393	0.757371	13.3287
0.303777	5.2953	0.100711	1.86741	0.377452	7.24755	0.529313	10.1737	0.639638	11.224	0.891179	15.4759	0.324481	6.19738	0.50011	9.56106	0.759214	13.1456
0.307679	5.27759	0.102818	1.87411	0.380534	7.1783	0.531329	10.0328	0.641122	11.1382	0.892835	15.2578	0.328992	6.17367	0.502736	9.44305	0.76108	12.9687
0.311507	5.25921	0.104925	1.88057	0.383661	7.11229	0.533399	9.89775	0.642302	11.0717	0.894514	15.0469	0.33351	6.15092	0.505391	9.32967	0.762971	12.7977
0.315262	5.24018	0.107031	1.88681	0.386836	7.04939	0.535524	9.7683	0.643175	11.0235	0.896216	14.8429	0.338035	6.12906	0.508077	9.22065	0.764886	12.6324
0.318941	5.22049	0.109136	1.89283	0.39006	6.98947	0.537703	9.64415	0.643735	10.993	0.897941	14.6455	0.342566	6.10803	0.510791	9.11578	0.766824	12.4725
0.322544	5.20015	0.111241	1.89866	0.393333	6.93239	0.539937	9.52505	0.644543	10.9495	0.899688	14.4544	0.347103	6.08778	0.513534	9.01483	0.768785	12.3178
0.326069	5.17918	0.113345	1.90429	0.396658	6.87805	0.542226	9.41075	0.645424	10.9029	0.901457	14.2692	0.351644	6.06827	0.516305	8.91762	0.77077	12.1679
0.329515	5.1576	0.115449	1.90974	0.400036	6.82633	0.54457	9.30102	0.646628	10.8403	0.903249	14.0898	0.356189	6.04944	0.519103	8.82396	0.772778	12.0228
0.332883	5.13542	0.117552	1.91502	0.403466	6.77712	0.546968	9.19566	0.64816	10.7628	0.905062	13.9158	0.360737	6.03125	0.521929	8.73367	0.774808	11.8821
0.336172	5.11268	0.119655	1.92013	0.406951	6.73033	0.549421	9.09445	0.650027	10.6711	0.906898	13.7471	0.365288	6.01367	0.52478	8.64658	0.776862	11.7458
0.339383	5.0894	0.121757	1.92508	0.410491	6.68586	0.551929	8.99721	0.652235	10.5665	0.908755	13.5834	0.369841	5.99664	0.527658	8.56255	0.778669	11.6303
0.342517	5.06562	0.123858	1.92987	0.414087	6.6436	0.554492	8.90375	0.654794	10.4502	0.910633	13.4245	0.374395	5.98015	0.530562	8.48144	0.780223	11.5343
0.345574	5.04136	0.125959	1.93453	0.417738	6.60348	0.557108	8.81391	0.657379	10.3378	0.912533	13.2703	0.37895	5.96414	0.53349	8.4031	0.781517	11.4565
0.348555	5.01667	0.128059	1.93904	0.421446	6.56539	0.559779	8.72751	0.659989	10.229	0.914454	13.1204	0.383505	5.94861	0.536443	8.32741	0.782546	11.396
0.351462	4.99157	0.130159	1.94341	0.425208	6.52924	0.562503	8.64441	0.662626	10.1236	0.916396	12.9749	0.38806	5.9335	0.539421	8.25425	0.783306	11.3521
0.353937	4.96941	0.132258	1.94766	0.429026	6.49494	0.56528	8.56446	0.665288	10.0217	0.918359	12.8334	0.392613	5.9188	0.542423	8.18351	0.783794	11.3242
0.356004	4.95033	0.134357	1.95179	0.432899	6.46242	0.56811	8.48753	0.667974	9.92286	0.920342	12.6958	0.397165	5.90449	0.545447	8.11508	0.784497	11.2844
0.357684	4.93442	0.136455	1.9558	0.436825	6.43157	0.570992	8.41347	0.670686	9.82713	0.922346	12.562	0.401714	5.89053	0.548496	8.04885	0.785264	11.2417
0.358994	4.92177	0.138553	1.9597	0.440803	6.40232	0.573925	8.34217	0.673422	9.73433	0.924371	12.4318	0.40626	5.8769	0.551566	7.98475	0.786311	11.1842
0.359947	4.91243	0.14065	1.96348	0.444832	6.37458	0.57691	8.2735	0.676182	9.64435	0.926416	12.3051	0.410802	5.86358	0.55466	7.92267	0.787643	11.1127
0.360553	4.90643	0.142747	1.96717	0.448911	6.34827	0.579944	8.20736	0.678967	9.55706	0.928481	12.1818	0.415341	5.85056	0.557775	7.86253	0.789265	11.0279
0.361418	4.8978	0.144843	1.97075	0.453038	6.32331	0.583028	8.14363	0.681775	9.47236	0.930566	12.0617	0.419874	5.8378	0.560912	7.80425	0.791182	10.9307
0.362349	4.88838	0.146939	1.97424	0.45721	6.29962	0.586161	8.08221	0.684607	9.39015	0.932398	11.9596	0.424402	5.8253	0.56407	7.74776	0.793401	10.822
0.363604	4.87554	0.149034	1.97764	0.461426	6.27714	0.589342	8.023	0.687462	9.31034	0.933973	11.8744	0.428925	5.81303	0.567249	7.69298	0.795641	10.7164
0.365168	4.85923	0.151129	1.98095	0.465684	6.25577	0.59257	7.96592	0.69034	9.23281	0.935283	11.8051	0.43344	5.80098	0.57045	7.63985	0.797901	10.6136
0.36703	4.83942	0.153224	1.98417	0.469982	6.23546	0.595845	7.91086	0.693241	9.1575	0.936324	11.7511	0.437949	5.78914	0.573671	7.5883	0.800181	10.5137
0.369171	4.8161	0.155318	1.98731	0.474317	6.21614	0.599166	7.85774	0.696165	9.08432	0.937092	11.7119	0.44245	5.77748	0.576912	7.53827	0.802482	10.4164
0.371574	4.78923	0.157411	1.99037	0.478688	6.19775	0.602531	7.80649	0.699111	9.01318	0.937585	11.6869	0.446942	5.76599	0.580173	7.4897	0.804802	10.3217
0.373921	4.7623	0.159505	1.99335	0.483093	6.18023	0.60594	7.75702	0.702079	8.94402	0.938295	11.6513	0.451426	5.75466	0.583454	7.44255	0.807142	10.2295
0.376215	4.73532	0.161597	1.99626	0.487529	6.16351	0.609392	7.70926	0.70507	8.87676	0.93907	11.613	0.4559	5.74348	0.586755	7.39674	0.809502	10.1396
0.378457	4.70834	0.16369	1.99911	0.491994	6.14755	0.612886	7.66314	0.708082	8.81132	0.940127	11.5613	0.460363	5.73243	0.590075	7.35224	0.811881	10.0521
0.380652	4.68137	0.165782	2.00188	0.496486	6.13229	0.616421	7.61859	0.711116	8.74766	0.941471	11.4969	0.464816	5.7215	0.593414	7.309	0.814279	9.96683
0.382799	4.65445	0.167874	2.00458	0.501004	6.11769	0.619997	7.57555	0.714171	8.6857	0.943106	11.4204	0.469258	5.71068	0.596773	7.26698	0.816695	9.8837
0.384902	4.6276	0.169965	2.00723	0.505545	6.1037	0.623612	7.53396	0.717248	8.62538	0.945036	11.3323	0.473688	5.69996	0.60015	7.22612	0.819131	9.80264
0.386963	4.60084	0.172056	2.00981	0.510107	6.09028	0.627265	7.49375	0.720346	8.56666	0.947269	11.2336	0.478105	5.68933	0.603547	7.1864	0.821585	9.72359
0.388984	4.5742	0.174147	2.01233	0.51469	6.07738	0.630957	7.45486	0.723466	8.50947	0.949521	11.1373	0.482509	5.67877	0.606961	7.14776	0.824057	9.64648
0.390967	4.54769	0.176238	2.0148	0.51929	6.06498	0.634684	7.41726	0.726606	8.45376	0.951791	11.0432	0.486899	5.66829	0.610395	7.11018	0.826547	9.57125
0.392913	4.52133	0.178328	2.01721	0.523907	6.05304	0.638447	7.38087	0.729766	8.39948	0.954079	10.9514	0.491274	5.65786	0.613847	7.07362	0.829056	9.49782
0.394825	4.49513	0.180418	2.01956	0.528539	6.04152	0.642246	7.34566	0.732948	8.3466	0.956385	10.8617	0.495635	5.64748	0.617317	7.03805	0.831582	9.42615
0.396704	4.46912	0.182507	2.02186	0.533185	6.0304	0.646077	7.31157	0.73615	8.29505	0.958709	10.7741	0.49998	5.63714	0.620806	7.00343	0.834126	9.35618
0.398552	4.44331	0.184597	2.02412	0.537842	6.01964	0.649942	7.27857	0.739373	8.24481	0.961051	10.6885	0.504308	5.62683	0.624312	6.96974	0.836687	9.28784
0.400371	4.41769	0.186686	2.02632	0.54251	6.00923	0.653839	7.2466	0.742615	8.19582	0.963411	10.6048	0.50862	5.61655	0.627837	6.93693	0.839266	9.2211
0.402162	4.3923	0.188774	2.02848	0.547188	5.99913	0.657768	7.21563	0.745879	8.14805	0.965788	10.5231	0.512913	5.60629	0.63138	6.905	0.841862	9.15589
0.403926	4.36713	0.190863	2.0306	0.551873	5.98932	0.661726	7.18561	0.749162	8.10146	0.968183	10.4432	0.517189	5.59604	0.634942	6.8739	0.844475	9.09218
0.405666	4.3422	0.192951	2.03266	0.556566	5.97979	0.665714	7.15651	0.752465	8.05602	0.970594	10.365	0.521446	5.58578	0.638521	6.84362	0.847104	9.02991
0.407382	4.31751	0.195039	2.03469	0.561265	5.9705	0.66973	7.12829	0.755789	8.01168	0.973023	10.2886	0.525683	5.57553	0.642118	6.81413	0.849751	8.96905
0.409075	4.29307	0.197127	2.03667	0.565969	5.96146	0.673775	7.10092	0.759132	7.96842	0.975468	10.2138	0.5299	5.56526	0.645733	6.78541	0.852414	8.90954
0.410748	4.26888	0.199215	2.03862	0.570676	5.95263	0.677846	7.07436	0.762496	7.92621	0.977931	10.1407	0.534097	5.55498	0.649366	6.75743	0.855093	8.85135
0.4124	4.24495	0.201302	2.04052	0.575387	5.94399	0.681943	7.04858	0.765879	7.88502	0.980409	10.0691	0.538272	5.54467	0.653017	6.73017	0.857789	8.79444
0.414034	4.22128	0.203389	2.04239	0.5801	5.93555	0.686065	7.02355	0.769282	7.8448	0.982905	9.99904	0.542425	5.53434	0.656686	6.70361	0.860501	8.73877
0.415649	4.19788	0.205476	2.04422	0.584813	5.92728	0.690212	6.99925	0.772705	7.80555	0.985416	9.93047	0.546556	5.52398	0.660373	6.67774	0.863229	8.6843
0.417248	4.17474	0.207563	2.04602	0.589527	5.91916	0.694382	6.97563	0.776148	7.76723	0.987944	9.86333	0.550664	5.51357	0.664078	6.65253	0.865973	8.63101
0.418831	4.15188	0.209649	2.04778	0.594241	5.91119	0.698575	6.95268	0.779611	7.72981	0.990488	9.79759	0.554748	5.50313	0.667801	6.62796	0.868732	8.57885
0.420399	4.12928	0.211736	2.0495	0.598954	5.90336	0.70279	6.93037	0.783094	7.69328	0.993047	9.73321	0.558808	5.49264	0.671542	6.60402	0.871508	8.52779
0.421953	4.10696	0.213822	2.0512	0.603665	5.89565	0.707027	6.90867	0.786597	7.6576	0.995623	9.67014	0.562843	5.48209	0.6753	6.58069	0.874298	8.47781
0.423494	4.08492	0.215908	2.05286	0.608373	5.88805	0.711284	6.88756	0.79012	7.62275	0.998214	9.60836	0.566852	5.4715	0.679077	6.55795	0.877105	8.42887
0.425022	4.06314	0.217993	2.05449	0.613078	5.88056	0.71556	6.86702	0.793662	7.58872	1.00082	9.54782	0.570836	5.46084	0.682871	6.53578	0.879926	8.38095
0.426539	4.04164	0.220079	2.0561	0.617779	5.87317	0.719855	6.84702	0.797225	7.55548			0.574794	5.45012	0.686683	6.51418	0.882763	8.33402
0.428044	4.02041	0.222164	2.05767	0.622475	5.86586	0.724169	6.82754	0.800808	7.52301			0.578725	5.43934	0.690513	6.49312	0.885616	8.28804
0.429539	3.99945	0.22425	2.05921	0.627167	5.85863	0.7285	6.80857	0.804412	7.49129			0.582628	5.4285	0.69436	6.47259	0.888483	8.243
0.431024	3.97877	0.226335	2.06073	0.631853	5.85148	0.732848	6.79007	0.808035	7.46031			0.586504	5.41758	0.698225	6.45258	0.891365	8.19887
0.432501	3.95835	0.22842	2.06222	0.636533	5.84439	0.737211	6.77205	0.81168	7.43004			0.590352	5.40659	0.702108	6.43307	0.894262	8.15562
0.433968	3.9382	0.230504	2.06368	0.641206	5.83736	0.74159	6.75446	0.815344	7.40047			0.594171	5.39553	0.706008	6.41405	0.897173	8.11324
0.435428	3.91832	0.232589	2.06512	0.645872	5.83039	0.745984	6.7373	0.81903	7.37158			0.597962	5.3844	0.709925	6.39551	0.9001	8.07169
0.43688	3.8987	0.234674	2.06653	0.65053	5.82346	0.750391	6.72056	0.822736	7.34336			0.601723	5.37319	0.71386	6.37742	0.903041	8.03097
0.438325	3.87934	0.236758	2.06792	0.65518	5.81658	0.754811	6.7042	0.826464	7.3158			0.605455	5.3619	0.717811	6.35979	0.905996	7.99104
0.439764	3.86025	0.238842	2.06928	0.659822	5.80973	0.759243	6.68822	0.830212	7.28886			0.609157	5.35054	0.721779	6.34259	0.908966	7.95189
0.441197	3.84141	0.240926	2.07062	0.664455	5.80292	0.763687	6.67261	0.833982	7.26255			0.612829	5.3391	0.725764	6.32582	0.91195	7.91349
0.442624	3.82282	0.24301	2.07194	0.669078	5.79613	0.768142	6.65734	0.837773	7.23686			0.616471	5.32758	0.729766	6.30946	0.914949	7.87584
0.444046	3.80449	0.245094	2.07324	0.673691	5.78937	0.772608	6.6424	0.841586	7.21175			0.620082	5.31599	0.733784	6.2935	0.917962	7.83891
0.445464	3.78641	0.247177	2.07452	0.678295	5.78263	0.777083	6.62778	0.845421	7.18723			0.623663	5.30432	0.737817	6.27793	0.920988	7.80267
0.446876	3.76857	0.249261	2.07577	0.682887	5.7759	0.781566	6.61347	0.849279	7.16329			0.627213	5.29257	0.741867	6.26274	0.924029	7.76713
0.448285	3.75098	0.251344	2.07701	0.687469	5.76919	0.786058	6.59945	0.853158	7.1399			0.630731	5.28075	0.745932	6.24791	0.927084	7.73225
0.44969	3.73363	0.253428	2.07822	0.692039	5.76249	0.790558	6.58571	0.85706	7.11706			0.634219	5.26885	0.750012	6.23344	0.930153	7.69803
0.451092	3.71652	0.255511	2.07942	0.696598	5.7558	0.795064	6.57224	0.860985	7.09476			0.637676	5.25688	0.754107	6.21932	0.933236	7.66445
0.452491	3.69965	0.257594	2.08059	0.701144	5.7491	0.799576	6.55903	0.864932	7.07299			0.641102	5.24484	0.758217	6.20553	0.936333	7.63148
0.453887	3.683	0.259677	2.08175	0.705678	5.74241	0.804094	6.54606	0.868903	7.05173			0.644497	5.23272	0.762341	6.19207	0.939443	7.59913
0.45528	3.66659	0.26176	2.08289	0.7102	5.73572	0.808617	6.53333	0.872897	7.03098			0.64786	5.22054	0.766479	6.17892	0.942568	7.56737
0.456671	3.6504	0.263843	2.08402	0.714708	5.72902	0.813144	6.52082	0.876915	7.01073			0.651193	5.2083	0.770631	6.16607	0.945705	7.53619
0.458061	3.63444	0.265925	2.08512	0.719203	5.72232	0.817675	6.50852	0.880956	6.99097			0.654495	5.19598	0.774795	6.15352	0.948857	7.50558
0.459448	3.6187	0.268008	2.08621	0.723684	5.7156	0.822209	6.49643	0.885022	6.97168			0.657765	5.18361	0.778973	6.14126	0.952022	7.47552
0.460834	3.60317	0.27009	2.08728	0.728152	5.70888	0.826745	6.48454	0.889111	6.95287			0.661005	5.17117	0.783163	6.12927	0.9552	7.446
0.462219	3.58786	0.272173	2.08834	0.732605	5.70214	0.831283	6.47283	0.893226	6.93452			0.664214	5.15868	0.787365	6.11755	0.958392	7.41702
0.463602	3.57277	0.274255	2.08938	0.737043	5.69538	0.835822	6.4613	0.897364	6.91662			0.667393	5.14612	0.791578	6.10608	0.961598	7.38855
0.464985	3.55788	0.276337	2.0904	0.741467	5.68861	0.840362	6.44994	0.901528	6.89917			0.670541	5.13352	0.795803	6.09487	0.964816	7.36059
0.466367	3.54319	0.278419	2.09141	0.745876	5.68182	0.844903	6.43875	0.905716	6.88215			0.673659	5.12087	0.800038	6.08389	0.968048	7.33312
0.467749	3.52871	0.280501	2.09241	0.750269	5.67501	0.849443	6.42771	0.90993	6.86556			0.676747	5.10816	0.804284	6.07315	0.971293	7.30614
0.46913	3.51443	0.282583	2.09339	0.754647	5.66818	0.853982	6.41682	0.914168	6.84939			0.679806	5.09541	0.808539	6.06263	0.974552	7.27963
0.470511	3.50034	0.284665	2.09436	0.759009	5.66132	0.85852	6.40607	0.918432	6.83364			0.682835	5.08262	0.812804	6.05233	0.977823	7.25359
0.471893	3.48645	0.286747	2.09531	0.763355	5.65444	0.863056	6.39545	0.922721	6.81828			0.685834	5.06979	0.817078	6.04223	0.981108	7.228
0.473274	3.47276	0.288828	2.09625	0.767684	5.64754	0.867591	6.38497	0.927036	6.80333			0.688805	5.05692	0.82136	6.03234	0.984405	7.20285
0.474656	3.45924	0.29091	2.09718	0.771997	5.6406	0.872123	6.37462	0.931376	6.78876			0.691746	5.04402	0.825651	6.02264	0.987716	7.17814
0.476038	3.44592	0.292991	2.09809	0.776293	5.63364	0.876652	6.36438	0.935742	6.77457			0.69466	5.03108	0.829948	6.01312	0.991039	7.15385
0.47742	3.43277	0.295073	2.09899	0.780572	5.62665	0.881178	6.35426	0.940133	6.76076			0.697545	5.01811	0.834253	6.00378	0.994376	7.12998
0.478804	3.41981	0.297154	2.09988	0.784834	5.61963	0.8857	6.34425	0.944549	6.74731			0.700402	5.00512	0.838565	5.99462	0.997725	7.10652
0.480188	3.40703	0.299235	2.10076	0.789078	5.61258	0.890219	6.33434	0.948991	6.73422			0.703232	4.9921	0.842882	5.98562	1.00109	7.08346
0.481573	3.39441	0.301317	2.10162	0.793305	5.6055	0.894734	6.32454	0.953457	6.72148			0.706034	4.97907	0.847206	5.97677		
0.482959	3.38197	0.303398	2.10247	0.797514	5.59838	0.899245	6.31484	0.957949	6.70908			0.708809	4.96601	0.851534	5.96808		
0.484346	3.3697	0.305479	2.10331	0.801705	5.59123	0.903752	6.30523	0.962466	6.69701			0.711558	4.95294	0.855868	5.95954		
0.485734	3.3576	0.30756	2.10415	0.805878	5.58405	0.908255	6.29572	0.967007	6.68527			0.714281	4.93985	0.860206	5.95114		
0.487124	3.34566	0.309641	2.10496	0.810033	5.57684	0.912753	6.2863	0.971573	6.67385			0.716977	4.92675	0.864547	5.94287		
0.488515	3.33388	0.311722	2.10577	0.814169	5.56958	0.917246	6.27697	0.976163	6.66274			0.719648	4.91365	0.868892	5.93473		
0.489908	3.32226	0.313802	2.10657	0.818286	5.5623	0.921735	6.26773	0.980777	6.65193			0.722293	4.90054	0.87324	5.92671		
0.491302	3.3108	0.315883	2.10736	0.822385	5.55498	0.926219	6.25857	0.985415	6.64142			0.724914	4.88742	0.877591	5.91881		
0.492698	3.29949	0.317964	2.10814	0.826464	5.54762	0.930699	6.24949	0.990076	6.63119			0.72751	4.87431	0.881944	5.91102		
0.494096	3.28833	0.320044	2.1089	0.830525	5.54023	0.935174	6.2405	0.99476	6.62125			0.730082	4.86119	0.886298	5.90334		
0.495495	3.27732	0.322125	2.10966	0.834566	5.5328	0.939644	6.23159	0.999466	6.61157			0.732629	4.84808	0.890654	5.89577		
0.496896	3.26646	0.324206	2.11041	0.838588	5.52534	0.94411	6.22276	1.00419	6.60216			0.735154	4.83498	0.89501	5.88829		
0.498299	3.25574	0.326286	2.11115	0.842591	5.51784	0.948571	6.214					0.737655	4.82188	0.899367	5.88091		
0.499704	3.24517	0.328366	2.11188	0.846574	5.5103	0.953028	6.20533					0.740133	4.80879	0.903724	5.87361		
0.501111	3.23473	0.330447	2.1126	0.850538	5.50273	0.957481	6.19673					0.742589	4.79572	0.908081	5.8664		
0.502521	3.22444	0.332527	2.11331	0.854481	5.49512	0.96193	6.18821					0.745023	4.78266	0.912437	5.85928		
0.503932	3.21428	0.334607	2.11401	0.858405	5.48748	0.966375	6.17976					0.747434	4.76961	0.916791	5.85223		
0.505345	3.20425	0.336687	2.11471	0.862309	5.4798	0.970816	6.17139					0.749825	4.75659	0.921144	5.84525		
0.506761	3.19435	0.338767	2.11539	0.866194	5.47208	0.975253	6.1631					0.752194	4.74358	0.925495	5.83834		
0.508179	3.18459	0.340847	2.11607	0.870058	5.46433	0.979687	6.15487					0.754543	4.7306	0.929844	5.8315		
0.509599	3.17495	0.342928	2.11674	0.873902	5.45655	0.984117	6.14673					0.756871	4.71764	0.93419	5.82472		
0.511021	3.16544	0.345008	2.1174	0.877726	5.44872	0.988544	6.13866					0.759179	4.7047	0.938533	5.81801		
0.512446	3.15605	0.347087	2.11806	0.88153	5.44087	0.992968	6.13066					0.761468	4.69179	0.942873	5.81134		
0.513874	3.14679	0.349167	2.1187	0.885314	5.43298	0.997389	6.12273					0.763737	4.67892	0.947208	5.80473		
0.515303	3.13764	0.351247	2.11934	0.889077	5.42506	1.00181	6.11488					0.765987	4.66607	0.95154	5.79817		
0.516735	3.12861	0.353327	2.11997	0.892821	5.4171							0.768218	4.65325	0.955867	5.79166		
0.51817	3.1197	0.355407	2.1206	0.896544	5.40912							0.770432	4.64047	0.96019	5.78519		
0.519607	3.1109	0.357486	2.12121	0.900247	5.4011							0.772627	4.62772	0.964507	5.77876		
0.521047	3.10222	0.359566	2.12182	0.90393	5.39305							0.774804	4.61501	0.968819	5.77237		
0.522489	3.09364	0.361646	2.12242	0.907592	5.38496							0.776964	4.60233	0.973124	5.76602		
0.523934	3.08518	0.363725	2.12302	0.911234	5.37685							0.779107	4.5897	0.977424	5.7597		
0.525381	3.07682	0.365805	2.12361	0.914857	5.36871							0.781233	4.5771	0.981718	5.75341		
0.526831	3.06857	0.367884	2.12419	0.918459	5.36054							0.783343	4.56455	0.986004	5.74715		
0.528284	3.06042	0.369963	2.12477	0.92204	5.35234							0.785437	4.55203	0.990284	5.74092		
0.529739	3.05237	0.372043	2.12534	0.925602	5.34411							0.787515	4.53957	0.994556	5.73471		
0.531197	3.04443	0.374122	2.1259	0.929144	5.33586							0.789578	4.52714	0.998821	5.72853		
0.532657	3.03659	0.376202	2.12646	0.932666	5.32758							0.791625	4.51476	1.00308	5.72237		
0.534121	3.02884	0.378281	2.12701	0.936167	5.31927							0.793658	4.50243				
0.535586	3.02119	0.38036	2.12756	0.939649	5.31094							0.795676	4.49015				
0.537055	3.01364	0.382439	2.1281	0.943111	5.30258							0.797679	4.47791				
0.538526	3.00618	0.384518	2.12863	0.946554	5.2942							0.799669	4.46572				
0.54	2.99881	0.386598	2.12916	0.949976	5.2858							0.801645	4.45358				
0.541477	2.99153	0.388677	2.12968	0.953379	5.27738							0.803608	4.4415				
0.542956	2.98434	0.390756	2.1302	0.956762	5.26893							0.805557	4.42946				
0.544439	2.97724	0.392835	2.13071	0.960126	5.26046							0.807494	4.41748				
0.545923	2.97023	0.394914	2.13122	0.96347	5.25198							0.809418	4.40555				
0.547411	2.9633	0.396993	2.13172	0.966795	5.24347							0.811329	4.39368				
0.548901	2.95646	0.399072	2.13221	0.9701	5.23495							0.813229	4.38185				
0.550394	2.9497	0.40115	2.1327	0.973387	5.2264							0.815117	4.37009				
0.55189	2.94302	0.403229	2.13319	0.976654	5.21784							0.816993	4.35837				
0.553389	2.93642	0.405308	2.13367	0.979902	5.20927							0.818858	4.34672				
0.55489	2.9299	0.407387	2.13415	0.983132	5.20068							0.820711	4.33512				
0.556394	2.92346	0.409466	2.13462	0.986342	5.19207							0.822554	4.32358				
0.557901	2.9171	0.411544	2.13508	0.989534	5.18345							0.824387	4.31209				
0.55941	2.91081	0.413623	2.13555	0.992707	5.17482							0.826209	4.30066				
0.560922	2.9046	0.415702	2.136	0.995861	5.16617							0.828021	4.28929				
0.562437	2.89846	0.41778	2.13645	0.998997	5.15751							0.829823	4.27798				
0.563955	2.89239	0.419859	2.1369	1.00212	5.14884							0.831615	4.26673				
0.565475	2.8864	0.421938	2.13735									0.833398	4.25553				
0.566998	2.88047	0.424016	2.13779									0.835172	4.2444				
0.568524	2.87462	0.426095	2.13822									0.836937	4.23332				
0.570052	2.86883	0.428173	2.13865									0.838693	4.2223				
0.571583	2.86311	0.430252	2.13908									0.84044	4.21135				
0.573117	2.85746	0.43233	2.1395									0.842179	4.20045				
0.574654	2.85187	0.434408	2.13992									0.84391	4.18961				
0.576193	2.84635	0.436487	2.14034									0.845632	4.17884				
0.577735	2.84089	0.438565	2.14075									0.847347	4.16812				
0.579279	2.83549	0.440643	2.14116									0.849054	4.15747				
0.580826	2.83016	0.442722	2.14156									0.850754	4.14687				
0.582376	2.82489	0.4448	2.14196									0.852447	4.13634				
0.583928	2.81967	0.446878	2.14235									0.854132	4.12586				
0.585483	2.81452	0.448957	2.14275									0.855811	4.11545				
0.587041	2.80942	0.451035	2.14314									0.857483	4.1051				
0.588601	2.80439	0.453113	2.14352									0.859148	4.0948				
0.590164	2.79941	0.455191	2.1439									0.860807	4.08457				
0.59173	2.79448	0.457269	2.14428									0.86246	4.0744				
0.593298	2.78961	0.459347	2.14466									0.864106	4.06429				
0.594868	2.7848	0.461425	2.14503									0.865747	4.05424				
0.596441	2.78004	0.463503	2.1454									0.867382	4.04425				
0.598017	2.77533	0.465581	2.14576									0.869011	4.03432				
0.599595	2.77067	0.467659	2.14612									0.870635	4.02446				
0.601176	2.76607	0.469737	2.14648									0.872254	4.01465				
0.602759	2.76152	0.471815	2.14684									0.873867	4.0049				
0.604345	2.75701	0.473893	2.14719									0.875475	3.99521				
0.605933	2.75256	0.475971	2.14754									0.877078	3.98558				
0.607524	2.74815	0.478049	2.14788									0.878677	3.97601				
0.609117	2.7438	0.480127	2.14823									0.880271	3.9665				
0.610713	2.73949	0.482205	2.14857									0.88186	3.95705				
0.612311	2.73522	0.484283	2.1489									0.883445	3.94766				
0.613911	2.73101	0.486361	2.14924									0.885026	3.93833				
0.615514	2.72684	0.488438	2.14957									0.886603	3.92905				
0.617119	2.72271	0.490516	2.1499									0.888175	3.91984				
0.618727	2.71863	0.492594	2.15023									0.889744	3.91068				
0.620337	2.71459	0.494672	2.15055									0.891308	3.90158				
0.62195	2.71059	0.496749	2.15087									0.892869	3.89254				
0.623565	2.70664	0.498827	2.15119									0.894427	3.88355				
0.625182	2.70273	0.500905	2.1515									0.895981	3.87463				
0.626802	2.69886	0.502983	2.15182									0.897532	3.86576				
0.628423	2.69503	0.50506	2.15213									0.899079	3.85694				
0.630048	2.69125	0.507138	2.15243									0.900623	3.84819				
0.631674	2.6875	0.509215	2.15274									0.902164	3.83949				
0.633303	2.68379	0.511293	2.15304									0.903702	3.83084				
0.634934	2.68012	0.513371	2.15334									0.905238	3.82226				
0.636568	2.67649	0.515448	2.15364									0.90677	3.81372				
0.638203	2.6729	0.517526	2.15394									0.9083	3.80525				
0.639841	2.66934	0.519603	2.15423									0.909827	3.79682				
0.641481	2.66582	0.521681	2.15452									0.911351	3.78846				
0.643123	2.66234	0.523758	2.15481									0.912874	3.78014				
0.644768	2.65889	0.525836	2.1551									0.914393	3.77188				
0.646415	2.65548	0.527913	2.15538									0.915911	3.76368				
0.648064	2.6521	0.529991	2.15566									0.917426	3.75553				
0.649715	2.64876	0.532068	2.15594									0.918939	3.74743				
0.651368	2.64545	0.534145	2.15622									0.92045	3.73938				
0.653023	2.64218	0.536223	2.15649									0.92196	3.73139				
0.654681	2.63893	0.5383	2.15677									0.923467	3.72345				
0.656341	2.63573	0.540378	2.15704									0.924972	3.71556				
0.658002	2.63255	0.542455	2.15731									0.926476	3.70773				
0.659666	2.6294	0.544532	2.15757									0.927978	3.69994				
0.661332	2.62629	0.546609	2.15784									0.929478	3.69221				
0.663	2.62321	0.548687	2.1581									0.930977	3.68452				
0.66467	2.62016	0.550764	2.15836									0.932474	3.67689				
0.666343	2.61714	0.552841	2.15862									0.93397	3.66931				
0.668017	2.61415	0.554919	2.15888									0.935464	3.66178				
0.669693	2.61119	0.556996	2.15913									0.936957	3.65429				
0.671371	2.60826	0.559073	2.15939									0.938449	3.64686				
0.673051	2.60535	0.56115	2.15964									0.93994	3.63948				
0.674734	2.60248	0.563227	2.15989									0.941429	3.63214				
0.676418	2.59963	0.565305	2.16013									0.942918	3.62485				
0.678104	2.59682	0.567382	2.16038									0.944405	3.61761				
0.679792	2.59402	0.569459	2.16062									0.945892	3.61042				
0.681482	2.59126	0.571536	2.16087									0.947377	3.60328				
0.683174	2.58852	0.573613	2.16111									0.948862	3.59618				
0.684868	2.58581	0.57569	2.16135									0.950345	3.58913				
0.686564	2.58313	0.577767	2.16158									0.951828	3.58213				
0.688262	2.58047	0.579844	2.16182									0.953311	3.57517				
0.689961	2.57784	0.581921	2.16205									0.954792	3.56826				
0.691663	2.57523	0.583998	2.16228									0.956273	3.56139				
0.693366	2.57265	0.586075	2.16252									0.957753	3.55457				
0.695072	2.57009	0.588152	2.16274									0.959233	3.5478				
0.696779	2.56756	0.590229	2.16297									0.960712	3.54107				
0.698488	2.56505	0.592306	2.1632									0.962191	3.53438				
0.700198	2.56257	0.594383	2.16342									0.96367	3.52774				
0.701911	2.5601	0.59646	2.16364									0.965148	3.52114				
0.703625	2.55766	0.598537	2.16386									0.966625	3.51458				
0.705341	2.55525	0.600614	2.16408									0.968103	3.50807				
0.707059	2.55286	0.602691	2.1643									0.969579	3.5016				
0.708779	2.55049	0.604768	2.16452									0.971056	3.49517				
0.7105	2.54814	0.606845	2.16473									0.972533	3.48879				
0.712223	2.54581	0.608922	2.16495									0.974009	3.48244				
0.713948	2.54351	0.610999	2.16516									0.975486	3.47614				
0.715675	2.54122	0.613076	2.16537									0.976962	3.46988				
0.717403	2.53896	0.615153	2.16558									0.978438	3.46366				
0.719133	2.53672	0.617229	2.16578									0.979914	3.45748				
0.720865	2.5345	0.619306	2.16599									0.98139	3.45135				
0.722599	2.5323	0.621383	2.1662									0.982866	3.44525				
0.724334	2.53012	0.62346	2.1664									0.984342	3.43919				
0.72607	2.52795	0.625537	2.1666									0.985818	3.43317				
0.727809	2.52581	0.627613	2.1668									0.987295	3.42719				
0.729549	2.52369	0.62969	2.167									0.988771	3.42126				
0.731291	2.52159	0.631767	2.1672									0.990248	3.41535				
0.733034	2.51951	0.633844	2.1674									0.991724	3.40949				
0.734779	2.51744	0.63592	2.16759									0.993201	3.40367				
0.736525	2.5154	0.637997	2.16779									0.994679	3.39788				
0.738273	2.51337	0.640074	2.16798									0.996156	3.39213				
0.740023	2.51136	0.64215	2.16817									0.997634	3.38642				
0.741774	2.50937	0.644227	2.16836									0.999112	3.38075				
0.743527	2.5074	0.646304	2.16855									1.00059	3.37511				
0.745281	2.50544	0.64838	2.16874														
0.747037	2.5035	0.650457	2.16893														
0.748795	2.50158	0.652534	2.16911														
0.750554	2.49968	0.65461	2.1693														
0.752314	2.49779	0.656687	2.16948														
0.754076	2.49592	0.658764	2.16966														
0.75584	2.49406	0.66084	2.16984														
0.757605	2.49223	0.662917	2.17002														
0.759371	2.4904	0.664993	2.1702														
0.761139	2.4886	0.66707	2.17038														
0.762908	2.48681	0.669146	2.17056														
0.764679	2.48503	0.671223	2.17073														
0.766451	2.48327	0.673299	2.17091														
0.768225	2.48153	0.675376	2.17108														
0.77	2.4798	0.677452	2.17125														
0.771777	2.47809	0.679529	2.17142														
0.773555	2.47639	0.681605	2.17159														
0.775334	2.4747	0.683682	2.17176														
0.777115	2.47303	0.685758	2.17193														
0.778897	2.47137	0.687835	2.1721														
0.78068	2.46973	0.689911	2.17226														
0.782465	2.4681	0.691988	2.17243														
0.784251	2.46649	0.694064	2.17259														
0.786039	2.46489	0.696141	2.17275														
0.787828	2.4633	0.698217	2.17292														
0.789618	2.46173	0.700293	2.17308														
0.791409	2.46017	0.70237	2.17324														
0.793202	2.45862	0.704446	2.1734														
0.794996	2.45708	0.706522	2.17355														
0.796792	2.45556	0.708599	2.17371														
0.798588	2.45405	0.710675	2.17387														
0.800386	2.45256	0.712751	2.17402														
0.802186	2.45107	0.714828	2.17418														
0.803986	2.4496	0.716904	2.17433														
0.805788	2.44814	0.71898	2.17448														
0.807591	2.44669	0.721057	2.17464														
0.809395	2.44526	0.723133	2.17479														
0.811201	2.44383	0.725209	2.17494														
0.813007	2.44242	0.727286	2.17509														
0.814815	2.44102	0.729362	2.17523														
0.816625	2.43963	0.731438	2.17538														
0.818435	2.43825	0.733514	2.17553														
0.820247	2.43688	0.735591	2.17567														
0.822059	2.43553	0.737667	2.17582														
0.823873	2.43418	0.739743	2.17596														
0.825688	2.43285	0.741819	2.17611														
0.827505	2.43153	0.743895	2.17625														
0.829322	2.43021	0.745972	2.17639														
0.831141	2.42891	0.748048	2.17653														
0.83296	2.42762	0.750124	2.17667														
0.834781	2.42634	0.7522	2.17681														
0.836603	2.42507	0.754276	2.17695														
0.838427	2.42381	0.756352	2.17709														
0.840251	2.42255	0.758428	2.17723														
0.842076	2.42131	0.760505	2.17736														
0.843903	2.42008	0.762581	2.1775														
0.84573	2.41886	0.764657	2.17763														
0.847559	2.41765	0.766733	2.17777														
0.849389	2.41644	0.768809	2.1779														
0.85122	2.41525	0.770885	2.17803														
0.853051	2.41407	0.772961	2.17816														
0.854884	2.41289	0.775037	2.1783														
0.856719	2.41173	0.777113	2.17843														
0.858554	2.41057	0.779189	2.17856														
0.86039	2.40942	0.781265	2.17868														
0.862227	2.40828	0.783341	2.17881														
0.864065	2.40715	0.785417	2.17894														
0.865904	2.40603	0.787493	2.17907														
0.867745	2.40492	0.789569	2.17919														
0.869586	2.40382	0.791645	2.17932														
0.871428	2.40272	0.793721	2.17944														
0.873272	2.40163	0.795797	2.17957														
0.875116	2.40056	0.797873	2.17969														
0.876961	2.39949	0.799949	2.17982														
0.878808	2.39842	0.802025	2.17994														
0.880655	2.39737	0.804101	2.18006														
0.882503	2.39632	0.806177	2.18018														
0.884352	2.39528	0.808253	2.1803														
0.886202	2.39425	0.810329	2.18042														
0.888054	2.39323	0.812405	2.18054														
0.889906	2.39221	0.814481	2.18066														
0.891759	2.39121	0.816557	2.18078														
0.893613	2.39021	0.818632	2.18089														
0.895468	2.38921	0.820708	2.18101														
0.897324	2.38823	0.822784	2.18113														
0.89918	2.38725	0.82486	2.18124														
0.901038	2.38628	0.826936	2.18136														
0.902897	2.38532	0.829012	2.18147														
0.904756	2.38436	0.831088	2.18159														
0.906616	2.38341	0.833163	2.1817														
0.908478	2.38247	0.835239	2.18181														
0.91034	2.38153	0.837315	2.18192														
0.912203	2.38061	0.839391	2.18204														
0.914067	2.37968	0.841467	2.18215														
0.915932	2.37877	0.843542	2.18226														
0.917798	2.37786	0.845618	2.18237														
0.919664	2.37696	0.847694	2.18248														
0.921532	2.37606	0.84977	2.18259														
0.9234	2.37518	0.851846	2.18269														
0.925269	2.37429	0.853921	2.1828														
0.927139	2.37342	0.855997	2.18291														
0.92901	2.37255	0.858073	2.18302														
0.930882	2.37168	0.860149	2.18312														
0.932754	2.37083	0.862224	2.18323														
0.934628	2.36998	0.8643	2.18333														
0.936502	2.36913	0.866376	2.18344														
0.938377	2.36829	0.868451	2.18354														
0.940253	2.36746	0.870527	2.18364														
0.942129	2.36663	0.872603	2.18375														
0.944007	2.36581	0.874678	2.18385														
0.945885	2.365	0.876754	2.18395														
0.947764	2.36419	0.87883	2.18405														
0.949644	2.36339	0.880905	2.18415														
0.951524	2.36259	0.882981	2.18426														
0.953406	2.36179	0.885057	2.18436														
0.955288	2.36101	0.887132	2.18446														
0.957171	2.36023	0.889208	2.18455														
0.959054	2.35945	0.891283	2.18465														
0.960939	2.35868	0.893359	2.18475														
0.962824	2.35792	0.895435	2.18485														
0.96471	2.35716	0.89751	2.18495														
0.966597	2.3564	0.899586	2.18504														
0.968484	2.35565	0.901661	2.18514														
0.970373	2.35491	0.903737	2.18524														
0.972262	2.35417	0.905813	2.18533														
0.974151	2.35344	0.907888	2.18543														
0.976042	2.35271	0.909964	2.18552														
0.977933	2.35198	0.912039	2.18562														
0.979825	2.35127	0.914115	2.18571														
0.981717	2.35055	0.91619	2.1858														
0.983611	2.34984	0.918266	2.1859														
0.985505	2.34914	0.920341	2.18599														
0.987399	2.34844	0.922417	2.18608														
0.989295	2.34775	0.924492	2.18617														
0.991191	2.34706	0.926568	2.18626														
0.993088	2.34637	0.928643	2.18635														
0.994985	2.34569	0.930719	2.18644														
0.996883	2.34502	0.932794	2.18653														
0.998782	2.34434	0.93487	2.18662														
1.00068	2.34368	0.936945	2.18671														
		0.939021	2.1868														
		0.941096	2.18689														
		0.943172	2.18698														
		0.945247	2.18706														
		0.947322	2.18715														
		0.949398	2.18724														
		0.951473	2.18732														
		0.953549	2.18741														
		0.955624	2.1875														
		0.957699	2.18758														
		0.959775	2.18767														
		0.96185	2.18775														
		0.963925	2.18783														
		0.966001	2.18792														
		0.968076	2.188														
		0.970151	2.18809														
		0.972227	2.18817														
		0.974302	2.18825														
		0.976378	2.18833														
		0.978453	2.18841														
		0.980528	2.18849														
		0.982603	2.18858														
		0.984679	2.18866														
		0.986754	2.18874														
		0.988829	2.18882														
		0.990905	2.1889														
		0.99298	2.18897														
		0.995055	2.18905														
		0.99713	2.18913														
		0.999206	2.18921														
		1.00128	2.18929														
