Sym0		Asym0		Sym1		Sym2		Sym3		Sym4		Asym1		Asym2		Asym3	
463  Points		495  Points		206  Points		172  Points		159  Points		113  Points		321  Points		185  Points		149  Points	
Freq (MHz)	Vph (m/ms)	Freq (MHz)	Vph (m/ms)	Freq (MHz)	Vph (m/ms)	Freq (MHz)	Vph (m/ms)	Freq (MHz)	Vph (m/ms)	Freq (MHz)	Vph (m/ms)	Freq (MHz)	Vph (m/ms)	Freq (MHz)	Vph (m/ms)	Freq (MHz)	Vph (m/ms)
0.00361063	5.94761	0.000148706	0.113201	0.279513	962.429	0.4883	817.818	0.559029	878.892	0.838532	1380.94	0.139807	226.175	0.419272	851.398	0.698789	774.601
0.00915166	5.9474	0.000432943	0.192819	0.279583	228.769	0.488328	319.425	0.559093	356.62	0.838569	544.91	0.140085	90.3875	0.419337	294.448	0.698843	381.085
0.0146921	5.94711	0.000862601	0.271512	0.279739	129.881	0.488381	198.491	0.55921	223.733	0.838637	339.446	0.140601	56.659	0.419465	178.053	0.698934	252.732
0.0202315	5.94667	0.00143338	0.348863	0.279982	90.7409	0.488459	143.996	0.559382	163.03	0.838737	246.52	0.14135	41.4125	0.419657	127.651	0.699062	189.078
0.0257695	5.94608	0.00213997	0.424562	0.28031	69.7775	0.488562	112.992	0.559606	128.266	0.838869	193.555	0.142328	32.7573	0.419913	99.5235	0.699226	151.056
0.0313057	5.94538	0.0029761	0.498333	0.280724	56.7246	0.488691	92.9856	0.559884	105.748	0.839032	159.339	0.143528	27.2007	0.420231	81.5836	0.699428	125.783
0.0368396	5.94451	0.00393456	0.569912	0.281223	47.8222	0.488844	79.0084	0.560215	89.9766	0.839227	135.416	0.144942	23.3465	0.420612	69.1498	0.699666	107.769
0.0423708	5.94349	0.00500789	0.639128	0.281806	41.3673	0.489024	68.6934	0.5606	78.3187	0.839454	117.751	0.146563	20.527	0.421056	60.0281	0.699941	94.281
0.047899	5.94234	0.00618798	0.70581	0.282473	36.4764	0.48923	60.7691	0.561037	69.3527	0.839712	104.173	0.148381	18.3828	0.421562	53.0533	0.700253	83.8055
0.0534238	5.94104	0.00746696	0.769877	0.283223	32.6456	0.489462	54.4916	0.561527	62.2444	0.840002	93.4117	0.150387	16.7033	0.422131	47.5495	0.700601	75.4358
0.0589446	5.93959	0.00883672	0.831254	0.284054	29.5663	0.489721	49.3968	0.562069	56.4723	0.840323	84.6745	0.152571	15.3568	0.422761	43.0976	0.700986	68.5958
0.0644611	5.93799	0.0102895	0.889919	0.284967	27.0391	0.490007	45.1797	0.562663	51.693	0.840676	77.4398	0.154924	14.2566	0.423453	39.4237	0.701407	62.9021
0.0699728	5.93623	0.0118177	0.945871	0.285959	24.9294	0.490321	41.6323	0.563309	47.6718	0.841061	71.3516	0.157436	13.3437	0.424207	36.3415	0.701865	58.0895
0.0754792	5.93431	0.0134142	0.999142	0.28703	23.143	0.490663	38.6072	0.564007	44.2424	0.841476	66.1577	0.160098	12.5763	0.425021	33.7198	0.702359	53.9688
0.0809798	5.93223	0.0150722	1.04979	0.288179	21.6121	0.491034	35.9974	0.564755	41.2839	0.841923	61.6751	0.162901	11.9238	0.425896	31.4635	0.702889	50.4013
0.0864741	5.92999	0.0167856	1.09788	0.289404	20.2865	0.491434	33.7234	0.565554	38.7061	0.842402	57.7674	0.165836	11.3636	0.42683	29.5019	0.703455	47.283
0.0919616	5.92758	0.0185484	1.1435	0.290704	19.1284	0.491864	31.7246	0.566403	36.4406	0.842911	54.3311	0.168495	10.9374	0.427825	27.7816	0.704058	44.5345
0.0974418	5.925	0.0203553	1.18673	0.292078	18.1086	0.492325	29.9543	0.567302	34.4344	0.843452	51.2861	0.170833	10.6123	0.428878	26.2612	0.704696	42.0941
0.102914	5.92223	0.0222015	1.22768	0.293524	17.2044	0.492817	28.3757	0.568251	32.6458	0.844024	48.5693	0.172812	10.3667	0.42999	24.9082	0.70537	39.9131
0.108378	5.91928	0.0240826	1.26645	0.295041	16.3979	0.493341	26.9596	0.569248	31.0415	0.844627	46.1307	0.174406	10.1858	0.43116	23.6971	0.706079	37.9524
0.113832	5.91615	0.0259945	1.30314	0.296627	15.6744	0.493898	25.6824	0.570294	29.595	0.84526	43.9299	0.175594	10.0597	0.432387	22.6069	0.706824	36.1806
0.119277	5.91282	0.0279336	1.33786	0.29828	15.0222	0.494488	24.5249	0.571388	28.2842	0.845925	41.9339	0.176361	9.98184	0.433672	21.6208	0.707605	34.5717
0.124712	5.90929	0.0298967	1.37072	0.3	14.4316	0.495113	23.4713	0.57253	27.0913	0.84662	40.1156	0.177472	9.87368	0.435012	20.725	0.70842	33.1047
0.130135	5.90556	0.0318809	1.40181	0.301785	13.8947	0.495772	22.5084	0.573718	26.0012	0.847346	38.4525	0.178693	9.76087	0.436409	19.9078	0.709271	31.7616
0.135547	5.90161	0.0338836	1.43124	0.303633	13.4048	0.496467	21.6253	0.574954	25.0015	0.848103	36.9256	0.180372	9.61491	0.43786	19.1597	0.710157	30.5276
0.140945	5.89743	0.0359024	1.45909	0.305542	12.9561	0.497199	20.8125	0.576235	24.0816	0.84889	35.519	0.182526	9.44172	0.439366	18.4725	0.711077	29.39
0.146331	5.89303	0.0379353	1.48546	0.307511	12.5441	0.497969	20.0623	0.577563	23.2325	0.849707	34.2192	0.185177	9.24773	0.440925	17.8393	0.712032	28.3382
0.151702	5.88839	0.039717	1.50731	0.309539	12.1645	0.498777	19.3678	0.578935	22.4465	0.850555	33.0146	0.188345	9.03945	0.442538	17.2541	0.713021	27.363
0.157057	5.8835	0.0412424	1.52514	0.311624	11.8138	0.499624	18.7234	0.580352	21.7169	0.851433	31.8952	0.192056	8.82302	0.444203	16.712	0.714045	26.4563
0.162397	5.87835	0.0425078	1.53935	0.313764	11.4892	0.500512	18.1238	0.581814	21.0381	0.852341	30.8524	0.195842	8.62766	0.44592	16.2084	0.715103	25.6114
0.167719	5.87293	0.0435107	1.55027	0.315959	11.1878	0.50144	17.5649	0.583319	20.4051	0.853279	29.8787	0.199698	8.45068	0.447688	15.7397	0.716194	24.8222
0.173022	5.86723	0.0442495	1.55812	0.317914	10.9425	0.502411	17.0426	0.584867	19.8135	0.854247	28.9676	0.20362	8.28981	0.449506	15.3023	0.71732	24.0835
0.178307	5.86124	0.0447228	1.56306	0.319612	10.7449	0.503424	16.5538	0.586458	19.2595	0.855244	28.1132	0.207604	8.14313	0.451373	14.8935	0.718478	23.3907
0.18357	5.85494	0.0454039	1.57007	0.321037	10.5891	0.504482	16.0955	0.588091	18.7398	0.856271	27.3105	0.211646	8.00898	0.45329	14.5107	0.71967	22.7398
0.188811	5.84832	0.0461451	1.57754	0.322177	10.4704	0.505584	15.665	0.589766	18.2513	0.857328	26.5551	0.215742	7.88595	0.455255	14.1515	0.720896	22.1271
0.194029	5.84137	0.0471545	1.58749	0.323022	10.3856	0.506733	15.2601	0.591483	17.7914	0.858414	25.843	0.219889	7.77284	0.457267	13.814	0.722154	21.5495
0.199222	5.83407	0.0484333	1.59972	0.323567	10.3324	0.507928	14.8786	0.59324	17.3578	0.859529	25.1705	0.224085	7.66857	0.459325	13.4963	0.723444	21.004
0.204389	5.8264	0.0499826	1.614	0.324354	10.2572	0.509171	14.5188	0.595037	16.9484	0.860673	24.5346	0.228325	7.57225	0.46143	13.1968	0.724767	20.4882
0.209528	5.81835	0.0518036	1.63007	0.325215	10.1774	0.510463	14.1789	0.596875	16.5612	0.861846	23.9324	0.232607	7.48305	0.46358	12.9142	0.726123	19.9998
0.214636	5.80991	0.0538975	1.64765	0.326397	10.0717	0.511804	13.8576	0.598752	16.1947	0.863048	23.3614	0.236929	7.40028	0.465774	12.6471	0.72751	19.5366
0.219714	5.80104	0.055995	1.66437	0.327907	9.94272	0.513196	13.5534	0.600667	15.8471	0.864278	22.8192	0.241289	7.32332	0.468012	12.3943	0.728929	19.0969
0.224757	5.79173	0.0580957	1.68027	0.329757	9.79328	0.51464	13.2651	0.602621	15.5173	0.865537	22.3038	0.245683	7.25163	0.470292	12.1548	0.73038	18.679
0.229765	5.78197	0.0601991	1.69542	0.331959	9.62657	0.516135	12.9916	0.604614	15.2038	0.866825	21.8133	0.250109	7.18471	0.472615	11.9276	0.731862	18.2813
0.234736	5.77173	0.0623045	1.70985	0.334528	9.44587	0.517685	12.7321	0.606643	14.9056	0.86814	21.3459	0.254567	7.12214	0.47498	11.7119	0.733375	17.9025
0.239666	5.76098	0.0644117	1.72361	0.337142	9.27566	0.519288	12.4854	0.60871	14.6217	0.869484	20.9002	0.259053	7.06353	0.477385	11.5068	0.734919	17.5412
0.244554	5.74971	0.0665203	1.73674	0.3398	9.11513	0.520947	12.2508	0.610814	14.351	0.870856	20.4746	0.263566	7.00854	0.47983	11.3118	0.736493	17.1964
0.249398	5.7379	0.0686299	1.74926	0.342502	8.96357	0.522661	12.0276	0.612953	14.0928	0.872255	20.0679	0.268105	6.95687	0.481993	11.1493	0.738098	16.8669
0.254194	5.72551	0.0707403	1.76123	0.345246	8.82032	0.524432	11.8151	0.615129	13.8462	0.873682	19.6789	0.272667	6.90823	0.48386	11.0162	0.739733	16.5519
0.25894	5.71254	0.0728513	1.77267	0.348033	8.68481	0.52626	11.6125	0.61734	13.6106	0.875136	19.3065	0.277251	6.86238	0.48542	10.9095	0.741398	16.2504
0.263634	5.69895	0.0749626	1.78361	0.350863	8.55649	0.528146	11.4193	0.619586	13.3851	0.876618	18.9497	0.281855	6.8191	0.486663	10.8273	0.743092	15.9615
0.268272	5.68472	0.0770742	1.79408	0.353736	8.4349	0.529837	11.2583	0.621866	13.1693	0.878127	18.6075	0.286479	6.77817	0.487583	10.7681	0.744816	15.6847
0.272852	5.66983	0.0791857	1.8041	0.356652	8.3196	0.531315	11.126	0.624181	12.9626	0.879662	18.2792	0.29112	6.73943	0.488174	10.7307	0.746569	15.4191
0.277371	5.65427	0.0812972	1.81371	0.359612	8.2102	0.532561	11.0201	0.626529	12.7644	0.881225	17.9639	0.295778	6.70269	0.489027	10.6776	0.74835	15.1641
0.281826	5.63801	0.0834085	1.82292	0.362615	8.10635	0.533562	10.9384	0.628911	12.5742	0.882814	17.6608	0.300451	6.66781	0.489959	10.6208	0.750161	14.9191
0.286215	5.62103	0.0855194	1.83175	0.365664	8.00771	0.534308	10.8794	0.631326	12.3917	0.884429	17.3694	0.305139	6.63465	0.491234	10.545	0.751999	14.6836
0.290534	5.60332	0.0876301	1.84024	0.368758	7.91399	0.534789	10.8422	0.633773	12.2163	0.886071	17.089	0.309839	6.60308	0.492858	10.4514	0.753866	14.457
0.294781	5.58488	0.0897403	1.84839	0.371898	7.82492	0.535486	10.7894	0.636252	12.0477	0.887739	16.8189	0.314551	6.57299	0.494841	10.3417	0.755761	14.2389
0.298953	5.56568	0.09185	1.85622	0.375086	7.74027	0.536251	10.7328	0.638763	11.8856	0.889433	16.5587	0.319274	6.54427	0.497191	10.2174	0.757683	14.0289
0.303049	5.54573	0.0939592	1.86375	0.378323	7.65979	0.537304	10.6574	0.641306	11.7296	0.891152	16.3079	0.324006	6.51682	0.499921	10.0805	0.759632	13.8265
0.307065	5.52503	0.0960679	1.871	0.38161	7.58329	0.538656	10.5643	0.64388	11.5793	0.892897	16.0659	0.328748	6.49056	0.502685	9.94933	0.761608	13.6313
0.311	5.50357	0.0981759	1.87798	0.384948	7.51057	0.540322	10.455	0.646148	11.4529	0.894668	15.8323	0.333497	6.46539	0.505482	9.82354	0.763612	13.443
0.314853	5.48137	0.100283	1.88471	0.388338	7.44145	0.542319	10.3314	0.648099	11.3482	0.896464	15.6068	0.338253	6.44126	0.508311	9.70284	0.765641	13.2612
0.318621	5.45844	0.10239	1.89119	0.391783	7.37577	0.544668	10.1952	0.649725	11.2638	0.898284	15.3889	0.343016	6.41807	0.511173	9.58697	0.767697	13.0856
0.322305	5.4348	0.104497	1.89744	0.395282	7.31338	0.547078	10.0648	0.651019	11.1984	0.90013	15.1782	0.347783	6.39578	0.514066	9.47566	0.769779	12.916
0.325903	5.41047	0.106602	1.90347	0.398838	7.25412	0.54955	9.93986	0.651975	11.151	0.902	14.9745	0.352555	6.37432	0.51699	9.36866	0.771887	12.752
0.329415	5.38548	0.108707	1.90929	0.402451	7.19785	0.552084	9.82019	0.652589	11.121	0.903895	14.7774	0.35733	6.35363	0.519945	9.26576	0.77402	12.5934
0.332841	5.35985	0.110811	1.91492	0.406122	7.14446	0.554679	9.7055	0.653474	11.0783	0.905814	14.5866	0.362108	6.33366	0.522929	9.16674	0.776179	12.44
0.336181	5.33362	0.112915	1.92035	0.409851	7.0938	0.557335	9.59555	0.65444	11.0324	0.907757	14.4018	0.366888	6.31437	0.525943	9.07141	0.778362	12.2914
0.339437	5.30683	0.115018	1.92561	0.41364	7.04575	0.560052	9.4901	0.655759	10.971	0.909725	14.2228	0.371669	6.2957	0.528985	8.97958	0.78057	12.1476
0.342609	5.27952	0.117121	1.93069	0.417488	7.0002	0.56283	9.38895	0.657437	10.8948	0.911715	14.0493	0.376451	6.27762	0.532055	8.89108	0.782803	12.0082
0.345699	5.25174	0.119223	1.93561	0.421395	6.95703	0.565669	9.29188	0.659482	10.8047	0.91373	13.881	0.381231	6.26008	0.535152	8.80574	0.785059	11.8731
0.348708	5.22352	0.121324	1.94037	0.425361	6.91612	0.568567	9.19871	0.6619	10.702	0.915768	13.7178	0.386011	6.24306	0.538277	8.72343	0.787046	11.7588
0.351639	5.19491	0.123424	1.94499	0.429385	6.87737	0.571525	9.10925	0.664701	10.5878	0.917829	13.5594	0.390789	6.22651	0.541429	8.64398	0.788753	11.6637
0.354492	5.16596	0.125525	1.94946	0.433466	6.84065	0.574541	9.02334	0.667531	10.4774	0.919913	13.4057	0.395564	6.2104	0.544607	8.56728	0.790175	11.5866
0.357271	5.13671	0.127624	1.9538	0.437604	6.80588	0.577616	8.9408	0.670389	10.3706	0.92202	13.2564	0.400336	6.1947	0.54781	8.49319	0.791305	11.5267
0.359978	5.10721	0.129723	1.958	0.441796	6.77294	0.580749	8.86149	0.673275	10.2672	0.92415	13.1114	0.405104	6.17939	0.551039	8.4216	0.79214	11.4832
0.362614	5.0775	0.131822	1.96208	0.446041	6.74173	0.583938	8.78526	0.676188	10.1672	0.926302	12.9705	0.409867	6.16444	0.554293	8.3524	0.792675	11.4556
0.365184	5.04763	0.133919	1.96604	0.450338	6.71215	0.587183	8.71197	0.679128	10.0703	0.928476	12.8335	0.414625	6.14981	0.557571	8.28547	0.793448	11.4163
0.367371	5.0215	0.136017	1.96989	0.454684	6.68411	0.590484	8.64148	0.682095	9.97648	0.930672	12.7003	0.419376	6.1355	0.560873	8.22073	0.79429	11.3739
0.369197	4.99917	0.138114	1.97363	0.459078	6.65751	0.593838	8.57367	0.685088	9.88555	0.932891	12.5708	0.42412	6.12147	0.564199	8.15807	0.79544	11.3171
0.370682	4.98068	0.14021	1.97726	0.463516	6.63227	0.597246	8.50843	0.688108	9.79741	0.935131	12.4447	0.428857	6.1077	0.567549	8.09742	0.796902	11.2463
0.37184	4.96605	0.142306	1.98079	0.467998	6.60829	0.600707	8.44563	0.691154	9.71194	0.937392	12.322	0.433585	6.09417	0.570921	8.03868	0.798682	11.1624
0.372683	4.95529	0.144402	1.98423	0.472519	6.58551	0.604219	8.38516	0.694226	9.62904	0.939676	12.2026	0.438304	6.08087	0.574317	7.98178	0.800786	11.0662
0.373219	4.9484	0.146497	1.98757	0.47708	6.56383	0.607781	8.32693	0.697323	9.54861	0.941682	12.1011	0.443013	6.06778	0.577734	7.92664	0.803221	10.9588
0.373984	4.9385	0.148591	1.99082	0.481676	6.54319	0.611393	8.27084	0.700446	9.47055	0.943405	12.0163	0.447712	6.05487	0.581175	7.8732	0.805678	10.8543
0.374809	4.92774	0.150685	1.99399	0.486305	6.52351	0.615052	8.21678	0.703595	9.39477	0.944839	11.9475	0.4524	6.04213	0.584637	7.82138	0.808157	10.7527
0.375919	4.91311	0.152779	1.99707	0.490966	6.50474	0.618759	8.16468	0.706768	9.32119	0.945978	11.8938	0.457075	6.02955	0.588121	7.77113	0.810657	10.6539
0.377306	4.89462	0.154872	2.00008	0.495656	6.4868	0.622513	8.11445	0.709967	9.24971	0.946819	11.8548	0.461738	6.01711	0.591626	7.72237	0.813179	10.5578
0.378957	4.87229	0.156965	2.00301	0.500372	6.46964	0.626311	8.066	0.71319	9.18027	0.947358	11.83	0.466388	6.00479	0.595153	7.67507	0.815722	10.4642
0.380858	4.84615	0.159058	2.00586	0.505114	6.45321	0.630152	8.01925	0.716437	9.11279	0.948136	11.7947	0.471023	5.99258	0.598701	7.62916	0.818286	10.3732
0.382996	4.81625	0.16115	2.00865	0.509878	6.43744	0.634037	7.97414	0.71971	9.04719	0.948983	11.7565	0.475644	5.98048	0.602269	7.58459	0.820871	10.2845
0.385088	4.78647	0.163242	2.01136	0.514662	6.42231	0.637963	7.93059	0.723006	8.98342	0.95014	11.7052	0.480248	5.96846	0.605859	7.54131	0.823477	10.1981
0.387136	4.75685	0.165334	2.01402	0.519466	6.40775	0.64193	7.88853	0.726327	8.9214	0.95161	11.6413	0.484837	5.95651	0.609469	7.49928	0.826102	10.1139
0.389144	4.7274	0.167425	2.0166	0.524286	6.39373	0.645936	7.84791	0.729672	8.86108	0.953397	11.5652	0.489408	5.94463	0.6131	7.45845	0.828748	10.0318
0.391112	4.69814	0.169516	2.01913	0.529122	6.38021	0.64998	7.80865	0.733041	8.8024	0.955509	11.4778	0.493962	5.9328	0.616752	7.41878	0.831414	9.95187
0.393044	4.66908	0.171606	2.02159	0.533971	6.36715	0.654061	7.7707	0.736434	8.7453	0.95795	11.3797	0.498497	5.92101	0.620423	7.38024	0.8341	9.8739
0.39494	4.64025	0.173697	2.024	0.538833	6.35452	0.658178	7.734	0.739851	8.68973	0.960411	11.2841	0.503013	5.90925	0.624115	7.34278	0.836805	9.79786
0.396803	4.61166	0.175787	2.02636	0.543705	6.34229	0.662329	7.6985	0.743291	8.63564	0.962891	11.1907	0.507508	5.89752	0.627827	7.30636	0.839529	9.72369
0.398634	4.58331	0.177876	2.02866	0.548586	6.33043	0.666514	7.66415	0.746756	8.58299	0.965391	11.0996	0.511983	5.88579	0.63156	7.27096	0.842273	9.65132
0.400436	4.55523	0.179966	2.03091	0.553475	6.31891	0.670732	7.6309	0.750244	8.53172	0.967911	11.0106	0.516437	5.87408	0.635312	7.23654	0.845035	9.58069
0.402209	4.52741	0.182055	2.03311	0.55837	6.3077	0.674981	7.59869	0.753756	8.48179	0.970449	10.9237	0.520868	5.86235	0.639084	7.20306	0.847817	9.51175
0.403955	4.49988	0.184144	2.03526	0.563271	6.29679	0.679261	7.5675	0.757292	8.43317	0.973006	10.8388	0.525276	5.85062	0.642877	7.17051	0.850617	9.44444
0.405676	4.47263	0.186233	2.03737	0.568176	6.28615	0.683569	7.53726	0.760852	8.3858	0.975582	10.7559	0.529661	5.83886	0.646689	7.13884	0.853435	9.37872
0.407373	4.44567	0.188321	2.03942	0.573084	6.27576	0.687906	7.50795	0.764436	8.33966	0.978177	10.6748	0.534021	5.82708	0.650521	7.10804	0.856272	9.31452
0.409048	4.41902	0.190409	2.04144	0.577993	6.2656	0.692269	7.47952	0.768043	8.29471	0.98079	10.5956	0.538356	5.81526	0.654373	7.07808	0.859127	9.25181
0.410701	4.39266	0.192497	2.04341	0.582904	6.25565	0.696659	7.45193	0.771675	8.25091	0.983421	10.5182	0.542665	5.8034	0.658245	7.04892	0.862	9.19054
0.412334	4.36661	0.194585	2.04535	0.587815	6.24591	0.701073	7.42515	0.77533	8.20822	0.98607	10.4425	0.546948	5.7915	0.662137	7.02055	0.864891	9.13066
0.413947	4.34087	0.196672	2.04724	0.592726	6.23634	0.705511	7.39914	0.77901	8.16663	0.988737	10.3684	0.551204	5.77955	0.666049	6.99294	0.867799	9.07213
0.415543	4.31544	0.19876	2.0491	0.597634	6.22695	0.709972	7.37387	0.782714	8.12609	0.991421	10.296	0.555433	5.76754	0.66998	6.96608	0.870725	9.01491
0.417122	4.29032	0.200847	2.05091	0.60254	6.2177	0.714455	7.34931	0.786443	8.08658	0.994123	10.2251	0.559632	5.75547	0.673931	6.93993	0.873668	8.95896
0.418684	4.26552	0.202934	2.05269	0.607443	6.2086	0.718957	7.32542	0.790196	8.04807	0.996843	10.1557	0.563803	5.74333	0.677902	6.91448	0.876629	8.90425
0.420232	4.24103	0.20502	2.05444	0.612342	6.19964	0.72348	7.30218	0.793974	8.01054	0.999579	10.0879	0.567945	5.73113	0.681892	6.88971	0.879606	8.85073
0.421766	4.21686	0.207107	2.05615	0.617236	6.19079	0.728021	7.27956	0.797778	7.97395	1.00233	10.0214	0.572056	5.71885	0.685902	6.86559	0.882601	8.79838
0.423286	4.193	0.209193	2.05783	0.622124	6.18205	0.732579	7.25753	0.801606	7.93829			0.576137	5.70649	0.689931	6.84211	0.885612	8.74716
0.424794	4.16945	0.211279	2.05948	0.627007	6.17341	0.737154	7.23606	0.80546	7.90354			0.580187	5.69406	0.69398	6.81925	0.888641	8.69704
0.426289	4.14622	0.213365	2.06109	0.631883	6.16487	0.741744	7.21513	0.809339	7.86966			0.584205	5.68154	0.698047	6.797	0.891685	8.64798
0.427774	4.1233	0.215451	2.06267	0.636751	6.15641	0.746349	7.19471	0.813244	7.83663			0.588191	5.66895	0.702134	6.77532	0.894747	8.59996
0.429249	4.10068	0.217537	2.06423	0.641612	6.14802	0.750967	7.17479	0.817176	7.80445			0.592145	5.65626	0.70624	6.75422	0.897824	8.55295
0.430713	4.07837	0.219622	2.06576	0.646464	6.1397	0.755597	7.15533	0.821134	7.77309			0.596066	5.64349	0.710364	6.73366	0.900918	8.50692
0.432169	4.05637	0.221708	2.06725	0.651308	6.13145	0.760238	7.13632	0.825119	7.74252			0.599954	5.63063	0.714507	6.71364	0.904028	8.46184
0.433616	4.03467	0.223793	2.06873	0.656142	6.12325	0.76489	7.11774	0.829131	7.71274			0.603809	5.61769	0.718669	6.69414	0.907154	8.41769
0.435055	4.01327	0.225878	2.07017	0.660966	6.11509	0.769551	7.09956	0.83317	7.68372			0.60763	5.60465	0.722848	6.67514	0.910296	8.37445
0.436487	3.99217	0.227963	2.07159	0.665779	6.10699	0.77422	7.08177	0.837237	7.65545			0.611416	5.59153	0.727045	6.65663	0.913454	8.33208
0.437912	3.97136	0.230047	2.07298	0.670581	6.09892	0.778897	7.06434	0.841332	7.62791			0.615169	5.57831	0.73126	6.63859	0.916628	8.29058
0.43933	3.95084	0.232132	2.07435	0.675373	6.09088	0.78358	7.04727	0.845455	7.60108			0.618887	5.56501	0.735492	6.62101	0.919817	8.2499
0.440743	3.93061	0.234216	2.0757	0.680152	6.08287	0.788269	7.03052	0.849607	7.57496			0.622571	5.55163	0.739742	6.60387	0.923022	8.21004
0.44215	3.91066	0.236301	2.07702	0.684919	6.07488	0.792962	7.0141	0.853789	7.54953			0.62622	5.53816	0.744007	6.58717	0.926242	8.17097
0.443552	3.891	0.238385	2.07832	0.689673	6.06692	0.797659	6.99797	0.857999	7.52477			0.629834	5.5246	0.74829	6.57088	0.929478	8.13267
0.444949	3.87161	0.240469	2.0796	0.694414	6.05897	0.802359	6.98213	0.862239	7.50066			0.633414	5.51096	0.752588	6.55499	0.932729	8.09512
0.446342	3.8525	0.242553	2.08085	0.699142	6.05103	0.807061	6.96657	0.866509	7.47721			0.636958	5.49724	0.756901	6.53949	0.935995	8.05831
0.447731	3.83366	0.244637	2.08209	0.703856	6.0431	0.811764	6.95126	0.87081	7.45439			0.640468	5.48344	0.76123	6.52437	0.939277	8.02221
0.449116	3.81509	0.246721	2.0833	0.708556	6.03517	0.816467	6.93619	0.87514	7.43218			0.643943	5.46956	0.765573	6.50962	0.942573	7.98681
0.450498	3.79678	0.248804	2.0845	0.713241	6.02725	0.82117	6.92136	0.879502	7.41059			0.647384	5.45561	0.769931	6.49521	0.945884	7.95209
0.451877	3.77873	0.250888	2.08567	0.717911	6.01932	0.825872	6.90675	0.883895	7.38959			0.65079	5.44159	0.774303	6.48115	0.949211	7.91803
0.453254	3.76094	0.252971	2.08683	0.722566	6.01139	0.830572	6.89235	0.888318	7.36917			0.654161	5.4275	0.778688	6.46742	0.952552	7.88463
0.454628	3.7434	0.255055	2.08797	0.727206	6.00345	0.835269	6.87816	0.892773	7.34933			0.657498	5.41334	0.783085	6.454	0.955907	7.85185
0.456	3.72611	0.257138	2.08909	0.731829	5.9955	0.839963	6.86415	0.89726	7.33004			0.660802	5.39912	0.787495	6.44089	0.959278	7.81969
0.45737	3.70907	0.259221	2.09019	0.736436	5.98754	0.844654	6.85033	0.901778	7.3113			0.664071	5.38484	0.791917	6.42807	0.962663	7.78813
0.458739	3.69227	0.261304	2.09128	0.741026	5.97957	0.849341	6.83668	0.906328	7.2931			0.667306	5.3705	0.796351	6.41554	0.966062	7.75717
0.460106	3.67571	0.263387	2.09234	0.7456	5.97158	0.854023	6.82319	0.910909	7.27542			0.670508	5.3561	0.800795	6.40328	0.969476	7.72677
0.461472	3.65938	0.26547	2.0934	0.750156	5.96357	0.8587	6.80987	0.915522	7.25825			0.673677	5.34166	0.80525	6.39129	0.972905	7.69694
0.462837	3.64329	0.267553	2.09443	0.754695	5.95554	0.863372	6.7967	0.920166	7.24158			0.676812	5.32717	0.809714	6.37955	0.976347	7.66766
0.464201	3.62743	0.269635	2.09545	0.759216	5.94749	0.868039	6.78368	0.924841	7.22539			0.679915	5.31263	0.814188	6.36805	0.979804	7.63892
0.465565	3.61179	0.271718	2.09646	0.763719	5.93942	0.872699	6.77081	0.929548	7.20968			0.682986	5.29806	0.81867	6.35678	0.983275	7.61069
0.466928	3.59637	0.2738	2.09745	0.768203	5.93132	0.877354	6.75807	0.934285	7.19444			0.686025	5.28344	0.823161	6.34575	0.98676	7.58298
0.468292	3.58117	0.275883	2.09842	0.772669	5.92319	0.882003	6.74547	0.939053	7.17965			0.689032	5.2688	0.827659	6.33492	0.990259	7.55578
0.469655	3.56619	0.277965	2.09938	0.777116	5.91503	0.886645	6.733	0.943852	7.16529			0.692007	5.25412	0.832165	6.32431	0.993772	7.52906
0.471018	3.55142	0.280047	2.10033	0.781544	5.90685	0.891281	6.72065	0.94868	7.15136			0.694952	5.23941	0.836677	6.31389	0.997299	7.50282
0.472382	3.53685	0.282129	2.10126	0.785953	5.89863	0.895911	6.70844	0.953538	7.13785			0.697865	5.22468	0.841195	6.30367	1.00084	7.47704
0.473746	3.52249	0.284211	2.10218	0.790342	5.89038	0.900535	6.69634	0.958425	7.12474			0.700749	5.20992	0.845718	6.29362		
0.475111	3.50834	0.286294	2.10309	0.794712	5.8821	0.905153	6.68437	0.96334	7.11203			0.703602	5.19515	0.850247	6.28376		
0.476476	3.49438	0.288375	2.10398	0.799061	5.87379	0.909765	6.67252	0.968284	7.09969			0.706426	5.18037	0.85478	6.27406		
0.477842	3.48061	0.290457	2.10487	0.80339	5.86544	0.914371	6.66079	0.973255	7.08772			0.709221	5.16557	0.859317	6.26452		
0.479209	3.46704	0.292539	2.10573	0.807698	5.85706	0.918971	6.64917	0.978253	7.0761			0.711987	5.15076	0.863858	6.25513		
0.480577	3.45366	0.294621	2.10659	0.811986	5.84864	0.923567	6.63767	0.983277	7.06484			0.714725	5.13595	0.868401	6.2459		
0.481947	3.44047	0.296702	2.10744	0.816254	5.84018	0.928156	6.62629	0.988328	7.0539			0.717434	5.12113	0.872947	6.2368		
0.483317	3.42745	0.298784	2.10827	0.8205	5.83169	0.932742	6.61502	0.993403	7.04329			0.720116	5.10632	0.877495	6.22783		
0.484689	3.41462	0.300866	2.10909	0.824725	5.82315	0.937322	6.60387	0.998502	7.03298			0.722771	5.0915	0.882044	6.219		
0.486063	3.40197	0.302947	2.1099	0.828929	5.81459	0.941898	6.59284	1.00363	7.02298			0.725399	5.0767	0.886594	6.21028		
0.487438	3.38949	0.305028	2.1107	0.833111	5.80598	0.94647	6.58192					0.728001	5.0619	0.891144	6.20168		
0.488814	3.37718	0.30711	2.11149	0.837272	5.79733	0.951038	6.57111					0.730576	5.04711	0.895695	6.19319		
0.490192	3.36504	0.309191	2.11227	0.841411	5.78865	0.955603	6.56041					0.733127	5.03234	0.900245	6.18481		
0.491572	3.35307	0.311272	2.11304	0.845528	5.77992	0.960164	6.54983					0.735651	5.01758	0.904794	6.17653		
0.492954	3.34126	0.313353	2.1138	0.849623	5.77116	0.964723	6.53937					0.738152	5.00284	0.909341	6.16834		
0.494338	3.32961	0.315435	2.11455	0.853697	5.76236	0.969279	6.52902					0.740628	4.98813	0.913887	6.16024		
0.495724	3.31812	0.317516	2.11529	0.857748	5.75352	0.973832	6.51877					0.74308	4.97343	0.91843	6.15223		
0.497111	3.30679	0.319597	2.11602	0.861777	5.74465	0.978383	6.50865					0.745508	4.95876	0.922971	6.1443		
0.498501	3.29561	0.321678	2.11674	0.865783	5.73573	0.982932	6.49863					0.747913	4.94412	0.927508	6.13644		
0.499893	3.28458	0.323759	2.11745	0.869767	5.72678	0.987479	6.48872					0.750296	4.92951	0.932042	6.12866		
0.501288	3.2737	0.325839	2.11815	0.873729	5.71779	0.992024	6.47893					0.752656	4.91493	0.936571	6.12094		
0.502684	3.26297	0.32792	2.11884	0.877669	5.70876	0.996569	6.46924					0.754994	4.90039	0.941096	6.11329		
0.504083	3.25238	0.330001	2.11953	0.881585	5.6997	1.00111	6.45966					0.757311	4.88588	0.945617	6.1057		
0.505484	3.24193	0.332082	2.1202	0.88548	5.6906							0.759606	4.8714	0.950132	6.09817		
0.506887	3.23162	0.334162	2.12087	0.889352	5.68146							0.761881	4.85697	0.954641	6.09069		
0.508293	3.22145	0.336243	2.12153	0.893201	5.67229							0.764136	4.84258	0.959144	6.08326		
0.509701	3.21141	0.338323	2.12218	0.897028	5.66309							0.76637	4.82823	0.963641	6.07588		
0.511112	3.20151	0.340404	2.12283	0.900832	5.65385							0.768585	4.81393	0.968131	6.06854		
0.512525	3.19173	0.342484	2.12346	0.904613	5.64457							0.77078	4.79967	0.972614	6.06124		
0.513941	3.18209	0.344565	2.12409	0.908372	5.63527							0.772957	4.78546	0.977089	6.05398		
0.515359	3.17257	0.346645	2.12471	0.912109	5.62593							0.775115	4.7713	0.981557	6.04675		
0.51678	3.16317	0.348725	2.12533	0.915823	5.61656							0.777255	4.75719	0.986016	6.03956		
0.518204	3.1539	0.350806	2.12593	0.919514	5.60716							0.779377	4.74313	0.990467	6.0324		
0.51963	3.14475	0.352886	2.12653	0.923183	5.59773							0.781482	4.72913	0.994909	6.02526		
0.521059	3.13571	0.354966	2.12713	0.92683	5.58827							0.783569	4.71518	0.999341	6.01815		
0.522491	3.1268	0.357046	2.12771	0.930454	5.57879							0.78564	4.70128	1.00376	6.01106		
0.523925	3.118	0.359127	2.12829	0.934056	5.56927							0.787695	4.68744				
0.525362	3.10931	0.361207	2.12887	0.937636	5.55973							0.789733	4.67366				
0.526802	3.10073	0.363287	2.12943	0.941194	5.55017							0.791756	4.65993				
0.528244	3.09226	0.365367	2.12999	0.94473	5.54058							0.793763	4.64627				
0.529689	3.0839	0.367447	2.13055	0.948244	5.53096							0.795756	4.63267				
0.531137	3.07565	0.369527	2.13109	0.951736	5.52132							0.797733	4.61912				
0.532588	3.0675	0.371607	2.13163	0.955206	5.51166							0.799696	4.60564				
0.534042	3.05945	0.373686	2.13217	0.958654	5.50198							0.801645	4.59223				
0.535498	3.05151	0.375766	2.1327	0.962081	5.49228							0.80358	4.57887				
0.536957	3.04367	0.377846	2.13322	0.965486	5.48256							0.805501	4.56558				
0.538419	3.03592	0.379926	2.13374	0.968869	5.47282							0.80741	4.55236				
0.539884	3.02827	0.382005	2.13425	0.972232	5.46306							0.809305	4.5392				
0.541352	3.02072	0.384085	2.13476	0.975573	5.45329							0.811188	4.52611				
0.542822	3.01326	0.386165	2.13526	0.978893	5.4435							0.813058	4.51308				
0.544295	3.00589	0.388245	2.13576	0.982192	5.43369							0.814916	4.50012				
0.545771	2.99861	0.390324	2.13625	0.98547	5.42387							0.816762	4.48723				
0.54725	2.99142	0.392404	2.13674	0.988728	5.41403							0.818597	4.47441				
0.548732	2.98432	0.394483	2.13722	0.991964	5.40419							0.820421	4.46166				
0.550216	2.97731	0.396563	2.13769	0.99518	5.39433							0.822233	4.44897				
0.551704	2.97038	0.398642	2.13816	0.998376	5.38446							0.824035	4.43636				
0.553194	2.96354	0.400722	2.13863	1.00155	5.37457							0.825826	4.42381				
0.554687	2.95678	0.402801	2.13909									0.827607	4.41133				
0.556183	2.9501	0.40488	2.13955									0.829378	4.39893				
0.557682	2.94351	0.40696	2.14									0.831139	4.38659				
0.559183	2.93699	0.409039	2.14045									0.832891	4.37433				
0.560687	2.93055	0.411118	2.14089									0.834633	4.36213				
0.562195	2.92419	0.413198	2.14133									0.836366	4.35001				
0.563704	2.9179	0.415277	2.14176									0.83809	4.33795				
0.565217	2.91169	0.417356	2.14219									0.839806	4.32597				
0.566733	2.90555	0.419435	2.14262									0.841513	4.31406				
0.568251	2.89948	0.421515	2.14304									0.843212	4.30222				
0.569772	2.89349	0.423594	2.14346									0.844903	4.29045				
0.571296	2.88757	0.425673	2.14387									0.846586	4.27875				
0.572822	2.88171	0.427752	2.14428									0.848261	4.26713				
0.574352	2.87592	0.429831	2.14469									0.849929	4.25557				
0.575884	2.87021	0.43191	2.14509									0.851589	4.24409				
0.577419	2.86455	0.433989	2.14548									0.853243	4.23268				
0.578956	2.85897	0.436068	2.14588									0.85489	4.22133				
0.580496	2.85344	0.438147	2.14627									0.856529	4.21006				
0.582039	2.84799	0.440226	2.14666									0.858163	4.19886				
0.583585	2.84259	0.442305	2.14704									0.85979	4.18773				
0.585133	2.83726	0.444384	2.14742									0.861411	4.17667				
0.586685	2.83198	0.446463	2.14779									0.863025	4.16568				
0.588238	2.82677	0.448542	2.14817									0.864634	4.15477				
0.589795	2.82162	0.450621	2.14854									0.866237	4.14392				
0.591354	2.81652	0.452699	2.1489									0.867835	4.13314				
0.592915	2.81148	0.454778	2.14926									0.869427	4.12243				
0.59448	2.8065	0.456857	2.14962									0.871014	4.11179				
0.596047	2.80158	0.458936	2.14998									0.872596	4.10122				
0.597616	2.79671	0.461015	2.15033									0.874173	4.09072				
0.599188	2.79189	0.463093	2.15068									0.875745	4.08028				
0.600763	2.78713	0.465172	2.15103									0.877312	4.06992				
0.60234	2.78242	0.467251	2.15137									0.878875	4.05962				
0.60392	2.77776	0.469329	2.15171									0.880433	4.04939				
0.605503	2.77316	0.471408	2.15205									0.881987	4.03923				
0.607088	2.7686	0.473487	2.15238									0.883537	4.02914				
0.608675	2.7641	0.475565	2.15271									0.885083	4.01911				
0.610265	2.75964	0.477644	2.15304									0.886625	4.00915				
0.611857	2.75523	0.479722	2.15337									0.888163	3.99925				
0.613452	2.75088	0.481801	2.15369									0.889697	3.98943				
0.61505	2.74656	0.483879	2.15401									0.891228	3.97966				
0.61665	2.7423	0.485958	2.15433									0.892755	3.96997				
0.618252	2.73808	0.488036	2.15465									0.894279	3.96034				
0.619857	2.73391	0.490115	2.15496									0.895799	3.95077				
0.621464	2.72978	0.492193	2.15527									0.897317	3.94127				
0.623074	2.72569	0.494272	2.15557									0.898831	3.93183				
0.624686	2.72165	0.49635	2.15588									0.900343	3.92245				
0.626301	2.71766	0.498429	2.15618									0.901851	3.91314				
0.627917	2.7137	0.500507	2.15648									0.903357	3.90389				
0.629537	2.70979	0.502585	2.15678									0.90486	3.89471				
0.631158	2.70591	0.504664	2.15707									0.90636	3.88558				
0.632782	2.70208	0.506742	2.15736									0.907859	3.87652				
0.634408	2.69829	0.50882	2.15765									0.909354	3.86752				
0.636037	2.69454	0.510899	2.15794									0.910847	3.85858				
0.637668	2.69083	0.512977	2.15823									0.912338	3.84971				
0.639301	2.68716	0.515055	2.15851									0.913827	3.84089				
0.640936	2.68352	0.517134	2.15879									0.915314	3.83213				
0.642574	2.67992	0.519212	2.15907									0.916799	3.82343				
0.644214	2.67636	0.52129	2.15934									0.918282	3.81479				
0.645856	2.67284	0.523368	2.15962									0.919763	3.80622				
0.6475	2.66935	0.525446	2.15989									0.921242	3.79769				
0.649147	2.6659	0.527525	2.16016									0.92272	3.78923				
0.650796	2.66249	0.529603	2.16043									0.924196	3.78083				
0.652447	2.65911	0.531681	2.16069									0.92567	3.77248				
0.6541	2.65576	0.533759	2.16095									0.927143	3.76419				
0.655755	2.65245	0.535837	2.16122									0.928614	3.75596				
0.657413	2.64917	0.537915	2.16147									0.930084	3.74778				
0.659073	2.64592	0.539993	2.16173									0.931553	3.73966				
0.660734	2.64271	0.542072	2.16199									0.93302	3.73159				
0.662398	2.63953	0.54415	2.16224									0.934487	3.72358				
0.664064	2.63638	0.546228	2.16249									0.935952	3.71562				
0.665732	2.63326	0.548306	2.16274									0.937416	3.70772				
0.667403	2.63017	0.550384	2.16299									0.938879	3.69987				
0.669075	2.62712	0.552462	2.16323									0.940341	3.69208				
0.670749	2.62409	0.55454	2.16348									0.941802	3.68434				
0.672425	2.6211	0.556618	2.16372									0.943263	3.67665				
0.674104	2.61813	0.558696	2.16396									0.944722	3.66902				
0.675784	2.61519	0.560774	2.1642									0.946181	3.66143				
0.677466	2.61228	0.562852	2.16444									0.947639	3.6539				
0.679151	2.6094	0.56493	2.16467									0.949097	3.64642				
0.680837	2.60655	0.567008	2.1649									0.950553	3.63899				
0.682526	2.60373	0.569085	2.16514									0.95201	3.63162				
0.684216	2.60093	0.571163	2.16537									0.953465	3.62429				
0.685908	2.59816	0.573241	2.16559									0.954921	3.61701				
0.687602	2.59542	0.575319	2.16582									0.956375	3.60978				
0.689298	2.5927	0.577397	2.16605									0.95783	3.6026				
0.690996	2.59002	0.579475	2.16627									0.959284	3.59547				
0.692696	2.58735	0.581553	2.16649									0.960738	3.58839				
0.694398	2.58471	0.58363	2.16671									0.962191	3.58136				
0.696101	2.5821	0.585708	2.16693									0.963645	3.57437				
0.697807	2.57951	0.587786	2.16715									0.965098	3.56743				
0.699514	2.57695	0.589864	2.16736									0.966551	3.56054				
0.701224	2.57441	0.591942	2.16758									0.968003	3.55369				
0.702935	2.57189	0.594019	2.16779									0.969456	3.5469				
0.704647	2.5694	0.596097	2.168									0.970909	3.54014				
0.706362	2.56693	0.598175	2.16821									0.972361	3.53344				
0.708079	2.56449	0.600253	2.16842									0.973814	3.52677				
0.709797	2.56206	0.60233	2.16863									0.975267	3.52016				
0.711517	2.55966	0.604408	2.16883									0.976719	3.51359				
0.713239	2.55729	0.606486	2.16903									0.978172	3.50706				
0.714962	2.55493	0.608563	2.16924									0.979625	3.50057				
0.716687	2.5526	0.610641	2.16944									0.981079	3.49413				
0.718414	2.55029	0.612719	2.16964									0.982532	3.48774				
0.720143	2.548	0.614796	2.16984									0.983986	3.48138				
0.721874	2.54573	0.616874	2.17003									0.985439	3.47507				
0.723606	2.54348	0.618952	2.17023									0.986894	3.4688				
0.725339	2.54125	0.621029	2.17042									0.988348	3.46257				
0.727075	2.53904	0.623107	2.17062									0.989803	3.45639				
0.728812	2.53686	0.625185	2.17081									0.991258	3.45025				
0.730551	2.53469	0.627262	2.171									0.992713	3.44414				
0.732291	2.53254	0.62934	2.17119									0.994169	3.43808				
0.734034	2.53041	0.631417	2.17138									0.995625	3.43206				
0.735777	2.5283	0.633495	2.17156									0.997082	3.42608				
0.737523	2.52621	0.635572	2.17175									0.998539	3.42013				
0.73927	2.52414	0.63765	2.17193									0.999997	3.41423				
0.741018	2.52209	0.639728	2.17212									1.00146	3.40837				
0.742768	2.52005	0.641805	2.1723														
0.74452	2.51804	0.643883	2.17248														
0.746273	2.51604	0.64596	2.17266														
0.748028	2.51406	0.648038	2.17284														
0.749784	2.51209	0.650115	2.17301														
0.751542	2.51015	0.652193	2.17319														
0.753302	2.50822	0.65427	2.17337														
0.755063	2.50631	0.656347	2.17354														
0.756825	2.50441	0.658425	2.17371														
0.758589	2.50253	0.660502	2.17388														
0.760355	2.50067	0.66258	2.17406														
0.762122	2.49883	0.664657	2.17423														
0.76389	2.497	0.666735	2.17439														
0.76566	2.49518	0.668812	2.17456														
0.767431	2.49338	0.670889	2.17473														
0.769204	2.4916	0.672967	2.17489														
0.770978	2.48984	0.675044	2.17506														
0.772754	2.48808	0.677121	2.17522														
0.774531	2.48635	0.679199	2.17538														
0.776309	2.48462	0.681276	2.17554														
0.778089	2.48292	0.683353	2.17571														
0.779871	2.48122	0.685431	2.17586														
0.781653	2.47955	0.687508	2.17602														
0.783437	2.47788	0.689585	2.17618														
0.785223	2.47623	0.691663	2.17634														
0.787009	2.4746	0.69374	2.17649														
0.788797	2.47297	0.695817	2.17665														
0.790587	2.47136	0.697895	2.1768														
0.792378	2.46977	0.699972	2.17695														
0.79417	2.46819	0.702049	2.17711														
0.795963	2.46662	0.704126	2.17726														
0.797758	2.46506	0.706203	2.17741														
0.799554	2.46352	0.708281	2.17756														
0.801351	2.46199	0.710358	2.1777														
0.80315	2.46047	0.712435	2.17785														
0.80495	2.45897	0.714512	2.178														
0.806751	2.45748	0.71659	2.17814														
0.808553	2.456	0.718667	2.17829														
0.810357	2.45453	0.720744	2.17843														
0.812162	2.45307	0.722821	2.17858														
0.813968	2.45163	0.724898	2.17872														
0.815775	2.4502	0.726975	2.17886														
0.817584	2.44878	0.729053	2.179														
0.819393	2.44737	0.73113	2.17914														
0.821204	2.44597	0.733207	2.17928														
0.823017	2.44458	0.735284	2.17942														
0.82483	2.44321	0.737361	2.17956														
0.826645	2.44184	0.739438	2.17969														
0.82846	2.44049	0.741515	2.17983														
0.830277	2.43915	0.743592	2.17997														
0.832095	2.43782	0.745669	2.1801														
0.833915	2.4365	0.747746	2.18023														
0.835735	2.43519	0.749824	2.18037														
0.837556	2.43389	0.751901	2.1805														
0.839379	2.4326	0.753978	2.18063														
0.841203	2.43132	0.756055	2.18076														
0.843028	2.43005	0.758132	2.18089														
0.844854	2.42879	0.760209	2.18102														
0.846681	2.42754	0.762286	2.18115														
0.848509	2.4263	0.764363	2.18128														
0.850339	2.42507	0.76644	2.18141														
0.852169	2.42385	0.768517	2.18153														
0.854001	2.42264	0.770594	2.18166														
0.855833	2.42144	0.772671	2.18178														
0.857667	2.42025	0.774748	2.18191														
0.859502	2.41906	0.776825	2.18203														
0.861337	2.41789	0.778902	2.18215														
0.863174	2.41673	0.780979	2.18228														
0.865012	2.41557	0.783056	2.1824														
0.866851	2.41442	0.785132	2.18252														
0.868691	2.41329	0.787209	2.18264														
0.870532	2.41216	0.789286	2.18276														
0.872374	2.41104	0.791363	2.18288														
0.874217	2.40992	0.79344	2.183														
0.876061	2.40882	0.795517	2.18312														
0.877906	2.40773	0.797594	2.18323														
0.879752	2.40664	0.799671	2.18335														
0.881599	2.40556	0.801748	2.18347														
0.883447	2.40449	0.803825	2.18358														
0.885296	2.40343	0.805901	2.1837														
0.887145	2.40237	0.807978	2.18381														
0.888996	2.40133	0.810055	2.18393														
0.890848	2.40029	0.812132	2.18404														
0.892701	2.39926	0.814209	2.18415														
0.894555	2.39823	0.816286	2.18426														
0.896409	2.39722	0.818363	2.18437														
0.898265	2.39621	0.820439	2.18449														
0.900122	2.39521	0.822516	2.1846														
0.901979	2.39422	0.824593	2.18471														
0.903837	2.39323	0.82667	2.18481														
0.905697	2.39225	0.828747	2.18492														
0.907557	2.39128	0.830823	2.18503														
0.909418	2.39032	0.8329	2.18514														
0.91128	2.38936	0.834977	2.18525														
0.913143	2.38841	0.837054	2.18535														
0.915007	2.38747	0.83913	2.18546														
0.916871	2.38653	0.841207	2.18556														
0.918737	2.3856	0.843284	2.18567														
0.920603	2.38468	0.845361	2.18577														
0.922471	2.38376	0.847437	2.18588														
0.924339	2.38285	0.849514	2.18598														
0.926208	2.38195	0.851591	2.18608														
0.928078	2.38105	0.853667	2.18619														
0.929949	2.38016	0.855744	2.18629														
0.93182	2.37928	0.857821	2.18639														
0.933693	2.3784	0.859898	2.18649														
0.935566	2.37753	0.861974	2.18659														
0.93744	2.37667	0.864051	2.18669														
0.939315	2.37581	0.866128	2.18679														
0.941191	2.37496	0.868204	2.18689														
0.943067	2.37411	0.870281	2.18699														
0.944944	2.37327	0.872358	2.18708														
0.946823	2.37244	0.874434	2.18718														
0.948702	2.37161	0.876511	2.18728														
0.950581	2.37078	0.878588	2.18737														
0.952462	2.36997	0.880664	2.18747														
0.954343	2.36916	0.882741	2.18757														
0.956225	2.36835	0.884817	2.18766														
0.958108	2.36755	0.886894	2.18776														
0.959992	2.36676	0.888971	2.18785														
0.961876	2.36597	0.891047	2.18794														
0.963761	2.36518	0.893124	2.18804														
0.965647	2.36441	0.8952	2.18813														
0.967534	2.36363	0.897277	2.18822														
0.969422	2.36287	0.899353	2.18831														
0.97131	2.36211	0.90143	2.18841														
0.973199	2.36135	0.903507	2.1885														
0.975089	2.3606	0.905583	2.18859														
0.976979	2.35985	0.90766	2.18868														
0.97887	2.35911	0.909736	2.18877														
0.980762	2.35837	0.911813	2.18886														
0.982655	2.35764	0.913889	2.18895														
0.984548	2.35692	0.915966	2.18904														
0.986442	2.3562	0.918042	2.18912														
0.988337	2.35548	0.920119	2.18921														
0.990232	2.35477	0.922195	2.1893														
0.992129	2.35406	0.924272	2.18939														
0.994025	2.35336	0.926348	2.18947														
0.995923	2.35266	0.928425	2.18956														
0.997821	2.35197	0.930501	2.18964														
0.99972	2.35128	0.932578	2.18973														
1.00162	2.3506	0.934654	2.18982														
		0.936731	2.1899														
		0.938807	2.18998														
		0.940884	2.19007														
		0.94296	2.19015														
		0.945036	2.19023														
		0.947113	2.19032														
		0.949189	2.1904														
		0.951266	2.19048														
		0.953342	2.19056														
		0.955419	2.19065														
		0.957495	2.19073														
		0.959571	2.19081														
		0.961648	2.19089														
		0.963724	2.19097														
		0.9658	2.19105														
		0.967877	2.19113														
		0.969953	2.1912														
		0.97203	2.19128														
		0.974106	2.19136														
		0.976182	2.19144														
		0.978259	2.19152														
		0.980335	2.19159														
		0.982411	2.19167														
		0.984488	2.19175														
		0.986564	2.19182														
		0.98864	2.1919														
		0.990717	2.19197														
		0.992793	2.19205														
		0.994869	2.19212														
		0.996945	2.1922														
		0.999022	2.19227														
		1.0011	2.19235														
