Sym0		Asym0		Sym1		Sym2		Sym3		Sym4		Asym1		Asym2		Asym3	
458  Points		492  Points		180  Points		145  Points		127  Points		96  Points		312  Points		158  Points		127  Points	
Freq (MHz)	Vph (m/ms)	Freq (MHz)	Vph (m/ms)	Freq (MHz)	Vph (m/ms)	Freq (MHz)	Vph (m/ms)	Freq (MHz)	Vph (m/ms)	Freq (MHz)	Vph (m/ms)	Freq (MHz)	Vph (m/ms)	Freq (MHz)	Vph (m/ms)	Freq (MHz)	Vph (m/ms)
0.00576233	7.09683	0.000414377	0.20601	0.279523	634.36	0.512865	1059.45	0.559046	701.768	0.838529	2267.84	0.139764	613.022	0.419275	868.105	0.698771	9608.98
0.0123736	7.09637	0.000881737	0.29959	0.279645	203.773	0.512902	362.275	0.559154	323.524	0.838569	644.339	0.14001	120.731	0.419367	296.441	0.698802	695.73
0.0189832	7.09559	0.0015157	0.391166	0.279892	121.479	0.512977	218.523	0.559341	210.277	0.838655	375.55	0.140583	67.2202	0.419548	178.808	0.698885	360.974
0.02559	7.09446	0.0023082	0.48022	0.280264	86.6156	0.513088	156.469	0.559607	155.805	0.838786	265.033	0.141479	46.7996	0.41982	128.07	0.699021	243.748
0.0321931	7.09296	0.00324973	0.566329	0.28076	67.3703	0.513237	121.884	0.559951	123.79	0.838961	204.798	0.142689	36.0803	0.420181	99.8113	0.69921	184.027
0.0387916	7.09114	0.00432966	0.649132	0.28138	55.1821	0.513424	99.8381	0.560374	102.725	0.839182	166.894	0.144204	29.5109	0.420632	81.8119	0.699451	147.838
0.0453845	7.08897	0.00553695	0.728391	0.282122	46.7801	0.513649	84.5616	0.560875	87.818	0.839448	140.849	0.146011	25.0958	0.421172	69.3499	0.699745	123.567
0.0519707	7.08645	0.00686002	0.803911	0.282985	40.6441	0.513914	73.3539	0.561454	76.7172	0.839758	121.852	0.148098	21.9408	0.4218	60.2155	0.700092	106.162
0.0585494	7.08357	0.00828773	0.875618	0.283967	35.9716	0.514218	64.7822	0.562109	68.1329	0.840114	107.386	0.150448	19.5857	0.422517	53.2369	0.70049	93.0726
0.0651193	7.08032	0.00980913	0.943484	0.285067	32.299	0.514564	58.016	0.56284	61.299	0.840514	96.0038	0.153049	17.769	0.423321	47.7346	0.700941	82.8734
0.0716793	7.07671	0.0114137	1.00753	0.286284	29.3396	0.514951	52.5405	0.563647	55.7317	0.840959	86.8158	0.155883	16.3315	0.424213	43.2873	0.701445	74.7039
0.0782285	7.07272	0.0130919	1.06784	0.287615	26.9068	0.515382	48.0196	0.564528	51.1104	0.841448	79.2444	0.158938	15.1707	0.42519	39.6203	0.702	68.0143
0.0847656	7.06834	0.0148346	1.12453	0.289058	24.8738	0.515856	44.2247	0.565484	47.2143	0.841982	72.8983	0.162197	14.2174	0.426254	36.5465	0.702607	62.437
0.0912895	7.06357	0.0166337	1.17773	0.290611	23.1513	0.516376	40.9949	0.566512	43.8862	0.842561	67.5032	0.165646	13.4235	0.427402	33.9342	0.703266	57.7169
0.0977988	7.05839	0.0184819	1.22761	0.292271	21.6748	0.516943	38.2133	0.567612	41.0114	0.843184	62.8609	0.169273	12.7544	0.428635	31.688	0.703977	53.6713
0.104292	7.05279	0.0203726	1.27433	0.294037	20.3965	0.517557	35.7935	0.568784	38.5041	0.843851	58.8247	0.173064	12.1847	0.42995	29.7371	0.704738	50.1659
0.110769	7.04677	0.0222998	1.31807	0.295906	19.2801	0.518221	33.6699	0.570026	36.2987	0.844562	55.2837	0.177008	11.6952	0.431349	28.0277	0.705551	47.1001
0.117227	7.04031	0.0242585	1.359	0.297876	18.2977	0.518935	31.7918	0.571337	34.3446	0.845317	52.1525	0.18056	11.3225	0.432828	26.5184	0.706415	44.3964
0.123664	7.03338	0.0262441	1.3973	0.299943	17.4273	0.519702	30.1196	0.572718	32.6017	0.846116	49.3642	0.183668	11.0383	0.434388	25.1768	0.70733	41.9949
0.13008	7.02599	0.0282526	1.43315	0.302106	16.6515	0.520522	28.6217	0.574166	31.0379	0.846958	46.8659	0.186289	10.8236	0.436028	23.9771	0.708295	39.848
0.136473	7.01811	0.0302805	1.4667	0.304361	15.9564	0.521397	27.2726	0.57568	29.6276	0.847844	44.6148	0.188394	10.6654	0.437745	22.8984	0.70931	37.9176
0.142841	7.00973	0.0320612	1.49419	0.306707	15.3306	0.522329	26.0517	0.577261	28.3496	0.848774	42.5763	0.189959	10.5552	0.43954	21.9238	0.710376	36.1729
0.149182	7.00082	0.0335877	1.51642	0.30914	14.7646	0.523319	24.9421	0.578907	27.1865	0.849747	40.722	0.190968	10.4872	0.441411	21.0394	0.71149	34.5887
0.155495	6.99136	0.0348552	1.53401	0.311659	14.2508	0.524369	23.9295	0.580617	26.1238	0.850762	39.0281	0.192429	10.3927	0.443357	20.2336	0.712655	33.1441
0.161776	6.98134	0.0358604	1.54743	0.314261	13.7826	0.52548	23.0022	0.58239	25.1493	0.851821	37.4749	0.19403	10.2941	0.445377	19.4968	0.713868	31.8217
0.168025	6.97073	0.0366011	1.55703	0.316943	13.3545	0.526654	22.1502	0.584226	24.2528	0.852922	36.0459	0.196228	10.1666	0.447469	18.8207	0.71513	30.6068
0.174238	6.9595	0.0370757	1.56306	0.319704	12.962	0.527893	21.3651	0.586123	23.4255	0.854065	34.7268	0.199041	10.0154	0.449633	18.1986	0.716441	29.4871
0.180414	6.94764	0.0377589	1.57158	0.322541	12.601	0.529198	20.6397	0.588082	22.66	0.855251	33.5057	0.202491	9.84612	0.451867	17.6244	0.7178	28.452
0.18655	6.9351	0.0385025	1.58064	0.325453	12.2682	0.53057	19.9676	0.5901	21.9498	0.856478	32.3722	0.206601	9.66444	0.45417	17.0931	0.719207	27.4924
0.192643	6.92186	0.0395154	1.59264	0.328437	11.9607	0.532012	19.3436	0.592178	21.2893	0.857748	31.3174	0.211396	9.47576	0.45654	16.6002	0.720661	26.6006
0.198691	6.9079	0.040799	1.60729	0.331493	11.6758	0.533524	18.763	0.594314	20.6736	0.859059	30.3334	0.216269	9.30555	0.458977	16.1419	0.722162	25.7698
0.20469	6.89318	0.0423543	1.62428	0.334213	11.4443	0.535109	18.2217	0.596508	20.0985	0.860412	29.4135	0.221213	9.15143	0.461479	15.715	0.72371	24.9941
0.210637	6.87767	0.0441827	1.64323	0.336573	11.2583	0.536768	17.7161	0.598759	19.5603	0.861805	28.5517	0.226224	9.01139	0.464044	15.3164	0.725305	24.2683
0.216529	6.86133	0.0462852	1.66377	0.338552	11.1118	0.538502	17.2431	0.601066	19.0557	0.86324	27.7429	0.231296	8.88373	0.466673	14.9436	0.726945	23.5878
0.222363	6.84414	0.0483913	1.68311	0.340136	11.0004	0.540313	16.7999	0.603429	18.5818	0.864715	26.9824	0.236425	8.76699	0.469362	14.5943	0.728631	22.9488
0.228135	6.82604	0.0505004	1.70133	0.34131	10.9208	0.542201	16.384	0.605848	18.1359	0.86623	26.2661	0.241606	8.65992	0.472112	14.2665	0.730363	22.3475
0.233842	6.80702	0.0526117	1.71852	0.342066	10.871	0.544169	15.9932	0.60832	17.7158	0.867786	25.5903	0.246835	8.56144	0.47492	13.9584	0.732139	21.7809
0.239479	6.78704	0.0547245	1.73474	0.343159	10.8006	0.546218	15.6255	0.610846	17.3195	0.869381	24.9518	0.252109	8.47062	0.477786	13.6683	0.733959	21.2462
0.245042	6.76606	0.0568387	1.75008	0.344356	10.7259	0.548349	15.2792	0.613426	16.945	0.871016	24.3476	0.257423	8.38664	0.480708	13.3949	0.735824	20.7408
0.250528	6.74405	0.0589536	1.76457	0.345996	10.6272	0.550562	14.9527	0.616057	16.5907	0.872691	23.7752	0.262775	8.30879	0.483686	13.1368	0.737733	20.2625
0.255933	6.72098	0.061069	1.7783	0.348093	10.5069	0.552859	14.6445	0.618741	16.2551	0.874404	23.2322	0.268161	8.23645	0.486717	12.8929	0.739684	19.8092
0.261253	6.69682	0.0631846	1.79131	0.350662	10.3679	0.555241	14.3534	0.621476	15.9369	0.876156	22.7165	0.273578	8.16907	0.489801	12.6621	0.741679	19.379
0.266483	6.67155	0.0653002	1.80364	0.353723	10.2132	0.557709	14.0781	0.624262	15.6348	0.877947	22.226	0.279024	8.10618	0.492937	12.4435	0.743715	18.9704
0.27162	6.64515	0.0674156	1.81535	0.357297	10.0461	0.560262	13.8176	0.627099	15.3477	0.879776	21.7591	0.284496	8.04733	0.496123	12.2361	0.745794	18.5819
0.276659	6.61761	0.0695306	1.82648	0.360937	9.88944	0.562903	13.5709	0.629985	15.0746	0.881643	21.3141	0.289992	7.99215	0.499358	12.0392	0.747915	18.2119
0.281599	6.58892	0.0716451	1.83707	0.364645	9.74232	0.56563	13.3371	0.632921	14.8146	0.883548	20.8896	0.295509	7.9403	0.502642	11.8522	0.750076	17.8594
0.286434	6.55907	0.0737589	1.84714	0.36842	9.60411	0.568445	13.1153	0.635905	14.5667	0.88549	20.4843	0.301044	7.89148	0.505542	11.6966	0.752278	17.5231
0.291163	6.52807	0.0758722	1.85674	0.372263	9.4742	0.571348	12.9049	0.638939	14.3304	0.887469	20.0969	0.306596	7.84542	0.508041	11.5692	0.754521	17.202
0.295782	6.49595	0.0779847	1.86589	0.376176	9.35203	0.574338	12.7051	0.64202	14.1048	0.889485	19.7264	0.312163	7.80187	0.510127	11.4672	0.756803	16.8952
0.30029	6.4627	0.0800965	1.87463	0.380159	9.2371	0.577415	12.5152	0.645149	13.8892	0.891538	19.3717	0.317743	7.76061	0.511789	11.3887	0.759124	16.6017
0.304684	6.42838	0.0822074	1.88298	0.384214	9.12894	0.580579	12.3347	0.648326	13.6831	0.893627	19.0318	0.323334	7.72146	0.513017	11.3322	0.761485	16.3207
0.308964	6.39301	0.0843176	1.89096	0.38834	9.02715	0.583829	12.163	0.65155	13.486	0.895751	18.7058	0.328934	7.68421	0.513806	11.2964	0.763884	16.0516
0.313129	6.35664	0.0864269	1.89859	0.392539	8.93133	0.587166	11.9996	0.654821	13.2973	0.897911	18.3931	0.334541	7.64873	0.514944	11.2458	0.766321	15.7936
0.317178	6.31932	0.0885354	1.9059	0.396812	8.84113	0.590143	11.8636	0.658138	13.1165	0.900107	18.0927	0.340154	7.61485	0.516187	11.1916	0.768795	15.5461
0.321113	6.28112	0.0906431	1.91291	0.401159	8.75621	0.592731	11.7521	0.661502	12.9432	0.902337	17.8041	0.345771	7.58245	0.517885	11.1193	0.771307	15.3085
0.324933	6.24209	0.0927499	1.91962	0.405579	8.67626	0.594906	11.6629	0.664913	12.777	0.904602	17.5266	0.351391	7.5514	0.520048	11.0302	0.773856	15.0802
0.328641	6.20231	0.0948559	1.92607	0.410074	8.60098	0.596647	11.5941	0.668369	12.6175	0.906901	17.2596	0.357011	7.52158	0.522684	10.9257	0.776441	14.8608
0.332238	6.16185	0.0969611	1.93226	0.414642	8.5301	0.597941	11.5446	0.671872	12.4644	0.909235	17.0026	0.362632	7.49291	0.525806	10.8076	0.779061	14.6497
0.335726	6.12078	0.0990656	1.93821	0.419283	8.46336	0.598774	11.5134	0.675421	12.3173	0.911602	16.7549	0.36825	7.46528	0.529426	10.6775	0.781718	14.4465
0.339108	6.07918	0.101169	1.94394	0.423995	8.40049	0.599979	11.469	0.679015	12.176	0.914002	16.5162	0.373864	7.4386	0.533087	10.553	0.784409	14.2509
0.342387	6.03712	0.103272	1.94945	0.428777	8.34126	0.601298	11.4216	0.682186	12.0573	0.916436	16.286	0.379474	7.41281	0.536785	10.4338	0.787135	14.0624
0.345566	5.99469	0.105374	1.95475	0.433627	8.28544	0.603109	11.3584	0.684916	11.9593	0.918903	16.0638	0.385078	7.38781	0.540522	10.3196	0.789895	13.8807
0.348648	5.95195	0.107476	1.95986	0.438543	8.23281	0.605427	11.2804	0.687193	11.8803	0.921401	15.8494	0.390674	7.36355	0.544297	10.21	0.792688	13.7054
0.351636	5.90898	0.109577	1.96479	0.443523	8.18316	0.608269	11.1891	0.689006	11.8192	0.923932	15.6422	0.396261	7.33997	0.548108	10.1049	0.795516	13.5362
0.354534	5.86584	0.111677	1.96954	0.448563	8.1363	0.611657	11.0858	0.690345	11.775	0.926495	15.442	0.401838	7.31699	0.551955	10.004	0.798376	13.3729
0.357346	5.82261	0.113776	1.97413	0.453661	8.09201	0.615616	10.9723	0.691206	11.747	0.92909	15.2485	0.407404	7.29458	0.555837	9.90705	0.801268	13.2151
0.360075	5.77934	0.115875	1.97856	0.458814	8.05014	0.619648	10.8638	0.692448	11.7072	0.931715	15.0613	0.412956	7.27267	0.559754	9.81389	0.804193	13.0626
0.362725	5.7361	0.117974	1.98285	0.464018	8.01051	0.623753	10.76	0.693803	11.6645	0.934372	14.8801	0.418494	7.25123	0.563705	9.72432	0.807149	12.9152
0.365299	5.69293	0.120071	1.98699	0.469271	7.97295	0.627927	10.6606	0.695655	11.6073	0.937059	14.7047	0.424017	7.2302	0.567689	9.63814	0.810137	12.7725
0.367801	5.64988	0.122168	1.991	0.474569	7.93731	0.632168	10.5655	0.698014	11.5365	0.939776	14.5349	0.429523	7.20955	0.571706	9.5552	0.813155	12.6345
0.370235	5.60702	0.124265	1.99488	0.479908	7.90346	0.636474	10.4744	0.700891	11.453	0.942524	14.3703	0.435011	7.18924	0.575756	9.47534	0.816204	12.501
0.372602	5.56436	0.126361	1.99863	0.485286	7.87126	0.640843	10.387	0.704298	11.358	0.945301	14.2108	0.440479	7.16922	0.579838	9.39841	0.818886	12.388
0.374908	5.52196	0.128457	2.00227	0.4907	7.84057	0.645272	10.3032	0.708254	11.2527	0.948107	14.0561	0.445927	7.14947	0.583952	9.32428	0.82119	12.2941
0.377155	5.47985	0.130552	2.0058	0.496145	7.8113	0.649759	10.2228	0.712257	11.1513	0.950942	13.906	0.451353	7.12996	0.588097	9.25281	0.823108	12.2181
0.379345	5.43806	0.132647	2.00922	0.50162	7.78332	0.654299	10.1455	0.71631	11.0535	0.953806	13.7604	0.456756	7.11065	0.592272	9.18388	0.824632	12.1591
0.381482	5.39662	0.134741	2.01254	0.507121	7.75655	0.658892	10.0712	0.720412	10.9592	0.956699	13.6191	0.462134	7.09152	0.596479	9.11739	0.825757	12.1162
0.383569	5.35555	0.136835	2.01577	0.512646	7.73088	0.663534	9.99977	0.724563	10.8683	0.95962	13.4819	0.467486	7.07253	0.600715	9.05322	0.826479	12.089
0.385608	5.31488	0.138928	2.0189	0.518191	7.70623	0.668222	9.93098	0.728766	10.7807	0.962568	13.3486	0.472811	7.05367	0.604982	8.99127	0.827519	12.0503
0.387602	5.27463	0.141021	2.02194	0.523755	7.68252	0.672953	9.8647	0.73302	10.6962	0.965544	13.219	0.478108	7.03491	0.609278	8.93145	0.828653	12.0086
0.389304	5.2399	0.143114	2.02489	0.529334	7.65968	0.677724	9.80079	0.737327	10.6147	0.968548	13.0931	0.483376	7.01623	0.613604	8.87367	0.830202	11.9527
0.39073	5.21056	0.145206	2.02776	0.534927	7.63764	0.682533	9.7391	0.741687	10.5362	0.971578	12.9707	0.488612	6.99761	0.617959	8.81784	0.83217	11.8831
0.391894	5.18649	0.147298	2.03056	0.540531	7.61634	0.687376	9.67952	0.746101	10.4604	0.974635	12.8517	0.493817	6.97903	0.622344	8.76389	0.834565	11.8007
0.392803	5.16758	0.14939	2.03327	0.546145	7.59572	0.69225	9.62192	0.75057	10.3874	0.97732	12.7506	0.498989	6.96046	0.626757	8.71173	0.837394	11.7063
0.393467	5.15374	0.151481	2.03592	0.551765	7.57573	0.697152	9.56617	0.755095	10.317	0.979625	12.6663	0.504126	6.94191	0.631198	8.6613	0.840666	11.6009
0.393889	5.14492	0.153572	2.0385	0.557392	7.55631	0.702079	9.51218	0.759676	10.2491	0.981542	12.5979	0.509228	6.92333	0.635669	8.61254	0.843965	11.4986
0.394492	5.13228	0.155663	2.04101	0.563022	7.53743	0.707029	9.45982	0.764316	10.1837	0.983065	12.5445	0.514293	6.90473	0.640167	8.56536	0.847292	11.3992
0.395144	5.1186	0.157753	2.04345	0.568654	7.51905	0.711998	9.40902	0.769014	10.1207	0.984188	12.5058	0.51932	6.88609	0.644694	8.51973	0.850645	11.3027
0.396023	5.1001	0.159843	2.04584	0.574286	7.50111	0.716983	9.35966	0.773772	10.0599	0.984909	12.4812	0.524309	6.8674	0.649249	8.47556	0.854025	11.2088
0.397124	5.07685	0.161933	2.04816	0.579918	7.4836	0.721983	9.31167	0.77859	10.0014	0.985947	12.446	0.529257	6.84864	0.653832	8.43282	0.857431	11.1176
0.398439	5.04899	0.164022	2.05043	0.585547	7.46647	0.726993	9.26496	0.78347	9.9451	0.987078	12.4082	0.534165	6.82981	0.658442	8.39145	0.860863	11.0288
0.39996	5.01665	0.166112	2.05264	0.591172	7.4497	0.732013	9.21946	0.788411	9.89084	0.988623	12.3573	0.539031	6.81089	0.66308	8.35139	0.86432	10.9425
0.401678	4.98	0.168201	2.05479	0.596793	7.43325	0.737038	9.17509	0.793414	9.83862	0.990584	12.2939	0.543854	6.79188	0.667745	8.3126	0.867802	10.8585
0.403368	4.94385	0.170289	2.0569	0.602407	7.41711	0.742068	9.13179	0.798481	9.78835	0.992969	12.2185	0.548634	6.77276	0.672437	8.27503	0.87131	10.7768
0.405032	4.9082	0.172378	2.05896	0.608014	7.40124	0.7471	9.0895	0.80361	9.73998	0.995783	12.132	0.553369	6.75354	0.677155	8.23863	0.874842	10.6972
0.406672	4.87305	0.174466	2.06097	0.613613	7.38563	0.752132	9.04816	0.808802	9.69345	0.999036	12.035	0.55806	6.73421	0.6819	8.20337	0.878399	10.6197
0.408288	4.83839	0.176555	2.06293	0.619202	7.37026	0.757164	9.00773	0.814058	9.6487	1.00231	11.9404	0.562704	6.71476	0.686671	8.1692	0.881979	10.5442
0.409882	4.80424	0.178643	2.06485	0.624781	7.3551	0.762192	8.96814	0.819376	9.60566			0.567302	6.69519	0.691467	8.13608	0.885584	10.4707
0.411456	4.77059	0.18073	2.06672	0.630349	7.34013	0.767217	8.92938	0.824757	9.56428			0.571853	6.6755	0.696289	8.10397	0.889212	10.399
0.41301	4.73743	0.182818	2.06855	0.635905	7.32535	0.772236	8.89138	0.8302	9.52449			0.576356	6.65568	0.701135	8.07284	0.892863	10.3292
0.414545	4.70477	0.184905	2.07035	0.641447	7.31074	0.777251	8.85414	0.835704	9.48624			0.580811	6.63573	0.706006	8.04264	0.896538	10.2611
0.416064	4.67259	0.186992	2.0721	0.646976	7.29627	0.782259	8.8176	0.841269	9.44947			0.585218	6.61566	0.710901	8.01335	0.900235	10.1947
0.417566	4.64091	0.189079	2.07382	0.65249	7.28194	0.78726	8.78175	0.846893	9.41412			0.589576	6.59546	0.715819	7.98493	0.903955	10.1299
0.419053	4.6097	0.191166	2.0755	0.657988	7.26773	0.792255	8.74656	0.852576	9.38014			0.593885	6.57513	0.720759	7.95734	0.907697	10.0668
0.420526	4.57897	0.193253	2.07714	0.66347	7.25364	0.797242	8.71201	0.858315	9.34747			0.598144	6.55468	0.725722	7.93056	0.911462	10.0051
0.421986	4.54872	0.195339	2.07875	0.668935	7.23964	0.802223	8.67809	0.864111	9.31606			0.602355	6.5341	0.730707	7.90455	0.915248	9.94499
0.423433	4.51893	0.197426	2.08033	0.674383	7.22574	0.807198	8.64478	0.86996	9.28586			0.606516	6.51341	0.735712	7.87928	0.919056	9.88629
0.424868	4.48961	0.199512	2.08187	0.679812	7.21192	0.812166	8.61205	0.875863	9.2568			0.610627	6.4926	0.740737	7.85472	0.922885	9.82897
0.426292	4.46074	0.201598	2.08338	0.685222	7.19817	0.817129	8.57991	0.881816	9.22885			0.614689	6.47168	0.745782	7.83085	0.926736	9.773
0.427706	4.43232	0.203684	2.08486	0.690613	7.18447	0.822086	8.54834	0.887819	9.20195			0.618701	6.45064	0.750845	7.80764	0.930607	9.71835
0.42911	4.40435	0.20577	2.08632	0.695983	7.17084	0.827039	8.51732	0.89387	9.17605			0.622664	6.42951	0.755927	7.78505	0.9345	9.66496
0.430505	4.37682	0.207856	2.08774	0.701332	7.15725	0.831988	8.48686	0.899968	9.15112			0.626578	6.40828	0.761025	7.76307	0.938413	9.6128
0.431893	4.34972	0.209941	2.08914	0.70666	7.14369	0.836934	8.45693	0.906109	9.1271			0.630444	6.38695	0.76614	7.74167	0.942346	9.56183
0.433272	4.32304	0.212026	2.09051	0.711965	7.13017	0.841877	8.42754	0.912294	9.10396			0.63426	6.36553	0.77127	7.72082	0.9463	9.51202
0.434644	4.29679	0.214112	2.09186	0.717248	7.11667	0.846818	8.39867	0.918519	9.08165			0.638029	6.34403	0.776414	7.7005	0.950273	9.46334
0.436009	4.27095	0.216197	2.09317	0.722508	7.1032	0.851757	8.37031	0.924784	9.06013			0.641749	6.32245	0.781573	7.68068	0.954267	9.41575
0.437368	4.24552	0.218282	2.09447	0.727744	7.08973	0.856697	8.34247	0.931087	9.03937			0.645422	6.3008	0.786744	7.66135	0.95828	9.36921
0.438722	4.22048	0.220367	2.09574	0.732956	7.07628	0.861636	8.31513	0.937427	9.01933			0.649048	6.27909	0.791927	7.64249	0.962312	9.3237
0.44007	4.19585	0.222452	2.09698	0.738142	7.06282	0.866576	8.28828	0.943801	8.99998			0.652627	6.25731	0.797121	7.62406	0.966364	9.27919
0.441414	4.1716	0.224537	2.09821	0.743304	7.04937	0.871518	8.26192	0.950208	8.98128			0.65616	6.23548	0.802326	7.60606	0.970434	9.23566
0.442753	4.14773	0.226621	2.09941	0.74844	7.0359	0.876462	8.23605	0.956646	8.96321			0.659647	6.21361	0.807539	7.58846	0.974524	9.19306
0.444088	4.12424	0.228706	2.10059	0.753549	7.02243	0.881409	8.21064	0.963115	8.94573			0.663089	6.19169	0.812761	7.57125	0.978632	9.15138
0.445419	4.10112	0.23079	2.10175	0.758632	7.00894	0.886358	8.18571	0.969613	8.92881			0.666487	6.16974	0.817991	7.5544	0.982759	9.1106
0.446747	4.07837	0.232875	2.10289	0.763688	6.99543	0.891312	8.16123	0.976138	8.91243			0.66984	6.14776	0.823227	7.5379	0.986904	9.07068
0.448073	4.05597	0.234959	2.10401	0.768716	6.98191	0.89627	8.13721	0.982689	8.89657			0.67315	6.12575	0.828469	7.52173	0.991067	9.0316
0.449395	4.03392	0.237043	2.10511	0.773716	6.96835	0.901232	8.11363	0.989265	8.88119			0.676417	6.10373	0.833716	7.50587	0.995248	8.99335
0.450716	4.01222	0.239127	2.10619	0.778688	6.95477	0.906199	8.09049	0.995864	8.86627			0.679641	6.0817	0.838967	7.49031	0.999447	8.95589
0.452034	3.99085	0.241211	2.10725	0.783631	6.94116	0.911172	8.06778	1.00249	8.85179			0.682824	6.05966	0.844221	7.47504	1.00366	8.91921
0.45335	3.96982	0.243295	2.1083	0.788545	6.92752	0.916151	8.04549					0.685966	6.03762	0.849477	7.46004		
0.454665	3.94912	0.245379	2.10933	0.79343	6.91384	0.921135	8.02361					0.689067	6.01559	0.854735	7.4453		
0.455979	3.92873	0.247463	2.11034	0.798285	6.90013	0.926126	8.00214					0.692129	5.99356	0.859994	7.4308		
0.457292	3.90867	0.249546	2.11133	0.80311	6.88637	0.931123	7.98107					0.695151	5.97156	0.865252	7.41653		
0.458604	3.88891	0.25163	2.11231	0.807904	6.87258	0.936127	7.96039					0.698135	5.94957	0.870509	7.40248		
0.459915	3.86946	0.253713	2.11327	0.812668	6.85875	0.941138	7.94009					0.70108	5.92761	0.875765	7.38863		
0.461226	3.85031	0.255797	2.11422	0.817402	6.84488	0.946156	7.92017					0.703989	5.90568	0.881018	7.37498		
0.462537	3.83145	0.25788	2.11515	0.822104	6.83096	0.95118	7.90061					0.706861	5.88378	0.886268	7.36151		
0.463848	3.81289	0.259964	2.11607	0.826775	6.817	0.956212	7.88141					0.709696	5.86192	0.891514	7.34822		
0.465159	3.7946	0.262047	2.11697	0.831415	6.80299	0.961251	7.86257					0.712497	5.84011	0.896755	7.33509		
0.466471	3.7766	0.26413	2.11786	0.836024	6.78894	0.966296	7.84406					0.715262	5.81835	0.901991	7.32212		
0.467783	3.75886	0.266213	2.11873	0.8406	6.77485	0.971349	7.82589					0.717994	5.79664	0.907221	7.30929		
0.469095	3.7414	0.268296	2.11959	0.845145	6.76071	0.976408	7.80804					0.720692	5.77498	0.912444	7.2966		
0.470409	3.7242	0.270379	2.12044	0.849658	6.74653	0.981475	7.79051					0.723357	5.75338	0.917659	7.28403		
0.471723	3.70726	0.272462	2.12128	0.854139	6.73231	0.986548	7.77329					0.72599	5.73185	0.922866	7.27159		
0.473038	3.69058	0.274545	2.1221	0.858588	6.71804	0.991627	7.75637					0.728592	5.71038	0.928065	7.25926		
0.474355	3.67414	0.276628	2.12291	0.863004	6.70373	0.996712	7.73974					0.731162	5.68899	0.933253	7.24703		
0.475673	3.65795	0.278711	2.12371	0.867389	6.68937	1.0018	7.7234					0.733702	5.66766	0.938432	7.2349		
0.476993	3.64201	0.280793	2.1245	0.871741	6.67498							0.736213	5.64642	0.943601	7.22286		
0.478313	3.62629	0.282876	2.12528	0.876062	6.66054							0.738694	5.62525	0.948757	7.21091		
0.479636	3.61082	0.284959	2.12604	0.88035	6.64606							0.741146	5.60417	0.953903	7.19904		
0.48096	3.59557	0.287041	2.12679	0.884606	6.63155							0.743571	5.58317	0.959035	7.18724		
0.482286	3.58054	0.289124	2.12754	0.88883	6.617							0.745968	5.56225	0.964155	7.17551		
0.483614	3.56573	0.291206	2.12827	0.893021	6.60241							0.748338	5.54143	0.969262	7.16384		
0.484944	3.55115	0.293289	2.12899	0.897181	6.58779							0.750682	5.5207	0.974354	7.15222		
0.486276	3.53677	0.295371	2.1297	0.901309	6.57313							0.753	5.50006	0.979432	7.14066		
0.48761	3.5226	0.297453	2.13041	0.905405	6.55844							0.755293	5.47952	0.984495	7.12915		
0.488947	3.50864	0.299536	2.1311	0.90947	6.54372							0.757562	5.45908	0.989543	7.11768		
0.490285	3.49488	0.301618	2.13178	0.913503	6.52897							0.759806	5.43873	0.994575	7.10625		
0.491626	3.48132	0.3037	2.13246	0.917504	6.51419							0.762027	5.41849	0.99959	7.09486		
0.49297	3.46795	0.305782	2.13312	0.921474	6.49938							0.764224	5.39836	1.00459	7.08349		
0.494316	3.45478	0.307864	2.13378	0.925413	6.48455							0.7664	5.37832				
0.495664	3.44179	0.309946	2.13443	0.929321	6.4697							0.768553	5.3584				
0.497015	3.42898	0.312029	2.13507	0.933198	6.45482							0.770684	5.33858				
0.498368	3.41636	0.314111	2.1357	0.937044	6.43992							0.772795	5.31887				
0.499724	3.40392	0.316192	2.13632	0.94086	6.42501							0.774884	5.29928				
0.501083	3.39165	0.318274	2.13693	0.944646	6.41007							0.776954	5.27979				
0.502444	3.37955	0.320356	2.13754	0.948401	6.39512							0.779004	5.26042				
0.503808	3.36762	0.322438	2.13814	0.952126	6.38016							0.781035	5.24116				
0.505175	3.35586	0.32452	2.13873	0.955821	6.36518							0.783047	5.22201				
0.506545	3.34426	0.326602	2.13931	0.959487	6.35019							0.785041	5.20298				
0.507918	3.33282	0.328683	2.13989	0.963124	6.3352							0.787017	5.18406				
0.509293	3.32154	0.330765	2.14046	0.966731	6.32019							0.788976	5.16526				
0.510671	3.31041	0.332847	2.14102	0.970309	6.30518							0.790917	5.14658				
0.512053	3.29944	0.334928	2.14158	0.973858	6.29016							0.792842	5.12802				
0.513437	3.28862	0.33701	2.14213	0.977379	6.27514							0.794751	5.10957				
0.514824	3.27794	0.339092	2.14267	0.980872	6.26012							0.796644	5.09125				
0.516214	3.26741	0.341173	2.1432	0.984336	6.24509							0.798521	5.07304				
0.517607	3.25702	0.343255	2.14373	0.987773	6.23007							0.800384	5.05495				
0.519004	3.24677	0.345336	2.14425	0.991182	6.21505							0.802232	5.03698				
0.520403	3.23666	0.347418	2.14477	0.994563	6.20003							0.804065	5.01913				
0.521805	3.22668	0.349499	2.14528	0.997917	6.18501							0.805884	5.0014				
0.52321	3.21684	0.35158	2.14579	1.00124	6.17001							0.80769	4.98379				
0.524619	3.20713	0.353662	2.14628									0.809483	4.9663				
0.52603	3.19754	0.355743	2.14678									0.811262	4.94893				
0.527444	3.18808	0.357824	2.14726									0.813029	4.93168				
0.528862	3.17875	0.359906	2.14775									0.814784	4.91455				
0.530283	3.16954	0.361987	2.14822									0.816527	4.89754				
0.531706	3.16045	0.364068	2.14869									0.818258	4.88065				
0.533133	3.15148	0.366149	2.14916									0.819978	4.86388				
0.534563	3.14262	0.368231	2.14962									0.821686	4.84722				
0.535996	3.13388	0.370312	2.15007									0.823384	4.83069				
0.537432	3.12525	0.372393	2.15052									0.825072	4.81427				
0.538872	3.11674	0.374474	2.15097									0.826749	4.79797				
0.540314	3.10833	0.376555	2.15141									0.828416	4.7818				
0.541759	3.10003	0.378636	2.15184									0.830074	4.76573				
0.543208	3.09184	0.380717	2.15227									0.831722	4.74979				
0.54466	3.08374	0.382798	2.1527									0.833361	4.73396				
0.546114	3.07576	0.384879	2.15312									0.834991	4.71825				
0.547572	3.06787	0.38696	2.15354									0.836612	4.70265				
0.549033	3.06008	0.389041	2.15395									0.838225	4.68717				
0.550497	3.05239	0.391122	2.15436									0.83983	4.67181				
0.551964	3.04479	0.393203	2.15476									0.841427	4.65655				
0.553434	3.03729	0.395284	2.15516									0.843016	4.64142				
0.554908	3.02989	0.397365	2.15556									0.844597	4.62639				
0.556384	3.02257	0.399445	2.15595									0.846171	4.61148				
0.557863	3.01535	0.401526	2.15634									0.847738	4.59668				
0.559346	3.00821	0.403607	2.15672									0.849298	4.58199				
0.560831	3.00116	0.405688	2.1571									0.850852	4.56741				
0.562319	2.9942	0.407769	2.15748									0.852399	4.55294				
0.563811	2.98732	0.409849	2.15785									0.853939	4.53859				
0.565305	2.98052	0.41193	2.15822									0.855473	4.52434				
0.566803	2.97381	0.414011	2.15858									0.857002	4.5102				
0.568303	2.96718	0.416092	2.15894									0.858524	4.49616				
0.569807	2.96063	0.418172	2.1593									0.860041	4.48224				
0.571313	2.95415	0.420253	2.15965									0.861553	4.46842				
0.572823	2.94776	0.422334	2.16									0.863059	4.4547				
0.574335	2.94144	0.424414	2.16035									0.86456	4.4411				
0.57585	2.93519	0.426495	2.16069									0.866056	4.42759				
0.577369	2.92902	0.428575	2.16103									0.867547	4.41419				
0.57889	2.92292	0.430656	2.16137									0.869034	4.40089				
0.580414	2.91689	0.432737	2.1617									0.870516	4.38769				
0.581941	2.91094	0.434817	2.16204									0.871994	4.3746				
0.58347	2.90505	0.436898	2.16236									0.873467	4.3616				
0.585003	2.89923	0.438978	2.16269									0.874937	4.34871				
0.586539	2.89348	0.441059	2.16301									0.876402	4.33591				
0.588077	2.8878	0.443139	2.16333									0.877864	4.32322				
0.589618	2.88218	0.44522	2.16364									0.879321	4.31062				
0.591162	2.87663	0.4473	2.16396									0.880776	4.29812				
0.592709	2.87114	0.44938	2.16426									0.882226	4.28571				
0.594259	2.86571	0.451461	2.16457									0.883674	4.2734				
0.595811	2.86034	0.453541	2.16488									0.885118	4.26118				
0.597366	2.85504	0.455622	2.16518									0.886559	4.24906				
0.598924	2.8498	0.457702	2.16548									0.887997	4.23704				
0.600485	2.84461	0.459782	2.16577									0.889432	4.2251				
0.602048	2.83948	0.461863	2.16606									0.890865	4.21326				
0.603614	2.83442	0.463943	2.16636									0.892294	4.2015				
0.605183	2.8294	0.466023	2.16664									0.893721	4.18984				
0.606754	2.82445	0.468104	2.16693									0.895146	4.17827				
0.608328	2.81955	0.470184	2.16721									0.896568	4.16679				
0.609905	2.8147	0.472264	2.16749									0.897988	4.1554				
0.611485	2.80991	0.474345	2.16777									0.899406	4.14409				
0.613067	2.80517	0.476425	2.16805									0.900821	4.13287				
0.614651	2.80048	0.478505	2.16832									0.902235	4.12174				
0.616238	2.79584	0.480585	2.16859									0.903646	4.11069				
0.617828	2.79126	0.482666	2.16886									0.905056	4.09973				
0.619421	2.78672	0.484746	2.16912									0.906464	4.08885				
0.621016	2.78223	0.486826	2.16939									0.90787	4.07805				
0.622613	2.7778	0.488906	2.16965									0.909275	4.06734				
0.624213	2.77341	0.490986	2.16991									0.910678	4.05671				
0.625816	2.76906	0.493067	2.17017									0.91208	4.04616				
0.627421	2.76477	0.495147	2.17042									0.91348	4.03569				
0.629028	2.76052	0.497227	2.17068									0.914879	4.0253				
0.630638	2.75631	0.499307	2.17093									0.916276	4.01499				
0.632251	2.75215	0.501387	2.17118									0.917673	4.00476				
0.633866	2.74804	0.503467	2.17142									0.919068	3.99461				
0.635483	2.74397	0.505547	2.17167									0.920462	3.98453				
0.637103	2.73994	0.507627	2.17191									0.921855	3.97453				
0.638725	2.73595	0.509708	2.17215									0.923247	3.96461				
0.64035	2.73201	0.511788	2.17239									0.924639	3.95476				
0.641976	2.7281	0.513868	2.17263									0.926029	3.94499				
0.643606	2.72424	0.515948	2.17286									0.927419	3.93529				
0.645237	2.72042	0.518028	2.17309									0.928808	3.92566				
0.646871	2.71664	0.520108	2.17333									0.930197	3.91611				
0.648508	2.71289	0.522188	2.17356									0.931584	3.90663				
0.650146	2.70919	0.524268	2.17378									0.932972	3.89722				
0.651787	2.70552	0.526348	2.17401									0.934358	3.88788				
0.65343	2.7019	0.528428	2.17423									0.935745	3.87861				
0.655076	2.6983	0.530508	2.17446									0.937131	3.86942				
0.656723	2.69475	0.532588	2.17468									0.938516	3.86029				
0.658373	2.69123	0.534668	2.1749									0.939902	3.85123				
0.660025	2.68775	0.536748	2.17511									0.941286	3.84223				
0.66168	2.6843	0.538828	2.17533									0.942671	3.83331				
0.663336	2.68089	0.540907	2.17554									0.944056	3.82445				
0.664995	2.67751	0.542987	2.17575									0.94544	3.81565				
0.666656	2.67416	0.545067	2.17597									0.946825	3.80693				
0.668319	2.67085	0.547147	2.17617									0.948209	3.79826				
0.669984	2.66758	0.549227	2.17638									0.949593	3.78967				
0.671651	2.66433	0.551307	2.17659									0.950978	3.78113				
0.673321	2.66112	0.553387	2.17679									0.952362	3.77266				
0.674992	2.65794	0.555467	2.17699									0.953747	3.76425				
0.676666	2.65479	0.557547	2.1772									0.955131	3.75591				
0.678342	2.65167	0.559626	2.1774									0.956516	3.74762				
0.68002	2.64858	0.561706	2.17759									0.957901	3.7394				
0.681699	2.64552	0.563786	2.17779									0.959287	3.73123				
0.683381	2.6425	0.565866	2.17799									0.960672	3.72313				
0.685065	2.6395	0.567946	2.17818									0.962058	3.71509				
0.686751	2.63653	0.570026	2.17837									0.963444	3.7071				
0.688439	2.63359	0.572105	2.17856									0.964831	3.69918				
0.690129	2.63068	0.574185	2.17875									0.966218	3.69131				
0.691821	2.62779	0.576265	2.17894									0.967605	3.6835				
0.693515	2.62494	0.578345	2.17913									0.968993	3.67574				
0.69521	2.62211	0.580425	2.17932									0.970381	3.66805				
0.696908	2.61931	0.582504	2.1795									0.97177	3.66041				
0.698608	2.61654	0.584584	2.17968									0.973159	3.65282				
0.700309	2.61379	0.586664	2.17987									0.974549	3.64529				
0.702013	2.61107	0.588744	2.18005									0.97594	3.63781				
0.703718	2.60837	0.590823	2.18023									0.977331	3.63039				
0.705425	2.6057	0.592903	2.1804									0.978723	3.62302				
0.707134	2.60305	0.594983	2.18058									0.980115	3.6157				
0.708845	2.60043	0.597062	2.18076									0.981508	3.60844				
0.710558	2.59784	0.599142	2.18093									0.982902	3.60123				
0.712273	2.59527	0.601222	2.1811									0.984296	3.59407				
0.713989	2.59272	0.603302	2.18128									0.985691	3.58696				
0.715708	2.5902	0.605381	2.18145									0.987087	3.5799				
0.717428	2.58769	0.607461	2.18162									0.988484	3.57289				
0.71915	2.58522	0.609541	2.18178									0.989881	3.56594				
0.720873	2.58276	0.61162	2.18195									0.99128	3.55903				
0.722599	2.58033	0.6137	2.18212									0.992679	3.55217				
0.724326	2.57792	0.615779	2.18228									0.994079	3.54536				
0.726055	2.57554	0.617859	2.18245									0.99548	3.5386				
0.727785	2.57317	0.619939	2.18261									0.996881	3.53188				
0.729518	2.57083	0.622018	2.18277									0.998284	3.52522				
0.731252	2.5685	0.624098	2.18293									0.999688	3.5186				
0.732987	2.5662	0.626178	2.18309									1.00109	3.51202				
0.734725	2.56392	0.628257	2.18325														
0.736464	2.56166	0.630337	2.18341														
0.738205	2.55942	0.632416	2.18356														
0.739947	2.5572	0.634496	2.18372														
0.741691	2.555	0.636576	2.18387														
0.743437	2.55283	0.638655	2.18403														
0.745184	2.55066	0.640735	2.18418														
0.746933	2.54852	0.642814	2.18433														
0.748684	2.5464	0.644894	2.18448														
0.750436	2.5443	0.646973	2.18463														
0.75219	2.54221	0.649053	2.18478														
0.753945	2.54015	0.651132	2.18493														
0.755702	2.5381	0.653212	2.18507														
0.75746	2.53607	0.655292	2.18522														
0.75922	2.53406	0.657371	2.18537														
0.760982	2.53206	0.659451	2.18551														
0.762745	2.53009	0.66153	2.18565														
0.764509	2.52813	0.663609	2.18579														
0.766275	2.52618	0.665689	2.18594														
0.768043	2.52426	0.667768	2.18608														
0.769812	2.52235	0.669848	2.18622														
0.771582	2.52045	0.671927	2.18635														
0.773354	2.51858	0.674007	2.18649														
0.775128	2.51672	0.676086	2.18663														
0.776903	2.51487	0.678166	2.18676														
0.778679	2.51304	0.680245	2.1869														
0.780457	2.51123	0.682325	2.18703														
0.782236	2.50943	0.684404	2.18717														
0.784016	2.50765	0.686484	2.1873														
0.785798	2.50588	0.688563	2.18743														
0.787582	2.50413	0.690642	2.18756														
0.789367	2.50239	0.692722	2.18769														
0.791153	2.50066	0.694801	2.18782														
0.79294	2.49895	0.696881	2.18795														
0.794729	2.49726	0.69896	2.18808														
0.796519	2.49558	0.70104	2.18821														
0.798311	2.49391	0.703119	2.18833														
0.800104	2.49226	0.705198	2.18846														
0.801898	2.49062	0.707278	2.18858														
0.803694	2.48899	0.709357	2.18871														
0.805491	2.48738	0.711436	2.18883														
0.807289	2.48578	0.713516	2.18896														
0.809088	2.4842	0.715595	2.18908														
0.810889	2.48262	0.717675	2.1892														
0.812691	2.48106	0.719754	2.18932														
0.814494	2.47952	0.721833	2.18944														
0.816299	2.47798	0.723913	2.18956														
0.818105	2.47646	0.725992	2.18968														
0.819912	2.47495	0.728071	2.1898														
0.82172	2.47345	0.730151	2.18991														
0.823529	2.47197	0.73223	2.19003														
0.82534	2.47049	0.734309	2.19015														
0.827152	2.46903	0.736389	2.19026														
0.828965	2.46758	0.738468	2.19038														
0.83078	2.46614	0.740547	2.19049														
0.832595	2.46471	0.742626	2.1906														
0.834412	2.4633	0.744706	2.19072														
0.83623	2.46189	0.746785	2.19083														
0.838049	2.4605	0.748864	2.19094														
0.839869	2.45912	0.750944	2.19105														
0.841691	2.45775	0.753023	2.19116														
0.843513	2.45639	0.755102	2.19127														
0.845337	2.45504	0.757181	2.19138														
0.847162	2.4537	0.759261	2.19149														
0.848988	2.45237	0.76134	2.19159														
0.850815	2.45105	0.763419	2.1917														
0.852643	2.44974	0.765498	2.19181														
0.854473	2.44844	0.767578	2.19191														
0.856303	2.44715	0.769657	2.19202														
0.858135	2.44587	0.771736	2.19213														
0.859967	2.44461	0.773815	2.19223														
0.861801	2.44335	0.775894	2.19233														
0.863636	2.4421	0.777974	2.19244														
0.865472	2.44086	0.780053	2.19254														
0.867309	2.43963	0.782132	2.19264														
0.869147	2.43841	0.784211	2.19274														
0.870986	2.4372	0.78629	2.19284														
0.872826	2.436	0.78837	2.19294														
0.874667	2.4348	0.790449	2.19304														
0.876509	2.43362	0.792528	2.19314														
0.878352	2.43245	0.794607	2.19324														
0.880196	2.43128	0.796686	2.19334														
0.882041	2.43012	0.798766	2.19344														
0.883888	2.42897	0.800845	2.19354														
0.885735	2.42783	0.802924	2.19363														
0.887583	2.4267	0.805003	2.19373														
0.889432	2.42558	0.807082	2.19383														
0.891282	2.42446	0.809161	2.19392														
0.893134	2.42336	0.811241	2.19402														
0.894986	2.42226	0.81332	2.19411														
0.896839	2.42117	0.815399	2.1942														
0.898693	2.42009	0.817478	2.1943														
0.900548	2.41901	0.819557	2.19439														
0.902404	2.41795	0.821636	2.19448														
0.904261	2.41689	0.823715	2.19457														
0.906119	2.41584	0.825794	2.19467														
0.907977	2.4148	0.827874	2.19476														
0.909837	2.41376	0.829953	2.19485														
0.911698	2.41274	0.832032	2.19494														
0.913559	2.41172	0.834111	2.19503														
0.915422	2.4107	0.83619	2.19512														
0.917285	2.4097	0.838269	2.19521														
0.919149	2.4087	0.840348	2.19529														
0.921014	2.40771	0.842427	2.19538														
0.92288	2.40672	0.844506	2.19547														
0.924747	2.40575	0.846585	2.19556														
0.926615	2.40478	0.848665	2.19564														
0.928484	2.40382	0.850744	2.19573														
0.930353	2.40286	0.852823	2.19582														
0.932224	2.40191	0.854902	2.1959														
0.934095	2.40097	0.856981	2.19599														
0.935967	2.40003	0.85906	2.19607														
0.93784	2.3991	0.861139	2.19615														
0.939714	2.39818	0.863218	2.19624														
0.941588	2.39727	0.865297	2.19632														
0.943464	2.39636	0.867376	2.1964														
0.94534	2.39545	0.869455	2.19649														
0.947217	2.39456	0.871534	2.19657														
0.949095	2.39367	0.873613	2.19665														
0.950974	2.39278	0.875692	2.19673														
0.952854	2.3919	0.877771	2.19681														
0.954734	2.39103	0.87985	2.19689														
0.956615	2.39017	0.881929	2.19697														
0.958497	2.38931	0.884008	2.19705														
0.96038	2.38845	0.886087	2.19713														
0.962264	2.3876	0.888166	2.19721														
0.964148	2.38676	0.890245	2.19729														
0.966033	2.38593	0.892324	2.19737														
0.967919	2.3851	0.894403	2.19745														
0.969806	2.38427	0.896482	2.19752														
0.971693	2.38345	0.898561	2.1976														
0.973581	2.38264	0.90064	2.19768														
0.97547	2.38183	0.902719	2.19775														
0.97736	2.38103	0.904798	2.19783														
0.97925	2.38023	0.906877	2.19791														
0.981142	2.37944	0.908956	2.19798														
0.983034	2.37865	0.911035	2.19806														
0.984926	2.37787	0.913114	2.19813														
0.98682	2.3771	0.915193	2.19821														
0.988714	2.37633	0.917272	2.19828														
0.990609	2.37556	0.919351	2.19835														
0.992504	2.3748	0.92143	2.19843														
0.994401	2.37404	0.923509	2.1985														
0.996298	2.37329	0.925588	2.19857														
0.998195	2.37255	0.927667	2.19865														
1.00009	2.37181	0.929745	2.19872														
		0.931824	2.19879														
		0.933903	2.19886														
		0.935982	2.19893														
		0.938061	2.199														
		0.94014	2.19907														
		0.942219	2.19914														
		0.944298	2.19921														
		0.946377	2.19928														
		0.948456	2.19935														
		0.950535	2.19942														
		0.952613	2.19949														
		0.954692	2.19956														
		0.956771	2.19963														
		0.95885	2.19969														
		0.960929	2.19976														
		0.963008	2.19983														
		0.965087	2.19989														
		0.967166	2.19996														
		0.969244	2.20003														
		0.971323	2.20009														
		0.973402	2.20016														
		0.975481	2.20022														
		0.97756	2.20029														
		0.979639	2.20035														
		0.981718	2.20042														
		0.983796	2.20048														
		0.985875	2.20055														
		0.987954	2.20061														
		0.990033	2.20067														
		0.992112	2.20074														
		0.994191	2.2008														
		0.996269	2.20086														
		0.998348	2.20092														
		1.00043	2.20099														
