Sym0		Asym0		Sym1		Sym2		Asym1		Asym2	
578  Points		579  Points		579  Points		546  Points		626  Points		312  Points	
Freq (MHz)	Vph (m/ms)	Freq (MHz)	Vph (m/ms)	Freq (MHz)	Vph (m/ms)	Freq (MHz)	Vph (m/ms)	Freq (MHz)	Vph (m/ms)	Freq (MHz)	Vph (m/ms)
1.00029	2.58447	0.288682	697.493	1.00105	2.58393	0.577362	1074.42	0.288682	681.122	1.00027	4.83249
0.998915	2.58543	0.288723	264.93	0.999674	2.5849	0.57741	475.904	0.288723	262.534	0.998559	4.84004
0.997539	2.5864	0.2888	163.558	0.9983	2.58587	0.577496	305.68	0.288801	162.643	0.996837	4.84758
0.996162	2.58736	0.288913	118.327	0.996924	2.58683	0.577618	225.18	0.288915	117.847	0.995104	4.85511
0.994782	2.58832	0.289063	92.7204	0.995545	2.58779	0.577778	178.268	0.289065	92.4263	0.99336	4.86264
0.993399	2.58928	0.289249	76.2486	0.994164	2.58875	0.577974	147.556	0.289252	76.05	0.991606	4.87016
0.992013	2.59023	0.289471	64.767	0.99278	2.5897	0.578206	125.891	0.289475	64.624	0.989841	4.87769
0.990625	2.59118	0.289729	56.309	0.991393	2.59065	0.578475	109.792	0.289733	56.2011	0.988066	4.88521
0.989233	2.59212	0.290023	49.8212	0.990003	2.5916	0.578779	97.3596	0.290027	49.737	0.986281	4.89274
0.987839	2.59306	0.290352	44.6888	0.98861	2.59254	0.579118	87.4712	0.290357	44.6213	0.984487	4.90027
0.986441	2.59399	0.290716	40.5286	0.987214	2.59348	0.579492	79.4195	0.290722	40.4733	0.982683	4.9078
0.985039	2.59492	0.291116	37.0894	0.985814	2.59441	0.5799	72.7374	0.291122	37.0432	0.980871	4.91534
0.983634	2.59584	0.29155	34.1996	0.984412	2.59533	0.580342	67.1037	0.291556	34.1605	0.97905	4.92289
0.982226	2.59675	0.292018	31.7381	0.983005	2.59625	0.580818	62.2903	0.292025	31.7046	0.977221	4.93045
0.980814	2.59766	0.292521	29.6169	0.981595	2.59716	0.581325	58.1309	0.292528	29.5879	0.975383	4.93802
0.979398	2.59856	0.293057	27.7707	0.980181	2.59807	0.581865	54.5011	0.293065	27.7453	0.973538	4.9456
0.977978	2.59946	0.293626	26.1498	0.978763	2.59896	0.582436	51.3063	0.293635	26.1274	0.971686	4.9532
0.976554	2.60035	0.294229	24.7156	0.977341	2.59986	0.583037	48.4731	0.294238	24.6957	0.969827	4.96082
0.975126	2.60122	0.294864	23.4382	0.975916	2.60074	0.583669	45.9438	0.294873	23.4204	0.967961	4.96845
0.973693	2.6021	0.295531	22.2934	0.974486	2.60161	0.584329	43.6722	0.295541	22.2775	0.966088	4.9761
0.972257	2.60296	0.29623	21.262	0.973051	2.60248	0.585019	41.6211	0.29624	21.2476	0.96421	4.98378
0.970816	2.60381	0.296959	20.3282	0.971613	2.60334	0.585736	39.7601	0.29697	20.3151	0.962325	4.99148
0.96937	2.60466	0.29772	19.479	0.97017	2.60419	0.58648	38.0642	0.297732	19.4671	0.960435	4.9992
0.96792	2.60549	0.298511	18.7036	0.968723	2.60503	0.58725	36.5124	0.298523	18.6927	0.95854	5.00695
0.966466	2.60632	0.299332	17.993	0.967271	2.60586	0.588047	35.0873	0.299344	17.983	0.95664	5.01473
0.965007	2.60714	0.300182	17.3396	0.965814	2.60669	0.588868	33.7742	0.300195	17.3304	0.954735	5.02254
0.963543	2.60795	0.301061	16.7369	0.964353	2.6075	0.589713	32.5604	0.301074	16.7284	0.952826	5.03039
0.962075	2.60875	0.301968	16.1794	0.962887	2.6083	0.590583	31.4352	0.301982	16.1715	0.950913	5.03827
0.960602	2.60953	0.302903	15.6622	0.961417	2.6091	0.591475	30.3894	0.302917	15.6549	0.948996	5.04618
0.959124	2.61031	0.303866	15.1814	0.959942	2.60988	0.592389	29.4148	0.30388	15.1746	0.947076	5.05414
0.957642	2.61108	0.304855	14.7333	0.958462	2.61066	0.593325	28.5046	0.304869	14.7269	0.945153	5.06213
0.956154	2.61184	0.30587	14.3147	0.956977	2.61142	0.594282	27.6526	0.305885	14.3088	0.943227	5.07017
0.954662	2.61259	0.306911	13.923	0.955488	2.61217	0.595259	26.8535	0.306927	13.9175	0.941298	5.07826
0.953165	2.61332	0.307978	13.5558	0.953993	2.61292	0.596255	26.1025	0.307993	13.5505	0.939367	5.08639
0.951663	2.61405	0.309069	13.2107	0.952494	2.61365	0.597271	25.3955	0.309085	13.2058	0.937434	5.09457
0.950157	2.61477	0.310184	12.8861	0.95099	2.61437	0.598305	24.7288	0.3102	12.8815	0.9355	5.1028
0.948645	2.61547	0.311323	12.5802	0.949481	2.61508	0.599357	24.099	0.31134	12.5758	0.933564	5.11108
0.947129	2.61617	0.312485	12.2914	0.947968	2.61578	0.600426	23.5033	0.312502	12.2873	0.931627	5.11942
0.945608	2.61685	0.313669	12.0185	0.94645	2.61647	0.601512	22.9388	0.313687	12.0146	0.929689	5.12782
0.944082	2.61753	0.314876	11.7601	0.944926	2.61715	0.602614	22.4034	0.314894	11.7564	0.927751	5.13628
0.942552	2.61819	0.316104	11.5153	0.943399	2.61782	0.603731	21.8947	0.316122	11.5118	0.925812	5.1448
0.941017	2.61884	0.317354	11.283	0.941866	2.61848	0.604864	21.411	0.317372	11.2797	0.923874	5.15338
0.939477	2.61948	0.318623	11.0623	0.940329	2.61913	0.606011	20.9503	0.318642	11.0591	0.921936	5.16203
0.937933	2.62012	0.319913	10.8524	0.938787	2.61977	0.607172	20.5112	0.319933	10.8494	0.919998	5.17075
0.936384	2.62074	0.321223	10.6526	0.937241	2.6204	0.608347	20.0921	0.321242	10.6497	0.918062	5.17955
0.93483	2.62135	0.322552	10.4621	0.93569	2.62101	0.609535	19.6917	0.322571	10.4594	0.916126	5.18841
0.933272	2.62195	0.323899	10.2804	0.934134	2.62162	0.610736	19.3089	0.323919	10.2778	0.914192	5.19736
0.93171	2.62254	0.325265	10.107	0.932574	2.62222	0.611949	18.9424	0.325285	10.1045	0.91226	5.20638
0.930143	2.62312	0.326648	9.94114	0.93101	2.6228	0.613173	18.5913	0.326489	9.95965	0.91033	5.21548
0.928572	2.62369	0.328048	9.78252	0.929441	2.62338	0.61441	18.2547	0.327527	9.84056	0.908402	5.22467
0.926997	2.62425	0.329465	9.63066	0.927869	2.62394	0.615657	17.9317	0.328391	9.74497	0.906477	5.23395
0.925418	2.6248	0.330898	9.48515	0.926292	2.6245	0.616915	17.6214	0.329079	9.67117	0.904555	5.24331
0.923834	2.62535	0.332348	9.34562	0.92471	2.62505	0.618183	17.3232	0.329588	9.61788	0.902636	5.25277
0.922247	2.62588	0.333812	9.21172	0.923125	2.62559	0.619461	17.0363	0.329914	9.5842	0.90072	5.26232
0.920655	2.6264	0.335292	9.08313	0.921536	2.62611	0.620749	16.7601	0.330385	9.53635	0.898809	5.27197
0.91906	2.62692	0.336786	8.95955	0.919942	2.62663	0.622045	16.4941	0.330899	9.48509	0.896901	5.28172
0.917461	2.62742	0.338294	8.8407	0.918345	2.62714	0.623351	16.2377	0.331601	9.4166	0.894997	5.29157
0.915858	2.62792	0.339816	8.72633	0.916744	2.62764	0.624665	15.9904	0.332494	9.33192	0.893098	5.30153
0.914251	2.62841	0.341352	8.6162	0.91514	2.62814	0.625987	15.7517	0.333582	9.23234	0.891204	5.3116
0.912641	2.62888	0.3429	8.51009	0.913531	2.62862	0.627318	15.5212	0.334868	9.11929	0.889315	5.32178
0.911027	2.62935	0.34446	8.40778	0.911919	2.6291	0.628656	15.2985	0.336358	8.99431	0.887432	5.33208
0.909409	2.62982	0.346033	8.30909	0.910304	2.62956	0.630001	15.0831	0.337863	8.87414	0.885554	5.34249
0.907789	2.63027	0.347618	8.21382	0.908685	2.63002	0.631353	14.8748	0.339381	8.75852	0.883682	5.35303
0.906164	2.63072	0.349214	8.12181	0.907063	2.63047	0.632712	14.6731	0.340912	8.6472	0.881817	5.36369
0.904537	2.63116	0.350821	8.03291	0.905437	2.63091	0.634078	14.4779	0.342457	8.53997	0.879958	5.37448
0.902906	2.63159	0.352438	7.94695	0.903808	2.63135	0.63545	14.2887	0.344014	8.43659	0.878106	5.3854
0.901272	2.63201	0.354066	7.8638	0.902176	2.63178	0.636828	14.1053	0.345583	8.33688	0.876261	5.39646
0.899636	2.63243	0.355704	7.78333	0.900541	2.6322	0.638211	13.9274	0.347165	8.24066	0.874424	5.40765
0.897996	2.63283	0.357351	7.70541	0.898903	2.63261	0.6396	13.7548	0.348757	8.14774	0.872594	5.41899
0.896353	2.63324	0.359007	7.62992	0.897262	2.63302	0.640994	13.5873	0.350361	8.05796	0.870773	5.43047
0.894707	2.63363	0.360673	7.55676	0.895617	2.63341	0.642394	13.4246	0.351976	7.97118	0.868959	5.4421
0.893059	2.63402	0.362347	7.48582	0.893971	2.63381	0.643798	13.2666	0.3536	7.88724	0.867155	5.45389
0.891408	2.6344	0.364029	7.417	0.892321	2.63419	0.645206	13.1129	0.355235	7.80602	0.865359	5.46583
0.889754	2.63478	0.365719	7.35021	0.890668	2.63457	0.64662	12.9636	0.35688	7.72739	0.863572	5.47793
0.888097	2.63515	0.367416	7.28536	0.889013	2.63494	0.648037	12.8183	0.358534	7.65122	0.861795	5.4902
0.886438	2.63551	0.369121	7.22237	0.887356	2.63531	0.649458	12.6769	0.360197	7.5774	0.860028	5.50263
0.884777	2.63587	0.370833	7.16115	0.885696	2.63567	0.650883	12.5393	0.361868	7.50584	0.858271	5.51524
0.883113	2.63622	0.372552	7.10164	0.884033	2.63602	0.652311	12.4053	0.363548	7.43642	0.856524	5.52803
0.881446	2.63656	0.374276	7.04377	0.882368	2.63637	0.653743	12.2747	0.365236	7.36906	0.854788	5.541
0.879778	2.6369	0.376007	6.98746	0.8807	2.63672	0.655178	12.1475	0.366931	7.30367	0.853062	5.55415
0.878107	2.63724	0.377744	6.93265	0.879031	2.63705	0.656616	12.0235	0.368634	7.24015	0.851349	5.56749
0.876434	2.63757	0.379486	6.87928	0.877359	2.63739	0.658057	11.9025	0.370344	7.17844	0.849646	5.58103
0.874758	2.63789	0.381233	6.8273	0.875685	2.63771	0.6595	11.7846	0.372061	7.11845	0.847956	5.59476
0.873081	2.63821	0.382986	6.77665	0.874008	2.63803	0.660946	11.6695	0.373784	7.06011	0.846277	5.6087
0.871401	2.63852	0.384742	6.72728	0.87233	2.63835	0.662394	11.5571	0.375513	7.00336	0.844611	5.62285
0.86972	2.63883	0.386504	6.67913	0.87065	2.63866	0.663844	11.4474	0.377248	6.94813	0.842958	5.63721
0.868037	2.63914	0.388269	6.63217	0.868967	2.63897	0.665297	11.3403	0.378989	6.89436	0.841318	5.65179
0.866351	2.63944	0.390038	6.58634	0.867283	2.63927	0.66675	11.2356	0.380734	6.84199	0.839691	5.66659
0.864664	2.63973	0.39181	6.54161	0.865597	2.63957	0.668206	11.1333	0.382485	6.79097	0.838078	5.68162
0.862975	2.64003	0.393586	6.49793	0.863909	2.63987	0.669663	11.0333	0.384241	6.74124	0.836479	5.69689
0.861284	2.64031	0.395365	6.45526	0.862219	2.64016	0.671121	10.9356	0.386001	6.69275	0.834894	5.71239
0.859592	2.6406	0.397146	6.41356	0.860528	2.64044	0.67258	10.84	0.387765	6.64545	0.833324	5.72813
0.857898	2.64088	0.39893	6.37281	0.858835	2.64072	0.67404	10.7464	0.389533	6.5993	0.831768	5.74413
0.856202	2.64115	0.400716	6.33296	0.85714	2.641	0.675501	10.6549	0.391304	6.55426	0.830228	5.76038
0.854505	2.64142	0.402504	6.29398	0.855443	2.64127	0.676775	10.5767	0.393079	6.51028	0.828703	5.77689
0.852806	2.64169	0.404294	6.25585	0.853745	2.64154	0.677861	10.5112	0.394857	6.46733	0.827193	5.79367
0.851105	2.64196	0.406085	6.21852	0.852046	2.64181	0.678759	10.4578	0.396638	6.42536	0.8257	5.81071
0.849403	2.64222	0.407877	6.18198	0.850345	2.64207	0.679469	10.4161	0.398421	6.38434	0.824222	5.82804
0.8477	2.64247	0.40967	6.1462	0.848642	2.64233	0.679992	10.3856	0.400206	6.34424	0.822762	5.84565
0.845995	2.64273	0.411464	6.11114	0.846938	2.64259	0.680326	10.3663	0.401994	6.30502	0.821318	5.86355
0.844289	2.64298	0.413259	6.07679	0.845233	2.64284	0.680806	10.3386	0.403783	6.26664	0.819891	5.88175
0.842582	2.64323	0.415053	6.04311	0.843526	2.64309	0.681329	10.3088	0.405574	6.22909	0.818481	5.90025
0.840873	2.64347	0.416848	6.01009	0.841818	2.64334	0.682039	10.2685	0.407366	6.19233	0.817089	5.91905
0.839163	2.64371	0.418642	5.9777	0.840108	2.64358	0.682938	10.2182	0.409159	6.15633	0.815715	5.93817
0.837452	2.64395	0.420435	5.94592	0.838398	2.64382	0.684024	10.1581	0.410953	6.12107	0.814359	5.95762
0.835739	2.64419	0.422228	5.91474	0.836686	2.64406	0.685298	10.0888	0.412747	6.08652	0.813022	5.97739
0.834025	2.64442	0.42402	5.88412	0.834973	2.64429	0.68676	10.0107	0.414541	6.05265	0.811703	5.9975
0.832311	2.64465	0.42581	5.85406	0.833259	2.64452	0.688222	9.93411	0.416336	6.01944	0.810403	6.01795
0.830595	2.64488	0.427599	5.82452	0.831543	2.64475	0.689683	9.859	0.41813	5.98688	0.809122	6.03874
0.828878	2.64511	0.429386	5.79551	0.829827	2.64498	0.691143	9.78532	0.419924	5.95493	0.80786	6.0599
0.82716	2.64533	0.431171	5.76699	0.82811	2.64521	0.692602	9.71303	0.421717	5.92358	0.806618	6.08141
0.82544	2.64555	0.432954	5.73895	0.826391	2.64543	0.69406	9.64208	0.423509	5.8928	0.805395	6.1033
0.82372	2.64577	0.434734	5.71137	0.824671	2.64565	0.695517	9.57243	0.425299	5.86258	0.804193	6.12556
0.821999	2.64598	0.436511	5.68425	0.822951	2.64586	0.696972	9.50405	0.427089	5.8329	0.80301	6.14821
0.820277	2.6462	0.438286	5.65756	0.821229	2.64608	0.698426	9.4369	0.428876	5.80373	0.801848	6.17125
0.818554	2.64641	0.440057	5.63129	0.819507	2.64629	0.699879	9.37094	0.430662	5.77507	0.800707	6.19469
0.81683	2.64662	0.441824	5.60542	0.817783	2.6465	0.701329	9.30614	0.432445	5.7469	0.799586	6.21854
0.815105	2.64683	0.443588	5.57995	0.816059	2.64671	0.702778	9.24247	0.434226	5.71919	0.798486	6.2428
0.813379	2.64703	0.445348	5.55486	0.814334	2.64692	0.704225	9.17989	0.436004	5.69194	0.797407	6.26749
0.811653	2.64724	0.447104	5.53014	0.812607	2.64713	0.705669	9.11838	0.43778	5.66513	0.79635	6.29261
0.809925	2.64744	0.448855	5.50577	0.81088	2.64733	0.707111	9.0579	0.439552	5.63874	0.795314	6.31816
0.808197	2.64764	0.450602	5.48174	0.809153	2.64753	0.708551	8.99843	0.441321	5.61276	0.794299	6.34417
0.806468	2.64784	0.452344	5.45805	0.807424	2.64773	0.709988	8.93994	0.443086	5.58718	0.793306	6.37063
0.804738	2.64804	0.45408	5.43468	0.805695	2.64793	0.711423	8.88241	0.444847	5.56198	0.792334	6.39755
0.803008	2.64823	0.455811	5.41161	0.803965	2.64813	0.712854	8.8258	0.446604	5.53715	0.791385	6.42495
0.801277	2.64843	0.457536	5.38885	0.802234	2.64832	0.714283	8.77009	0.448356	5.51268	0.790457	6.45283
0.799545	2.64862	0.459256	5.36638	0.800502	2.64851	0.715708	8.71527	0.450104	5.48856	0.789552	6.4812
0.797812	2.64881	0.460969	5.34419	0.79877	2.64871	0.717131	8.6613	0.451847	5.46477	0.788668	6.51007
0.796079	2.649	0.462676	5.32228	0.797037	2.6489	0.71855	8.60816	0.453585	5.44131	0.787807	6.53945
0.794345	2.64919	0.464376	5.30062	0.795303	2.64909	0.719965	8.55584	0.455318	5.41816	0.786968	6.56934
0.79261	2.64938	0.46607	5.27922	0.793569	2.64927	0.721377	8.5043	0.457045	5.39532	0.786151	6.59976
0.790875	2.64956	0.467756	5.25806	0.791834	2.64946	0.722785	8.45354	0.458766	5.37276	0.785357	6.63072
0.789139	2.64975	0.469435	5.23714	0.790099	2.64965	0.724189	8.40353	0.460481	5.3505	0.784585	6.66222
0.787402	2.64993	0.471106	5.21645	0.788362	2.64983	0.725589	8.35425	0.46219	5.3285	0.783836	6.69428
0.785665	2.65011	0.472769	5.19598	0.786626	2.65001	0.726985	8.30568	0.463892	5.30677	0.783109	6.7269
0.783928	2.6503	0.474425	5.17573	0.784888	2.65019	0.728376	8.25781	0.465587	5.2853	0.782404	6.7601
0.782189	2.65048	0.476072	5.15568	0.783151	2.65038	0.729763	8.21062	0.467275	5.26407	0.781722	6.79388
0.780451	2.65065	0.477711	5.13583	0.781412	2.65056	0.731146	8.16409	0.468956	5.24309	0.781062	6.82826
0.778712	2.65083	0.47934	5.11617	0.779673	2.65073	0.732524	8.1182	0.47063	5.22233	0.780424	6.86324
0.776972	2.65101	0.480961	5.0967	0.777934	2.65091	0.733897	8.07294	0.472296	5.2018	0.779809	6.89884
0.775232	2.65119	0.482573	5.07742	0.776194	2.65109	0.735265	8.0283	0.473953	5.18148	0.779216	6.93506
0.773491	2.65136	0.484175	5.0583	0.774453	2.65127	0.736628	7.98426	0.475603	5.16138	0.778646	6.97193
0.77175	2.65154	0.485768	5.03935	0.772712	2.65144	0.737986	7.9408	0.477244	5.14147	0.778097	7.00944
0.770008	2.65171	0.487351	5.02057	0.770971	2.65162	0.739338	7.89791	0.478876	5.12176	0.777571	7.04761
0.768266	2.65189	0.488923	5.00194	0.769229	2.65179	0.740686	7.85558	0.4805	5.10224	0.777067	7.08646
0.766523	2.65206	0.490485	4.98346	0.767487	2.65196	0.742027	7.81379	0.482114	5.0829	0.776585	7.12598
0.764781	2.65223	0.492037	4.96513	0.765744	2.65214	0.743363	7.77253	0.483719	5.06374	0.776124	7.16621
0.763037	2.6524	0.493578	4.94694	0.764001	2.65231	0.744693	7.7318	0.485314	5.04474	0.775686	7.20714
0.761293	2.65257	0.495108	4.92888	0.762258	2.65248	0.746016	7.69156	0.4869	5.02591	0.775269	7.24879
0.759549	2.65274	0.496627	4.91096	0.760514	2.65265	0.747334	7.65183	0.488475	5.00724	0.774874	7.29117
0.757805	2.65291	0.498135	4.89316	0.758769	2.65282	0.748646	7.61257	0.490041	4.98872	0.7745	7.3343
0.75606	2.65308	0.499631	4.87548	0.757025	2.65299	0.749951	7.57379	0.491595	4.97034	0.774147	7.37819
0.754315	2.65325	0.501115	4.85793	0.75528	2.65316	0.75125	7.53546	0.49314	4.95211	0.773816	7.42285
0.752569	2.65342	0.502588	4.84048	0.753534	2.65333	0.752542	7.49759	0.494673	4.93402	0.773506	7.4683
0.750823	2.65359	0.504048	4.82315	0.751789	2.6535	0.753827	7.46016	0.496195	4.91606	0.773216	7.51454
0.749077	2.65376	0.505496	4.80592	0.750043	2.65366	0.755106	7.42316	0.497706	4.89822	0.772948	7.5616
0.747331	2.65393	0.506932	4.7888	0.748296	2.65383	0.756378	7.38658	0.499205	4.88051	0.7727	7.6095
0.745584	2.65409	0.508355	4.77177	0.74655	2.654	0.757642	7.35041	0.500693	4.86292	0.772472	7.65823
0.743837	2.65426	0.509765	4.75485	0.744803	2.65417	0.7589	7.31464	0.502169	4.84545	0.772265	7.70783
0.742089	2.65443	0.511163	4.73801	0.743055	2.65433	0.76015	7.27927	0.503633	4.82808	0.772078	7.7583
0.740342	2.65459	0.512547	4.72126	0.741308	2.6545	0.761392	7.24428	0.505084	4.81083	0.771911	7.80967
0.738594	2.65476	0.513919	4.7046	0.73956	2.65467	0.762628	7.20966	0.506523	4.79367	0.771764	7.86194
0.736846	2.65493	0.515277	4.68803	0.737812	2.65483	0.763855	7.17542	0.50795	4.77662	0.771637	7.91515
0.735097	2.65509	0.516621	4.67153	0.736064	2.655	0.765075	7.14153	0.509364	4.75967	0.771528	7.96929
0.733348	2.65526	0.517953	4.65512	0.734315	2.65517	0.766287	7.108	0.510766	4.7428	0.77144	8.0244
0.7316	2.65543	0.51927	4.63878	0.732567	2.65533	0.767491	7.07481	0.512154	4.72603	0.77137	8.08049
0.729851	2.65559	0.520574	4.62252	0.730818	2.6555	0.768686	7.04195	0.513529	4.70935	0.771319	8.13758
0.728101	2.65576	0.521864	4.60632	0.729068	2.65567	0.769874	7.00943	0.514891	4.69275	0.771287	8.19568
0.726352	2.65593	0.52314	4.5902	0.727319	2.65583	0.771053	6.97723	0.516239	4.67623	0.771274	8.25483
0.724602	2.65609	0.524402	4.57415	0.725569	2.656	0.772224	6.94534	0.517574	4.65979	0.771279	8.31503
0.722852	2.65626	0.525651	4.55816	0.72382	2.65617	0.773387	6.91377	0.518896	4.64343	0.771302	8.37632
0.721102	2.65643	0.526885	4.54224	0.72207	2.65633	0.77454	6.88249	0.520203	4.62715	0.771343	8.43871
0.719352	2.65659	0.528105	4.52638	0.720319	2.6565	0.775686	6.85152	0.521497	4.61094	0.771402	8.50223
0.717601	2.65676	0.529311	4.51059	0.718569	2.65667	0.776822	6.82083	0.522778	4.59479	0.771479	8.5669
0.715851	2.65693	0.530502	4.49485	0.716819	2.65684	0.777949	6.79043	0.524044	4.57872	0.771573	8.63274
0.7141	2.6571	0.53168	4.47918	0.715068	2.657	0.779068	6.76031	0.525296	4.56272	0.771684	8.69978
0.712349	2.65727	0.532843	4.46356	0.713317	2.65717	0.780177	6.73046	0.526534	4.54678	0.771812	8.76804
0.710598	2.65743	0.533992	4.448	0.711566	2.65734	0.781278	6.70088	0.527758	4.5309	0.771957	8.83754
0.708847	2.6576	0.535127	4.4325	0.709815	2.65751	0.782369	6.67156	0.528968	4.51509	0.772119	8.90833
0.707096	2.65777	0.536248	4.41705	0.708064	2.65768	0.783451	6.6425	0.530164	4.49933	0.772298	8.98042
0.705345	2.65794	0.537355	4.40166	0.706313	2.65785	0.784523	6.61369	0.531345	4.48364	0.772492	9.05384
0.703593	2.65811	0.538447	4.38632	0.704562	2.65802	0.785586	6.58513	0.532513	4.46801	0.772703	9.12863
0.701842	2.65829	0.539526	4.37104	0.70281	2.65819	0.78664	6.55681	0.533666	4.45243	0.772929	9.20481
0.70009	2.65846	0.54059	4.35581	0.701059	2.65836	0.787684	6.52873	0.534805	4.43691	0.773172	9.28242
0.698339	2.65863	0.541641	4.34064	0.699307	2.65853	0.788718	6.50089	0.53593	4.42145	0.773429	9.36148
0.696587	2.6588	0.542678	4.32552	0.697555	2.65871	0.789743	6.47327	0.53704	4.40605	0.773703	9.44203
0.694835	2.65898	0.543701	4.31045	0.695804	2.65888	0.790758	6.44587	0.538137	4.39069	0.773991	9.52411
0.693083	2.65915	0.54471	4.29543	0.694052	2.65905	0.791763	6.4187	0.539219	4.3754	0.774294	9.60776
0.691331	2.65933	0.545706	4.28047	0.6923	2.65923	0.792758	6.39174	0.540288	4.36015	0.774612	9.693
0.68958	2.6595	0.546688	4.26556	0.690548	2.6594	0.793743	6.365	0.541342	4.34496	0.774945	9.77988
0.687828	2.65968	0.547657	4.25071	0.688796	2.65958	0.794719	6.33847	0.542383	4.32983	0.775292	9.86844
0.686076	2.65986	0.548613	4.2359	0.687044	2.65976	0.795684	6.31214	0.54341	4.31474	0.775654	9.95873
0.684324	2.66003	0.549556	4.22115	0.685292	2.65994	0.796639	6.28601	0.544423	4.29971	0.776029	10.0508
0.682572	2.66021	0.550486	4.20646	0.68354	2.66011	0.797584	6.26008	0.545423	4.28474	0.776419	10.1446
0.68082	2.66039	0.551403	4.19181	0.681788	2.66029	0.79852	6.23434	0.546409	4.26981	0.776822	10.2403
0.679068	2.66057	0.552308	4.17723	0.680036	2.66047	0.799445	6.2088	0.547382	4.25494	0.777184	10.3253
0.677316	2.66076	0.5532	4.16269	0.678284	2.66066	0.800359	6.18345	0.548342	4.24012	0.777501	10.3989
0.675564	2.66094	0.55408	4.14822	0.676532	2.66084	0.801264	6.15828	0.549289	4.22536	0.777769	10.4605
0.673812	2.66112	0.554948	4.13379	0.674781	2.66102	0.802158	6.13329	0.550222	4.21064	0.777984	10.5098
0.67206	2.66131	0.555803	4.11943	0.673029	2.66121	0.803043	6.10848	0.551143	4.19599	0.778144	10.5464
0.670308	2.6615	0.556647	4.10512	0.671277	2.66139	0.803917	6.08385	0.552051	4.18138	0.778293	10.5802
0.668557	2.66169	0.55748	4.09087	0.669525	2.66158	0.804781	6.05939	0.552947	4.16683	0.778398	10.6039
0.666805	2.66187	0.558301	4.07667	0.667773	2.66177	0.805634	6.0351	0.55383	4.15234	0.778562	10.6412
0.665053	2.66207	0.559111	4.06254	0.666022	2.66196	0.806478	6.01099	0.554701	4.1379	0.778788	10.6922
0.663302	2.66226	0.55991	4.04846	0.66427	2.66215	0.807311	5.98703	0.55556	4.12352	0.779079	10.7576
0.66155	2.66245	0.560699	4.03444	0.662519	2.66234	0.808134	5.96325	0.556408	4.10919	0.779436	10.8376
0.659799	2.66264	0.561477	4.02048	0.660767	2.66254	0.808947	5.93962	0.557244	4.09493	0.779865	10.9331
0.658048	2.66284	0.562244	4.00659	0.659016	2.66273	0.809749	5.91615	0.558068	4.08071	0.780368	11.0449
0.656297	2.66304	0.563001	3.99275	0.657265	2.66293	0.810542	5.89284	0.558881	4.06656	0.780884	11.1589
0.654546	2.66324	0.563749	3.97898	0.655514	2.66313	0.811324	5.86968	0.559683	4.05247	0.781412	11.2754
0.652795	2.66344	0.564487	3.96527	0.653763	2.66333	0.812096	5.84668	0.560475	4.03843	0.781952	11.3943
0.651044	2.66364	0.565216	3.95163	0.652012	2.66353	0.812859	5.82383	0.561256	4.02446	0.782503	11.5157
0.649293	2.66385	0.565935	3.93805	0.650261	2.66373	0.813611	5.80112	0.562026	4.01055	0.783067	11.6398
0.647543	2.66405	0.566645	3.92453	0.648511	2.66394	0.814353	5.77857	0.562786	3.99669	0.783642	11.7666
0.645793	2.66426	0.567347	3.91108	0.64676	2.66415	0.815085	5.75615	0.563537	3.98291	0.784228	11.8961
0.644043	2.66447	0.56804	3.8977	0.64501	2.66435	0.815808	5.73389	0.564277	3.96918	0.784825	12.0285
0.642293	2.66468	0.568725	3.88438	0.64326	2.66456	0.81652	5.71176	0.565009	3.95552	0.785434	12.1638
0.640543	2.6649	0.569402	3.87113	0.64151	2.66478	0.817223	5.68977	0.565731	3.94192	0.786054	12.3022
0.638793	2.66511	0.570071	3.85795	0.639761	2.66499	0.817916	5.66792	0.566443	3.92838	0.786684	12.4437
0.637044	2.66533	0.570732	3.84484	0.638011	2.66521	0.8186	5.64621	0.567148	3.91491	0.787325	12.5885
0.635295	2.66555	0.571386	3.8318	0.636262	2.66543	0.819273	5.62464	0.567843	3.90151	0.787977	12.7365
0.633546	2.66577	0.572033	3.81883	0.634513	2.66565	0.819938	5.6032	0.56853	3.88817	0.788639	12.888
0.631797	2.666	0.572673	3.80593	0.632764	2.66587	0.820592	5.58189	0.569209	3.87491	0.789311	13.0431
0.630049	2.66622	0.573306	3.7931	0.631016	2.6661	0.821238	5.56071	0.56988	3.86171	0.789993	13.2018
0.628301	2.66645	0.573933	3.78034	0.629267	2.66633	0.821874	5.53967	0.570544	3.84857	0.790686	13.3644
0.626553	2.66668	0.574554	3.76765	0.627519	2.66656	0.822501	5.51875	0.5712	3.83551	0.791388	13.5308
0.624805	2.66692	0.575168	3.75504	0.625772	2.66679	0.823118	5.49796	0.571849	3.82252	0.7921	13.7013
0.623058	2.66716	0.575777	3.7425	0.624024	2.66702	0.823727	5.47729	0.572491	3.8096	0.792822	13.876
0.621311	2.6674	0.576381	3.73003	0.622277	2.66726	0.824327	5.45676	0.573126	3.79675	0.793553	14.0551
0.619565	2.66764	0.576979	3.71764	0.62053	2.6675	0.824917	5.43634	0.573755	3.78397	0.794293	14.2387
0.617818	2.66788	0.577572	3.70533	0.618784	2.66775	0.825499	5.41605	0.574377	3.77126	0.795043	14.4269
0.616072	2.66813	0.57816	3.69308	0.617037	2.66799	0.826073	5.39588	0.574994	3.75863	0.795801	14.62
0.614327	2.66838	0.578743	3.68092	0.615292	2.66824	0.826637	5.37584	0.575604	3.74607	0.796569	14.8181
0.612581	2.66864	0.579322	3.66883	0.613546	2.6685	0.827194	5.35591	0.576209	3.73358	0.797346	15.0214
0.610836	2.66889	0.579897	3.65681	0.611801	2.66875	0.827741	5.33611	0.576809	3.72117	0.798131	15.2302
0.609092	2.66915	0.580467	3.64487	0.610056	2.66901	0.828281	5.31642	0.577403	3.70883	0.798925	15.4445
0.607348	2.66942	0.581034	3.63301	0.608312	2.66927	0.828812	5.29685	0.577992	3.69657	0.799727	15.6647
0.605604	2.66969	0.581597	3.62123	0.606568	2.66954	0.829335	5.27739	0.578577	3.68438	0.800538	15.891
0.603861	2.66996	0.582156	3.60952	0.604825	2.66981	0.82985	5.25806	0.579157	3.67227	0.801357	16.1236
0.602118	2.67023	0.582713	3.59789	0.603082	2.67008	0.830358	5.23883	0.579733	3.66023	0.802184	16.3628
0.600376	2.67051	0.583266	3.58634	0.601339	2.67035	0.830857	5.21973	0.580305	3.64827	0.803019	16.6088
0.598634	2.67079	0.583816	3.57487	0.599597	2.67063	0.831349	5.20073	0.580872	3.63639	0.803862	16.862
0.596892	2.67108	0.584364	3.56347	0.597855	2.67092	0.831834	5.18185	0.581437	3.62458	0.804712	17.1226
0.595152	2.67137	0.584909	3.55216	0.596114	2.67121	0.832311	5.16309	0.581997	3.61285	0.805571	17.3909
0.593411	2.67166	0.585452	3.54092	0.594373	2.6715	0.832781	5.14443	0.582554	3.6012	0.806436	17.6674
0.591671	2.67196	0.585993	3.52976	0.592633	2.67179	0.833243	5.12588	0.583108	3.58963	0.80731	17.9524
0.589932	2.67226	0.586531	3.51868	0.590894	2.67209	0.833699	5.10745	0.58366	3.57813	0.80819	18.2462
0.588194	2.67257	0.587068	3.50767	0.589155	2.6724	0.834147	5.08912	0.584208	3.56672	0.809078	18.5493
0.586455	2.67288	0.587603	3.49675	0.587416	2.67271	0.834589	5.07091	0.584754	3.55538	0.809972	18.8622
0.584718	2.6732	0.588137	3.4859	0.585679	2.67302	0.835024	5.0528	0.585297	3.54412	0.810874	19.1851
0.582981	2.67352	0.588669	3.47514	0.583941	2.67334	0.835453	5.0348	0.585838	3.53293	0.811782	19.5188
0.581245	2.67384	0.589201	3.46445	0.582205	2.67366	0.835875	5.01691	0.586378	3.52183	0.812697	19.8636
0.57951	2.67418	0.589731	3.45384	0.580469	2.67399	0.836291	4.99912	0.586915	3.5108	0.813618	20.2202
0.577775	2.67451	0.59026	3.44331	0.578734	2.67432	0.8367	4.98145	0.587451	3.49986	0.814546	20.5891
0.576041	2.67485	0.590789	3.43286	0.576999	2.67466	0.837104	4.96387	0.587985	3.48899	0.81548	20.971
0.574307	2.6752	0.591317	3.42249	0.575265	2.67501	0.837502	4.9464	0.588518	3.4782	0.816421	21.3666
0.572575	2.67555	0.591845	3.41219	0.573532	2.67536	0.837893	4.92904	0.589049	3.46749	0.817367	21.7765
0.570843	2.67591	0.592372	3.40197	0.5718	2.67571	0.838279	4.91178	0.58958	3.45686	0.818319	22.2017
0.569112	2.67628	0.592899	3.39184	0.570069	2.67608	0.83866	4.89463	0.590109	3.44631	0.819277	22.6429
0.567382	2.67665	0.593427	3.38178	0.568338	2.67644	0.839035	4.87757	0.590638	3.43583	0.82024	23.1011
0.565652	2.67703	0.593954	3.37179	0.566608	2.67682	0.839405	4.86063	0.591166	3.42544	0.821209	23.5772
0.563924	2.67741	0.594482	3.36189	0.564879	2.6772	0.83977	4.84378	0.591694	3.41512	0.822183	24.0724
0.562196	2.67781	0.59501	3.35206	0.563151	2.67759	0.840129	4.82703	0.592222	3.40488	0.823162	24.5876
0.56047	2.6782	0.595539	3.34231	0.561424	2.67798	0.840484	4.81039	0.592749	3.39472	0.824146	25.1243
0.558744	2.67861	0.596068	3.33264	0.559698	2.67838	0.840834	4.79385	0.593276	3.38464	0.825135	25.6836
0.557019	2.67902	0.596598	3.32305	0.557973	2.67879	0.841179	4.7774	0.593804	3.37463	0.826129	26.2672
0.555296	2.67944	0.597129	3.31353	0.556249	2.67921	0.841519	4.76106	0.594331	3.36471	0.827126	26.8765
0.553573	2.67987	0.597661	3.30409	0.554525	2.67963	0.841855	4.74482	0.594859	3.35486	0.828129	27.5134
0.551852	2.68031	0.598194	3.29472	0.552803	2.68007	0.842187	4.72867	0.595388	3.34509	0.829135	28.1796
0.550131	2.68075	0.598728	3.28543	0.551082	2.68051	0.842515	4.71263	0.595917	3.33539	0.830144	28.8773
0.548412	2.68121	0.599264	3.27622	0.549363	2.68096	0.842838	4.69668	0.596447	3.32578	0.831158	29.6088
0.546694	2.68167	0.5998	3.26708	0.547644	2.68141	0.843158	4.68083	0.596977	3.31624	0.832175	30.3764
0.544978	2.68214	0.600339	3.25802	0.545927	2.68188	0.843473	4.66508	0.597509	3.30677	0.833195	31.183
0.543262	2.68262	0.600809	3.25019	0.54421	2.68236	0.843785	4.64942	0.598042	3.29739	0.834217	32.0316
0.541548	2.68312	0.601212	3.24355	0.542496	2.68284	0.844094	4.63386	0.598575	3.28808	0.835242	32.9255
0.539835	2.68362	0.601545	3.2381	0.540782	2.68334	0.844398	4.6184	0.599111	3.27884	0.83627	33.8684
0.538124	2.68413	0.601809	3.2338	0.53907	2.68384	0.8447	4.60303	0.599647	3.26968	0.837299	34.8645
0.536414	2.68465	0.602003	3.23066	0.537359	2.68436	0.844998	4.58776	0.600185	3.2606	0.83833	35.9183
0.534706	2.68518	0.602128	3.22865	0.53565	2.68489	0.845293	4.57258	0.600725	3.25159	0.839362	37.0351
0.532999	2.68573	0.602307	3.22577	0.533943	2.68543	0.845585	4.55749	0.601266	3.24266	0.840395	38.2205
0.531294	2.68629	0.602502	3.22264	0.532236	2.68598	0.845875	4.5425	0.601809	3.2338	0.841428	39.4812
0.52959	2.68686	0.602768	3.21841	0.530532	2.68654	0.846161	4.52761	0.602354	3.22501	0.842461	40.8244
0.527888	2.68744	0.603104	3.21309	0.528829	2.68711	0.846445	4.5128	0.602901	3.2163	0.843493	42.2586
0.526188	2.68803	0.603512	3.20668	0.527128	2.6877	0.846726	4.49809	0.60345	3.20766	0.844523	43.7932
0.52449	2.68864	0.603993	3.19922	0.525429	2.6883	0.847004	4.48347	0.604001	3.1991	0.845552	45.4392
0.522794	2.68926	0.604546	3.19073	0.523731	2.68892	0.847281	4.46895	0.604554	3.19061	0.846578	47.2091
0.521099	2.6899	0.605101	3.18231	0.522036	2.68954	0.847555	4.45451	0.605109	3.18219	0.847601	49.1175
0.519407	2.69055	0.605659	3.17396	0.520342	2.69019	0.847827	4.44017	0.605667	3.17384	0.848619	51.1812
0.517716	2.69122	0.60622	3.16568	0.518651	2.69085	0.848096	4.42591	0.606228	3.16556	0.849632	53.42
0.516028	2.6919	0.606782	3.15748	0.516961	2.69152	0.848364	4.41175	0.606791	3.15736	0.850638	55.8571
0.514342	2.6926	0.607348	3.14934	0.515274	2.69221	0.84863	4.39767	0.607356	3.14922	0.851636	58.52
0.512659	2.69331	0.607916	3.14128	0.513589	2.69292	0.848895	4.38369	0.607924	3.14116	0.852626	61.4418
0.510977	2.69405	0.608487	3.13329	0.511907	2.69364	0.849157	4.36979	0.608495	3.13317	0.853605	64.6619
0.509299	2.6948	0.60906	3.12536	0.510226	2.69438	0.849419	4.35599	0.609069	3.12525	0.854571	68.2285
0.507622	2.69557	0.609637	3.11751	0.508549	2.69514	0.849678	4.34227	0.609646	3.11739	0.855523	72.2009
0.505949	2.69636	0.610216	3.10972	0.506874	2.69592	0.849937	4.32863	0.610225	3.10961	0.856459	76.6524
0.504278	2.69717	0.610799	3.102	0.505201	2.69672	0.850194	4.31509	0.610808	3.10189	0.857376	81.6753
0.50261	2.69801	0.611384	3.09436	0.503532	2.69754	0.85045	4.30163	0.611393	3.09424	0.85827	87.3874
0.500945	2.69886	0.611973	3.08678	0.501865	2.69838	0.850705	4.28826	0.611982	3.08666	0.85914	93.9411
0.499282	2.69974	0.612565	3.07926	0.500201	2.69925	0.850959	4.27497	0.612574	3.07915	0.859981	101.537
0.497623	2.70064	0.61316	3.07182	0.49854	2.70013	0.851212	4.26177	0.613169	3.07171	0.860789	110.447
0.495968	2.70156	0.613758	3.06444	0.496883	2.70105	0.851464	4.24866	0.613767	3.06433	0.86156	121.044
0.494315	2.70251	0.61436	3.05712	0.495228	2.70198	0.851715	4.23563	0.614369	3.05702	0.862289	133.858
0.492667	2.70349	0.614965	3.04988	0.493578	2.70294	0.851966	4.22268	0.614974	3.04977	0.862971	149.668
0.491021	2.70449	0.615573	3.04269	0.49193	2.70393	0.852217	4.20982	0.615582	3.04259	0.8636	169.666
0.48938	2.70552	0.616185	3.03558	0.490287	2.70495	0.852467	4.19704	0.616194	3.03547	0.864169	195.776
0.487742	2.70658	0.616801	3.02852	0.488647	2.70599	0.852716	4.18435	0.61681	3.02842	0.864673	231.311
0.486109	2.70767	0.617419	3.02153	0.487011	2.70706	0.852966	4.17173	0.617429	3.02143	0.865106	282.51
0.484479	2.70879	0.618042	3.01461	0.48538	2.70817	0.853215	4.1592	0.618051	3.01451	0.865461	362.68
0.482854	2.70995	0.618668	3.00775	0.483752	2.70931	0.853464	4.14675	0.618678	3.00765	0.865733	506.166
0.481234	2.71114	0.619298	3.00095	0.482129	2.71048	0.853713	4.13438	0.619307	3.00085	0.865918	837.081
0.479618	2.71236	0.619932	2.99421	0.48051	2.71168	0.853962	4.1221	0.619941	2.99411	0.866012	2415.48
0.478007	2.71363	0.620569	2.98754	0.478897	2.71292	0.854211	4.10989	0.620579	2.98744		
0.4764	2.71493	0.62121	2.98092	0.477288	2.7142	0.854461	4.09776	0.62122	2.98083		
0.4748	2.71626	0.621856	2.97437	0.475684	2.71552	0.85471	4.08572	0.621865	2.97428		
0.473204	2.71765	0.622504	2.96788	0.474085	2.71688	0.85496	4.07375	0.622514	2.96779		
0.471614	2.71907	0.623157	2.96145	0.472492	2.71828	0.855211	4.06186	0.623167	2.96136		
0.47003	2.72054	0.623814	2.95508	0.470905	2.71972	0.855462	4.05005	0.623824	2.95499		
0.468452	2.72205	0.624475	2.94877	0.469323	2.72121	0.855713	4.03832	0.624485	2.94867		
0.46688	2.72362	0.62514	2.94251	0.467748	2.72275	0.855965	4.02666	0.625149	2.94242		
0.465314	2.72523	0.625808	2.93632	0.466179	2.72433	0.856218	4.01509	0.625818	2.93623		
0.463755	2.72689	0.626481	2.93018	0.464616	2.72597	0.856472	4.00359	0.626491	2.93009		
0.462203	2.72861	0.627158	2.92411	0.46306	2.72766	0.856726	3.99216	0.627168	2.92402		
0.460658	2.73039	0.627839	2.91808	0.461512	2.7294	0.856981	3.98081	0.627849	2.918		
0.459121	2.73222	0.628524	2.91212	0.45997	2.7312	0.857238	3.96954	0.628534	2.91203		
0.457591	2.73412	0.629213	2.90621	0.458436	2.73306	0.857495	3.95834	0.629223	2.90613		
0.45607	2.73607	0.629907	2.90036	0.45691	2.73498	0.857754	3.94722	0.629917	2.90027		
0.454556	2.7381	0.630604	2.89456	0.455392	2.73697	0.858013	3.93617	0.630615	2.89448		
0.453051	2.74019	0.631306	2.88882	0.453882	2.73902	0.858274	3.9252	0.631316	2.88874		
0.451555	2.74235	0.632012	2.88314	0.452381	2.74115	0.858536	3.91429	0.632023	2.88305		
0.450068	2.74459	0.632723	2.8775	0.450889	2.74334	0.858799	3.90347	0.632733	2.87742		
0.44859	2.7469	0.633437	2.87192	0.449406	2.74561	0.859064	3.89271	0.633448	2.87184		
0.447123	2.74929	0.634156	2.8664	0.447933	2.74796	0.859331	3.88203	0.634167	2.86632		
0.445665	2.75176	0.634879	2.86093	0.446469	2.75038	0.859598	3.87142	0.63489	2.86085		
0.444217	2.75432	0.635607	2.85551	0.445016	2.75289	0.859868	3.86088	0.635617	2.85543		
0.44278	2.75696	0.636338	2.85014	0.443573	2.75549	0.860139	3.85041	0.636349	2.85006		
0.441355	2.7597	0.637075	2.84483	0.442142	2.75818	0.860411	3.84001	0.637085	2.84475		
0.43994	2.76253	0.637815	2.83956	0.440721	2.76096	0.860686	3.82968	0.637826	2.83948		
0.438537	2.76546	0.63856	2.83435	0.439312	2.76383	0.860962	3.81942	0.638571	2.83427		
0.437147	2.76849	0.639309	2.82919	0.437914	2.7668	0.86124	3.80923	0.63932	2.82911		
0.435768	2.77163	0.640063	2.82407	0.436529	2.76988	0.86152	3.79911	0.640074	2.824		
0.434403	2.77487	0.640821	2.81901	0.435156	2.77306	0.861801	3.78906	0.640832	2.81894		
0.43305	2.77822	0.641583	2.814	0.433796	2.77636	0.862085	3.77908	0.641595	2.81393		
0.431711	2.7817	0.64235	2.80903	0.432449	2.77976	0.862371	3.76916	0.642362	2.80896		
0.430385	2.78528	0.643122	2.80412	0.431116	2.78328	0.862659	3.75932	0.643133	2.80405		
0.429073	2.78899	0.643897	2.79925	0.429797	2.78693	0.862949	3.74953	0.643909	2.79918		
0.427776	2.79283	0.644678	2.79443	0.428491	2.79069	0.863241	3.73982	0.644689	2.79436		
0.426493	2.7968	0.645462	2.78966	0.4272	2.79459	0.863535	3.73017	0.645474	2.78959		
0.425225	2.8009	0.646251	2.78493	0.425924	2.79861	0.863832	3.72059	0.646263	2.78487		
0.423972	2.80513	0.647045	2.78026	0.424662	2.80277	0.864131	3.71107	0.647056	2.78019		
0.422734	2.80951	0.647843	2.77562	0.423417	2.80707	0.864432	3.70162	0.647854	2.77556		
0.421513	2.81403	0.648645	2.77104	0.422186	2.81151	0.864736	3.69224	0.648657	2.77097		
0.420307	2.8187	0.649452	2.7665	0.420971	2.8161	0.865042	3.68291	0.649464	2.76643		
0.419117	2.82352	0.650264	2.762	0.419773	2.82084	0.86535	3.67366	0.650276	2.76193		
0.417944	2.8285	0.651079	2.75755	0.418591	2.82573	0.865661	3.66446	0.651091	2.75748		
0.416787	2.83363	0.6519	2.75314	0.417425	2.83077	0.865975	3.65533	0.651912	2.75308		
0.415647	2.83893	0.652725	2.74878	0.416276	2.83598	0.866291	3.64626	0.652737	2.74871		
0.414525	2.84439	0.653554	2.74446	0.415143	2.84135	0.86661	3.63725	0.653566	2.7444		
0.413419	2.85002	0.654388	2.74018	0.414028	2.84689	0.866931	3.62831	0.6544	2.74012		
0.41233	2.85583	0.655226	2.73595	0.41293	2.8526	0.867255	3.61943	0.655238	2.73589		
0.411259	2.8618	0.656069	2.73176	0.411849	2.85848	0.867582	3.61061	0.656081	2.7317		
0.410205	2.86796	0.656916	2.72761	0.410786	2.86454	0.867912	3.60185	0.656928	2.72755		
0.409169	2.8743	0.657768	2.7235	0.40974	2.87077	0.868244	3.59315	0.65778	2.72344		
0.408151	2.88083	0.658624	2.71944	0.408712	2.8772	0.86858	3.58451	0.658636	2.71938		
0.40715	2.88754	0.659484	2.71541	0.407701	2.8838	0.868918	3.57593	0.659497	2.71535		
0.406167	2.89444	0.66035	2.71143	0.406709	2.8906	0.869259	3.56741	0.660362	2.71137		
0.405202	2.90154	0.661219	2.70748	0.405734	2.89759	0.869603	3.55895	0.661232	2.70742		
0.404255	2.90884	0.662093	2.70358	0.404777	2.90478	0.86995	3.55055	0.662106	2.70352		
0.403325	2.91633	0.662972	2.69971	0.403837	2.91216	0.8703	3.5422	0.662985	2.69966		
0.402414	2.92403	0.663855	2.69589	0.402916	2.91975	0.870653	3.53392	0.663868	2.69583		
0.40152	2.93194	0.664742	2.6921	0.402012	2.92754	0.871009	3.52569	0.664755	2.69205		
0.400644	2.94005	0.665634	2.68836	0.401126	2.93554	0.871368	3.51752	0.665647	2.6883		
0.399785	2.94837	0.66653	2.68465	0.400258	2.94374	0.87173	3.50941	0.666543	2.68459		
0.398944	2.95691	0.667431	2.68098	0.399407	2.95216	0.872096	3.50135	0.667444	2.68092		
0.398121	2.96567	0.668336	2.67734	0.398574	2.9608	0.872464	3.49335	0.668349	2.67729		
0.397315	2.97464	0.669245	2.67375	0.397759	2.96965	0.872836	3.48541	0.669259	2.67369		
0.396527	2.98384	0.670159	2.67019	0.396961	2.97873	0.873211	3.47752	0.670173	2.67014		
0.395756	2.99327	0.671078	2.66666	0.39618	2.98803	0.87359	3.46968	0.671091	2.66661		
0.395003	3.00292	0.672	2.66318	0.395417	2.99755	0.873971	3.46191	0.672014	2.66313		
0.394267	3.0128	0.672927	2.65973	0.394672	3.00731	0.874356	3.45418	0.672941	2.65968		
0.393547	3.02292	0.673859	2.65631	0.393943	3.0173	0.874744	3.44651	0.673873	2.65626		
0.392845	3.03328	0.674795	2.65293	0.393231	3.02752	0.875136	3.4389	0.674809	2.65288		
0.39216	3.04387	0.675735	2.64959	0.392537	3.03798	0.875531	3.43134	0.675749	2.64954		
0.391492	3.05471	0.67668	2.64628	0.391859	3.04869	0.87593	3.42383	0.676694	2.64623		
0.39084	3.06579	0.677629	2.643	0.391198	3.05963	0.876332	3.41637	0.677643	2.64296		
0.390205	3.07713	0.678582	2.63976	0.390554	3.07083	0.876737	3.40897	0.678596	2.63972		
0.389586	3.08871	0.67954	2.63656	0.389926	3.08228	0.877146	3.40162	0.679554	2.63651		
0.388984	3.10056	0.680502	2.63338	0.389315	3.09398	0.877558	3.39432	0.680516	2.63334		
0.388399	3.11266	0.681468	2.63024	0.38872	3.10593	0.877974	3.38708	0.681482	2.6302		
0.387829	3.12502	0.682438	2.62713	0.388142	3.11815	0.878394	3.37988	0.682453	2.62709		
0.387276	3.13765	0.683413	2.62406	0.38758	3.13064	0.878817	3.37274	0.683428	2.62401		
0.386738	3.15055	0.684392	2.62102	0.387034	3.14339	0.879244	3.36565	0.684407	2.62097		
0.386217	3.16372	0.685376	2.61801	0.386503	3.15641	0.879674	3.3586	0.68539	2.61796		
0.385711	3.17717	0.686363	2.61503	0.385989	3.1697	0.880108	3.35161	0.686378	2.61498		
0.385222	3.19091	0.687355	2.61208	0.38549	3.18328	0.880546	3.34467	0.68737	2.61204		
0.384747	3.20492	0.688351	2.60916	0.385008	3.19714	0.880987	3.33778	0.688366	2.60912		
0.384289	3.21923	0.689352	2.60628	0.38454	3.21128	0.881432	3.33093	0.689367	2.60623		
0.383846	3.23382	0.690356	2.60342	0.384089	3.22572	0.881881	3.32414	0.690371	2.60338		
0.383418	3.24872	0.691365	2.6006	0.383653	3.24045	0.882333	3.31739	0.69138	2.60056		
0.383005	3.26392	0.692378	2.5978	0.383232	3.25548	0.88279	3.31069	0.692393	2.59776		
0.382608	3.27942	0.693395	2.59504	0.382826	3.27081	0.88325	3.30404	0.69341	2.595		
0.382226	3.29524	0.694417	2.5923	0.382435	3.28646	0.883714	3.29744	0.694432	2.59226		
0.381859	3.31137	0.695442	2.5896	0.38206	3.30241	0.884182	3.29089	0.695457	2.58956		
0.381507	3.32782	0.696472	2.58692	0.3817	3.31869	0.884653	3.28438	0.696487	2.58688		
0.381169	3.3446	0.697505	2.58427	0.381354	3.33528	0.885129	3.27792	0.697521	2.58423		
0.380847	3.36171	0.698543	2.58165	0.381023	3.35221	0.885608	3.2715	0.698559	2.58161		
0.380539	3.37915	0.699585	2.57906	0.380708	3.36947	0.886091	3.26514	0.699601	2.57902		
0.380246	3.39694	0.700631	2.57649	0.380406	3.38706	0.886579	3.25882	0.700647	2.57646		
0.379967	3.41507	0.701681	2.57396	0.38012	3.405	0.88707	3.25254	0.701697	2.57392		
0.379703	3.43356	0.702736	2.57145	0.379848	3.42329	0.887565	3.24631	0.702751	2.57141		
0.379454	3.4524	0.703794	2.56897	0.37959	3.44194	0.888064	3.24012	0.703809	2.56893		
0.379219	3.47161	0.704856	2.56651	0.379347	3.46094	0.888567	3.23398	0.704872	2.56648		
0.378998	3.49119	0.705922	2.56408	0.379118	3.48032	0.889074	3.22789	0.705938	2.56405		
0.378791	3.51115	0.706993	2.56168	0.378903	3.50007	0.889585	3.22184	0.707008	2.56165		
0.378598	3.53149	0.708067	2.55931	0.378703	3.5202	0.8901	3.21583	0.708083	2.55927		
0.37842	3.55222	0.709145	2.55696	0.378517	3.54071	0.890619	3.20987	0.709161	2.55692		
0.378255	3.57335	0.710228	2.55464	0.378345	3.56162	0.891143	3.20395	0.710244	2.5546		
0.378105	3.59488	0.711314	2.55234	0.378187	3.58293	0.89167	3.19807	0.71133	2.5523		
0.377968	3.61683	0.712404	2.55007	0.378042	3.60464	0.892202	3.19224	0.71242	2.55003		
0.377846	3.63919	0.713499	2.54782	0.377912	3.62678	0.892737	3.18645	0.713515	2.54779		
0.377737	3.66198	0.714597	2.5456	0.377795	3.64933	0.893277	3.1807	0.714613	2.54556		
0.377642	3.68521	0.7157	2.5434	0.377692	3.67231	0.893821	3.175	0.715716	2.54337		
0.37756	3.70887	0.716807	2.54123	0.377603	3.69573	0.894369	3.16934	0.716823	2.5412		
0.377492	3.73299	0.717919	2.53909	0.377528	3.7196	0.894921	3.16372	0.717935	2.53906		
0.377437	3.75757	0.719039	2.53698	0.377466	3.74393	0.895477	3.15814	0.719055	2.53695		
0.377396	3.78262	0.719866	2.53386	0.377417	3.76871	0.896038	3.1526	0.719892	2.53386		
0.377369	3.80814	0.721234	2.53265	0.377382	3.79397	0.896603	3.1471	0.721251	2.53262		
0.377354	3.83415	0.723629	2.53504	0.377361	3.81971	0.897172	3.14165	0.723656	2.53505		
0.377353	3.86065	0.725473	2.5355	0.377352	3.84593	0.897745	3.13623	0.723524	2.5286		
0.377366	3.88766	0.727319	2.53596	0.377357	3.87266	0.898323	3.13086	0.724658	2.5266		
0.377391	3.91518	0.729165	2.53642	0.377375	3.8999	0.898905	3.12552	0.725796	2.52461		
0.377429	3.94323	0.731012	2.53688	0.377407	3.92766	0.899491	3.12023	0.726936	2.52265		
0.377481	3.97182	0.732859	2.53734	0.377451	3.95595	0.900082	3.11497	0.72808	2.5207		
0.377545	4.00095	0.734705	2.53779	0.377508	3.98478	0.900677	3.10976	0.729228	2.51878		
0.377622	4.03064	0.736552	2.53824	0.377578	4.01416	0.901276	3.10458	0.730379	2.51688		
0.377713	4.0609	0.738398	2.53869	0.377661	4.0441	0.90188	3.09944	0.731534	2.51501		
0.377815	4.09174	0.740244	2.53914	0.377757	4.07462	0.902488	3.09434	0.732693	2.51315		
0.377931	4.12317	0.74209	2.53958	0.377866	4.10572	0.9031	3.08928	0.733855	2.51131		
0.378059	4.15521	0.743936	2.54002	0.377987	4.13742	0.903717	3.08426	0.735021	2.5095		
0.3782	4.18787	0.745782	2.54046	0.378121	4.16974	0.904338	3.07928	0.73619	2.5077		
0.378353	4.22116	0.747627	2.5409	0.378267	4.20268	0.904964	3.07433	0.737363	2.50593		
0.378519	4.2551	0.749472	2.54133	0.378426	4.23626	0.905594	3.06943	0.738539	2.50417		
0.378697	4.2897	0.751317	2.54176	0.378597	4.27049	0.906229	3.06456	0.739719	2.50244		
0.378887	4.32497	0.753162	2.54219	0.37878	4.30538	0.906868	3.05973	0.740903	2.50073		
0.37909	4.36092	0.755006	2.54261	0.378976	4.34096	0.907512	3.05493	0.74209	2.49903		
0.379304	4.39759	0.75685	2.54303	0.379184	4.37723	0.90816	3.05017	0.743281	2.49736		
0.379531	4.43497	0.758694	2.54345	0.379404	4.41421	0.908813	3.04545	0.744475	2.4957		
0.37977	4.47309	0.760538	2.54387	0.379636	4.45192	0.90947	3.04077	0.745672	2.49406		
0.38002	4.51196	0.762382	2.54428	0.37988	4.49038	0.910132	3.03612	0.746874	2.49245		
0.380283	4.5516	0.764225	2.5447	0.380136	4.52959	0.910798	3.03151	0.748078	2.49085		
0.380557	4.59204	0.766068	2.5451	0.380404	4.56958	0.911469	3.02693	0.749286	2.48927		
0.380843	4.63327	0.767911	2.54551	0.380683	4.61037	0.912145	3.02239	0.750497	2.48771		
0.38114	4.67534	0.769754	2.54591	0.380974	4.65198	0.912825	3.01788	0.751712	2.48616		
0.381449	4.71825	0.771596	2.54632	0.381277	4.69442	0.91351	3.01341	0.75293	2.48464		
0.381769	4.76203	0.773438	2.54672	0.381591	4.73771	0.9142	3.00898	0.754152	2.48313		
0.382101	4.80669	0.77528	2.54711	0.381916	4.78188	0.914895	3.00458	0.755377	2.48164		
0.382444	4.85226	0.777122	2.54751	0.382253	4.82695	0.915594	3.00022	0.756605	2.48017		
0.382798	4.89876	0.778964	2.5479	0.382601	4.87294	0.916298	2.99589	0.757837	2.47871		
0.383163	4.94622	0.780805	2.54829	0.38296	4.91986	0.917006	2.9916	0.759072	2.47728		
0.383539	4.99466	0.782646	2.54867	0.38333	4.96776	0.91772	2.98734	0.76031	2.47585		
0.383926	5.0441	0.784487	2.54906	0.383711	5.01664	0.918438	2.98311	0.761552	2.47445		
0.384324	5.09456	0.786328	2.54944	0.384103	5.06653	0.919161	2.97892	0.762796	2.47306		
0.384733	5.14609	0.788168	2.54982	0.384505	5.11747	0.919889	2.97476	0.764044	2.47169		
0.385152	5.1987	0.790008	2.55019	0.384919	5.16948	0.920622	2.97064	0.765296	2.47034		
0.385581	5.25241	0.791848	2.55057	0.385342	5.22258	0.92136	2.96655	0.76655	2.469		
0.386021	5.30727	0.793688	2.55094	0.385777	5.2768	0.922102	2.96249	0.767808	2.46768		
0.386472	5.36331	0.795528	2.55131	0.386221	5.33218	0.92285	2.95847	0.769069	2.46638		
0.386932	5.42054	0.797367	2.55168	0.386676	5.38875	0.923602	2.95448	0.770333	2.46509		
0.387403	5.47902	0.799206	2.55204	0.387141	5.44654	0.92436	2.95052	0.7716	2.46381		
0.387883	5.53876	0.801045	2.55241	0.387616	5.50557	0.925122	2.9466	0.772871	2.46255		
0.38831	5.59189	0.802884	2.55277	0.388101	5.5659	0.92589	2.94271	0.774144	2.46131		
0.38868	5.63798	0.804722	2.55313	0.388596	5.62755	0.926662	2.93885	0.775421	2.46008		
0.38899	5.67666	0.806561	2.55348	0.389101	5.69055	0.92744	2.93503	0.7767	2.45887		
0.389237	5.70762	0.808399	2.55384	0.389615	5.75496	0.928223	2.93123	0.777983	2.45767		
0.389421	5.7306	0.810236	2.55419	0.390139	5.82081	0.929011	2.92747	0.779269	2.45649		
0.38959	5.75189	0.812074	2.55454	0.390671	5.88814	0.929804	2.92374	0.780558	2.45532		
0.389709	5.7668	0.813911	2.55489	0.391214	5.957	0.930602	2.92005	0.78185	2.45417		
0.389896	5.79025	0.815749	2.55523	0.391765	6.02743	0.931406	2.91638	0.783145	2.45303		
0.390151	5.82243	0.817586	2.55557	0.392325	6.09948	0.932215	2.91275	0.784443	2.4519		
0.390478	5.86363	0.819422	2.55591	0.392894	6.1732	0.933029	2.90915	0.785744	2.45079		
0.390877	5.91423	0.821259	2.55625	0.393472	6.24864	0.933849	2.90558	0.787048	2.44969		
0.391352	5.97466	0.823095	2.55659	0.394059	6.32586	0.934673	2.90205	0.788355	2.44861		
0.391906	6.0455	0.824931	2.55693	0.394654	6.40491	0.935504	2.89854	0.789665	2.44754		
0.392468	6.11796	0.826767	2.55726	0.395257	6.48585	0.936339	2.89507	0.790977	2.44648		
0.39304	6.19211	0.828603	2.55759	0.395868	6.56874	0.93718	2.89163	0.792293	2.44544		
0.39362	6.268	0.830438	2.55792	0.396488	6.65364	0.938027	2.88822	0.793612	2.44441		
0.394208	6.34567	0.832273	2.55824	0.397115	6.74063	0.938879	2.88484	0.794933	2.44339		
0.394806	6.42519	0.834108	2.55857	0.39775	6.82976	0.939737	2.88149	0.796257	2.44239		
0.395411	6.50662	0.835943	2.55889	0.398393	6.92113	0.940601	2.87817	0.797585	2.4414		
0.396024	6.59001	0.837778	2.55921	0.399043	7.01479	0.94147	2.87488	0.798915	2.44042		
0.396646	6.67544	0.839612	2.55953	0.3997	7.11084	0.942344	2.87163	0.800248	2.43946		
0.397275	6.76296	0.841446	2.55985	0.400365	7.20935	0.943225	2.8684	0.801583	2.4385		
0.397912	6.85265	0.84328	2.56016	0.401036	7.31042	0.944111	2.86521	0.802922	2.43756		
0.398557	6.94459	0.845114	2.56048	0.401714	7.41414	0.945003	2.86204	0.804263	2.43663		
0.399209	7.03885	0.846947	2.56079	0.402399	7.52059	0.945902	2.85891	0.805607	2.43572		
0.399868	7.13552	0.848781	2.5611	0.40309	7.62989	0.946806	2.85581	0.806954	2.43481		
0.400534	7.23467	0.850614	2.5614	0.403788	7.74215	0.947715	2.85274	0.808303	2.43392		
0.401207	7.33639	0.852447	2.56171	0.404491	7.85747	0.948631	2.8497	0.809655	2.43304		
0.401887	7.44079	0.854279	2.56201	0.4052	7.97598	0.949554	2.84669	0.81101	2.43217		
0.402573	7.54796	0.856112	2.56231	0.405915	8.09779	0.950482	2.84371	0.812368	2.43132		
0.403266	7.658	0.857944	2.56261	0.406636	8.22304	0.951416	2.84076	0.813728	2.43047		
0.403965	7.77102	0.859776	2.56291	0.407361	8.35187	0.952357	2.83784	0.815091	2.42964		
0.40467	7.88713	0.861608	2.5632	0.408092	8.48443	0.953304	2.83495	0.816457	2.42881		
0.405381	8.00646	0.863439	2.5635	0.408828	8.62087	0.954257	2.83209	0.817825	2.428		
0.406097	8.12913	0.86527	2.56379	0.409568	8.76136	0.955217	2.82927	0.819196	2.4272		
0.406819	8.25528	0.867102	2.56408	0.410312	8.90605	0.956183	2.82647	0.820569	2.42641		
0.407546	8.38504	0.868933	2.56437	0.411061	9.05515	0.957156	2.8237	0.821945	2.42563		
0.408278	8.51856	0.870763	2.56466	0.411813	9.20885	0.958135	2.82097	0.823324	2.42486		
0.409014	8.65601	0.872594	2.56494	0.412472	9.34669	0.959121	2.81826	0.824705	2.4241		
0.409756	8.79754	0.874424	2.56523	0.413036	9.46718	0.960113	2.81559	0.826088	2.42336		
0.410501	8.94333	0.876254	2.56551	0.413503	9.56896	0.961113	2.81294	0.827475	2.42262		
0.411251	9.09358	0.878084	2.56579	0.413874	9.65085	0.962119	2.81033	0.828863	2.42189		
0.412004	9.24847	0.879913	2.56606	0.414147	9.71189	0.963132	2.80774	0.830255	2.42118		
0.412761	9.40821	0.881743	2.56634	0.414398	9.76866	0.964152	2.80519	0.831648	2.42047		
0.413522	9.57303	0.883572	2.56662	0.414573	9.8085	0.965179	2.80266	0.833045	2.41977		
0.414285	9.74316	0.885401	2.56689	0.414847	9.87136	0.966213	2.80017	0.834443	2.41909		
0.415052	9.91886	0.88723	2.56716	0.415219	9.95802	0.967255	2.79771	0.835844	2.41841		
0.41582	10.1004	0.889058	2.56743	0.415692	10.0696	0.968303	2.79528	0.837248	2.41774		
0.416592	10.288	0.890886	2.5677	0.416264	10.2076	0.969359	2.79288	0.838654	2.41708		
0.417365	10.4821	0.892714	2.56796	0.416937	10.374	0.970423	2.7905	0.840062	2.41644		
0.418139	10.6829	0.894542	2.56823	0.417711	10.571	0.971493	2.78816	0.841473	2.4158		
0.418915	10.8908	0.89637	2.56849	0.418486	10.775	0.972572	2.78585	0.842886	2.41517		
0.419692	11.1062	0.898197	2.56875	0.419263	10.9861	0.973657	2.78358	0.844302	2.41455		
0.42047	11.3294	0.900025	2.56901	0.42004	11.205	0.974751	2.78133	0.84572	2.41393		
0.421248	11.5609	0.901852	2.56927	0.420818	11.4318	0.975852	2.77911	0.84714	2.41333		
0.422026	11.8012	0.903678	2.56952	0.421596	11.6672	0.976961	2.77692	0.848562	2.41274		
0.422804	12.0507	0.905505	2.56978	0.422374	11.9116	0.978077	2.77476	0.849987	2.41215		
0.423581	12.31	0.907331	2.57003	0.423152	12.1654	0.979202	2.77264	0.851414	2.41158		
0.424357	12.5797	0.909157	2.57028	0.423929	12.4292	0.980335	2.77054	0.852844	2.41101		
0.425132	12.8603	0.910983	2.57053	0.424704	12.7037	0.981475	2.76848	0.854275	2.41045		
0.425905	13.1526	0.912809	2.57078	0.425478	12.9895	0.982624	2.76644	0.855709	2.4099		
0.426675	13.4573	0.914634	2.57103	0.426249	13.2873	0.983781	2.76444	0.857146	2.40936		
0.427443	13.7752	0.916459	2.57127	0.427019	13.5977	0.984946	2.76247	0.858584	2.40883		
0.428207	14.1071	0.918284	2.57152	0.427785	13.9218	0.986119	2.76052	0.860025	2.4083		
0.428968	14.454	0.920109	2.57176	0.428548	14.2603	0.9873	2.75861	0.861468	2.40779		
0.429725	14.817	0.921933	2.572	0.429307	14.6143	0.98849	2.75673	0.862913	2.40728		
0.430477	15.1971	0.923758	2.57224	0.430062	14.9847	0.989688	2.75488	0.86436	2.40678		
0.431224	15.5956	0.925582	2.57248	0.430812	15.3729	0.990895	2.75306	0.865809	2.40628		
0.431966	16.0139	0.927406	2.57271	0.431556	15.7801	0.99211	2.75127	0.867261	2.4058		
0.432701	16.4535	0.929229	2.57295	0.432295	16.2077	0.993333	2.7495	0.868715	2.40532		
0.43343	16.9159	0.931053	2.57318	0.433028	16.6573	0.994565	2.74777	0.870171	2.40485		
0.434152	17.4032	0.932876	2.57341	0.433753	17.1306	0.995806	2.74607	0.871629	2.40439		
0.434865	17.9173	0.934699	2.57364	0.434472	17.6296	0.997055	2.7444	0.873089	2.40393		
0.435571	18.4605	0.936521	2.57387	0.435182	18.1564	0.998313	2.74276	0.874551	2.40349		
0.436268	19.0353	0.938344	2.5741	0.435884	18.7134	0.999579	2.74115	0.876015	2.40305		
0.436955	19.6446	0.940166	2.57432	0.436576	19.3033	1.00085	2.73957	0.877481	2.40262		
0.437632	20.2917	0.941988	2.57455	0.437259	19.9291			0.87895	2.40219		
0.438298	20.9801	0.94381	2.57477	0.437931	20.5942			0.88042	2.40177		
0.438952	21.714	0.945631	2.57499	0.438592	21.3024			0.881893	2.40136		
0.439595	22.498	0.947453	2.57521	0.439241	22.0581			0.883367	2.40096		
0.440225	23.3376	0.949274	2.57543	0.439878	22.8662			0.884844	2.40056		
0.440841	24.2388	0.951094	2.57564	0.440502	23.7325			0.886322	2.40017		
0.441444	25.2088	0.952915	2.57586	0.441112	24.6636			0.887803	2.39979		
0.442031	26.2558	0.954735	2.57607	0.441708	25.6669			0.889285	2.39941		
0.442603	27.3894	0.956555	2.57628	0.442289	26.7513			0.890769	2.39904		
0.443158	28.6209	0.958375	2.5765	0.442853	27.9272			0.892256	2.39868		
0.443697	29.9637	0.960195	2.57671	0.443401	29.2067			0.893744	2.39832		
0.444218	31.4337	0.962014	2.57691	0.443932	30.6042			0.895234	2.39797		
0.44472	33.05	0.963833	2.57712	0.444445	32.1371			0.896726	2.39762		
0.445203	34.8358	0.965652	2.57733	0.444939	33.826			0.89822	2.39729		
0.445667	36.8194	0.967471	2.57753	0.445413	35.6964			0.899716	2.39695		
0.44611	39.0359	0.969289	2.57773	0.445868	37.7793			0.901214	2.39663		
0.446532	41.5291	0.971107	2.57793	0.446301	40.1135			0.902714	2.39631		
0.446932	44.3545	0.972925	2.57813	0.446713	42.7475			0.904215	2.396		
0.447309	47.5839	0.974743	2.57833	0.447103	45.7436			0.905719	2.39569		
0.447663	51.311	0.97656	2.57853	0.44747	49.1823			0.907224	2.39539		
0.447994	55.6612	0.978377	2.57872	0.447814	53.1702			0.908731	2.39509		
0.4483	60.8057	0.980194	2.57892	0.448133	57.8509			0.910239	2.3948		
0.448581	66.985	0.982011	2.57911	0.448428	63.4231			0.91175	2.39452		
0.448837	74.5475	0.983827	2.5793	0.448698	70.1693			0.913262	2.39424		
0.449067	84.0179	0.985643	2.57949	0.448943	78.5059			0.914777	2.39397		
0.44927	96.2247	0.987459	2.57968	0.449161	89.0722			0.916293	2.3937		
0.449447	112.557	0.989275	2.57987	0.449353	102.903			0.91781	2.39344		
0.449597	135.538	0.99109	2.58006	0.449518	121.794			0.91933	2.39318		
0.44972	170.271	0.992905	2.58024	0.449655	149.145			0.920851	2.39293		
0.449815	228.881	0.99472	2.58042	0.449766	192.292			0.922374	2.39269		
0.449882	348.92	0.996534	2.58061	0.449848	270.496			0.923898	2.39245		
0.449921	733.447	0.998348	2.58079	0.449903	455.77			0.925425	2.39221		
		1.00016	2.58097	0.44993	1445.77			0.926953	2.39198		
								0.928482	2.39176		
								0.930013	2.39154		
								0.931546	2.39132		
								0.933081	2.39112		
								0.934617	2.39091		
								0.936155	2.39071		
								0.937695	2.39052		
								0.939236	2.39033		
								0.940779	2.39014		
								0.942323	2.38996		
								0.943869	2.38978		
								0.945416	2.38961		
								0.946965	2.38945		
								0.948516	2.38928		
								0.950068	2.38912		
								0.951621	2.38897		
								0.953176	2.38882		
								0.954733	2.38868		
								0.956291	2.38853		
								0.95785	2.3884		
								0.959411	2.38826		
								0.960974	2.38814		
								0.962538	2.38801		
								0.964103	2.38789		
								0.96567	2.38777		
								0.967238	2.38766		
								0.968808	2.38755		
								0.970379	2.38745		
								0.971951	2.38735		
								0.973525	2.38725		
								0.975101	2.38715		
								0.976677	2.38706		
								0.978255	2.38698		
								0.979834	2.38689		
								0.981415	2.38681		
								0.982997	2.38674		
								0.98458	2.38667		
								0.986165	2.3866		
								0.987751	2.38653		
								0.989338	2.38647		
								0.990926	2.38641		
								0.992516	2.38635		
								0.994107	2.3863		
								0.995699	2.38625		
								0.997293	2.3862		
								0.998888	2.38616		
								1.00048	2.38612		
