Sym0		Asym0		Sym1		Sym2		Asym1		Asym2	
563  Points		564  Points		563  Points		532  Points		565  Points		318  Points	
Freq (MHz)	Vph (m/ms)	Freq (MHz)	Vph (m/ms)	Freq (MHz)	Vph (m/ms)	Freq (MHz)	Vph (m/ms)	Freq (MHz)	Vph (m/ms)	Freq (MHz)	Vph (m/ms)
1.00051	2.58375	0.279527	413.8	1.00001	2.58411	0.559031	1000.12	0.279515	678.973	1.00013	4.61661
0.999101	2.58474	0.279583	204.082	0.998592	2.58509	0.559087	446.053	0.279557	252.737	0.998508	4.62393
0.997686	2.58572	0.279677	135.476	0.997176	2.58608	0.559185	287.078	0.279637	155.305	0.99687	4.63124
0.996269	2.5867	0.279809	101.423	0.995758	2.58706	0.559326	211.682	0.279754	112.126	0.995219	4.63853
0.994849	2.58768	0.279979	81.076	0.994337	2.58804	0.559508	167.681	0.27991	87.7611	0.993556	4.64582
0.993426	2.58866	0.280187	67.5517	0.992913	2.58901	0.559733	138.851	0.280103	72.1192	0.99188	4.65309
0.992001	2.58963	0.280432	57.9144	0.991487	2.58998	0.559999	118.502	0.280334	61.2305	0.990193	4.66036
0.990573	2.5906	0.280714	50.7014	0.990058	2.59095	0.560305	103.376	0.280603	53.2172	0.988494	4.66762
0.989141	2.59156	0.281034	45.1021	0.988625	2.59191	0.560652	91.692	0.280908	47.0752	0.986783	4.67487
0.987707	2.59252	0.281391	40.631	0.987189	2.59286	0.561039	82.3971	0.281251	42.2193	0.985062	4.68212
0.986269	2.59347	0.281784	36.9797	0.98575	2.59382	0.561464	74.8279	0.28163	38.2852	0.983329	4.68936
0.984827	2.59442	0.282213	33.9427	0.984308	2.59476	0.561928	68.5458	0.282046	35.0343	0.981586	4.6966
0.983382	2.59536	0.282679	31.3779	0.982861	2.5957	0.562429	63.249	0.282498	32.3039	0.979832	4.70384
0.981934	2.5963	0.28318	29.1839	0.981411	2.59663	0.562967	58.7235	0.282985	29.979	0.978068	4.71108
0.980482	2.59723	0.283716	27.2863	0.979958	2.59756	0.56354	54.8127	0.283508	27.9762	0.976295	4.71832
0.979025	2.59815	0.284287	25.6295	0.9785	2.59848	0.564148	51.4001	0.284066	26.2335	0.974512	4.72556
0.977565	2.59906	0.284892	24.1708	0.977038	2.59939	0.56479	48.3965	0.284658	24.7039	0.97272	4.73281
0.976101	2.59997	0.285531	22.8771	0.975572	2.60029	0.565465	45.7329	0.285284	23.351	0.970918	4.74006
0.974632	2.60087	0.286204	21.7224	0.974102	2.60119	0.566173	43.3551	0.285944	22.1462	0.969108	4.74732
0.973159	2.60176	0.28691	20.6857	0.972628	2.60208	0.566911	41.2197	0.286638	21.0668	0.96729	4.75459
0.971682	2.60264	0.287648	19.7501	0.971149	2.60296	0.567679	39.2916	0.287363	20.0946	0.965464	4.76186
0.9702	2.60352	0.288418	18.9017	0.969665	2.60383	0.568477	37.5423	0.288122	19.2145	0.96363	4.76915
0.968714	2.60438	0.28922	18.1292	0.968177	2.60469	0.569304	35.9483	0.288911	18.4144	0.961788	4.77645
0.967223	2.60524	0.290052	17.4229	0.966685	2.60554	0.570157	34.4898	0.289732	17.684	0.95994	4.78377
0.965727	2.60608	0.290915	16.775	0.965187	2.60638	0.571037	33.1505	0.290584	17.0148	0.958084	4.79111
0.964227	2.60692	0.291808	16.1787	0.963685	2.60722	0.571943	31.9163	0.291466	16.3996	0.956222	4.79846
0.962721	2.60775	0.292731	15.6281	0.962178	2.60804	0.572874	30.7757	0.292377	15.8322	0.954353	4.80583
0.961211	2.60856	0.293682	15.1184	0.960666	2.60885	0.573829	29.7182	0.293317	15.3075	0.952479	4.81322
0.959696	2.60937	0.294661	14.6452	0.95915	2.60966	0.574806	28.7354	0.294286	14.8209	0.950598	4.82064
0.958177	2.61016	0.295668	14.205	0.957628	2.61045	0.575806	27.8196	0.295283	14.3686	0.948713	4.82808
0.956652	2.61095	0.296703	13.7944	0.956102	2.61123	0.576827	26.9643	0.296307	13.9471	0.946822	4.83554
0.955122	2.61173	0.297763	13.4108	0.95457	2.612	0.577869	26.1636	0.297357	13.5535	0.944926	4.84304
0.953587	2.61249	0.29885	13.0515	0.953033	2.61276	0.578931	25.4127	0.298434	13.1853	0.943026	4.85056
0.952048	2.61324	0.299962	12.7145	0.951492	2.61351	0.580013	24.707	0.299537	12.84	0.941122	4.85812
0.950503	2.61399	0.301099	12.3977	0.949945	2.61425	0.581112	24.0426	0.300664	12.5158	0.939213	4.86571
0.948953	2.61472	0.302261	12.0996	0.948394	2.61498	0.58223	23.4161	0.301817	12.2108	0.937301	4.87334
0.947399	2.61544	0.303446	11.8185	0.946838	2.6157	0.583365	22.8243	0.302993	11.9234	0.935386	4.881
0.945839	2.61615	0.304654	11.5531	0.945276	2.6164	0.584516	22.2644	0.304192	11.6521	0.933467	4.88871
0.944274	2.61685	0.305885	11.3021	0.94371	2.6171	0.585683	21.7339	0.305414	11.3958	0.931546	4.89645
0.942705	2.61754	0.307138	11.0645	0.942138	2.61778	0.586865	21.2307	0.306659	11.1533	0.929622	4.90424
0.94113	2.61821	0.308412	10.8392	0.940562	2.61845	0.588063	20.7527	0.307925	10.9234	0.927696	4.91208
0.939551	2.61888	0.309707	10.6254	0.938981	2.61912	0.589274	20.298	0.309213	10.7054	0.925768	4.91996
0.937967	2.61953	0.311023	10.4223	0.937396	2.61977	0.590499	19.865	0.310521	10.4983	0.923838	4.92789
0.936378	2.62018	0.312359	10.229	0.935805	2.62041	0.591737	19.4522	0.311849	10.3013	0.921907	4.93587
0.934785	2.62081	0.313715	10.045	0.93421	2.62104	0.592988	19.0582	0.313197	10.1138	0.919975	4.94391
0.933186	2.62143	0.315089	9.8695	0.93261	2.62166	0.594251	18.6819	0.314388	9.95768	0.918042	4.952
0.931583	2.62205	0.316481	9.70207	0.931005	2.62226	0.595525	18.3219	0.315413	9.82956	0.916108	4.96015
0.929976	2.62265	0.317892	9.54217	0.929396	2.62286	0.596811	17.9774	0.316269	9.72692	0.914174	4.96836
0.928364	2.62324	0.31932	9.38931	0.927782	2.62345	0.598108	17.6473	0.316951	9.6478	0.91224	4.97663
0.926748	2.62382	0.320764	9.24306	0.926164	2.62403	0.599415	17.3308	0.317455	9.59073	0.910307	4.98497
0.925127	2.62439	0.322226	9.103	0.924542	2.62459	0.600732	17.027	0.317778	9.55469	0.908374	4.99337
0.923502	2.62495	0.323703	8.96879	0.922915	2.62515	0.602059	16.7352	0.318245	9.50352	0.906442	5.00185
0.921872	2.6255	0.325196	8.84006	0.921284	2.6257	0.603394	16.4547	0.318755	9.44876	0.904511	5.01039
0.920239	2.62604	0.326704	8.7165	0.919649	2.62624	0.604739	16.1849	0.319451	9.37566	0.902581	5.01901
0.918601	2.62658	0.328226	8.59782	0.91801	2.62677	0.606093	15.9251	0.320338	9.28542	0.900653	5.0277
0.916959	2.6271	0.329763	8.48375	0.916367	2.62728	0.607454	15.6749	0.321418	9.17948	0.898727	5.03648
0.915313	2.62761	0.331313	8.37402	0.91472	2.62779	0.608823	15.4336	0.322697	9.05943	0.896803	5.04533
0.913664	2.62812	0.332877	8.26842	0.913069	2.62829	0.6102	15.2009	0.324179	8.927	0.894882	5.05427
0.91201	2.62861	0.334454	8.16671	0.911414	2.62879	0.611585	14.9763	0.325677	8.79996	0.892964	5.06329
0.910353	2.6291	0.336043	8.0687	0.909756	2.62927	0.612976	14.7594	0.327189	8.678	0.891048	5.07241
0.908692	2.62957	0.337644	7.97418	0.908094	2.62974	0.614374	14.5498	0.328717	8.56082	0.889137	5.08161
0.907028	2.63004	0.339257	7.88299	0.906428	2.63021	0.615778	14.3471	0.330258	8.44817	0.887228	5.09091
0.90536	2.6305	0.340881	7.79495	0.904759	2.63067	0.617188	14.151	0.331812	8.33979	0.885324	5.10031
0.903689	2.63095	0.342517	7.70991	0.903086	2.63112	0.618604	13.9612	0.33338	8.23545	0.883423	5.1098
0.902014	2.6314	0.344162	7.62772	0.90141	2.63156	0.620026	13.7773	0.334961	8.13495	0.881528	5.1194
0.900336	2.63184	0.345818	7.54825	0.899731	2.63199	0.621453	13.5992	0.336554	8.03807	0.879637	5.1291
0.898654	2.63226	0.347484	7.47136	0.898048	2.63242	0.622886	13.4265	0.338159	7.94464	0.877751	5.13891
0.89697	2.63268	0.349159	7.39693	0.896363	2.63283	0.624323	13.259	0.339776	7.85447	0.87587	5.14884
0.895282	2.6331	0.350844	7.32485	0.894674	2.63325	0.625765	13.0965	0.341404	7.76741	0.873995	5.15887
0.893592	2.63351	0.352537	7.25502	0.892982	2.63365	0.627211	12.9387	0.343042	7.6833	0.872126	5.16903
0.891898	2.6339	0.354239	7.18732	0.891288	2.63405	0.628662	12.7855	0.344691	7.602	0.870263	5.1793
0.890202	2.6343	0.355948	7.12167	0.88959	2.63444	0.630116	12.6366	0.346351	7.52336	0.868406	5.1897
0.888503	2.63468	0.357666	7.05796	0.88789	2.63482	0.631575	12.4918	0.348019	7.44727	0.866556	5.20023
0.886801	2.63506	0.359391	6.99613	0.886187	2.6352	0.633037	12.3511	0.349698	7.37361	0.864713	5.21088
0.885096	2.63544	0.361123	6.93608	0.884482	2.63557	0.634502	12.2142	0.351385	7.30226	0.862877	5.22167
0.883389	2.6358	0.362862	6.87774	0.882774	2.63593	0.635971	12.081	0.353081	7.23312	0.861049	5.2326
0.881679	2.63616	0.364607	6.82104	0.881063	2.63629	0.637443	11.9513	0.354785	7.16609	0.859229	5.24367
0.879967	2.63652	0.366359	6.76591	0.87935	2.63664	0.638917	11.825	0.356497	7.10107	0.857417	5.25488
0.878252	2.63687	0.368116	6.71229	0.877634	2.63699	0.640394	11.7019	0.358217	7.03797	0.855614	5.26624
0.876535	2.63721	0.36988	6.6601	0.875916	2.63733	0.641874	11.582	0.359945	6.97672	0.853819	5.27775
0.874816	2.63755	0.371648	6.6093	0.874196	2.63767	0.643356	11.4651	0.361679	6.91723	0.852033	5.28942
0.873094	2.63788	0.373422	6.55983	0.872474	2.638	0.64484	11.351	0.36342	6.85942	0.850256	5.30125
0.87137	2.63821	0.3752	6.51163	0.870749	2.63832	0.646326	11.2398	0.365167	6.80323	0.84849	5.31323
0.869644	2.63853	0.376983	6.46466	0.869022	2.63864	0.647814	11.1312	0.366921	6.74859	0.846733	5.32539
0.867916	2.63885	0.378769	6.41886	0.867294	2.63896	0.649304	11.0253	0.36868	6.69543	0.844986	5.33772
0.866186	2.63916	0.38056	6.37419	0.865563	2.63927	0.650795	10.9218	0.370445	6.6437	0.843249	5.35022
0.864454	2.63947	0.382355	6.33061	0.86383	2.63958	0.652288	10.8208	0.372215	6.59333	0.841524	5.3629
0.86272	2.63977	0.384153	6.28808	0.862095	2.63988	0.653781	10.722	0.37399	6.54426	0.83981	5.37577
0.860984	2.64007	0.385953	6.24655	0.860359	2.64017	0.655276	10.6255	0.37577	6.49646	0.838106	5.38882
0.859247	2.64036	0.387757	6.206	0.85862	2.64047	0.656579	10.5432	0.377554	6.44987	0.836415	5.40206
0.857507	2.64065	0.389564	6.16637	0.85688	2.64075	0.657691	10.4743	0.379342	6.40444	0.834736	5.41551
0.855766	2.64094	0.391372	6.12764	0.855138	2.64104	0.65861	10.4181	0.381134	6.36013	0.833068	5.42915
0.854023	2.64122	0.393183	6.08978	0.853395	2.64132	0.659337	10.3743	0.38293	6.31689	0.831414	5.443
0.852278	2.6415	0.394995	6.05275	0.85165	2.64159	0.659872	10.3423	0.384729	6.27468	0.829772	5.45706
0.850532	2.64177	0.39681	6.01652	0.849903	2.64187	0.660214	10.322	0.38653	6.23347	0.828143	5.47134
0.848784	2.64204	0.398625	5.98107	0.848155	2.64214	0.660706	10.293	0.388335	6.19321	0.826528	5.48584
0.847035	2.64231	0.400441	5.94637	0.846405	2.6424	0.661241	10.2617	0.390142	6.15388	0.824926	5.50056
0.845284	2.64257	0.402258	5.91238	0.844653	2.64266	0.661968	10.2195	0.391952	6.11543	0.823339	5.51551
0.843532	2.64283	0.404076	5.87909	0.842901	2.64292	0.662888	10.1667	0.393763	6.07784	0.821766	5.5307
0.841778	2.64308	0.405894	5.84647	0.841146	2.64318	0.664001	10.1038	0.395576	6.04107	0.820207	5.54613
0.840023	2.64334	0.407712	5.8145	0.839391	2.64343	0.665306	10.0313	0.39739	6.00509	0.818663	5.56181
0.838267	2.64359	0.40953	5.78315	0.837634	2.64368	0.666804	9.94973	0.399206	5.96988	0.817135	5.57774
0.836509	2.64383	0.411348	5.75241	0.835876	2.64392	0.668301	9.8698	0.401023	5.93541	0.815622	5.59393
0.83475	2.64408	0.413165	5.72224	0.834116	2.64417	0.669798	9.79149	0.40284	5.90165	0.814124	5.61038
0.83299	2.64432	0.414981	5.69264	0.832355	2.64441	0.671295	9.71474	0.404658	5.86858	0.812643	5.6271
0.831228	2.64456	0.416795	5.66358	0.830594	2.64464	0.67279	9.63951	0.406476	5.83617	0.811178	5.6441
0.829465	2.64479	0.418609	5.63505	0.82883	2.64488	0.674286	9.56576	0.408294	5.8044	0.809729	5.66137
0.827702	2.64503	0.420421	5.60702	0.827066	2.64511	0.67578	9.49343	0.410112	5.77325	0.808297	5.67894
0.825937	2.64526	0.422231	5.57949	0.825301	2.64534	0.677273	9.42248	0.41193	5.74269	0.806883	5.69679
0.824171	2.64548	0.424038	5.55242	0.823534	2.64556	0.678765	9.35287	0.413746	5.71271	0.805485	5.71495
0.822403	2.64571	0.425844	5.52582	0.821767	2.64579	0.680255	9.28457	0.415562	5.68328	0.804106	5.73341
0.820635	2.64593	0.427647	5.49965	0.819998	2.64601	0.681744	9.21753	0.417376	5.65439	0.802744	5.75218
0.818866	2.64615	0.429447	5.47391	0.818229	2.64623	0.683232	9.15171	0.419189	5.62603	0.8014	5.77127
0.817096	2.64637	0.431243	5.44859	0.816458	2.64645	0.684718	9.08709	0.421	5.59816	0.800074	5.79068
0.815325	2.64659	0.433037	5.42366	0.814687	2.64666	0.686202	9.02362	0.422809	5.57077	0.798768	5.81043
0.813553	2.6468	0.434827	5.39912	0.812914	2.64688	0.687683	8.96127	0.424616	5.54386	0.79748	5.83051
0.81178	2.64701	0.436614	5.37496	0.811141	2.64709	0.689163	8.90001	0.426421	5.51739	0.796211	5.85094
0.810006	2.64722	0.438396	5.35115	0.809367	2.6473	0.690641	8.83982	0.428223	5.49137	0.794961	5.87172
0.808231	2.64743	0.440174	5.3277	0.807592	2.64751	0.692116	8.78065	0.430022	5.46576	0.793731	5.89286
0.806455	2.64764	0.441948	5.30458	0.805816	2.64771	0.693588	8.72249	0.431818	5.44057	0.79252	5.91436
0.804679	2.64784	0.443717	5.28178	0.804039	2.64792	0.695058	8.6653	0.43361	5.41577	0.791329	5.93624
0.802902	2.64805	0.44548	5.25931	0.802262	2.64812	0.696526	8.60905	0.435399	5.39135	0.790159	5.9585
0.801124	2.64825	0.447239	5.23713	0.800483	2.64832	0.69799	8.55373	0.437185	5.3673	0.789008	5.98115
0.799345	2.64845	0.448993	5.21525	0.798704	2.64852	0.699451	8.49931	0.438966	5.34361	0.787878	6.00419
0.797566	2.64865	0.45074	5.19366	0.796925	2.64872	0.70091	8.44576	0.440742	5.32026	0.786769	6.02764
0.795785	2.64884	0.452482	5.17234	0.795144	2.64891	0.702364	8.39306	0.442514	5.29725	0.78568	6.05149
0.794004	2.64904	0.454218	5.15129	0.793363	2.64911	0.703816	8.34118	0.444282	5.27456	0.784613	6.07577
0.792223	2.64923	0.455947	5.1305	0.791581	2.6493	0.705264	8.29011	0.446044	5.25218	0.783566	6.10047
0.79044	2.64942	0.45767	5.10995	0.789798	2.64949	0.706708	8.23983	0.447801	5.2301	0.782541	6.1256
0.788657	2.64961	0.459385	5.08965	0.788015	2.64968	0.708148	8.19031	0.449553	5.20831	0.781536	6.15118
0.786874	2.6498	0.461094	5.06957	0.786231	2.64987	0.709585	8.14153	0.451298	5.18681	0.780554	6.17721
0.78509	2.64999	0.462796	5.04972	0.784447	2.65006	0.711017	8.09348	0.453038	5.16557	0.779593	6.2037
0.783305	2.65018	0.46449	5.03009	0.782662	2.65025	0.712446	8.04613	0.454772	5.14461	0.778653	6.23065
0.781519	2.65037	0.466176	5.01067	0.780876	2.65043	0.71387	7.99948	0.456499	5.12389	0.777735	6.25808
0.779733	2.65055	0.467854	4.99145	0.77909	2.65062	0.715289	7.95349	0.45822	5.10343	0.776839	6.286
0.777947	2.65074	0.469524	4.97243	0.777303	2.6508	0.716704	7.90816	0.459933	5.0832	0.775965	6.31441
0.77616	2.65092	0.471186	4.9536	0.775516	2.65099	0.718114	7.86347	0.46164	5.0632	0.775113	6.34332
0.774372	2.6511	0.472839	4.93495	0.773728	2.65117	0.71952	7.8194	0.463339	5.04342	0.774283	6.37274
0.772584	2.65128	0.474483	4.91647	0.77194	2.65135	0.72092	7.77593	0.46503	5.02385	0.773475	6.40269
0.770795	2.65147	0.476118	4.89817	0.770151	2.65153	0.722316	7.73306	0.466714	5.0045	0.772689	6.43316
0.769006	2.65165	0.477744	4.88003	0.768362	2.65171	0.723706	7.69077	0.46839	4.98534	0.771925	6.46417
0.767217	2.65182	0.47936	4.86205	0.766572	2.65189	0.725091	7.64904	0.470057	4.96638	0.771183	6.49574
0.765427	2.652	0.480966	4.84422	0.764782	2.65207	0.726471	7.60786	0.471716	4.94761	0.770463	6.52786
0.763636	2.65218	0.482563	4.82654	0.762991	2.65224	0.727845	7.56721	0.473366	4.92901	0.769765	6.56055
0.761845	2.65236	0.484149	4.80901	0.7612	2.65242	0.729213	7.52709	0.475007	4.9106	0.76909	6.59381
0.760054	2.65253	0.485725	4.79161	0.759409	2.6526	0.730575	7.48749	0.476639	4.89234	0.768436	6.62767
0.758262	2.65271	0.487291	4.77434	0.757617	2.65277	0.731932	7.44838	0.478262	4.87426	0.767804	6.66213
0.75647	2.65289	0.488845	4.75721	0.755825	2.65295	0.733282	7.40976	0.479875	4.85633	0.767195	6.69719
0.754678	2.65306	0.490389	4.7402	0.754032	2.65312	0.734627	7.37161	0.481478	4.83855	0.766607	6.73288
0.752885	2.65324	0.491922	4.72331	0.752239	2.6533	0.735965	7.33393	0.483072	4.82091	0.766041	6.76919
0.751091	2.65341	0.493443	4.70653	0.750446	2.65347	0.737296	7.29671	0.484655	4.80342	0.765497	6.80615
0.749298	2.65358	0.494953	4.68987	0.748652	2.65365	0.738622	7.25993	0.486227	4.78607	0.764975	6.84376
0.747504	2.65376	0.496451	4.67331	0.746858	2.65382	0.73994	7.22358	0.487789	4.76885	0.764474	6.88204
0.74571	2.65393	0.497937	4.65686	0.745064	2.65399	0.741252	7.18766	0.489341	4.75175	0.763995	6.921
0.743915	2.6541	0.499411	4.64051	0.743269	2.65417	0.742556	7.15215	0.490881	4.73478	0.763538	6.96064
0.74212	2.65428	0.500873	4.62425	0.741474	2.65434	0.743854	7.11704	0.49241	4.71792	0.763101	7.00098
0.740325	2.65445	0.502323	4.6081	0.739679	2.65451	0.745145	7.08234	0.493927	4.70118	0.762686	7.04204
0.73853	2.65462	0.50376	4.59203	0.737883	2.65468	0.746428	7.04801	0.495433	4.68456	0.762293	7.08383
0.736734	2.65479	0.505185	4.57605	0.736087	2.65485	0.747704	7.01407	0.496928	4.66803	0.76192	7.12635
0.734938	2.65496	0.506597	4.56015	0.734291	2.65503	0.748973	6.9805	0.49841	4.65161	0.761568	7.16962
0.733142	2.65514	0.507996	4.54434	0.732495	2.6552	0.750234	6.94729	0.499881	4.6353	0.761236	7.21367
0.731345	2.65531	0.509382	4.52861	0.730698	2.65537	0.751488	6.91443	0.501339	4.61907	0.760926	7.25849
0.729548	2.65548	0.510755	4.51295	0.728901	2.65554	0.752733	6.88192	0.502785	4.60294	0.760635	7.30411
0.727752	2.65565	0.512115	4.49737	0.727104	2.65571	0.753971	6.84974	0.504218	4.5869	0.760366	7.35053
0.725954	2.65582	0.513462	4.48186	0.725307	2.65589	0.755201	6.8179	0.505638	4.57095	0.760116	7.39778
0.724157	2.656	0.514795	4.46642	0.72351	2.65606	0.756422	6.78639	0.507046	4.55508	0.759886	7.44587
0.722359	2.65617	0.516115	4.45106	0.721712	2.65623	0.757636	6.75519	0.508441	4.53929	0.759676	7.49481
0.720562	2.65634	0.517421	4.43576	0.719914	2.6564	0.758841	6.7243	0.509823	4.52359	0.759486	7.54462
0.718764	2.65651	0.518713	4.42052	0.718116	2.65658	0.760038	6.69371	0.511192	4.50795	0.759315	7.59532
0.716966	2.65669	0.519992	4.40535	0.716318	2.65675	0.761226	6.66342	0.512548	4.4924	0.759164	7.64693
0.715167	2.65686	0.521258	4.39024	0.71452	2.65692	0.762406	6.63342	0.51389	4.47691	0.759031	7.69945
0.713369	2.65703	0.522509	4.37519	0.712721	2.6571	0.763577	6.60371	0.515219	4.4615	0.758918	7.75292
0.71157	2.65721	0.523747	4.3602	0.710923	2.65727	0.764739	6.57428	0.516534	4.44615	0.758824	7.80734
0.709772	2.65738	0.524971	4.34527	0.709124	2.65744	0.765892	6.54512	0.517836	4.43087	0.758748	7.86274
0.707973	2.65756	0.526181	4.33039	0.707325	2.65762	0.767037	6.51623	0.519124	4.41566	0.758691	7.91913
0.706174	2.65773	0.527378	4.31558	0.705526	2.65779	0.768173	6.48761	0.520399	4.40051	0.758651	7.97654
0.704375	2.65791	0.52856	4.30081	0.703727	2.65797	0.769299	6.45923	0.52166	4.38542	0.75863	8.03499
0.702575	2.65808	0.529729	4.28611	0.701928	2.65815	0.770416	6.43112	0.522907	4.37039	0.758627	8.09449
0.700776	2.65826	0.530884	4.27145	0.700128	2.65832	0.771524	6.40325	0.52414	4.35541	0.758642	8.15507
0.698977	2.65844	0.532026	4.25685	0.698329	2.6585	0.772623	6.37562	0.52536	4.3405	0.758674	8.21676
0.697177	2.65862	0.533154	4.2423	0.696529	2.65868	0.773712	6.34823	0.526566	4.32565	0.758723	8.27956
0.695378	2.65879	0.534268	4.22781	0.69473	2.65886	0.774792	6.32107	0.527758	4.31085	0.758789	8.34351
0.693578	2.65897	0.535369	4.21336	0.69293	2.65904	0.775863	6.29415	0.528936	4.2961	0.758873	8.40864
0.691779	2.65915	0.536456	4.19897	0.691131	2.65922	0.776923	6.26745	0.5301	4.28141	0.758973	8.47496
0.689979	2.65934	0.53753	4.18463	0.689331	2.6594	0.777975	6.24096	0.531251	4.26677	0.75909	8.54251
0.688179	2.65952	0.53859	4.17034	0.687531	2.65958	0.779016	6.2147	0.532388	4.25219	0.759223	8.6113
0.686379	2.6597	0.539638	4.15611	0.685731	2.65977	0.780048	6.18864	0.533512	4.23766	0.759372	8.68137
0.68458	2.65988	0.540672	4.14192	0.683932	2.65995	0.78107	6.1628	0.534622	4.22318	0.759537	8.75275
0.68278	2.66007	0.541694	4.12778	0.682132	2.66013	0.782082	6.13716	0.535718	4.20875	0.759718	8.82546
0.68098	2.66025	0.542702	4.1137	0.680332	2.66032	0.783085	6.11172	0.536801	4.19438	0.759915	8.89954
0.67918	2.66044	0.543698	4.09967	0.678532	2.66051	0.784077	6.08648	0.537871	4.18005	0.760127	8.97502
0.677381	2.66063	0.544681	4.08569	0.676733	2.6607	0.78506	6.06143	0.538927	4.16578	0.760354	9.05192
0.675581	2.66082	0.545652	4.07176	0.674933	2.66088	0.786032	6.03657	0.53997	4.15156	0.760596	9.13029
0.673781	2.66101	0.546611	4.05789	0.673133	2.66108	0.786995	6.0119	0.541	4.13739	0.760853	9.21015
0.671981	2.6612	0.547557	4.04406	0.671333	2.66127	0.787948	5.98742	0.542018	4.12327	0.761125	9.29155
0.670182	2.66139	0.548492	4.0303	0.669534	2.66146	0.78889	5.96311	0.543022	4.1092	0.761411	9.37451
0.668382	2.66158	0.549414	4.01658	0.667734	2.66165	0.789823	5.93899	0.544014	4.09519	0.761712	9.45909
0.666583	2.66178	0.550326	4.00292	0.665935	2.66185	0.790746	5.91504	0.544993	4.08123	0.762026	9.54532
0.664783	2.66197	0.551225	3.98931	0.664135	2.66205	0.791658	5.89126	0.54596	4.06732	0.762355	9.63323
0.662984	2.66217	0.552114	3.97576	0.662336	2.66224	0.792561	5.86765	0.546915	4.05346	0.762697	9.72287
0.661185	2.66237	0.552991	3.96227	0.660537	2.66244	0.793453	5.84421	0.547858	4.03965	0.763053	9.8143
0.659386	2.66257	0.553858	3.94883	0.658738	2.66264	0.794336	5.82094	0.548788	4.0259	0.763423	9.90754
0.657587	2.66277	0.554714	3.93545	0.656939	2.66285	0.795208	5.79783	0.549707	4.0122	0.763805	10.0027
0.655788	2.66298	0.55556	3.92212	0.65514	2.66305	0.79607	5.77488	0.550615	3.99856	0.764201	10.0997
0.653989	2.66318	0.556395	3.90886	0.653341	2.66326	0.796923	5.75208	0.551511	3.98497	0.764609	10.1987
0.65219	2.66339	0.557221	3.89565	0.651542	2.66347	0.797765	5.72945	0.552396	3.97144	0.764976	10.2866
0.650392	2.6636	0.558036	3.8825	0.649744	2.66368	0.798598	5.70696	0.55327	3.95796	0.765295	10.3628
0.648593	2.66381	0.558842	3.86941	0.647946	2.66389	0.79942	5.68463	0.554133	3.94454	0.765565	10.4267
0.646795	2.66402	0.559639	3.85639	0.646148	2.6641	0.800233	5.66245	0.554986	3.93118	0.765781	10.4777
0.644997	2.66424	0.560426	3.84342	0.644349	2.66432	0.801036	5.64041	0.555828	3.91787	0.765943	10.5156
0.643199	2.66446	0.561205	3.83052	0.642552	2.66453	0.801829	5.61852	0.55666	3.90462	0.766092	10.5507
0.641401	2.66467	0.561975	3.81768	0.640754	2.66475	0.802612	5.59677	0.557483	3.89143	0.766197	10.5753
0.639604	2.66489	0.562736	3.8049	0.638957	2.66497	0.803385	5.57517	0.558295	3.87831	0.766362	10.6139
0.637807	2.66512	0.563489	3.79219	0.63716	2.6652	0.804149	5.5537	0.559098	3.86524	0.766589	10.6669
0.63601	2.66534	0.564234	3.77954	0.635363	2.66542	0.804903	5.53238	0.559892	3.85223	0.76688	10.7347
0.634213	2.66557	0.564972	3.76695	0.633566	2.66565	0.805648	5.51119	0.560676	3.83928	0.767237	10.8178
0.632416	2.6658	0.565702	3.75444	0.631769	2.66588	0.806383	5.49014	0.561452	3.8264	0.767665	10.917
0.63062	2.66603	0.566424	3.74198	0.629973	2.66612	0.807108	5.46922	0.562219	3.81358	0.768167	11.0331
0.628824	2.66627	0.56714	3.7296	0.628177	2.66635	0.807824	5.44843	0.562978	3.80082	0.768681	11.1517
0.627028	2.6665	0.567848	3.71728	0.626382	2.66659	0.808531	5.42778	0.563729	3.78813	0.769205	11.2728
0.625233	2.66675	0.56855	3.70504	0.624586	2.66683	0.809229	5.40725	0.564471	3.7755	0.769741	11.3967
0.623438	2.66699	0.569245	3.69286	0.622791	2.66708	0.809917	5.38686	0.565206	3.76294	0.770288	11.5232
0.621643	2.66723	0.569935	3.68075	0.620997	2.66732	0.810597	5.36659	0.565934	3.75044	0.770845	11.6526
0.619848	2.66748	0.570618	3.66871	0.619202	2.66757	0.811267	5.34645	0.566654	3.73801	0.771413	11.7849
0.618054	2.66773	0.571296	3.65674	0.617408	2.66782	0.811929	5.32643	0.567367	3.72565	0.771992	11.9202
0.61626	2.66799	0.571968	3.64484	0.615615	2.66808	0.812581	5.30654	0.568073	3.71336	0.77258	12.0586
0.614467	2.66825	0.572634	3.63301	0.613821	2.66834	0.813225	5.28676	0.568773	3.70113	0.773179	12.2002
0.612674	2.66851	0.573296	3.62125	0.612028	2.6686	0.81386	5.26711	0.569467	3.68897	0.773788	12.3451
0.610881	2.66877	0.573953	3.60957	0.610236	2.66887	0.814487	5.24759	0.570154	3.67688	0.774407	12.4934
0.609089	2.66904	0.574605	3.59795	0.608444	2.66914	0.815105	5.22818	0.570836	3.66487	0.775036	12.6452
0.607297	2.66931	0.575253	3.58641	0.606652	2.66941	0.815715	5.20889	0.571511	3.65292	0.775674	12.8007
0.605506	2.66958	0.575896	3.57495	0.604861	2.66968	0.816317	5.18971	0.572182	3.64104	0.776321	12.9599
0.603715	2.66986	0.576536	3.56356	0.60307	2.66996	0.81691	5.17066	0.572847	3.62924	0.776978	13.123
0.601924	2.67014	0.577171	3.55224	0.60128	2.67025	0.817495	5.15172	0.573507	3.6175	0.777643	13.2901
0.600134	2.67043	0.577803	3.54099	0.59949	2.67053	0.818073	5.1329	0.574162	3.60584	0.778318	13.4614
0.598345	2.67072	0.578432	3.52982	0.597701	2.67083	0.818642	5.11419	0.574813	3.59425	0.779001	13.637
0.596556	2.67101	0.579057	3.51872	0.595912	2.67112	0.819204	5.09559	0.575459	3.58274	0.779693	13.8171
0.594767	2.67131	0.579679	3.5077	0.594124	2.67142	0.819758	5.07711	0.576101	3.57129	0.780394	14.0018
0.592979	2.67162	0.580298	3.49676	0.592336	2.67173	0.820305	5.05874	0.576739	3.55992	0.781103	14.1913
0.591192	2.67192	0.580915	3.48589	0.590549	2.67203	0.820845	5.04048	0.577374	3.54863	0.78182	14.3859
0.589405	2.67223	0.581529	3.47509	0.588762	2.67235	0.821377	5.02233	0.578005	3.53741	0.782545	14.5856
0.587619	2.67255	0.582141	3.46437	0.586976	2.67267	0.821902	5.00429	0.578632	3.52626	0.783278	14.7907
0.585834	2.67287	0.582751	3.45373	0.585191	2.67299	0.82242	4.98636	0.579256	3.51519	0.784018	15.0014
0.584049	2.6732	0.583359	3.44316	0.583406	2.67332	0.822931	4.96854	0.579878	3.50419	0.784766	15.2179
0.582265	2.67353	0.583965	3.43266	0.581623	2.67365	0.823435	4.95082	0.580496	3.49327	0.785522	15.4405
0.580481	2.67387	0.584569	3.42225	0.579839	2.67399	0.823932	4.93322	0.581112	3.48242	0.786285	15.6694
0.578699	2.67421	0.585172	3.41191	0.578057	2.67433	0.824423	4.91572	0.581725	3.47165	0.787054	15.9048
0.576917	2.67456	0.585774	3.40164	0.576275	2.67468	0.824908	4.89832	0.582337	3.46096	0.787831	16.1471
0.575135	2.67491	0.586374	3.39145	0.574494	2.67504	0.825386	4.88104	0.582946	3.45034	0.788615	16.3965
0.573355	2.67527	0.586974	3.38134	0.572714	2.6754	0.825858	4.86385	0.583553	3.43979	0.789405	16.6534
0.571575	2.67564	0.587573	3.3713	0.570935	2.67577	0.826325	4.84678	0.584158	3.42932	0.790201	16.9181
0.569796	2.67601	0.588171	3.36134	0.569156	2.67614	0.826785	4.8298	0.584762	3.41893	0.791004	17.1909
0.568018	2.67639	0.588769	3.35146	0.567378	2.67653	0.827239	4.81293	0.585365	3.40861	0.791813	17.4721
0.566241	2.67677	0.589366	3.34165	0.565602	2.67691	0.827688	4.79617	0.585966	3.39837	0.792627	17.7623
0.564465	2.67717	0.589963	3.33191	0.563826	2.67731	0.828131	4.7795	0.586566	3.38821	0.793448	18.0617
0.56269	2.67756	0.59056	3.32225	0.562051	2.67771	0.828569	4.76294	0.587166	3.37812	0.794274	18.371
0.560916	2.67797	0.591157	3.31267	0.560277	2.67812	0.829001	4.74648	0.587764	3.36811	0.795105	18.6904
0.559142	2.67839	0.591754	3.30316	0.558504	2.67854	0.829429	4.73011	0.588362	3.35817	0.795941	19.0205
0.55737	2.67881	0.592352	3.29373	0.556732	2.67896	0.829851	4.71385	0.58896	3.34831	0.796783	19.362
0.555599	2.67924	0.59295	3.28438	0.554962	2.67939	0.830268	4.69769	0.589557	3.33852	0.797629	19.7152
0.553829	2.67968	0.593549	3.27509	0.553192	2.67984	0.830681	4.68163	0.590154	3.32881	0.798479	20.0809
0.55206	2.68012	0.594148	3.26589	0.551423	2.68029	0.831089	4.66567	0.590751	3.31918	0.799334	20.4598
0.550292	2.68058	0.594748	3.25675	0.549656	2.68074	0.831492	4.64981	0.591348	3.30962	0.800193	20.8524
0.548526	2.68104	0.595349	3.24769	0.54789	2.68121	0.831891	4.63404	0.591946	3.30014	0.801056	21.2596
0.546761	2.68152	0.595951	3.23871	0.546125	2.68169	0.832286	4.61838	0.592543	3.29073	0.801923	21.6822
0.544997	2.682	0.596554	3.2298	0.544362	2.68218	0.832676	4.60281	0.593142	3.2814	0.802793	22.1211
0.543234	2.68249	0.597159	3.22096	0.5426	2.68267	0.833063	4.58733	0.59374	3.27214	0.803666	22.5772
0.541473	2.683	0.597765	3.2122	0.540839	2.68318	0.833445	4.57196	0.59434	3.26295	0.804542	23.0515
0.539713	2.68351	0.598372	3.2035	0.53908	2.6837	0.833824	4.55668	0.59494	3.25384	0.80542	23.5451
0.537955	2.68404	0.598981	3.19489	0.537322	2.68423	0.834199	4.54149	0.595542	3.24481	0.806301	24.0593
0.536198	2.68457	0.599591	3.18634	0.535566	2.68477	0.83457	4.5264	0.596144	3.23585	0.807184	24.5953
0.534443	2.68512	0.600204	3.17787	0.533812	2.68532	0.834938	4.5114	0.596748	3.22696	0.808068	25.1545
0.53269	2.68568	0.600818	3.16947	0.532059	2.68589	0.835303	4.4965	0.597352	3.21815	0.808954	25.7385
0.530938	2.68625	0.601434	3.16114	0.530308	2.68646	0.835665	4.48169	0.597959	3.20941	0.809841	26.3489
0.529188	2.68684	0.602052	3.15288	0.528558	2.68705	0.836023	4.46698	0.598567	3.20074	0.810728	26.9875
0.52744	2.68744	0.602593	3.14574	0.52681	2.68766	0.836378	4.45236	0.599176	3.19214	0.811616	27.6564
0.525693	2.68805	0.603055	3.13969	0.525065	2.68828	0.836731	4.43783	0.599787	3.18362	0.812504	28.3577
0.523949	2.68868	0.603438	3.13473	0.523321	2.68891	0.837081	4.42339	0.6004	3.17517	0.813391	29.0938
0.522206	2.68932	0.603741	3.13082	0.521579	2.68956	0.837428	4.40905	0.601015	3.16679	0.814277	29.8674
0.520466	2.68998	0.603964	3.12795	0.51984	2.69022	0.837772	4.39479	0.601632	3.15848	0.815161	30.6814
0.518728	2.69065	0.604108	3.12612	0.518102	2.6909	0.838115	4.38063	0.60225	3.15025	0.816044	31.5389
0.516991	2.69134	0.604314	3.1235	0.516367	2.69159	0.838455	4.36656	0.602871	3.14208	0.816924	32.4437
0.515258	2.69205	0.604538	3.12066	0.514634	2.69231	0.838792	4.35258	0.603495	3.13399	0.817801	33.3997
0.513526	2.69277	0.604843	3.11681	0.512904	2.69304	0.839128	4.33868	0.60412	3.12596	0.818674	34.4113
0.511797	2.69352	0.605231	3.11197	0.511175	2.69379	0.839462	4.32488	0.604748	3.11801	0.819543	35.4836
0.510071	2.69428	0.6057	3.10614	0.50945	2.69456	0.839793	4.31116	0.605379	3.11012	0.820407	36.6221
0.508347	2.69506	0.606253	3.09936	0.507727	2.69534	0.840123	4.29754	0.606012	3.10231	0.821265	37.8332
0.506626	2.69586	0.60689	3.09163	0.506007	2.69615	0.840452	4.284	0.606647	3.09456	0.822117	39.1241
0.504908	2.69668	0.607529	3.08398	0.50429	2.69698	0.840779	4.27055	0.607286	3.08688	0.822962	40.5028
0.503193	2.69752	0.608171	3.0764	0.502576	2.69783	0.841104	4.25718	0.607927	3.07927	0.823798	41.9787
0.50148	2.69839	0.608816	3.06888	0.500865	2.69871	0.841428	4.24391	0.608571	3.07173	0.824626	43.5625
0.499771	2.69928	0.609464	3.06143	0.499157	2.69961	0.84175	4.23071	0.609218	3.06425	0.825443	45.2663
0.498066	2.70019	0.610115	3.05405	0.497452	2.70053	0.842072	4.21761	0.609867	3.05684	0.826249	47.1043
0.496363	2.70113	0.610769	3.04673	0.495751	2.70148	0.842392	4.20459	0.61052	3.0495	0.827044	49.0932
0.494664	2.7021	0.611426	3.03948	0.494053	2.70246	0.842712	4.19165	0.611176	3.04222	0.827824	51.2523
0.492969	2.70309	0.612086	3.03229	0.492359	2.70346	0.84303	4.1788	0.611835	3.03501	0.828591	53.6044
0.491277	2.70412	0.61275	3.02517	0.490669	2.70449	0.843348	4.16604	0.612497	3.02787	0.829341	56.1768
0.48959	2.70517	0.613417	3.01812	0.488983	2.70555	0.843665	4.15336	0.613163	3.02079	0.830074	59.0019
0.487906	2.70625	0.614087	3.01112	0.487301	2.70665	0.843981	4.14076	0.613832	3.01377	0.830789	62.1189
0.486227	2.70736	0.61476	3.0042	0.485623	2.70777	0.844297	4.12824	0.614504	3.00682	0.831483	65.5758
0.484552	2.70851	0.615437	2.99733	0.48395	2.70893	0.844612	4.11581	0.61518	2.99993	0.832156	69.4314
0.482881	2.70969	0.616118	2.99053	0.482281	2.71012	0.844927	4.10346	0.615859	2.99311	0.832804	73.7593
0.481215	2.71091	0.616802	2.98379	0.480617	2.71135	0.845242	4.09119	0.616541	2.98635	0.833428	78.652
0.479554	2.71216	0.617489	2.97712	0.478958	2.71262	0.845557	4.079	0.617227	2.97965	0.834025	84.2283
0.477899	2.71345	0.61818	2.97051	0.477304	2.71393	0.845871	4.06689	0.617917	2.97301	0.834592	90.6426
0.476248	2.71478	0.618875	2.96395	0.475655	2.71527	0.846186	4.05487	0.618611	2.96644	0.835129	98.0997
0.474603	2.71616	0.619573	2.95746	0.474012	2.71666	0.8465	4.04292	0.619308	2.95992	0.835633	106.877
0.472963	2.71758	0.620276	2.95103	0.472374	2.7181	0.846815	4.03105	0.620008	2.95347	0.836102	117.361
0.47133	2.71904	0.620982	2.94466	0.470743	2.71958	0.84713	4.01927	0.620713	2.94707	0.836535	130.104
0.469702	2.72055	0.621691	2.93835	0.469118	2.7211	0.847445	4.00756	0.621421	2.94074	0.83693	145.927
0.468081	2.72211	0.622405	2.9321	0.467499	2.72268	0.84776	3.99593	0.622133	2.93447	0.837284	166.1
0.466466	2.72372	0.623123	2.92591	0.465887	2.72431	0.848076	3.98437	0.622849	2.92825	0.837597	192.711
0.464859	2.72538	0.623844	2.91978	0.464281	2.72599	0.848393	3.9729	0.623569	2.9221	0.837867	229.43
0.463258	2.7271	0.624569	2.9137	0.462683	2.72773	0.84871	3.9615	0.624293	2.916	0.838092	283.378
0.461664	2.72887	0.625299	2.90768	0.461092	2.72953	0.849028	3.95018	0.625021	2.90996	0.83827	370.414
0.460079	2.73071	0.626032	2.90172	0.459509	2.73138	0.849346	3.93893	0.625753	2.90398	0.838403	534.485
0.458501	2.73261	0.626769	2.89582	0.457934	2.73331	0.849666	3.92777	0.626489	2.89806	0.838487	959.179
0.456931	2.73457	0.627511	2.88997	0.456368	2.73529	0.849986	3.91667	0.627229	2.89219	0.838524	4665.53
0.455369	2.7366	0.628256	2.88418	0.454809	2.73734	0.850307	3.90565	0.627973	2.88638		
0.453817	2.7387	0.629006	2.87845	0.45326	2.73947	0.850629	3.89471	0.628721	2.88062		
0.452273	2.74087	0.62976	2.87277	0.45172	2.74167	0.850952	3.88384	0.629473	2.87492		
0.450739	2.74312	0.630518	2.86714	0.450189	2.74394	0.851276	3.87305	0.630229	2.86927		
0.449215	2.74544	0.63128	2.86157	0.448668	2.7463	0.851602	3.86232	0.63099	2.86368		
0.4477	2.74785	0.632046	2.85605	0.447157	2.74873	0.851929	3.85167	0.631755	2.85814		
0.446196	2.75034	0.632817	2.85059	0.445657	2.75126	0.852257	3.8411	0.632523	2.85266		
0.444703	2.75292	0.633591	2.84518	0.444168	2.75387	0.852586	3.83059	0.633297	2.84723		
0.443221	2.75559	0.634371	2.83982	0.44269	2.75657	0.852917	3.82016	0.634074	2.84185		
0.44175	2.75835	0.635154	2.83452	0.441223	2.75937	0.85325	3.8098	0.634856	2.83653		
0.440291	2.76122	0.635941	2.82926	0.439768	2.76227	0.853584	3.79951	0.635642	2.83125		
0.438844	2.76418	0.636733	2.82406	0.438326	2.76527	0.853919	3.78929	0.636432	2.82603		
0.437409	2.76725	0.63753	2.81891	0.436896	2.76838	0.854257	3.77914	0.637227	2.82086		
0.435988	2.77043	0.63833	2.81381	0.435479	2.7716	0.854596	3.76906	0.638026	2.81574		
0.434579	2.77372	0.639135	2.80876	0.434075	2.77493	0.854936	3.75905	0.638829	2.81067		
0.433184	2.77712	0.639944	2.80376	0.432685	2.77838	0.855279	3.74911	0.639636	2.80566		
0.431803	2.78065	0.640758	2.79881	0.43131	2.78195	0.855624	3.73924	0.640448	2.80069		
0.430437	2.7843	0.641576	2.79391	0.429948	2.78564	0.85597	3.72944	0.641265	2.79577		
0.429084	2.78808	0.642399	2.78906	0.428601	2.78947	0.856319	3.7197	0.642086	2.79089		
0.427747	2.79198	0.643225	2.78425	0.427269	2.79343	0.856669	3.71003	0.642911	2.78607		
0.426425	2.79603	0.644057	2.77949	0.425953	2.79752	0.857022	3.70043	0.64374	2.7813		
0.425119	2.80021	0.644892	2.77479	0.424652	2.80176	0.857377	3.69089	0.644574	2.77657		
0.423828	2.80454	0.645733	2.77012	0.423367	2.80614	0.857733	3.68142	0.645413	2.77189		
0.422554	2.80902	0.646577	2.76551	0.422099	2.81066	0.858093	3.67202	0.646256	2.76726		
0.421296	2.81364	0.647426	2.76094	0.420847	2.81535	0.858454	3.66268	0.647103	2.76267		
0.420054	2.81842	0.64828	2.75641	0.419611	2.82018	0.858818	3.65341	0.647955	2.75813		
0.41883	2.82336	0.649137	2.75194	0.418393	2.82518	0.859184	3.6442	0.648811	2.75363		
0.417623	2.82847	0.65	2.7475	0.417192	2.83034	0.859553	3.63506	0.649672	2.74918		
0.416433	2.83374	0.650867	2.74312	0.416009	2.83567	0.859924	3.62598	0.650537	2.74478		
0.415261	2.83918	0.651738	2.73877	0.414843	2.84118	0.860297	3.61696	0.651406	2.74042		
0.414106	2.84479	0.652614	2.73447	0.413695	2.84685	0.860673	3.60801	0.65228	2.7361		
0.41297	2.85058	0.653494	2.73022	0.412565	2.85271	0.861052	3.59912	0.653159	2.73183		
0.411851	2.85655	0.654379	2.726	0.411453	2.85875	0.861433	3.59029	0.654042	2.7276		
0.410751	2.86271	0.655268	2.72183	0.410359	2.86497	0.861817	3.58153	0.65493	2.72341		
0.409669	2.86906	0.656162	2.71771	0.409284	2.87139	0.862204	3.57282	0.655821	2.71927		
0.408605	2.87559	0.65706	2.71362	0.408227	2.878	0.862593	3.56418	0.656718	2.71517		
0.40756	2.88233	0.657962	2.70958	0.407189	2.8848	0.862985	3.5556	0.657619	2.71111		
0.406534	2.88926	0.658869	2.70558	0.406169	2.8918	0.86338	3.54708	0.658524	2.70709		
0.405526	2.89639	0.659781	2.70162	0.405168	2.89901	0.863778	3.53861	0.659434	2.70312		
0.404537	2.90372	0.660697	2.6977	0.404185	2.90642	0.864179	3.53021	0.660348	2.69918		
0.403566	2.91127	0.661617	2.69382	0.403221	2.91404	0.864582	3.52187	0.661267	2.69528		
0.402614	2.91902	0.662542	2.68998	0.402276	2.92187	0.864989	3.51359	0.66219	2.69143		
0.40168	2.92699	0.663472	2.68618	0.401349	2.92991	0.865399	3.50536	0.663118	2.68761		
0.400765	2.93518	0.664406	2.68241	0.400441	2.93818	0.865811	3.4972	0.66405	2.68384		
0.399869	2.94358	0.665344	2.67869	0.399551	2.94666	0.866227	3.48909	0.664987	2.6801		
0.398991	2.95221	0.666287	2.67501	0.398679	2.95537	0.866646	3.48104	0.665928	2.6764		
0.398132	2.96107	0.667234	2.67136	0.397827	2.96431	0.867068	3.47305	0.666874	2.67275		
0.39729	2.97015	0.668186	2.66776	0.396992	2.97348	0.867493	3.46511	0.667824	2.66912		
0.396467	2.97947	0.669142	2.66419	0.396176	2.98288	0.867921	3.45723	0.668778	2.66554		
0.395663	2.98902	0.670103	2.66066	0.395377	2.99252	0.868352	3.44941	0.669737	2.66199		
0.394876	2.99881	0.671068	2.65716	0.394597	3.00239	0.868787	3.44164	0.6707	2.65849		
0.394107	3.00884	0.672037	2.6537	0.393835	3.01251	0.869225	3.43393	0.671668	2.65501		
0.393357	3.01911	0.673011	2.65028	0.393091	3.02287	0.869666	3.42627	0.67264	2.65158		
0.392624	3.02964	0.673989	2.6469	0.392364	3.03349	0.870111	3.41867	0.673617	2.64818		
0.391908	3.04041	0.674972	2.64354	0.391655	3.04435	0.870559	3.41112	0.674598	2.64481		
0.391211	3.05144	0.675959	2.64023	0.390964	3.05547	0.87101	3.40363	0.675583	2.64149		
0.39053	3.06272	0.67695	2.63695	0.39029	3.06685	0.871465	3.39619	0.676573	2.63819		
0.389868	3.07427	0.677946	2.6337	0.389633	3.07849	0.871923	3.38881	0.677567	2.63493		
0.389222	3.08607	0.678946	2.63049	0.388994	3.09039	0.872385	3.38148	0.678566	2.63171		
0.388594	3.09815	0.679951	2.62732	0.388372	3.10257	0.87285	3.3742	0.679569	2.62852		
0.387982	3.1105	0.68096	2.62417	0.387766	3.11501	0.873319	3.36697	0.680576	2.62536		
0.387388	3.12312	0.681973	2.62107	0.387178	3.12773	0.873791	3.35979	0.681588	2.62224		
0.38681	3.13602	0.682991	2.61799	0.386606	3.14074	0.874267	3.35267	0.682604	2.61915		
0.386249	3.1492	0.684013	2.61495	0.386052	3.15402	0.874747	3.3456	0.683624	2.6161		
0.385705	3.16267	0.68504	2.61194	0.385513	3.1676	0.87523	3.33858	0.684649	2.61308		
0.385178	3.17643	0.68607	2.60896	0.384992	3.18146	0.875717	3.33161	0.685678	2.61009		
0.384666	3.19049	0.687105	2.60601	0.384486	3.19562	0.876207	3.32469	0.686712	2.60713		
0.384171	3.20484	0.688145	2.6031	0.383997	3.21009	0.876701	3.31783	0.687749	2.6042		
0.383692	3.2195	0.689188	2.60022	0.383524	3.22485	0.877199	3.31101	0.688791	2.60131		
0.38323	3.23447	0.690236	2.59736	0.383067	3.23993	0.8777	3.30424	0.689838	2.59844		
0.382783	3.24974	0.691289	2.59454	0.382626	3.25532	0.878206	3.29752	0.690888	2.59561		
0.382353	3.26534	0.692345	2.59175	0.382201	3.27103	0.878715	3.29085	0.691944	2.59281		
0.381938	3.28126	0.693406	2.589	0.381792	3.28707	0.879228	3.28423	0.693003	2.59004		
0.381539	3.2975	0.694472	2.58627	0.381399	3.30343	0.879744	3.27766	0.694066	2.5873		
0.381155	3.31408	0.695541	2.58357	0.381021	3.32013	0.880265	3.27114	0.695134	2.58459		
0.380787	3.33099	0.696615	2.5809	0.380659	3.33717	0.880789	3.26466	0.696207	2.58191		
0.380435	3.34825	0.697693	2.57826	0.380312	3.35455	0.881318	3.25823	0.697283	2.57926		
0.380098	3.36586	0.698776	2.57565	0.379981	3.37228	0.88185	3.25185	0.698364	2.57664		
0.379777	3.38382	0.699863	2.57307	0.379665	3.39037	0.882386	3.24552	0.699449	2.57405		
0.37947	3.40214	0.700954	2.57052	0.379364	3.40883	0.882926	3.23923	0.700539	2.57149		
0.379179	3.42083	0.70205	2.568	0.379078	3.42765	0.88347	3.23299	0.701633	2.56895		
0.378903	3.43989	0.70315	2.56551	0.378808	3.44685	0.884018	3.2268	0.702731	2.56645		
0.378642	3.45933	0.704255	2.56304	0.378552	3.46643	0.88457	3.22065	0.703834	2.56398		
0.378397	3.47916	0.705364	2.56061	0.378312	3.48639	0.885127	3.21454	0.704942	2.56153		
0.378165	3.49938	0.706478	2.5582	0.378086	3.50676	0.885687	3.20849	0.706054	2.55912		
0.377949	3.52	0.707597	2.55583	0.377875	3.52752	0.886251	3.20247	0.707171	2.55673		
0.377748	3.54102	0.708721	2.55348	0.377679	3.54869	0.886819	3.19651	0.708293	2.55437		
0.377561	3.56246	0.709851	2.55117	0.377497	3.57029	0.887392	3.19058	0.709421	2.55205		
0.377389	3.58432	0.710986	2.54889	0.377331	3.5923	0.887968	3.1847	0.710554	2.54975		
0.377231	3.60661	0.712128	2.54665	0.377178	3.61475	0.888549	3.17887	0.711693	2.54749		
0.377088	3.62934	0.713278	2.54444	0.37704	3.63764	0.889134	3.17308	0.71284	2.54527		
0.37696	3.65252	0.714439	2.54228	0.376917	3.66097	0.889722	3.16733	0.713997	2.5431		
0.376845	3.67615	0.715613	2.54018	0.376808	3.68477	0.890316	3.16163	0.715165	2.54097		
0.376745	3.70024	0.716808	2.53817	0.376713	3.70903	0.890913	3.15596	0.716351	2.53892		
0.37666	3.7248	0.718039	2.53629	0.376632	3.73376	0.891515	3.15035	0.717566	2.53698		
0.376588	3.74985	0.719341	2.53467	0.376566	3.75898	0.89212	3.14477	0.718835	2.53524		
0.376531	3.77538	0.720771	2.53351	0.376513	3.7847	0.892731	3.13923	0.720208	2.53388		
0.376487	3.80141	0.722375	2.53297	0.376475	3.81091	0.893345	3.13374	0.721746	2.5331		
0.376458	3.82796	0.724114	2.5329	0.376451	3.83764	0.893964	3.12829	0.723442	2.53288		
0.376442	3.85502	0.725925	2.53308	0.37644	3.8649	0.894587	3.12288	0.725232	2.53299		
0.376441	3.88262	0.727772	2.53338	0.376444	3.89269	0.895214	3.11752	0.727068	2.53326		
0.376453	3.91075	0.729637	2.53375	0.376461	3.92102	0.895846	3.11219	0.728927	2.53361		
0.376479	3.93944	0.731512	2.53415	0.376492	3.94991	0.896482	3.1069	0.730799	2.534		
0.376518	3.9687	0.733393	2.53457	0.376536	3.97937	0.897122	3.10166	0.732678	2.53441		
0.376572	3.99853	0.735279	2.535	0.376594	4.00941	0.897767	3.09645	0.734562	2.53484		
0.376638	4.02894	0.737167	2.53544	0.376666	4.04004	0.898416	3.09129	0.736449	2.53527		
0.376719	4.05996	0.739056	2.53588	0.376751	4.07128	0.89907	3.08616	0.738338	2.53572		
0.376812	4.09159	0.740947	2.53633	0.376849	4.10313	0.899728	3.08108	0.740229	2.53616		
0.376919	4.12385	0.742839	2.53677	0.376961	4.13562	0.900391	3.07603	0.74212	2.53661		
0.377039	4.15675	0.744732	2.53722	0.377086	4.16875	0.901058	3.07102	0.744013	2.53705		
0.377173	4.1903	0.746625	2.53767	0.377224	4.20254	0.901729	3.06606	0.745906	2.5375		
0.377319	4.22452	0.748518	2.53811	0.377375	4.23701	0.902405	3.06113	0.747799	2.53794		
0.377479	4.25943	0.750412	2.53855	0.37754	4.27216	0.903086	3.05624	0.749692	2.53839		
0.377652	4.29503	0.752305	2.53899	0.377717	4.30802	0.903771	3.05139	0.751586	2.53883		
0.377837	4.33135	0.754199	2.53943	0.377907	4.34461	0.904461	3.04657	0.75348	2.53927		
0.378036	4.3684	0.756093	2.53987	0.37811	4.38192	0.905156	3.0418	0.755373	2.53971		
0.378247	4.4062	0.757987	2.54031	0.378326	4.42	0.905855	3.03706	0.757267	2.54014		
0.378471	4.44476	0.75988	2.54074	0.378555	4.45884	0.906558	3.03236	0.759161	2.54058		
0.378708	4.48411	0.761774	2.54117	0.378796	4.49848	0.907267	3.02769	0.761055	2.54101		
0.378957	4.52426	0.763668	2.5416	0.37905	4.53892	0.90798	3.02307	0.762948	2.54144		
0.379218	4.56524	0.765561	2.54203	0.379316	4.5802	0.908697	3.01848	0.764842	2.54187		
0.379492	4.60705	0.767455	2.54245	0.379594	4.62232	0.90942	3.01392	0.766735	2.54229		
0.379779	4.64973	0.769348	2.54287	0.379885	4.66531	0.910147	3.00941	0.768629	2.54271		
0.380077	4.69329	0.771241	2.54329	0.380188	4.70919	0.910879	3.00493	0.770522	2.54313		
0.380388	4.73775	0.773134	2.54371	0.380503	4.75399	0.911616	3.00048	0.772415	2.54355		
0.380711	4.78314	0.775027	2.54413	0.38083	4.79972	0.912357	2.99608	0.774307	2.54397		
0.381046	4.82949	0.776919	2.54454	0.381169	4.84641	0.913104	2.99171	0.7762	2.54438		
0.381392	4.8768	0.778812	2.54495	0.38152	4.89409	0.913855	2.98737	0.778093	2.54479		
0.381751	4.92512	0.780704	2.54535	0.381883	4.94277	0.914611	2.98307	0.779985	2.5452		
0.382121	4.97447	0.782596	2.54576	0.382257	4.99249	0.915372	2.9788	0.781877	2.54561		
0.382503	5.02486	0.784488	2.54616	0.382643	5.04328	0.916138	2.97457	0.783769	2.54601		
0.382897	5.07634	0.786379	2.54656	0.383041	5.09515	0.916908	2.97038	0.785661	2.54641		
0.383301	5.12893	0.788271	2.54696	0.38345	5.14815	0.917684	2.96622	0.787552	2.54681		
0.383718	5.18266	0.790162	2.54735	0.38387	5.20229	0.918465	2.96209	0.789444	2.5472		
0.384145	5.23756	0.792053	2.54775	0.384302	5.25762	0.919251	2.958	0.791335	2.5476		
0.384584	5.29366	0.793944	2.54814	0.384745	5.31417	0.920042	2.95395	0.793226	2.54799		
0.385034	5.351	0.795835	2.54853	0.385198	5.37196	0.920837	2.94993	0.795117	2.54838		
0.385494	5.40961	0.797725	2.54891	0.385663	5.43104	0.921638	2.94594	0.797007	2.54876		
0.385966	5.46953	0.799616	2.54929	0.386138	5.49143	0.922445	2.94198	0.798898	2.54915		
0.386385	5.52284	0.801506	2.54968	0.386624	5.55319	0.923256	2.93806	0.800788	2.54953		
0.386749	5.56911	0.803396	2.55005	0.387121	5.61634	0.924072	2.93418	0.802678	2.54991		
0.387055	5.60796	0.805285	2.55043	0.387628	5.68094	0.924894	2.93033	0.804567	2.55029		
0.387299	5.63906	0.807175	2.5508	0.388146	5.74701	0.925721	2.92651	0.806457	2.55066		
0.387481	5.66214	0.809064	2.55118	0.388673	5.81462	0.926553	2.92272	0.808346	2.55103		
0.387649	5.68355	0.810953	2.55154	0.389211	5.88379	0.92739	2.91897	0.810235	2.5514		
0.387766	5.69853	0.812842	2.55191	0.389759	5.95459	0.928233	2.91525	0.812124	2.55177		
0.387951	5.7221	0.81473	2.55228	0.390317	6.02705	0.929081	2.91156	0.814013	2.55214		
0.388204	5.75446	0.816619	2.55264	0.390885	6.10124	0.929935	2.90791	0.815901	2.5525		
0.388528	5.79591	0.818507	2.553	0.391462	6.17721	0.930794	2.90429	0.81779	2.55286		
0.388924	5.84682	0.820395	2.55336	0.392049	6.25501	0.931658	2.9007	0.819678	2.55322		
0.389397	5.90767	0.822283	2.55371	0.392645	6.33471	0.932529	2.89715	0.821566	2.55358		
0.389948	5.97903	0.82417	2.55407	0.393251	6.41637	0.933404	2.89362	0.823453	2.55393		
0.390509	6.05207	0.826058	2.55442	0.393865	6.50005	0.934285	2.89013	0.825341	2.55428		
0.39108	6.12686	0.827945	2.55477	0.394489	6.58581	0.935172	2.88667	0.827228	2.55463		
0.391661	6.20345	0.829831	2.55511	0.395121	6.67374	0.936064	2.88325	0.829115	2.55498		
0.392251	6.28189	0.831718	2.55546	0.395762	6.76391	0.936963	2.87985	0.831001	2.55533		
0.39285	6.36225	0.833605	2.5558	0.396412	6.85639	0.937867	2.87649	0.832888	2.55567		
0.393459	6.44458	0.835491	2.55614	0.39707	6.95126	0.938776	2.87316	0.834774	2.55601		
0.394076	6.52896	0.837377	2.55648	0.397736	7.04862	0.939692	2.86987	0.83666	2.55635		
0.394703	6.61546	0.839263	2.55682	0.398411	7.14854	0.940613	2.8666	0.838546	2.55669		
0.395338	6.70414	0.841148	2.55715	0.399093	7.25113	0.941541	2.86337	0.840432	2.55703		
0.395982	6.79508	0.843033	2.55748	0.399783	7.35649	0.942474	2.86017	0.842317	2.55736		
0.396635	6.88836	0.844919	2.55781	0.40048	7.46471	0.943414	2.857	0.844202	2.55769		
0.397296	6.98407	0.846803	2.55814	0.401185	7.57592	0.944359	2.85386	0.846087	2.55802		
0.397965	7.08229	0.848688	2.55847	0.401897	7.69021	0.945311	2.85075	0.847972	2.55835		
0.398642	7.18311	0.850573	2.55879	0.402617	7.80772	0.946269	2.84768	0.849857	2.55867		
0.399326	7.28663	0.852457	2.55912	0.403343	7.92858	0.947233	2.84463	0.851741	2.55899		
0.400019	7.39295	0.854341	2.55944	0.404075	8.05291	0.948203	2.84162	0.853625	2.55931		
0.400719	7.50217	0.856225	2.55975	0.404815	8.18086	0.94918	2.83864	0.855509	2.55963		
0.401427	7.61441	0.858108	2.56007	0.40556	8.31259	0.950163	2.83569	0.857393	2.55995		
0.402141	7.72979	0.859992	2.56038	0.406312	8.44824	0.951153	2.83277	0.859276	2.56026		
0.402863	7.84842	0.861875	2.5607	0.407069	8.58799	0.952149	2.82989	0.861159	2.56058		
0.403591	7.97044	0.863758	2.56101	0.407832	8.73202	0.953152	2.82703	0.863042	2.56089		
0.404326	8.09599	0.86564	2.56131	0.4086	8.88051	0.954161	2.82421	0.864925	2.5612		
0.405067	8.22521	0.867523	2.56162	0.409374	9.03367	0.955177	2.82142	0.866808	2.5615		
0.405815	8.35825	0.869405	2.56193	0.410152	9.1917	0.9562	2.81866	0.86869	2.56181		
0.406568	8.49527	0.871287	2.56223	0.410834	9.33357	0.95723	2.81593	0.870572	2.56211		
0.407328	8.63646	0.873169	2.56253	0.411418	9.45768	0.958267	2.81323	0.872454	2.56241		
0.408092	8.78198	0.87505	2.56283	0.411903	9.5626	0.959311	2.81057	0.874336	2.56271		
0.408863	8.93203	0.876932	2.56312	0.412288	9.64707	0.960362	2.80793	0.876217	2.56301		
0.409638	9.08682	0.878813	2.56342	0.412571	9.71005	0.96142	2.80533	0.878098	2.56331		
0.410418	9.24657	0.880694	2.56371	0.412832	9.76865	0.962485	2.80276	0.879979	2.5636		
0.411202	9.41149	0.882574	2.564	0.413014	9.8098	0.963557	2.80022	0.88186	2.56389		
0.411991	9.58185	0.884455	2.56429	0.413299	9.87473	0.964637	2.79771	0.88374	2.56418		
0.412784	9.75789	0.886335	2.56458	0.413686	9.9643	0.965724	2.79524	0.885621	2.56447		
0.413581	9.9399	0.888215	2.56487	0.414178	10.0797	0.966819	2.79279	0.887501	2.56476		
0.414382	10.1282	0.890095	2.56515	0.414774	10.2226	0.967921	2.79038	0.889381	2.56504		
0.415185	10.323	0.891974	2.56543	0.415475	10.3949	0.969031	2.78799	0.89126	2.56533		
0.415992	10.5248	0.893854	2.56572	0.416283	10.5992	0.970149	2.78564	0.89314	2.56561		
0.416801	10.7339	0.895733	2.56599	0.417093	10.811	0.971274	2.78333	0.895019	2.56589		
0.417612	10.9506	0.897612	2.56627	0.417905	11.0306	0.972407	2.78104	0.896898	2.56617		
0.418426	11.1754	0.89949	2.56655	0.418719	11.2585	0.973548	2.77878	0.898777	2.56644		
0.419241	11.4088	0.901369	2.56682	0.419534	11.495	0.974698	2.77656	0.900655	2.56672		
0.420057	11.6512	0.903247	2.56709	0.420351	11.7408	0.975855	2.77437	0.902533	2.56699		
0.420874	11.9032	0.905125	2.56736	0.421169	11.9963	0.97702	2.77221	0.904411	2.56726		
0.421692	12.1652	0.907002	2.56763	0.421986	12.2622	0.978193	2.77008	0.906289	2.56753		
0.42251	12.438	0.90888	2.5679	0.422804	12.539	0.979375	2.76798	0.908167	2.5678		
0.423327	12.7221	0.910757	2.56816	0.423622	12.8274	0.980565	2.76592	0.910044	2.56806		
0.424144	13.0184	0.912634	2.56843	0.424438	13.1282	0.981764	2.76388	0.911921	2.56833		
0.42496	13.3275	0.914511	2.56869	0.425253	13.4421	0.982971	2.76188	0.913798	2.56859		
0.425774	13.6503	0.916388	2.56895	0.426067	13.7701	0.984186	2.75991	0.915675	2.56885		
0.426586	13.9878	0.918264	2.56921	0.426878	14.1131	0.98541	2.75797	0.917551	2.56911		
0.427396	14.3409	0.92014	2.56946	0.427687	14.4721	0.986642	2.75606	0.919427	2.56936		
0.428203	14.7107	0.922016	2.56972	0.428492	14.8482	0.987883	2.75419	0.921303	2.56962		
0.429006	15.0985	0.923891	2.56997	0.429294	15.2428	0.989133	2.75234	0.923179	2.56987		
0.429805	15.5056	0.925767	2.57022	0.430091	15.6572	0.990392	2.75053	0.925054	2.57013		
0.430599	15.9334	0.927642	2.57047	0.430884	16.0929	0.991659	2.74875	0.92693	2.57038		
0.431388	16.3836	0.929517	2.57072	0.431671	16.5516	0.992935	2.747	0.928805	2.57063		
0.432171	16.858	0.931392	2.57097	0.432452	17.0351	0.99422	2.74528	0.930679	2.57087		
0.432948	17.3585	0.933266	2.57121	0.433226	17.5456	0.995513	2.74359	0.932554	2.57112		
0.433718	17.8874	0.93514	2.57146	0.433993	18.0853	0.996816	2.74193	0.934428	2.57136		
0.43448	18.4472	0.937014	2.5717	0.434752	18.6568	0.998127	2.7403	0.936302	2.57161		
0.435233	19.0406	0.938888	2.57194	0.435502	19.2631	0.999447	2.73871	0.938176	2.57185		
0.435977	19.6708	0.940761	2.57218	0.436243	19.9073	1.00078	2.73714	0.94005	2.57209		
0.436712	20.3412	0.942635	2.57242	0.436974	20.5933			0.941923	2.57233		
0.437435	21.056	0.944508	2.57265	0.437693	21.3251			0.943796	2.57256		
0.438148	21.8197	0.94638	2.57289	0.438401	22.1076			0.945669	2.5728		
0.438848	22.6374	0.948253	2.57312	0.439097	22.9462			0.947541	2.57303		
0.439535	23.5152	0.950125	2.57335	0.439779	23.8473			0.949414	2.57326		
0.440208	24.46	0.951997	2.57358	0.440447	24.8181			0.951286	2.57349		
0.440866	25.4797	0.953869	2.57381	0.441099	25.867			0.953158	2.57372		
0.441509	26.5838	0.95574	2.57403	0.441736	27.0041			0.955029	2.57395		
0.442135	27.7832	0.957612	2.57426	0.442356	28.2409			0.956901	2.57417		
0.442743	29.0909	0.959483	2.57448	0.442958	29.5912			0.958772	2.5744		
0.443334	30.5224	0.961353	2.57471	0.443542	31.0717			0.960643	2.57462		
0.443905	32.0963	0.963224	2.57493	0.444105	32.7021			0.962513	2.57484		
0.444455	33.835	0.965094	2.57514	0.444649	34.5066			0.964384	2.57506		
0.444985	35.7662	0.966964	2.57536	0.44517	36.5149			0.966254	2.57528		
0.445492	37.9237	0.968834	2.57558	0.44567	38.7639			0.968123	2.5755		
0.445977	40.3503	0.970703	2.57579	0.446145	41.2999			0.969993	2.57571		
0.446437	43.1	0.972572	2.57601	0.446597	44.182			0.971862	2.57593		
0.446873	46.2422	0.974441	2.57622	0.447023	47.4866			0.973731	2.57614		
0.447283	49.8682	0.97631	2.57643	0.447424	51.3145			0.9756	2.57635		
0.447666	54.0996	0.978179	2.57664	0.447797	55.8017			0.977469	2.57656		
0.448021	59.1026	0.980047	2.57684	0.448142	61.1352			0.979337	2.57677		
0.448349	65.1106	0.981915	2.57705	0.448459	67.5808			0.981205	2.57697		
0.448647	72.4616	0.983782	2.57725	0.448747	75.5281			0.983073	2.57718		
0.448916	81.6645	0.98565	2.57746	0.449005	85.5735			0.98494	2.57738		
0.449154	93.5226	0.987517	2.57766	0.449232	98.6767			0.986807	2.57758		
0.449361	109.382	0.989383	2.57786	0.449428	116.489			0.988674	2.57778		
0.449537	131.685	0.99125	2.57806	0.449593	142.111			0.990541	2.57798		
0.449681	165.367	0.993116	2.57825	0.449725	182.132			0.992407	2.57818		
0.449793	222.137	0.994982	2.57845	0.449826	253.453			0.994273	2.57838		
0.449873	338.148	0.996848	2.57864	0.449893	416.434			0.996139	2.57857		
0.449919	707.467	0.998713	2.57884	0.449928	1165.92			0.998005	2.57876		
		1.00058	2.57903					0.99987	2.57896		
								1.00173	2.57915		
