Sym0		Asym0		Sym1		Sym2		Asym1		Asym2	
608  Points		607  Points		608  Points		572  Points		607  Points		271  Points	
Freq (MHz)	Vph (m/ms)	Freq (MHz)	Vph (m/ms)	Freq (MHz)	Vph (m/ms)	Freq (MHz)	Vph (m/ms)	Freq (MHz)	Vph (m/ms)	Freq (MHz)	Vph (m/ms)
1.00118	2.586	0.330724	923.648	1.00104	2.58611	0.661442	1924.14	0.33073	638.44	1.00034	5.86811
0.999886	2.58695	0.330761	330.433	0.999743	2.58706	0.66147	670.392	0.330776	284.916	0.998243	5.87796
0.998588	2.5879	0.330833	201.246	0.998444	2.588	0.661524	405.938	0.330856	183.413	0.99614	5.88788
0.997286	2.58884	0.330939	144.714	0.997142	2.58894	0.661606	291.129	0.330971	135.266	0.994035	5.89785
0.995982	2.58977	0.33108	113.005	0.995838	2.58988	0.661715	226.966	0.331121	107.168	0.991928	5.90788
0.994676	2.59071	0.331256	92.7183	0.994531	2.59081	0.66185	185.996	0.331305	88.758	0.989819	5.91798
0.993366	2.59164	0.331467	78.6277	0.993221	2.59174	0.662012	157.571	0.331524	75.7664	0.987708	5.92814
0.992053	2.59256	0.331711	68.2733	0.991908	2.59266	0.6622	136.697	0.331777	66.1103	0.985595	5.93838
0.990737	2.59348	0.33199	60.3453	0.990592	2.59358	0.662415	120.72	0.332065	58.6534	0.983482	5.94869
0.989418	2.59439	0.332303	54.082	0.989272	2.59449	0.662656	108.098	0.332386	52.7229	0.981369	5.95908
0.988096	2.5953	0.33265	49.0102	0.987949	2.5954	0.662923	97.8764	0.332742	47.8949	0.979255	5.96955
0.98677	2.5962	0.333031	44.8206	0.986623	2.5963	0.663217	89.4305	0.333131	43.8892	0.977141	5.98011
0.98544	2.5971	0.333445	41.3025	0.985293	2.59719	0.663536	82.3355	0.333553	40.5132	0.975028	5.99075
0.984107	2.59798	0.333892	38.3072	0.983959	2.59808	0.66388	76.2918	0.334008	37.6299	0.972916	6.00147
0.98277	2.59887	0.334372	35.727	0.982621	2.59896	0.66425	71.0824	0.334496	35.1397	0.970805	6.0123
0.981429	2.59974	0.334885	33.4817	0.98128	2.59984	0.664645	66.5462	0.335017	32.9677	0.968695	6.02322
0.980084	2.60061	0.33543	31.5107	0.979935	2.6007	0.665065	62.561	0.33557	31.0572	0.966588	6.03424
0.978735	2.60146	0.336007	29.767	0.978585	2.60156	0.665509	59.0326	0.336155	29.364	0.964483	6.04536
0.977382	2.60232	0.336615	28.214	0.977232	2.60241	0.665978	55.887	0.336772	27.8536	0.96238	6.05659
0.976024	2.60316	0.337255	26.8222	0.975874	2.60325	0.66647	53.0653	0.33742	26.4981	0.960281	6.06793
0.974663	2.60399	0.337927	25.5682	0.974512	2.60408	0.666987	50.5202	0.338098	25.2753	0.958185	6.07938
0.973297	2.60482	0.338628	24.4328	0.973146	2.60491	0.667526	48.2132	0.338808	24.1668	0.956092	6.09095
0.971927	2.60563	0.33936	23.4001	0.971775	2.60572	0.668089	46.1125	0.339547	23.1575	0.954004	6.10264
0.970552	2.60644	0.340122	22.457	0.9704	2.60653	0.668675	44.1919	0.340316	22.235	0.95192	6.11446
0.969173	2.60724	0.340913	21.5927	0.96902	2.60733	0.669283	42.4293	0.341115	21.3887	0.949841	6.1264
0.96779	2.60803	0.341734	20.7977	0.967636	2.60811	0.669914	40.806	0.341942	20.6097	0.947766	6.13848
0.966401	2.60881	0.342583	20.0643	0.966248	2.60889	0.670566	39.3064	0.342798	19.8906	0.945698	6.15069
0.965009	2.60958	0.34346	19.3857	0.964854	2.60966	0.671239	37.9169	0.343682	19.2247	0.943634	6.16304
0.963611	2.61034	0.344365	18.7561	0.963457	2.61042	0.671934	36.626	0.344594	18.6065	0.941577	6.17554
0.962209	2.61109	0.345297	18.1706	0.962054	2.61117	0.67265	35.4236	0.345533	18.0313	0.939527	6.18819
0.960803	2.61183	0.346256	17.6248	0.960647	2.61191	0.673385	34.301	0.346499	17.4947	0.937483	6.20098
0.959392	2.61255	0.347242	17.1149	0.959235	2.61263	0.674141	33.2505	0.347491	16.9932	0.935446	6.21394
0.957976	2.61327	0.348253	16.6375	0.957819	2.61335	0.674917	32.2656	0.348509	16.5234	0.933417	6.22705
0.956555	2.61398	0.34929	16.1898	0.956398	2.61406	0.675712	31.3403	0.349552	16.0827	0.931396	6.24033
0.95513	2.61468	0.350353	15.7691	0.954972	2.61476	0.676525	30.4695	0.350621	15.6683	0.929383	6.25379
0.9537	2.61537	0.351439	15.3731	0.953542	2.61545	0.677358	29.6484	0.351714	15.2782	0.927378	6.26741
0.952266	2.61605	0.35255	14.9999	0.952107	2.61612	0.678208	28.8731	0.352831	14.9103	0.925382	6.28121
0.950827	2.61672	0.353685	14.6475	0.950667	2.61679	0.679077	28.1399	0.353971	14.5628	0.923396	6.2952
0.949383	2.61738	0.354843	14.3143	0.949223	2.61745	0.679963	27.4454	0.355135	14.2342	0.921418	6.30938
0.947935	2.61803	0.356024	13.9988	0.947774	2.6181	0.680866	26.7867	0.356321	13.923	0.919451	6.32375
0.946482	2.61866	0.357226	13.6998	0.946321	2.61873	0.681785	26.1611	0.357529	13.6278	0.917494	6.33832
0.945025	2.61929	0.358451	13.416	0.944864	2.61936	0.682721	25.5663	0.358759	13.3476	0.915548	6.35309
0.943563	2.61991	0.359697	13.1463	0.943401	2.61998	0.683673	25.0001	0.360011	13.0813	0.913612	6.36807
0.942097	2.62052	0.360964	12.8897	0.941935	2.62058	0.684641	24.4604	0.361283	12.8278	0.911688	6.38326
0.940627	2.62111	0.362252	12.6454	0.940464	2.62118	0.685624	23.9455	0.362575	12.5864	0.909776	6.39867
0.939152	2.6217	0.363559	12.4124	0.938989	2.62177	0.686622	23.4537	0.363888	12.3562	0.907875	6.41431
0.937674	2.62228	0.364886	12.1902	0.93751	2.62234	0.687634	22.9835	0.365219	12.1364	0.905987	6.43018
0.936191	2.62285	0.366232	11.9779	0.936026	2.62291	0.688661	22.5336	0.36657	11.9265	0.904112	6.44628
0.934703	2.62341	0.367597	11.7749	0.934539	2.62347	0.689702	22.1027	0.36794	11.7258	0.902249	6.46263
0.933212	2.62396	0.36898	11.5807	0.933047	2.62402	0.690756	21.6896	0.369327	11.5337	0.9004	6.47922
0.931717	2.6245	0.370381	11.3947	0.931551	2.62456	0.691823	21.2932	0.370732	11.3497	0.898565	6.49607
0.930218	2.62503	0.371799	11.2165	0.930052	2.62509	0.692903	20.9126	0.372154	11.1733	0.896744	6.51318
0.928714	2.62555	0.373234	11.0455	0.928548	2.62561	0.693996	20.5469	0.373593	11.0041	0.894937	6.53055
0.927207	2.62606	0.374685	10.8814	0.927041	2.62612	0.695101	20.1952	0.375048	10.8416	0.893145	6.5482
0.925697	2.62657	0.376152	10.7238	0.925529	2.62662	0.696218	19.8568	0.37652	10.6856	0.891369	6.56612
0.924182	2.62706	0.377635	10.5723	0.924015	2.62712	0.697346	19.5308	0.378006	10.5355	0.889607	6.58433
0.922664	2.62755	0.379133	10.4266	0.922496	2.6276	0.698486	19.2167	0.379508	10.3912	0.887862	6.60284
0.921142	2.62803	0.380646	10.2863	0.920974	2.62808	0.699637	18.9138	0.381025	10.2522	0.886133	6.62164
0.919617	2.6285	0.382173	10.1512	0.919448	2.62855	0.700798	18.6215	0.382555	10.1184	0.884421	6.64075
0.918089	2.62896	0.383714	10.021	0.917919	2.62901	0.701969	18.3394	0.3839	10.0057	0.882725	6.66017
0.916557	2.62941	0.385269	9.89546	0.916387	2.62946	0.703151	18.0668	0.385055	9.91238	0.881047	6.67991
0.915021	2.62986	0.386837	9.77432	0.914851	2.62991	0.704342	17.8033	0.386016	9.83709	0.879386	6.69998
0.913483	2.6303	0.388417	9.65737	0.913313	2.63035	0.705543	17.5484	0.386778	9.77871	0.877743	6.72038
0.911941	2.63073	0.39001	9.5444	0.91177	2.63078	0.706753	17.3018	0.387341	9.73642	0.876119	6.74113
0.910396	2.63115	0.391615	9.43522	0.910225	2.6312	0.707971	17.0631	0.387702	9.70963	0.874513	6.76222
0.908848	2.63157	0.393231	9.32964	0.908677	2.63161	0.709198	16.8319	0.388223	9.67149	0.872926	6.78368
0.907298	2.63198	0.394858	9.2275	0.907126	2.63202	0.710434	16.6078	0.388789	9.63052	0.871359	6.8055
0.905744	2.63238	0.396497	9.12863	0.905572	2.63242	0.711677	16.3905	0.389563	9.57561	0.869811	6.82769
0.904187	2.63277	0.398145	9.03288	0.904015	2.63282	0.712929	16.1797	0.390545	9.50746	0.868283	6.85027
0.902628	2.63316	0.399804	8.94011	0.902455	2.63321	0.714187	15.9752	0.391739	9.42692	0.866775	6.87324
0.901066	2.63355	0.401472	8.85018	0.900893	2.63359	0.715453	15.7766	0.393148	9.33496	0.865288	6.89661
0.899501	2.63392	0.40315	8.76297	0.899328	2.63396	0.716726	15.5838	0.394775	9.23265	0.863822	6.92038
0.897933	2.63429	0.404837	8.67835	0.89776	2.63433	0.718006	15.3964	0.396412	9.13361	0.862376	6.94457
0.896363	2.63465	0.406532	8.59622	0.89619	2.63469	0.719292	15.2142	0.398061	9.03771	0.860953	6.96919
0.894791	2.63501	0.408236	8.51646	0.894617	2.63505	0.720584	15.037	0.399719	8.94479	0.859551	6.99424
0.893216	2.63536	0.409948	8.43898	0.893042	2.6354	0.721882	14.8647	0.401387	8.85472	0.858171	7.01974
0.891639	2.63571	0.411667	8.36367	0.891464	2.63575	0.723186	14.697	0.403064	8.76737	0.856813	7.04569
0.890059	2.63605	0.413393	8.29045	0.889884	2.63609	0.724495	14.5337	0.40475	8.68262	0.855478	7.0721
0.888477	2.63639	0.415126	8.21923	0.888302	2.63642	0.725809	14.3746	0.406445	8.60037	0.854166	7.09898
0.886893	2.63672	0.416866	8.14993	0.886718	2.63675	0.727129	14.2197	0.408149	8.52049	0.852877	7.12635
0.885307	2.63704	0.418612	8.08247	0.885131	2.63708	0.728453	14.0687	0.40986	8.44289	0.851611	7.15421
0.883718	2.63736	0.420363	8.01678	0.883543	2.63739	0.729781	13.9215	0.411578	8.36748	0.850369	7.18256
0.882128	2.63767	0.422121	7.95278	0.881952	2.63771	0.731114	13.778	0.413304	8.29415	0.84915	7.21143
0.880536	2.63798	0.423883	7.89041	0.880359	2.63802	0.732451	13.6379	0.415037	8.22283	0.847956	7.24082
0.878941	2.63829	0.42565	7.8296	0.878765	2.63832	0.733792	13.5012	0.416777	8.15344	0.846785	7.27075
0.877345	2.63859	0.427422	7.7703	0.877168	2.63862	0.735136	13.3678	0.418522	8.08588	0.845639	7.30121
0.875747	2.63889	0.429198	7.71244	0.87557	2.63892	0.736484	13.2376	0.420274	8.0201	0.844518	7.33223
0.874147	2.63918	0.430978	7.65598	0.87397	2.63921	0.737835	13.1104	0.42203	7.95601	0.843421	7.36381
0.872545	2.63946	0.432762	7.60085	0.872368	2.6395	0.739189	12.9861	0.423793	7.89356	0.842349	7.39597
0.870941	2.63975	0.434548	7.54701	0.870764	2.63978	0.740545	12.8646	0.42556	7.83268	0.841302	7.42872
0.869336	2.64003	0.436338	7.49441	0.869158	2.64006	0.741904	12.7459	0.427331	7.7733	0.840281	7.46206
0.867729	2.6403	0.43813	7.443	0.867551	2.64033	0.743266	12.6297	0.429107	7.71537	0.839284	7.49601
0.866121	2.64057	0.439925	7.39274	0.865943	2.6406	0.744629	12.5162	0.430887	7.65883	0.838313	7.53057
0.864511	2.64084	0.441721	7.34359	0.864332	2.64087	0.745995	12.4051	0.43267	7.60364	0.837367	7.56578
0.862899	2.64111	0.443519	7.2955	0.862721	2.64113	0.747362	12.2963	0.434457	7.54973	0.836447	7.60162
0.861286	2.64137	0.445319	7.24844	0.861107	2.64139	0.748731	12.1899	0.436246	7.49707	0.835553	7.63812
0.859671	2.64162	0.447119	7.20238	0.859493	2.64165	0.750101	12.0857	0.438038	7.4456	0.834684	7.67529
0.858055	2.64188	0.44892	7.15727	0.857876	2.6419	0.751471	11.9837	0.439833	7.39528	0.833841	7.71314
0.856438	2.64213	0.450722	7.11308	0.856259	2.64215	0.752843	11.8837	0.441629	7.34608	0.833024	7.75168
0.854819	2.64237	0.452524	7.06977	0.85464	2.6424	0.754216	11.7857	0.443427	7.29794	0.832233	7.79093
0.853199	2.64262	0.454325	7.02733	0.85302	2.64264	0.755589	11.6898	0.445227	7.25083	0.831467	7.83089
0.851577	2.64286	0.456126	6.98571	0.851398	2.64288	0.756962	11.5957	0.447027	7.20471	0.830727	7.87159
0.849955	2.6431	0.457926	6.9449	0.849775	2.64312	0.758336	11.5034	0.448828	7.15955	0.830013	7.91303
0.848331	2.64333	0.459724	6.90485	0.848151	2.64336	0.759709	11.4129	0.45063	7.11532	0.829325	7.95523
0.846706	2.64356	0.461522	6.86555	0.846526	2.64359	0.761082	11.3242	0.452431	7.07197	0.828662	7.9982
0.845079	2.64379	0.463317	6.82696	0.844899	2.64382	0.762455	11.2371	0.454233	7.02948	0.828025	8.04195
0.843452	2.64402	0.46511	6.78907	0.843272	2.64404	0.763827	11.1517	0.456034	6.98783	0.827414	8.08651
0.841823	2.64424	0.466901	6.75184	0.841643	2.64427	0.765198	11.0678	0.457834	6.94697	0.826828	8.13188
0.840194	2.64446	0.468689	6.71527	0.840013	2.64449	0.766568	10.9855	0.459632	6.90688	0.826267	8.17808
0.838563	2.64468	0.470474	6.67931	0.838383	2.64471	0.767937	10.9046	0.46143	6.86754	0.825732	8.22512
0.836931	2.6449	0.472256	6.64396	0.836751	2.64492	0.769305	10.8252	0.463225	6.82892	0.825222	8.27303
0.835298	2.64511	0.474034	6.60919	0.835118	2.64514	0.770495	10.7571	0.465019	6.79099	0.824737	8.32181
0.833665	2.64533	0.475808	6.57499	0.833484	2.64535	0.771509	10.6999	0.466809	6.75373	0.824277	8.37147
0.83203	2.64554	0.477577	6.54133	0.831849	2.64556	0.772346	10.6532	0.468598	6.71712	0.823842	8.42205
0.830394	2.64574	0.479342	6.50819	0.830213	2.64577	0.773008	10.6166	0.470383	6.68114	0.823432	8.47355
0.828758	2.64595	0.481102	6.47555	0.828576	2.64597	0.773494	10.5899	0.472165	6.64576	0.823046	8.52599
0.82712	2.64615	0.482856	6.44341	0.826939	2.64618	0.773805	10.5729	0.473943	6.61096	0.822685	8.57938
0.825482	2.64636	0.484605	6.41174	0.8253	2.64638	0.774252	10.5485	0.475717	6.57673	0.822347	8.63375
0.823842	2.64656	0.486349	6.38053	0.823661	2.64658	0.774738	10.5222	0.477487	6.54304	0.822034	8.68911
0.822202	2.64675	0.488085	6.34976	0.822021	2.64677	0.775397	10.4867	0.479252	6.50987	0.821745	8.74549
0.820561	2.64695	0.489816	6.31941	0.82038	2.64697	0.776231	10.4422	0.481012	6.47721	0.821479	8.80289
0.818919	2.64714	0.491539	6.28947	0.818738	2.64716	0.777238	10.389	0.482767	6.44505	0.821236	8.86135
0.817277	2.64734	0.493255	6.25993	0.817095	2.64736	0.778417	10.3274	0.484516	6.41335	0.821017	8.92087
0.815634	2.64753	0.494964	6.23078	0.815452	2.64755	0.779767	10.2578	0.486259	6.38211	0.820821	8.98148
0.81399	2.64772	0.496665	6.20199	0.813808	2.64774	0.781115	10.1894	0.487997	6.35132	0.820647	9.0432
0.812345	2.6479	0.498357	6.17357	0.812163	2.64792	0.782459	10.122	0.489727	6.32095	0.820497	9.10605
0.8107	2.64809	0.500042	6.14549	0.810518	2.64811	0.7838	10.0557	0.491451	6.29099	0.820368	9.17006
0.809053	2.64827	0.501717	6.11774	0.808871	2.64829	0.785137	9.9905	0.493168	6.26144	0.820262	9.23524
0.807407	2.64846	0.503384	6.09031	0.807224	2.64848	0.786471	9.92626	0.494877	6.23226	0.820177	9.30162
0.805759	2.64864	0.505041	6.0632	0.805577	2.64866	0.787801	9.86301	0.496578	6.20346	0.820114	9.36922
0.804111	2.64882	0.506688	6.03638	0.803929	2.64884	0.789127	9.80072	0.498271	6.17501	0.820072	9.43806
0.802462	2.649	0.508325	6.00985	0.80228	2.64902	0.790448	9.73937	0.499956	6.14692	0.820052	9.50818
0.800813	2.64918	0.509952	5.9836	0.800631	2.6492	0.791765	9.67892	0.501632	6.11915	0.820052	9.5796
0.799163	2.64935	0.511568	5.95763	0.798981	2.64937	0.793078	9.61936	0.503299	6.09171	0.820073	9.65234
0.797512	2.64953	0.513174	5.93191	0.79733	2.64955	0.794386	9.56067	0.504956	6.06458	0.820115	9.72643
0.795861	2.6497	0.514768	5.90644	0.795679	2.64972	0.795688	9.50281	0.506604	6.03775	0.820176	9.8019
0.79421	2.64988	0.516351	5.88121	0.794027	2.6499	0.796986	9.44578	0.508242	6.0112	0.820257	9.87877
0.792558	2.65005	0.517922	5.85622	0.792375	2.65007	0.798278	9.38955	0.509869	5.98494	0.820358	9.95709
0.790905	2.65022	0.51948	5.83145	0.790722	2.65024	0.799565	9.3341	0.511486	5.95895	0.820479	10.0369
0.789252	2.65039	0.521027	5.8069	0.789069	2.65041	0.800847	9.27941	0.513092	5.93322	0.820618	10.1182
0.787598	2.65056	0.52256	5.78256	0.787415	2.65058	0.802122	9.22546	0.514687	5.90774	0.820776	10.201
0.785944	2.65073	0.524081	5.75842	0.785761	2.65075	0.803392	9.17224	0.51627	5.8825	0.820953	10.2854
0.784289	2.65089	0.525588	5.73447	0.784106	2.65091	0.804655	9.11972	0.517841	5.85749	0.821148	10.3713
0.782634	2.65106	0.527083	5.71071	0.782451	2.65108	0.805912	9.0679	0.519401	5.83271	0.821333	10.4476
0.780978	2.65123	0.528563	5.68714	0.780795	2.65125	0.807163	9.01674	0.520948	5.80815	0.821501	10.5136
0.779322	2.65139	0.530029	5.66373	0.779139	2.65141	0.808406	8.96624	0.522482	5.7838	0.821647	10.5689
0.777666	2.65156	0.531481	5.6405	0.777482	2.65157	0.809644	8.91638	0.524003	5.75965	0.821768	10.6131
0.776009	2.65172	0.532919	5.61742	0.775825	2.65174	0.810874	8.86714	0.525512	5.73569	0.821859	10.6458
0.774351	2.65188	0.534341	5.59451	0.774168	2.6519	0.812097	8.81852	0.527006	5.71192	0.821945	10.6762
0.772694	2.65204	0.535749	5.57174	0.77251	2.65206	0.813313	8.77049	0.528487	5.68834	0.822006	10.6974
0.771036	2.65221	0.537142	5.54912	0.770852	2.65222	0.814521	8.72304	0.529954	5.66493	0.822102	10.7307
0.769377	2.65237	0.538519	5.52664	0.769194	2.65239	0.815722	8.67616	0.531407	5.64168	0.822237	10.7764
0.767718	2.65253	0.539881	5.5043	0.767535	2.65255	0.816915	8.62984	0.532845	5.6186	0.822414	10.8348
0.766059	2.65269	0.541227	5.48208	0.765876	2.65271	0.8181	8.58405	0.534269	5.59568	0.822636	10.9063
0.764399	2.65285	0.542557	5.46	0.764216	2.65286	0.819277	8.5388	0.535677	5.5729	0.822908	10.9916
0.76274	2.65301	0.54387	5.43803	0.762556	2.65302	0.820446	8.49406	0.537071	5.55027	0.823235	11.0912
0.761079	2.65316	0.545168	5.41619	0.760896	2.65318	0.821606	8.44983	0.538449	5.52779	0.823579	11.1928
0.759419	2.65332	0.546449	5.39446	0.759235	2.65334	0.822758	8.4061	0.539811	5.50544	0.823938	11.2964
0.757758	2.65348	0.547713	5.37284	0.757574	2.6535	0.823901	8.36284	0.541158	5.48322	0.824313	11.402
0.756097	2.65364	0.548961	5.35133	0.755913	2.65366	0.825036	8.32006	0.542489	5.46113	0.824703	11.5098
0.754435	2.65379	0.550192	5.32992	0.754252	2.65381	0.826161	8.27774	0.543804	5.43916	0.825109	11.6197
0.752773	2.65395	0.551406	5.30862	0.75259	2.65397	0.827278	8.23588	0.545102	5.4173	0.825529	11.7318
0.751112	2.65411	0.552602	5.28741	0.750928	2.65413	0.828385	8.19445	0.546384	5.39557	0.825964	11.8462
0.749449	2.65426	0.553782	5.2663	0.749265	2.65428	0.829483	8.15345	0.547649	5.37394	0.826413	11.963
0.747787	2.65442	0.554944	5.24528	0.747603	2.65444	0.830571	8.11288	0.548897	5.35243	0.826876	12.0822
0.746124	2.65458	0.556089	5.22436	0.74594	2.65459	0.83165	8.07272	0.550129	5.33102	0.827353	12.2038
0.744461	2.65473	0.557217	5.20352	0.744277	2.65475	0.832719	8.03297	0.551344	5.30971	0.827844	12.3279
0.742798	2.65489	0.558327	5.18277	0.742614	2.6549	0.833778	7.99361	0.552541	5.2885	0.828348	12.4547
0.741134	2.65504	0.55942	5.16211	0.74095	2.65506	0.834828	7.95463	0.553722	5.26738	0.828865	12.5841
0.73947	2.6552	0.560496	5.14153	0.739286	2.65522	0.835867	7.91604	0.554885	5.24636	0.829395	12.7163
0.737806	2.65535	0.561554	5.12103	0.737622	2.65537	0.836896	7.87782	0.556031	5.22543	0.829938	12.8513
0.736142	2.65551	0.562594	5.10062	0.735958	2.65553	0.837914	7.83996	0.55716	5.20459	0.830494	12.9892
0.734478	2.65566	0.563617	5.08028	0.734294	2.65568	0.838922	7.80245	0.558271	5.18384	0.831062	13.1301
0.732813	2.65582	0.564623	5.06002	0.732629	2.65584	0.83992	7.7653	0.559365	5.16317	0.831641	13.2741
0.731149	2.65598	0.565612	5.03984	0.730964	2.65599	0.840907	7.72848	0.560441	5.14258	0.832233	13.4213
0.729484	2.65613	0.566583	5.01974	0.7293	2.65615	0.841883	7.692	0.5615	5.12208	0.832836	13.5717
0.727819	2.65629	0.567537	4.99971	0.727634	2.6563	0.842848	7.65585	0.562541	5.10166	0.83345	13.7255
0.726153	2.65644	0.568474	4.97976	0.725969	2.65646	0.843803	7.62002	0.563565	5.08132	0.834076	13.8828
0.724488	2.6566	0.569394	4.95989	0.724304	2.65662	0.844746	7.5845	0.564572	5.06106	0.834713	14.0437
0.722823	2.65675	0.570297	4.94009	0.722638	2.65677	0.845678	7.5493	0.565561	5.04088	0.83536	14.2083
0.721157	2.65691	0.571183	4.92036	0.720973	2.65693	0.846599	7.51439	0.566533	5.02077	0.836017	14.3767
0.719491	2.65707	0.572052	4.90071	0.719307	2.65708	0.847509	7.47978	0.567488	5.00074	0.836685	14.549
0.717825	2.65722	0.572905	4.88113	0.717641	2.65724	0.848408	7.44546	0.568426	4.98078	0.837363	14.7255
0.716159	2.65738	0.573742	4.86163	0.715975	2.6574	0.849295	7.41143	0.569347	4.9609	0.838051	14.9061
0.714493	2.65754	0.574562	4.8422	0.714309	2.65756	0.850171	7.37768	0.570251	4.9411	0.838749	15.0911
0.712827	2.6577	0.575367	4.82285	0.712642	2.65771	0.851035	7.3442	0.571138	4.92137	0.839456	15.2805
0.71116	2.65785	0.576155	4.80357	0.710976	2.65787	0.851887	7.311	0.572008	4.90171	0.840172	15.4747
0.709494	2.65801	0.576928	4.78437	0.709309	2.65803	0.852728	7.27806	0.572862	4.88213	0.840897	15.6736
0.707827	2.65817	0.577685	4.76524	0.707643	2.65819	0.853557	7.24538	0.573699	4.86262	0.84163	15.8776
0.70616	2.65833	0.578427	4.74619	0.705976	2.65835	0.854375	7.21295	0.574521	4.84319	0.842373	16.0867
0.704494	2.65849	0.579154	4.72722	0.704309	2.65851	0.855181	7.18078	0.575326	4.82383	0.843123	16.3012
0.702827	2.65865	0.579866	4.70832	0.702643	2.65867	0.855975	7.14885	0.576115	4.80455	0.843882	16.5212
0.70116	2.65881	0.580564	4.6895	0.700976	2.65883	0.856757	7.11717	0.576889	4.78535	0.844649	16.747
0.699493	2.65897	0.581247	4.67076	0.699309	2.65899	0.857528	7.08573	0.577647	4.76622	0.845423	16.9788
0.697826	2.65914	0.581916	4.6521	0.697642	2.65915	0.858286	7.05452	0.57839	4.74716	0.846205	17.2168
0.696159	2.6593	0.582571	4.63352	0.695975	2.65932	0.859033	7.02354	0.579117	4.72819	0.846994	17.4613
0.694492	2.65946	0.583212	4.61503	0.694308	2.65948	0.859768	6.99279	0.57983	4.70929	0.84779	17.7125
0.692825	2.65963	0.58384	4.59661	0.692641	2.65965	0.860491	6.96226	0.580529	4.69046	0.848593	17.9706
0.691158	2.65979	0.584455	4.57827	0.690974	2.65981	0.861202	6.93196	0.581212	4.67172	0.849402	18.2361
0.689491	2.65996	0.585057	4.56002	0.689306	2.65998	0.861901	6.90187	0.581882	4.65306	0.850218	18.5091
0.687824	2.66012	0.585646	4.54186	0.687639	2.66014	0.862589	6.87199	0.582538	4.63447	0.85104	18.79
0.686157	2.66029	0.586223	4.52377	0.685972	2.66031	0.863264	6.84233	0.58318	4.61597	0.851868	19.0791
0.684489	2.66046	0.586787	4.50578	0.684305	2.66048	0.863928	6.81287	0.583808	4.59755	0.852701	19.3768
0.682822	2.66063	0.58734	4.48787	0.682638	2.66065	0.86458	6.78362	0.584424	4.57921	0.85354	19.6834
0.681155	2.6608	0.587882	4.47004	0.680971	2.66082	0.86522	6.75457	0.585026	4.56096	0.854384	19.9994
0.679488	2.66097	0.588412	4.45231	0.679304	2.66099	0.865848	6.72571	0.585616	4.54278	0.855233	20.3251
0.677821	2.66114	0.588931	4.43466	0.677637	2.66116	0.866465	6.69706	0.586193	4.5247	0.856087	20.6611
0.676154	2.66131	0.589439	4.4171	0.67597	2.66133	0.86707	6.6686	0.586759	4.50669	0.856945	21.0078
0.674487	2.66149	0.589937	4.39964	0.674303	2.66151	0.867663	6.64033	0.587312	4.48878	0.857807	21.3657
0.67282	2.66166	0.590425	4.38226	0.672636	2.66168	0.868245	6.61224	0.587854	4.47095	0.858673	21.7353
0.671153	2.66184	0.590902	4.36498	0.670969	2.66186	0.868816	6.58435	0.588385	4.45321	0.859543	22.1173
0.669486	2.66202	0.591371	4.34779	0.669302	2.66203	0.869375	6.55664	0.588904	4.43556	0.860416	22.5122
0.667819	2.66219	0.591829	4.33069	0.667635	2.66221	0.869922	6.52911	0.589413	4.418	0.861292	22.9206
0.666153	2.66237	0.592279	4.31369	0.665968	2.66239	0.870458	6.50176	0.589912	4.40053	0.86217	23.3434
0.664486	2.66255	0.59272	4.29678	0.664302	2.66257	0.870983	6.47459	0.5904	4.38315	0.863052	23.7813
0.662819	2.66274	0.593153	4.27997	0.662635	2.66276	0.871497	6.44759	0.590878	4.36586	0.863935	24.2349
0.661153	2.66292	0.593577	4.26325	0.660969	2.66294	0.872	6.42077	0.591347	4.34867	0.86482	24.7053
0.659487	2.6631	0.593993	4.24663	0.659302	2.66312	0.872491	6.39412	0.591806	4.33156	0.865707	25.1934
0.65782	2.66329	0.594402	4.23011	0.657636	2.66331	0.872972	6.36764	0.592256	4.31456	0.866595	25.7001
0.656154	2.66348	0.594803	4.21368	0.65597	2.6635	0.873442	6.34133	0.592698	4.29764	0.867484	26.2265
0.654488	2.66367	0.595197	4.19736	0.654304	2.66369	0.873901	6.31518	0.593131	4.28083	0.868373	26.7738
0.652822	2.66386	0.595584	4.18113	0.652638	2.66388	0.874349	6.2892	0.593555	4.2641	0.869262	27.3432
0.651157	2.66405	0.595964	4.165	0.650973	2.66407	0.874787	6.26338	0.593972	4.24748	0.870151	27.9362
0.649491	2.66424	0.596338	4.14897	0.649307	2.66426	0.875214	6.23773	0.594381	4.23095	0.871039	28.5541
0.647826	2.66444	0.596706	4.13304	0.647641	2.66446	0.875631	6.21224	0.594783	4.21452	0.871926	29.1986
0.64616	2.66463	0.597068	4.11721	0.645976	2.66466	0.876038	6.1869	0.595177	4.19819	0.872812	29.8714
0.644495	2.66483	0.597424	4.10149	0.644311	2.66485	0.876435	6.16173	0.595564	4.18196	0.873695	30.5744
0.64283	2.66503	0.597775	4.08586	0.642646	2.66506	0.876821	6.13671	0.595945	4.16582	0.874577	31.3096
0.641165	2.66524	0.59812	4.07034	0.640981	2.66526	0.877198	6.11184	0.596319	4.14979	0.875455	32.0794
0.639501	2.66544	0.598461	4.05491	0.639317	2.66546	0.877565	6.08713	0.596687	4.13385	0.87633	32.8862
0.637836	2.66565	0.598797	4.03959	0.637652	2.66567	0.877922	6.06257	0.597049	4.11802	0.8772	33.7328
0.636172	2.66585	0.599129	4.02437	0.635988	2.66588	0.87827	6.03816	0.597406	4.10229	0.878067	34.6221
0.634508	2.66606	0.599456	4.00926	0.634324	2.66609	0.878608	6.0139	0.597757	4.08666	0.878928	35.5575
0.632845	2.66628	0.599779	3.99424	0.632661	2.6663	0.878937	5.9898	0.598103	4.07113	0.879784	36.5426
0.631181	2.66649	0.600099	3.97933	0.630997	2.66651	0.879257	5.96584	0.598444	4.0557	0.880633	37.5815
0.629518	2.66671	0.600415	3.96453	0.629334	2.66673	0.879568	5.94202	0.59878	4.04037	0.881476	38.6787
0.627855	2.66692	0.600727	3.94982	0.627671	2.66695	0.879869	5.91836	0.599112	4.02515	0.882311	39.8392
0.626192	2.66715	0.601037	3.93522	0.626008	2.66717	0.880162	5.89483	0.599439	4.01003	0.883138	41.0688
0.62453	2.66737	0.601343	3.92072	0.624346	2.66739	0.880447	5.87146	0.599763	3.99501	0.883955	42.3738
0.622867	2.6676	0.601647	3.90633	0.622684	2.66762	0.880722	5.84822	0.600083	3.9801	0.884764	43.7612
0.621205	2.66782	0.601948	3.89204	0.621022	2.66785	0.88099	5.82513	0.600399	3.96528	0.885561	45.2393
0.619544	2.66805	0.602246	3.87785	0.61936	2.66808	0.881249	5.80218	0.600711	3.95057	0.886348	46.8171
0.617882	2.66829	0.602543	3.86376	0.617699	2.66831	0.8815	5.77936	0.601021	3.93597	0.887122	48.5053
0.616221	2.66852	0.602838	3.84978	0.616038	2.66855	0.881743	5.75669	0.601327	3.92146	0.887884	50.3157
0.614561	2.66876	0.60313	3.8359	0.614377	2.66879	0.881978	5.73416	0.601631	3.90706	0.888631	52.2622
0.6129	2.669	0.603421	3.82212	0.612717	2.66903	0.882206	5.71176	0.601932	3.89277	0.889364	54.3608
0.61124	2.66925	0.603711	3.80845	0.611057	2.66928	0.882426	5.6895	0.602231	3.87857	0.890081	56.63
0.609581	2.6695	0.603999	3.79487	0.609397	2.66952	0.882638	5.66738	0.602528	3.86448	0.890782	59.0918
0.607922	2.66975	0.604287	3.7814	0.607738	2.66977	0.882844	5.64539	0.602822	3.85049	0.891464	61.7716
0.606263	2.67	0.604573	3.76804	0.606079	2.67003	0.883042	5.62354	0.603115	3.83661	0.892128	64.7
0.604604	2.67026	0.604858	3.75477	0.604421	2.67029	0.883233	5.60182	0.603406	3.82282	0.892772	67.9134
0.602946	2.67052	0.605143	3.7416	0.602763	2.67055	0.883417	5.58023	0.603696	3.80914	0.893396	71.4555
0.601289	2.67078	0.605391	3.73022	0.601105	2.67081	0.883595	5.55878	0.603985	3.79557	0.893997	75.3799
0.599631	2.67105	0.605602	3.72057	0.599448	2.67108	0.883766	5.53746	0.604272	3.78209	0.894575	79.752
0.597975	2.67132	0.605777	3.71263	0.597791	2.67135	0.88393	5.51627	0.604558	3.76872	0.895129	84.6535
0.596318	2.67159	0.605915	3.70638	0.596135	2.67162	0.884088	5.49521	0.604844	3.75545	0.895657	90.1872
0.594663	2.67187	0.606016	3.7018	0.594479	2.6719	0.884241	5.47428	0.605129	3.74228	0.89616	96.484
0.593007	2.67215	0.606081	3.69888	0.592824	2.67218	0.884387	5.45347	0.605413	3.72921	0.896634	103.714
0.591352	2.67244	0.606174	3.69469	0.591169	2.67247	0.884527	5.4328	0.605697	3.71624	0.89708	112.103
0.589698	2.67273	0.606276	3.69014	0.589515	2.67276	0.884661	5.41225	0.605981	3.70337	0.897496	121.953
0.588044	2.67302	0.606414	3.68398	0.587861	2.67305	0.88479	5.39183	0.606265	3.69061	0.897882	133.684
0.586391	2.67332	0.606588	3.67622	0.586208	2.67335	0.884914	5.37154	0.606549	3.67794	0.898236	147.894
0.584739	2.67362	0.606799	3.66688	0.584556	2.67366	0.885032	5.35137	0.606834	3.66538	0.898557	165.462
0.583086	2.67393	0.607048	3.656	0.582904	2.67396	0.885145	5.33133	0.607118	3.65291	0.898844	187.742
0.581435	2.67424	0.607333	3.64361	0.581252	2.67427	0.885253	5.31141	0.607404	3.64054	0.899098	216.926
0.579784	2.67456	0.607618	3.63132	0.579602	2.67459	0.885356	5.29162	0.607689	3.62828	0.899316	256.816
0.578134	2.67488	0.607905	3.61913	0.577952	2.67491	0.885454	5.27195	0.607976	3.61611	0.899498	314.635
0.576484	2.6752	0.608192	3.60703	0.576302	2.67524	0.885547	5.2524	0.608264	3.60404	0.899645	405.99
0.574836	2.67553	0.60848	3.59503	0.574653	2.67557	0.885636	5.23297	0.608552	3.59206	0.899754	571.999
0.573187	2.67587	0.60877	3.58313	0.573005	2.67591	0.885721	5.21366	0.608842	3.58019	0.899827	967.485
0.57154	2.67621	0.609061	3.57133	0.571358	2.67625	0.885801	5.19448	0.609133	3.56841	0.899862	3133.91
0.569893	2.67656	0.609353	3.55962	0.569711	2.6766	0.885878	5.17541	0.609426	3.55672		
0.568247	2.67691	0.609646	3.54801	0.568065	2.67695	0.88595	5.15647	0.609719	3.54514		
0.566602	2.67727	0.609941	3.53649	0.56642	2.67731	0.886018	5.13764	0.610015	3.53364		
0.564958	2.67763	0.610238	3.52507	0.564776	2.67768	0.886083	5.11893	0.610312	3.52225		
0.563314	2.67801	0.610537	3.51375	0.563133	2.67805	0.886144	5.10034	0.610611	3.51095		
0.561672	2.67838	0.610837	3.50252	0.56149	2.67842	0.886201	5.08186	0.610912	3.49974		
0.56003	2.67877	0.611139	3.49138	0.559848	2.67881	0.886256	5.06351	0.611215	3.48862		
0.558389	2.67916	0.611444	3.48034	0.558207	2.6792	0.886306	5.04526	0.61152	3.4776		
0.556749	2.67955	0.611751	3.46939	0.556568	2.6796	0.886354	5.02714	0.611827	3.46668		
0.55511	2.67996	0.61206	3.45853	0.554929	2.68	0.886399	5.00913	0.612137	3.45584		
0.553472	2.68037	0.612371	3.44776	0.553291	2.68042	0.886441	4.99123	0.612449	3.4451		
0.551835	2.68079	0.612685	3.43709	0.551654	2.68084	0.88648	4.97344	0.612763	3.43444		
0.550199	2.68122	0.613001	3.4265	0.550018	2.68126	0.886516	4.95577	0.61308	3.42388		
0.548564	2.68165	0.61332	3.41601	0.548383	2.6817	0.88655	4.93821	0.6134	3.41341		
0.54693	2.68209	0.613641	3.4056	0.546749	2.68214	0.886582	4.92077	0.613722	3.40303		
0.545297	2.68254	0.613966	3.39529	0.545117	2.68259	0.886611	4.90343	0.614047	3.39274		
0.543666	2.683	0.614293	3.38506	0.543486	2.68306	0.886638	4.88621	0.614375	3.38253		
0.542036	2.68347	0.614623	3.37493	0.541855	2.68353	0.886663	4.86909	0.614706	3.37242		
0.540407	2.68395	0.614956	3.36488	0.540227	2.684	0.886686	4.85209	0.61504	3.36239		
0.538779	2.68444	0.615293	3.35491	0.538599	2.68449	0.886706	4.83519	0.615377	3.35245		
0.537153	2.68494	0.615632	3.34504	0.536973	2.68499	0.886726	4.8184	0.615717	3.34259		
0.535528	2.68544	0.615974	3.33525	0.535348	2.6855	0.886743	4.80172	0.61606	3.33282		
0.533904	2.68596	0.61632	3.32554	0.533724	2.68602	0.886759	4.78515	0.616407	3.32314		
0.532282	2.68649	0.616669	3.31592	0.532102	2.68655	0.886773	4.76868	0.616757	3.31354		
0.530661	2.68703	0.617022	3.30639	0.530482	2.68709	0.886786	4.75232	0.61711	3.30403		
0.529042	2.68758	0.617378	3.29694	0.528863	2.68764	0.886798	4.73606	0.617467	3.2946		
0.527424	2.68814	0.617738	3.28757	0.527246	2.68821	0.886809	4.71991	0.617828	3.28525		
0.525808	2.68872	0.618101	3.27829	0.52563	2.68878	0.886818	4.70387	0.618192	3.27599		
0.524194	2.68931	0.618467	3.26908	0.524016	2.68937	0.886827	4.68793	0.618559	3.26681		
0.522582	2.68991	0.618838	3.25996	0.522404	2.68997	0.886834	4.67209	0.618931	3.25771		
0.520971	2.69052	0.619212	3.25092	0.520793	2.69059	0.886841	4.65635	0.619306	3.24869		
0.519362	2.69115	0.61959	3.24196	0.519185	2.69122	0.886847	4.64072	0.619685	3.23975		
0.517756	2.69179	0.619972	3.23309	0.517578	2.69186	0.886853	4.62519	0.620067	3.23089		
0.516151	2.69244	0.620357	3.22429	0.515973	2.69252	0.886858	4.60976	0.620454	3.22211		
0.514548	2.69311	0.620747	3.21557	0.514371	2.69319	0.886862	4.59442	0.620845	3.21341		
0.512947	2.6938	0.621141	3.20693	0.51277	2.69388	0.886866	4.57919	0.621239	3.20479		
0.511349	2.6945	0.621538	3.19836	0.511172	2.69458	0.88687	4.56406	0.621638	3.19624		
0.509752	2.69522	0.62194	3.18988	0.509576	2.6953	0.886874	4.54903	0.622041	3.18778		
0.508159	2.69596	0.622346	3.18147	0.507982	2.69604	0.886877	4.5341	0.622447	3.17938		
0.506567	2.69672	0.622756	3.17313	0.506391	2.6968	0.886881	4.51926	0.622858	3.17107		
0.504978	2.69749	0.62317	3.16487	0.504802	2.69758	0.886884	4.50452	0.623274	3.16283		
0.503392	2.69828	0.623588	3.15669	0.503216	2.69837	0.886888	4.48988	0.623693	3.15467		
0.501808	2.69909	0.624011	3.14858	0.501633	2.69919	0.886892	4.47533	0.624117	3.14658		
0.500227	2.69993	0.624438	3.14055	0.500052	2.70002	0.886896	4.46088	0.624545	3.13856		
0.498649	2.70078	0.624869	3.13259	0.498474	2.70088	0.8869	4.44652	0.624977	3.13062		
0.497073	2.70166	0.625305	3.1247	0.496899	2.70176	0.886905	4.43226	0.625414	3.12275		
0.495501	2.70256	0.625745	3.11689	0.495328	2.70266	0.886911	4.41809	0.625855	3.11495		
0.493932	2.70348	0.626189	3.10914	0.493759	2.70358	0.886917	4.40402	0.6263	3.10723		
0.492367	2.70443	0.626638	3.10147	0.492194	2.70453	0.886923	4.39003	0.62675	3.09957		
0.490804	2.7054	0.627091	3.09387	0.490632	2.70551	0.886931	4.37614	0.627205	3.09199		
0.489245	2.7064	0.627549	3.08634	0.489073	2.70651	0.886939	4.36235	0.627664	3.08448		
0.48769	2.70742	0.628012	3.07888	0.487518	2.70754	0.886948	4.34864	0.628127	3.07703		
0.486139	2.70848	0.628479	3.07149	0.485967	2.7086	0.886958	4.33502	0.628595	3.06966		
0.484591	2.70956	0.62895	3.06416	0.48442	2.70968	0.886969	4.3215	0.629068	3.06235		
0.483047	2.71067	0.629426	3.05691	0.482877	2.7108	0.886981	4.30806	0.629546	3.05511		
0.481508	2.71182	0.629907	3.04972	0.481338	2.71195	0.886994	4.29471	0.630027	3.04794		
0.479973	2.713	0.630393	3.0426	0.479803	2.71313	0.887008	4.28145	0.630514	3.04084		
0.478442	2.71421	0.630883	3.03555	0.478273	2.71434	0.887024	4.26828	0.631005	3.0338		
0.476916	2.71545	0.631378	3.02856	0.476747	2.71559	0.887041	4.2552	0.631501	3.02683		
0.475394	2.71674	0.631877	3.02163	0.475226	2.71688	0.887059	4.2422	0.632002	3.01992		
0.473878	2.71806	0.632381	3.01478	0.47371	2.7182	0.887078	4.22929	0.632508	3.01308		
0.472366	2.71942	0.632891	3.00798	0.472199	2.71957	0.887099	4.21647	0.633018	3.0063		
0.47086	2.72082	0.633404	3.00126	0.470694	2.72097	0.887122	4.20373	0.633533	2.99959		
0.46936	2.72226	0.633923	2.99459	0.469194	2.72242	0.887146	4.19108	0.634053	2.99294		
0.467865	2.72374	0.634446	2.98799	0.4677	2.72391	0.887172	4.17851	0.634577	2.98636		
0.466375	2.72528	0.634975	2.98145	0.466211	2.72545	0.8872	4.16602	0.635107	2.97983		
0.464892	2.72685	0.635508	2.97497	0.464729	2.72703	0.887229	4.15362	0.635641	2.97337		
0.463416	2.72848	0.636046	2.96855	0.463253	2.72866	0.88726	4.1413	0.63618	2.96697		
0.461945	2.73016	0.636588	2.9622	0.461783	2.73035	0.887293	4.12906	0.636724	2.96063		
0.460482	2.73189	0.637136	2.9559	0.46032	2.73208	0.887328	4.11691	0.637273	2.95435		
0.459025	2.73368	0.637689	2.94967	0.458865	2.73388	0.887365	4.10483	0.637827	2.94813		
0.457576	2.73552	0.638246	2.94349	0.457416	2.73572	0.887403	4.09284	0.638385	2.94197		
0.456134	2.73742	0.638808	2.93738	0.455975	2.73763	0.887444	4.08093	0.638949	2.93586		
0.454699	2.73938	0.639376	2.93132	0.454541	2.7396	0.887487	4.0691	0.639517	2.92982		
0.453273	2.74141	0.639948	2.92532	0.453116	2.74163	0.887533	4.05734	0.640091	2.92384		
0.451855	2.7435	0.640525	2.91938	0.451698	2.74373	0.88758	4.04567	0.640669	2.91791		
0.450445	2.74565	0.641107	2.91349	0.45029	2.7459	0.88763	4.03407	0.641252	2.91204		
0.449044	2.74788	0.641694	2.90767	0.44889	2.74813	0.887682	4.02255	0.641841	2.90622		
0.447652	2.75018	0.642286	2.90189	0.447499	2.75044	0.887736	4.01111	0.642434	2.90047		
0.446269	2.75256	0.642883	2.89618	0.446117	2.75283	0.887792	3.99975	0.643032	2.89476		
0.444896	2.75502	0.643484	2.89052	0.444745	2.75529	0.887851	3.98846	0.643635	2.88912		
0.443533	2.75755	0.644091	2.88491	0.443382	2.75784	0.887913	3.97725	0.644243	2.88352		
0.442179	2.76017	0.644703	2.87936	0.44203	2.76047	0.887977	3.96612	0.644856	2.87799		
0.440837	2.76288	0.64532	2.87386	0.440689	2.76318	0.888044	3.95506	0.645474	2.8725		
0.439505	2.76568	0.645941	2.86842	0.439358	2.76599	0.888113	3.94407	0.646097	2.86707		
0.438184	2.76856	0.646568	2.86303	0.438038	2.76889	0.888185	3.93316	0.646725	2.86169		
0.436874	2.77155	0.6472	2.85769	0.43673	2.77188	0.888259	3.92232	0.647358	2.85637		
0.435576	2.77463	0.647836	2.8524	0.435433	2.77498	0.888336	3.91156	0.647996	2.85109		
0.43429	2.77781	0.648478	2.84717	0.434148	2.77817	0.888416	3.90087	0.648639	2.84587		
0.433016	2.7811	0.649125	2.84198	0.432876	2.78147	0.888499	3.89025	0.649286	2.8407		
0.431755	2.7845	0.649776	2.83685	0.431616	2.78488	0.888584	3.8797	0.649939	2.83558		
0.430506	2.78801	0.650433	2.83177	0.430369	2.7884	0.888673	3.86923	0.650597	2.83051		
0.429271	2.79163	0.651095	2.82674	0.429135	2.79204	0.888764	3.85882	0.65126	2.82549		
0.428048	2.79537	0.651761	2.82176	0.427914	2.79579	0.888858	3.84849	0.651928	2.82052		
0.42684	2.79923	0.652433	2.81682	0.426707	2.79967	0.888955	3.83822	0.652601	2.8156		
0.425645	2.80322	0.653109	2.81194	0.425514	2.80367	0.889055	3.82803	0.653279	2.81073		
0.424465	2.80733	0.653791	2.8071	0.424335	2.80779	0.889158	3.8179	0.653961	2.80591		
0.423299	2.81157	0.654478	2.80231	0.423171	2.81205	0.889264	3.80785	0.654649	2.80113		
0.422148	2.81595	0.655169	2.79757	0.422021	2.81644	0.889374	3.79786	0.655342	2.7964		
0.421011	2.82047	0.655866	2.79288	0.420886	2.82097	0.889486	3.78794	0.65604	2.79172		
0.419889	2.82512	0.656567	2.78823	0.419766	2.82564	0.889602	3.77809	0.656742	2.78708		
0.418783	2.82992	0.657274	2.78363	0.418662	2.83046	0.88972	3.7683	0.65745	2.7825		
0.417692	2.83486	0.657985	2.77908	0.417573	2.83542	0.889842	3.75858	0.658163	2.77795		
0.416617	2.83996	0.658702	2.77457	0.416499	2.84053	0.889967	3.74893	0.65888	2.77346		
0.415558	2.84521	0.659423	2.77011	0.415442	2.8458	0.890096	3.73934	0.659603	2.769		
0.414515	2.85061	0.660149	2.76569	0.4144	2.85122	0.890227	3.72982	0.660331	2.7646		
0.413487	2.85618	0.660881	2.76132	0.413375	2.8568	0.890362	3.72037	0.661063	2.76023		
0.412476	2.8619	0.661617	2.75699	0.412365	2.86255	0.890501	3.71098	0.661801	2.75592		
0.411481	2.86779	0.662358	2.7527	0.411372	2.86845	0.890642	3.70165	0.662543	2.75164		
0.410503	2.87385	0.663104	2.74846	0.410396	2.87453	0.890788	3.69239	0.663291	2.74741		
0.409541	2.88008	0.663855	2.74426	0.409436	2.88078	0.890936	3.68319	0.664043	2.74322		
0.408596	2.88648	0.664611	2.7401	0.408492	2.8872	0.891088	3.67405	0.6648	2.73907		
0.407667	2.89306	0.665372	2.73599	0.407565	2.8938	0.891244	3.66497	0.665562	2.73497		
0.406755	2.89982	0.666138	2.73191	0.406655	2.90058	0.891403	3.65596	0.66633	2.73091		
0.405859	2.90676	0.666909	2.72788	0.405761	2.90754	0.891565	3.64701	0.667102	2.72688		
0.40498	2.91388	0.667685	2.72389	0.404884	2.91468	0.891731	3.63812	0.667879	2.7229		
0.404118	2.92119	0.668466	2.71994	0.404024	2.92201	0.891901	3.6293	0.66866	2.71896		
0.403273	2.92869	0.669251	2.71603	0.40318	2.92953	0.892074	3.62053	0.669447	2.71507		
0.402444	2.93638	0.670042	2.71216	0.402354	2.93725	0.892251	3.61182	0.670239	2.71121		
0.401632	2.94427	0.670837	2.70834	0.401543	2.94515	0.892431	3.60318	0.671036	2.70739		
0.400837	2.95235	0.671637	2.70455	0.40075	2.95326	0.892616	3.59459	0.671837	2.70361		
0.400058	2.96064	0.672443	2.7008	0.399972	2.96156	0.892803	3.58606	0.672644	2.69987		
0.399295	2.96912	0.673253	2.69709	0.399212	2.97007	0.892995	3.57759	0.673455	2.69617		
0.398549	2.97781	0.674068	2.69341	0.398468	2.97878	0.89319	3.56918	0.674271	2.69251		
0.39782	2.98671	0.674888	2.68978	0.39774	2.9877	0.893389	3.56083	0.675092	2.68888		
0.397106	2.99581	0.675712	2.68618	0.397029	2.99683	0.893592	3.55253	0.675918	2.6853		
0.39641	3.00513	0.676542	2.68263	0.396333	3.00617	0.893799	3.54429	0.676749	2.68175		
0.395729	3.01466	0.677377	2.67911	0.395655	3.01573	0.894009	3.53611	0.677585	2.67824		
0.395064	3.02441	0.678216	2.67562	0.394992	3.02551	0.894223	3.52799	0.678426	2.67476		
0.394416	3.03438	0.679061	2.67218	0.394345	3.0355	0.894441	3.51992	0.679272	2.67132		
0.393783	3.04458	0.67991	2.66877	0.393714	3.04572	0.894663	3.51191	0.680122	2.66792		
0.393166	3.05499	0.680764	2.66539	0.393099	3.05616	0.894889	3.50395	0.680977	2.66456		
0.392565	3.06564	0.681623	2.66205	0.3925	3.06683	0.895119	3.49605	0.681838	2.66123		
0.39198	3.07651	0.682487	2.65875	0.391916	3.07773	0.895352	3.4882	0.682703	2.65794		
0.39141	3.08762	0.683356	2.65549	0.391348	3.08887	0.89559	3.48041	0.683573	2.65468		
0.390856	3.09897	0.68423	2.65226	0.390796	3.10024	0.895831	3.47267	0.684448	2.65146		
0.390317	3.11055	0.685109	2.64906	0.390259	3.11185	0.896077	3.46499	0.685328	2.64827		
0.389794	3.12238	0.685993	2.6459	0.389737	3.1237	0.896326	3.45736	0.686213	2.64512		
0.389286	3.13445	0.686882	2.64278	0.38923	3.1358	0.89658	3.44978	0.687103	2.642		
0.388793	3.14677	0.687775	2.63968	0.388739	3.14815	0.896837	3.44225	0.687999	2.63892		
0.388315	3.15935	0.688674	2.63663	0.388263	3.16075	0.897099	3.43478	0.688899	2.63587		
0.387852	3.17217	0.689578	2.63361	0.387801	3.17361	0.897365	3.42736	0.689804	2.63286		
0.387404	3.18526	0.690487	2.63062	0.387355	3.18672	0.897634	3.41999	0.690714	2.62988		
0.38697	3.1986	0.691401	2.62766	0.386923	3.20009	0.897908	3.41268	0.691629	2.62693		
0.386552	3.21221	0.69232	2.62474	0.386506	3.21373	0.898186	3.40541	0.69255	2.62402		
0.386148	3.22609	0.693245	2.62186	0.386104	3.22764	0.898468	3.3982	0.693476	2.62115		
0.385758	3.24024	0.694174	2.61901	0.385716	3.24182	0.898754	3.39103	0.694407	2.6183		
0.385383	3.25467	0.69511	2.61619	0.385342	3.25628	0.899044	3.38392	0.695343	2.61549		
0.385022	3.26937	0.69605	2.6134	0.384983	3.27102	0.899338	3.37686	0.696285	2.61272		
0.384676	3.28436	0.696996	2.61065	0.384639	3.28604	0.899637	3.36984	0.697232	2.60998		
0.384344	3.29964	0.697948	2.60794	0.384308	3.30135	0.899939	3.36288	0.698186	2.60727		
0.384026	3.31521	0.698905	2.60526	0.383992	3.31695	0.900246	3.35596	0.699144	2.6046		
0.383722	3.33107	0.699869	2.60261	0.383689	3.33284	0.900557	3.34909	0.700109	2.60196		
0.383432	3.34724	0.700838	2.6	0.383401	3.34904	0.900872	3.34227	0.70108	2.59936		
0.383156	3.36371	0.701814	2.59742	0.383126	3.36555	0.901192	3.3355	0.702058	2.59679		
0.382894	3.38048	0.702796	2.59489	0.382865	3.38236	0.901516	3.32878	0.703042	2.59426		
0.382645	3.39757	0.703785	2.59238	0.382618	3.39948	0.901844	3.3221	0.704032	2.59177		
0.38241	3.41498	0.704781	2.58992	0.382385	3.41693	0.902176	3.31548	0.70503	2.58931		
0.382189	3.43272	0.705785	2.58749	0.382165	3.4347	0.902512	3.30889	0.706036	2.5869		
0.381981	3.45078	0.706797	2.58511	0.381959	3.4528	0.902853	3.30236	0.70705	2.58452		
0.381787	3.46917	0.707817	2.58277	0.381766	3.47123	0.903198	3.29587	0.708072	2.58219		
0.381606	3.48791	0.708847	2.58047	0.381587	3.49	0.903548	3.28943	0.709104	2.57991		
0.381438	3.50698	0.709886	2.57822	0.381421	3.50911	0.903902	3.28303	0.710147	2.57767		
0.381284	3.52641	0.710937	2.57602	0.381268	3.52858	0.90426	3.27668	0.7112	2.57548		
0.381143	3.54619	0.712	2.57388	0.381128	3.5484	0.904622	3.27038	0.712267	2.57335		
0.381015	3.56633	0.713077	2.57179	0.381002	3.56858	0.904989	3.26412	0.713347	2.57128		
0.3809	3.58684	0.714169	2.56977	0.380888	3.58913	0.90536	3.2579	0.714443	2.56928		
0.380798	3.60772	0.715279	2.56783	0.380788	3.61006	0.905736	3.25173	0.715558	2.56736		
0.380709	3.62898	0.716409	2.56596	0.3807	3.63136	0.906116	3.2456	0.716694	2.56551		
0.380633	3.65063	0.717562	2.56419	0.380625	3.65305	0.9065	3.23952	0.717853	2.56376		
0.380569	3.67267	0.718742	2.56252	0.380563	3.67513	0.906889	3.23348	0.719041	2.56212		
0.380518	3.69511	0.719953	2.56096	0.380513	3.69761	0.907282	3.22748	0.720259	2.5606		
0.38048	3.71795	0.721198	2.55954	0.380477	3.7205	0.90768	3.22153	0.721513	2.5592		
0.380455	3.7412	0.722481	2.55825	0.380453	3.7438	0.908082	3.21562	0.722806	2.55796		
0.380441	3.76487	0.723805	2.55712	0.380441	3.76752	0.908488	3.20975	0.724141	2.55686		
0.380441	3.78898	0.725172	2.55614	0.380442	3.79167	0.908899	3.20392	0.725519	2.55593		
0.380453	3.81351	0.726583	2.55533	0.380455	3.81625	0.909315	3.19814	0.726941	2.55515		
0.380476	3.83849	0.728036	2.55466	0.38048	3.84128	0.909735	3.1924	0.728404	2.55452		
0.380513	3.86392	0.729529	2.55414	0.380517	3.86676	0.910159	3.1867	0.729906	2.55403		
0.380561	3.8898	0.731058	2.55374	0.380567	3.89269	0.910588	3.18104	0.731443	2.55366		
0.380621	3.91615	0.732618	2.55346	0.380629	3.9191	0.911022	3.17542	0.733011	2.5534		
0.380694	3.94298	0.734205	2.55327	0.380703	3.94598	0.91146	3.16984	0.734604	2.55323		
0.380778	3.9703	0.735816	2.55316	0.380788	3.97335	0.911902	3.16431	0.73622	2.55314		
0.380874	3.9981	0.737446	2.55312	0.380886	4.00121	0.912349	3.15881	0.737854	2.55312		
0.380983	4.02641	0.739092	2.55314	0.380995	4.02957	0.912801	3.15336	0.739504	2.55315		
0.381102	4.05523	0.740752	2.5532	0.381116	4.05845	0.913257	3.14794	0.741167	2.55322		
0.381234	4.08457	0.742424	2.5533	0.381249	4.08785	0.913718	3.14257	0.742841	2.55334		
0.381377	4.11444	0.744105	2.55344	0.381393	4.11778	0.914184	3.13723	0.744524	2.55348		
0.381531	4.14486	0.745794	2.5536	0.381549	4.14826	0.914654	3.13193	0.746215	2.55365		
0.381697	4.17583	0.74749	2.55379	0.381716	4.17929	0.915128	3.12667	0.747913	2.55384		
0.381874	4.20736	0.749191	2.55399	0.381894	4.21088	0.915607	3.12145	0.749615	2.55404		
0.382062	4.23947	0.750898	2.55421	0.382084	4.24305	0.916091	3.11627	0.751323	2.55427		
0.382262	4.27216	0.752608	2.55444	0.382285	4.27581	0.91658	3.11113	0.753035	2.5545		
0.382473	4.30545	0.754323	2.55468	0.382497	4.30917	0.917073	3.10603	0.75475	2.55475		
0.382694	4.33935	0.75604	2.55494	0.38272	4.34314	0.917571	3.10096	0.756468	2.555		
0.382927	4.37388	0.75776	2.5552	0.382954	4.37773	0.918073	3.09593	0.758188	2.55526		
0.383171	4.40904	0.759482	2.55547	0.383198	4.41296	0.91858	3.09094	0.759911	2.55553		
0.383425	4.44484	0.761207	2.55574	0.383454	4.44884	0.919092	3.08599	0.761636	2.55581		
0.38369	4.48131	0.762933	2.55602	0.38372	4.48539	0.919609	3.08107	0.763363	2.55609		
0.383965	4.51846	0.764661	2.5563	0.383996	4.52261	0.92013	3.07619	0.765091	2.55637		
0.384251	4.5563	0.76639	2.55659	0.384283	4.56053	0.920656	3.07135	0.766821	2.55666		
0.384548	4.59484	0.768121	2.55688	0.384581	4.59915	0.921187	3.06654	0.768551	2.55695		
0.384854	4.63411	0.769852	2.55717	0.384889	4.63849	0.921723	3.06177	0.770283	2.55724		
0.385171	4.67411	0.771584	2.55746	0.385207	4.67858	0.922263	3.05704	0.772016	2.55753		
0.385498	4.71486	0.773318	2.55775	0.385535	4.71942	0.922808	3.05234	0.773749	2.55783		
0.385835	4.75639	0.775052	2.55805	0.385873	4.76103	0.923358	3.04767	0.775483	2.55812		
0.386182	4.7987	0.776786	2.55835	0.386221	4.80342	0.923912	3.04305	0.777218	2.55842		
0.386539	4.84181	0.778522	2.55864	0.386579	4.84663	0.924472	3.03846	0.778953	2.55872		
0.386905	4.88575	0.780257	2.55894	0.386946	4.89066	0.925036	3.0339	0.780689	2.55901		
0.387281	4.93053	0.781994	2.55924	0.387324	4.93553	0.925605	3.02938	0.782426	2.55931		
0.387667	4.97617	0.78373	2.55954	0.38771	4.98127	0.926179	3.02489	0.784162	2.55961		
0.388062	5.02269	0.785467	2.55983	0.388106	5.02789	0.926758	3.02044	0.785899	2.55991		
0.388466	5.07011	0.787204	2.56013	0.388512	5.07541	0.927342	3.01602	0.787637	2.5602		
0.38888	5.11846	0.788942	2.56043	0.388926	5.12386	0.927931	3.01164	0.789374	2.5605		
0.389302	5.16775	0.79068	2.56072	0.38935	5.17326	0.928524	3.00729	0.791112	2.5608		
0.389734	5.21802	0.792418	2.56102	0.389782	5.22363	0.929123	3.00298	0.79285	2.56109		
0.390174	5.26927	0.794156	2.56132	0.390224	5.275	0.929726	2.9987	0.794588	2.56139		
0.390624	5.32154	0.795894	2.56161	0.390674	5.32738	0.930335	2.99445	0.796327	2.56168		
0.391081	5.37485	0.797633	2.5619	0.391132	5.38081	0.930948	2.99024	0.798065	2.56198		
0.391548	5.42924	0.799371	2.5622	0.3916	5.43532	0.931567	2.98606	0.799804	2.56227		
0.392022	5.48471	0.80111	2.56249	0.392075	5.49092	0.93219	2.98191	0.801543	2.56256		
0.392505	5.54131	0.802849	2.56278	0.392559	5.54764	0.932818	2.9778	0.803281	2.56285		
0.392996	5.59907	0.804587	2.56307	0.393051	5.60553	0.933452	2.97371	0.80502	2.56314		
0.393495	5.658	0.806326	2.56336	0.393551	5.66459	0.93409	2.96967	0.806759	2.56343		
0.394002	5.71815	0.808065	2.56365	0.394059	5.72488	0.934734	2.96565	0.808498	2.56372		
0.394517	5.77955	0.809804	2.56394	0.394574	5.78642	0.935383	2.96167	0.810237	2.56401		
0.395039	5.84223	0.811543	2.56422	0.395097	5.84924	0.936037	2.95772	0.811975	2.56429		
0.3955	5.89792	0.813282	2.56451	0.395628	5.91338	0.936696	2.9538	0.813714	2.56458		
0.395898	5.9462	0.81502	2.56479	0.396165	5.97887	0.93736	2.94991	0.815453	2.56486		
0.396229	5.98669	0.816759	2.56507	0.39671	6.04576	0.938029	2.94606	0.817192	2.56514		
0.396494	6.01908	0.818498	2.56535	0.397262	6.11408	0.938704	2.94224	0.81893	2.56542		
0.396689	6.04311	0.820237	2.56563	0.397821	6.18387	0.939384	2.93844	0.820669	2.5657		
0.396869	6.06538	0.821975	2.56591	0.398387	6.25518	0.940069	2.93469	0.822408	2.56598		
0.396995	6.08097	0.823714	2.56619	0.398959	6.32804	0.940759	2.93096	0.824146	2.56625		
0.397193	6.10547	0.825452	2.56646	0.399538	6.40251	0.941455	2.92726	0.825885	2.56653		
0.397463	6.13909	0.827191	2.56674	0.400123	6.47864	0.942156	2.9236	0.827623	2.5668		
0.397807	6.18212	0.828929	2.56701	0.400714	6.55646	0.942862	2.91996	0.829361	2.56708		
0.398227	6.23491	0.830667	2.56728	0.401311	6.63604	0.943574	2.91636	0.8311	2.56735		
0.398724	6.29793	0.832405	2.56755	0.401914	6.71742	0.944291	2.91279	0.832838	2.56762		
0.3993	6.37174	0.834143	2.56782	0.402523	6.80067	0.945014	2.90925	0.834576	2.56789		
0.399882	6.44718	0.835881	2.56809	0.403137	6.88584	0.945742	2.90574	0.836314	2.56815		
0.400471	6.5243	0.837619	2.56835	0.403756	6.97299	0.946475	2.90226	0.838051	2.56842		
0.401065	6.60315	0.839357	2.56862	0.40438	7.06219	0.947214	2.89881	0.839789	2.56868		
0.401666	6.68379	0.841094	2.56888	0.40501	7.15351	0.947959	2.89539	0.841527	2.56894		
0.402272	6.76626	0.842832	2.56914	0.405644	7.247	0.948709	2.892	0.843264	2.56921		
0.402884	6.85064	0.844569	2.5694	0.406282	7.34276	0.949465	2.88865	0.845002	2.56947		
0.403501	6.93697	0.846307	2.56966	0.406926	7.44084	0.950226	2.88532	0.846739	2.56972		
0.404123	7.02532	0.848044	2.56992	0.407573	7.54133	0.950994	2.88202	0.848476	2.56998		
0.404751	7.11576	0.849781	2.57017	0.408224	7.64433	0.951767	2.87876	0.850213	2.57024		
0.405383	7.20835	0.851518	2.57043	0.40888	7.7499	0.952545	2.87552	0.85195	2.57049		
0.40602	7.30316	0.853254	2.57068	0.409538	7.85815	0.95333	2.87231	0.853686	2.57075		
0.406661	7.40028	0.854991	2.57093	0.410201	7.96916	0.95412	2.86914	0.855423	2.571		
0.407307	7.49978	0.856727	2.57119	0.410866	8.08306	0.954916	2.86599	0.857159	2.57125		
0.407956	7.60173	0.858464	2.57143	0.411535	8.19992	0.955719	2.86287	0.858895	2.5715		
0.40861	7.70623	0.8602	2.57168	0.412206	8.31988	0.956527	2.85979	0.860632	2.57174		
0.409267	7.81337	0.861936	2.57193	0.41288	8.44305	0.957341	2.85673	0.862368	2.57199		
0.409928	7.92324	0.863672	2.57217	0.413556	8.56955	0.958161	2.8537	0.864103	2.57223		
0.410592	8.03594	0.865407	2.57242	0.414235	8.69951	0.958987	2.85071	0.865839	2.57248		
0.41126	8.15157	0.867143	2.57266	0.414915	8.83306	0.95982	2.84774	0.867575	2.57272		
0.41193	8.27025	0.868878	2.5729	0.415597	8.97036	0.960659	2.8448	0.86931	2.57296		
0.412603	8.39208	0.870613	2.57314	0.416281	9.11156	0.961503	2.84189	0.871045	2.5732		
0.413278	8.5172	0.872348	2.57338	0.416965	9.25681	0.962355	2.83901	0.87278	2.57344		
0.413956	8.64572	0.874083	2.57361	0.417563	9.38683	0.963212	2.83616	0.874515	2.57367		
0.414636	8.77778	0.875818	2.57385	0.418073	9.50029	0.964076	2.83334	0.87625	2.57391		
0.415317	8.91353	0.877553	2.57408	0.418495	9.596	0.964947	2.83055	0.877984	2.57414		
0.416	9.0531	0.879287	2.57432	0.418828	9.67291	0.965823	2.82779	0.879719	2.57437		
0.416684	9.19667	0.881021	2.57455	0.419074	9.73018	0.966707	2.82506	0.881453	2.57461		
0.41737	9.3444	0.882755	2.57478	0.419299	9.78341	0.967597	2.82236	0.883187	2.57484		
0.418056	9.49646	0.884489	2.57501	0.419457	9.82075	0.968494	2.81968	0.884921	2.57506		
0.418742	9.65304	0.886223	2.57523	0.419702	9.87961	0.969397	2.81704	0.886655	2.57529		
0.41943	9.81434	0.887957	2.57546	0.420036	9.96069	0.970307	2.81443	0.888388	2.57552		
0.420117	9.98057	0.88969	2.57568	0.420458	10.065	0.971224	2.81184	0.890121	2.57574		
0.420804	10.1519	0.891423	2.57591	0.420968	10.1937	0.972148	2.80929	0.891855	2.57596		
0.42149	10.3287	0.893156	2.57613	0.421566	10.3486	0.973079	2.80677	0.893588	2.57618		
0.422176	10.5111	0.894889	2.57635	0.422252	10.5317	0.974017	2.80427	0.89532	2.5764		
0.422861	10.6994	0.896622	2.57657	0.422937	10.7206	0.974962	2.80181	0.897053	2.57662		
0.423545	10.894	0.898355	2.57679	0.42362	10.9159	0.975914	2.79937	0.898786	2.57684		
0.424227	11.095	0.900087	2.577	0.424302	11.1176	0.976873	2.79696	0.900518	2.57706		
0.424907	11.3028	0.901819	2.57722	0.424982	11.3262	0.97784	2.79459	0.90225	2.57727		
0.425585	11.5178	0.903551	2.57743	0.42566	11.5421	0.978814	2.79224	0.903982	2.57749		
0.426261	11.7404	0.905283	2.57765	0.426335	11.7655	0.979795	2.78992	0.905714	2.5777		
0.426934	11.9709	0.907014	2.57786	0.427008	11.9969	0.980784	2.78763	0.907445	2.57791		
0.427603	12.2098	0.908746	2.57807	0.427677	12.2368	0.98178	2.78537	0.909177	2.57812		
0.42827	12.4576	0.910477	2.57828	0.428343	12.4855	0.982784	2.78315	0.910908	2.57833		
0.428933	12.7146	0.912208	2.57848	0.429006	12.7436	0.983795	2.78095	0.912639	2.57854		
0.429592	12.9816	0.913939	2.57869	0.429664	13.0117	0.984814	2.77878	0.91437	2.57874		
0.430246	13.2589	0.91567	2.57889	0.430318	13.2903	0.985841	2.77664	0.9161	2.57895		
0.430896	13.5474	0.9174	2.5791	0.430968	13.58	0.986876	2.77453	0.917831	2.57915		
0.431541	13.8476	0.919131	2.5793	0.431612	13.8815	0.987919	2.77245	0.919561	2.57935		
0.432181	14.1602	0.920861	2.5795	0.432252	14.1956	0.988969	2.7704	0.921291	2.57955		
0.432815	14.4862	0.922591	2.5797	0.432885	14.5231	0.990027	2.76838	0.923021	2.57975		
0.433444	14.8262	0.92432	2.5799	0.433513	14.8648	0.991094	2.76638	0.924751	2.57995		
0.434065	15.1814	0.92605	2.5801	0.434134	15.2216	0.992168	2.76442	0.92648	2.58015		
0.434681	15.5526	0.927779	2.58029	0.434748	15.5947	0.993251	2.76249	0.92821	2.58034		
0.435289	15.9411	0.929509	2.58049	0.435356	15.9852	0.994342	2.76059	0.929939	2.58054		
0.43589	16.348	0.931237	2.58068	0.435956	16.3942	0.995441	2.75872	0.931668	2.58073		
0.436483	16.7747	0.932966	2.58088	0.436548	16.8232	0.996548	2.75687	0.933396	2.58092		
0.437068	17.2228	0.934695	2.58107	0.437132	17.2737	0.997664	2.75506	0.935125	2.58111		
0.437644	17.6938	0.936423	2.58126	0.437708	17.7473	0.998788	2.75327	0.936853	2.5813		
0.438212	18.1895	0.938151	2.58145	0.438274	18.246	0.99992	2.75152	0.938581	2.58149		
0.438771	18.7121	0.939879	2.58163	0.438832	18.7716	1.00106	2.74979	0.940309	2.58168		
0.43932	19.2637	0.941607	2.58182	0.43938	19.3266			0.942037	2.58187		
0.439859	19.8469	0.943335	2.582	0.439918	19.9134			0.943764	2.58205		
0.440388	20.4644	0.945062	2.58219	0.440446	20.5349			0.945492	2.58223		
0.440907	21.1195	0.946789	2.58237	0.440963	21.1944			0.947219	2.58242		
0.441414	21.8156	0.948516	2.58255	0.441469	21.8953			0.948946	2.5826		
0.44191	22.5569	0.950243	2.58273	0.441964	22.6418			0.950672	2.58278		
0.442394	23.3478	0.951969	2.58291	0.442447	23.4385			0.952399	2.58296		
0.442866	24.1937	0.953695	2.58309	0.442918	24.2908			0.954125	2.58313		
0.443326	25.1004	0.955422	2.58327	0.443376	25.2047			0.955851	2.58331		
0.443773	26.0749	0.957147	2.58344	0.443822	26.1871			0.957577	2.58348		
0.444207	27.1251	0.958873	2.58362	0.444254	27.2462			0.959302	2.58366		
0.444628	28.2602	0.960599	2.58379	0.444673	28.3914			0.961028	2.58383		
0.445034	29.4912	0.962324	2.58396	0.445078	29.6337			0.962753	2.584		
0.445427	30.8308	0.964049	2.58413	0.445469	30.9862			0.964478	2.58417		
0.445805	32.294	0.965774	2.5843	0.445846	32.4642			0.966203	2.58434		
0.446168	33.8992	0.967498	2.58447	0.446207	34.0863			0.967927	2.58451		
0.446516	35.668	0.969222	2.58464	0.446553	35.8747			0.969651	2.58468		
0.446849	37.627	0.970947	2.5848	0.446884	37.8566			0.971376	2.58484		
0.447166	39.8088	0.97267	2.58497	0.4472	40.0655			0.973099	2.58501		
0.447467	42.2541	0.974394	2.58513	0.447499	42.5428			0.974823	2.58517		
0.447751	45.0139	0.976118	2.58529	0.447782	45.341			0.976546	2.58533		
0.44802	48.1533	0.977841	2.58546	0.448048	48.5272			0.97827	2.5855		
0.448271	51.7568	0.979564	2.58562	0.448298	52.1883			0.979993	2.58566		
0.448506	55.9362	0.981287	2.58577	0.448531	56.4397			0.981715	2.58581		
0.448723	60.8418	0.983009	2.58593	0.448746	61.4372			0.983438	2.58597		
0.448923	66.6819	0.984731	2.58609	0.448944	67.3967			0.98516	2.58613		
0.449105	73.7523	0.986454	2.58625	0.449124	74.6267			0.986882	2.58628		
0.44927	82.4886	0.988175	2.5864	0.449287	83.5828			0.988604	2.58644		
0.449416	93.5599	0.989897	2.58655	0.449432	94.9686			0.990325	2.58659		
0.449545	108.049	0.991618	2.58671	0.449558	109.93			0.992046	2.58674		
0.449655	127.828	0.993339	2.58686	0.449666	130.468			0.993768	2.58689		
0.449747	156.449	0.99506	2.58701	0.449756	160.419			0.995488	2.58704		
0.449821	201.551	0.996781	2.58716	0.449828	208.186			0.997209	2.58719		
0.449876	283.144	0.998501	2.5873	0.449881	296.41			0.998929	2.58734		
0.449913	475.629	1.00022	2.58745	0.449916	514.285			1.00065	2.58749		
0.449931	1484.91			0.449932	1940.14						
