Sym0		Asym0		Sym1		Sym2		Asym1		Asym2	
593  Points		593  Points		593  Points		559  Points		594  Points		284  Points	
Freq (MHz)	Vph (m/ms)	Freq (MHz)	Vph (m/ms)	Freq (MHz)	Vph (m/ms)	Freq (MHz)	Vph (m/ms)	Freq (MHz)	Vph (m/ms)	Freq (MHz)	Vph (m/ms)
1.00019	2.58596	0.314587	616.703	1.00043	2.58578	0.629156	2071.12	0.314576	14450.7	1.00128	5.45786
0.998852	2.58692	0.314633	269.166	0.999093	2.58674	0.629185	653.642	0.314596	462.249	0.999292	5.46666
0.997517	2.58787	0.314714	172.189	0.997758	2.5877	0.629244	388.089	0.31465	234.922	0.9973	5.4755
0.996179	2.58883	0.314831	126.615	0.996421	2.58866	0.629334	275.999	0.314741	157.513	0.995301	5.48436
0.994839	2.58978	0.314984	100.143	0.99508	2.58961	0.629453	214.172	0.314868	118.505	0.993295	5.49325
0.993495	2.59072	0.315173	82.8497	0.993737	2.59055	0.629603	174.996	0.31503	95.0084	0.991284	5.50218
0.992148	2.59167	0.315397	70.6699	0.992391	2.5915	0.629782	147.953	0.315227	79.3101	0.989268	5.51114
0.990799	2.5926	0.315656	61.6303	0.991042	2.59243	0.629991	128.166	0.31546	68.0836	0.987246	5.52014
0.989446	2.59353	0.31595	54.6572	0.98969	2.59336	0.630229	113.061	0.315729	59.6589	0.98522	5.52917
0.98809	2.59446	0.316279	49.1164	0.988335	2.59429	0.630497	101.154	0.316032	53.1053	0.983189	5.53825
0.98673	2.59538	0.316643	44.609	0.986976	2.59521	0.630794	91.5275	0.31637	47.8634	0.981155	5.54738
0.985367	2.59629	0.317041	40.8717	0.985613	2.59613	0.63112	83.5847	0.316743	43.5765	0.979117	5.55655
0.984	2.5972	0.317474	37.7235	0.984247	2.59703	0.631474	76.9202	0.31715	40.0065	0.977075	5.56578
0.982629	2.5981	0.31794	35.0362	0.982877	2.59794	0.631856	71.249	0.317591	36.9883	0.975031	5.57505
0.981255	2.59899	0.31844	32.7162	0.981503	2.59883	0.632267	66.3652	0.318066	34.4039	0.972984	5.58439
0.979876	2.59988	0.318974	30.6935	0.980125	2.59972	0.632705	62.1158	0.318575	32.1667	0.970935	5.59378
0.978494	2.60075	0.31954	28.9149	0.978743	2.6006	0.63317	58.3852	0.319117	30.2117	0.968884	5.60323
0.977107	2.60162	0.320139	27.3393	0.977357	2.60147	0.633662	55.0843	0.319692	28.4892	0.966831	5.61274
0.975716	2.60249	0.32077	25.9341	0.975967	2.60233	0.634181	52.1431	0.320299	26.9605	0.964778	5.62232
0.974321	2.60334	0.321433	24.6735	0.974573	2.60319	0.634726	49.5063	0.320939	25.595	0.962723	5.63197
0.972921	2.60418	0.322128	23.5366	0.973174	2.60403	0.635297	47.1291	0.32161	24.3682	0.960668	5.6417
0.971517	2.60502	0.322853	22.5062	0.971771	2.60487	0.635893	44.9752	0.322312	23.2603	0.958613	5.65149
0.970109	2.60584	0.323609	21.5684	0.970363	2.6057	0.636514	43.0148	0.323046	22.2552	0.956558	5.66137
0.968696	2.60666	0.324396	20.7114	0.968951	2.60652	0.637159	41.2231	0.32381	21.3393	0.954504	5.67132
0.967278	2.60747	0.325212	19.9254	0.967534	2.60732	0.637829	39.5794	0.324604	20.5016	0.952451	5.68136
0.965856	2.60827	0.326058	19.2021	0.966112	2.60812	0.638522	38.0663	0.325428	19.7325	0.950399	5.69149
0.964429	2.60906	0.326932	18.5345	0.964686	2.60891	0.639239	36.6688	0.326281	19.0243	0.948348	5.7017
0.962997	2.60983	0.327835	17.9165	0.963255	2.60969	0.639978	35.3744	0.327163	18.3701	0.946299	5.71201
0.96156	2.6106	0.328766	17.343	0.96182	2.61046	0.64074	34.1721	0.328073	17.764	0.944253	5.72241
0.960119	2.61136	0.329724	16.8093	0.960379	2.61122	0.641523	33.0525	0.329011	17.2012	0.942209	5.73291
0.958673	2.61211	0.33071	16.3117	0.958934	2.61197	0.642328	32.0076	0.329977	16.6773	0.940167	5.74352
0.957222	2.61284	0.331722	15.8467	0.957484	2.61271	0.643154	31.03	0.330969	16.1884	0.93813	5.75422
0.955767	2.61357	0.33276	15.4113	0.95603	2.61344	0.644	30.1137	0.331988	15.7313	0.936095	5.76504
0.954307	2.61429	0.333823	15.0028	0.95457	2.61416	0.644866	29.253	0.333032	15.3031	0.934065	5.77597
0.952842	2.61499	0.334912	14.6188	0.953106	2.61487	0.645752	28.4432	0.334102	14.9012	0.932038	5.78702
0.951372	2.61569	0.336025	14.2574	0.951637	2.61557	0.646657	27.6798	0.335197	14.5233	0.930016	5.79818
0.949897	2.61637	0.337162	13.9167	0.950163	2.61625	0.64758	26.9591	0.336317	14.1674	0.928	5.80947
0.948418	2.61705	0.338323	13.5949	0.948685	2.61693	0.648522	26.2776	0.33746	13.8317	0.925988	5.82088
0.946934	2.61771	0.339506	13.2906	0.947202	2.61759	0.649482	25.6322	0.338627	13.5145	0.923981	5.83242
0.945445	2.61837	0.340713	13.0025	0.945714	2.61825	0.650459	25.0203	0.339817	13.2146	0.921981	5.8441
0.943952	2.61901	0.341942	12.7294	0.944222	2.61889	0.651452	24.4392	0.341029	12.9304	0.919987	5.85591
0.942454	2.61964	0.343192	12.4701	0.942725	2.61953	0.652463	23.8867	0.342263	12.661	0.917999	5.86787
0.940952	2.62026	0.344463	12.2237	0.941223	2.62015	0.653489	23.3608	0.343519	12.4051	0.916018	5.87997
0.939445	2.62088	0.345755	11.9892	0.939717	2.62077	0.654531	22.8597	0.344795	12.1619	0.914044	5.89221
0.937934	2.62148	0.347067	11.7659	0.938207	2.62137	0.655588	22.3817	0.346093	11.9304	0.912078	5.90461
0.936418	2.62207	0.348399	11.5531	0.936692	2.62196	0.65666	21.9251	0.34741	11.7099	0.910119	5.91717
0.934898	2.62265	0.34975	11.3499	0.935173	2.62255	0.657747	21.4887	0.348747	11.4996	0.908169	5.92989
0.933374	2.62322	0.35112	11.1559	0.933649	2.62312	0.658847	21.0712	0.350103	11.2988	0.906227	5.94278
0.931845	2.62379	0.352509	10.9703	0.932121	2.62369	0.659962	20.6712	0.351478	11.1071	0.904294	5.95583
0.930313	2.62434	0.353915	10.7928	0.930589	2.62424	0.661089	20.2879	0.352871	10.9237	0.90237	5.96906
0.928776	2.62488	0.355338	10.6228	0.929053	2.62479	0.662229	19.9202	0.354281	10.7481	0.900456	5.98247
0.927235	2.62542	0.356779	10.4599	0.927513	2.62532	0.663382	19.5671	0.355709	10.58	0.898551	5.99606
0.92569	2.62594	0.358236	10.3036	0.925969	2.62585	0.664547	19.2278	0.357154	10.4188	0.896657	6.00984
0.924142	2.62646	0.359709	10.1535	0.924421	2.62636	0.665724	18.9016	0.358615	10.2642	0.894773	6.02381
0.922589	2.62696	0.361197	10.0094	0.922869	2.62687	0.666912	18.5876	0.360092	10.1157	0.8929	6.03798
0.921033	2.62746	0.362701	9.87089	0.921314	2.62737	0.668111	18.2853	0.361392	9.99108	0.891038	6.05235
0.919473	2.62795	0.36422	9.73763	0.919754	2.62786	0.669321	17.994	0.36251	9.88818	0.889188	6.06693
0.917909	2.62843	0.365753	9.60936	0.918191	2.62834	0.670542	17.713	0.36344	9.80531	0.887349	6.08172
0.916342	2.6289	0.3673	9.48581	0.916625	2.62882	0.671772	17.442	0.364179	9.74116	0.885523	6.09674
0.914771	2.62936	0.36886	9.36675	0.915055	2.62928	0.673013	17.1803	0.364725	9.69474	0.883709	6.11197
0.913197	2.62982	0.370434	9.25192	0.913481	2.62974	0.674263	16.9276	0.365075	9.66536	0.881908	6.12743
0.91162	2.63027	0.37202	9.14113	0.911904	2.63019	0.675522	16.6832	0.365579	9.62357	0.88012	6.14313
0.910039	2.63071	0.373619	9.03417	0.910324	2.63063	0.676789	16.4469	0.36613	9.57873	0.878346	6.15907
0.908455	2.63114	0.375229	8.93084	0.908741	2.63106	0.678066	16.2183	0.366881	9.5187	0.876586	6.17525
0.906868	2.63156	0.376852	8.83098	0.907154	2.63149	0.67935	15.997	0.367836	9.44431	0.87484	6.19169
0.905278	2.63198	0.378485	8.73441	0.905565	2.63191	0.680643	15.7826	0.368997	9.35655	0.873108	6.20838
0.903685	2.63239	0.380129	8.64098	0.903972	2.63232	0.681943	15.5748	0.370369	9.25658	0.871392	6.22534
0.902088	2.63279	0.381784	8.55054	0.902376	2.63272	0.683251	15.3733	0.371955	9.14563	0.86969	6.24257
0.900489	2.63319	0.383448	8.46295	0.900778	2.63312	0.684566	15.1779	0.373553	9.03851	0.868005	6.26007
0.898887	2.63358	0.385122	8.37808	0.899177	2.63351	0.685888	14.9883	0.375163	8.93504	0.866335	6.27786
0.897283	2.63396	0.386806	8.29581	0.897572	2.63389	0.687216	14.8042	0.376784	8.83503	0.864681	6.29593
0.895676	2.63434	0.388499	8.21602	0.895966	2.63427	0.688551	14.6254	0.378417	8.73833	0.863045	6.3143
0.894066	2.63471	0.3902	8.13861	0.894356	2.63464	0.689892	14.4516	0.380061	8.64477	0.861425	6.33298
0.892453	2.63507	0.391909	8.06346	0.892744	2.63501	0.691238	14.2827	0.381715	8.55421	0.859822	6.35196
0.890838	2.63543	0.393627	7.99049	0.891129	2.63537	0.69259	14.1185	0.383379	8.46651	0.858237	6.37126
0.889221	2.63578	0.395352	7.91959	0.889512	2.63572	0.693948	13.9587	0.385053	8.38153	0.85667	6.39088
0.887601	2.63613	0.397084	7.85069	0.887893	2.63607	0.695311	13.8032	0.386736	8.29916	0.855121	6.41083
0.885979	2.63647	0.398823	7.78369	0.886271	2.63641	0.696678	13.6518	0.388429	8.21927	0.853591	6.43113
0.884354	2.6368	0.400569	7.71852	0.884647	2.63674	0.698051	13.5044	0.390129	8.14176	0.852079	6.45176
0.882727	2.63713	0.402321	7.6551	0.883021	2.63707	0.699427	13.3607	0.391839	8.06652	0.850587	6.47275
0.881099	2.63746	0.404079	7.59336	0.881392	2.6374	0.700808	13.2207	0.393556	7.99346	0.849114	6.4941
0.879468	2.63778	0.405842	7.53324	0.879762	2.63772	0.702193	13.0842	0.39528	7.92248	0.847661	6.51582
0.877834	2.63809	0.407611	7.47467	0.878129	2.63804	0.703582	12.9511	0.397012	7.85349	0.846228	6.53791
0.876199	2.6384	0.409385	7.41758	0.876494	2.63835	0.704974	12.8212	0.398751	7.78641	0.844816	6.56039
0.874562	2.63871	0.411164	7.36193	0.874858	2.63865	0.706369	12.6945	0.400497	7.72117	0.843424	6.58326
0.872923	2.63901	0.412946	7.30765	0.873219	2.63896	0.707768	12.5708	0.402248	7.65768	0.842053	6.60654
0.871283	2.63931	0.414733	7.25469	0.871579	2.63925	0.709169	12.45	0.404006	7.59588	0.840703	6.63022
0.86964	2.6396	0.416524	7.20301	0.869936	2.63954	0.710574	12.3321	0.405769	7.53569	0.839375	6.65432
0.867995	2.63988	0.418318	7.15254	0.868292	2.63983	0.71198	12.2168	0.407538	7.47705	0.838069	6.67884
0.866349	2.64017	0.420115	7.10326	0.866646	2.64012	0.713389	12.1041	0.409312	7.41991	0.836784	6.7038
0.864701	2.64045	0.421915	7.0551	0.864999	2.6404	0.714801	11.994	0.41109	7.3642	0.835522	6.72921
0.863052	2.64072	0.423718	7.00804	0.863349	2.64067	0.716214	11.8863	0.412873	7.30986	0.834282	6.75506
0.861401	2.64099	0.425522	6.96203	0.861698	2.64095	0.717628	11.781	0.41466	7.25685	0.833065	6.78138
0.859748	2.64126	0.427329	6.91703	0.860046	2.64121	0.719045	11.6779	0.41645	7.20511	0.831871	6.80817
0.858094	2.64153	0.429137	6.87301	0.858392	2.64148	0.720462	11.5771	0.418244	7.1546	0.8307	6.83544
0.856438	2.64179	0.430947	6.82993	0.856737	2.64174	0.721881	11.4784	0.420041	7.10527	0.829552	6.86321
0.854781	2.64204	0.432758	6.78775	0.85508	2.642	0.723301	11.3817	0.421841	7.05707	0.828428	6.89147
0.853122	2.6423	0.434569	6.74645	0.853421	2.64225	0.724721	11.2871	0.423643	7.00996	0.827328	6.92024
0.851462	2.64255	0.436381	6.70599	0.851761	2.6425	0.726142	11.1943	0.425448	6.96391	0.826251	6.94953
0.849801	2.6428	0.438193	6.66634	0.8501	2.64275	0.727564	11.1035	0.427255	6.91887	0.825198	6.97935
0.848138	2.64304	0.440004	6.62748	0.848438	2.643	0.728985	11.0144	0.429063	6.87481	0.82417	7.00971
0.846474	2.64328	0.441816	6.58938	0.846774	2.64324	0.730407	10.9271	0.430872	6.83169	0.823166	7.04062
0.844809	2.64352	0.443626	6.552	0.845109	2.64348	0.731828	10.8416	0.432683	6.78947	0.822186	7.07209
0.843142	2.64375	0.445436	6.51533	0.843443	2.64371	0.73325	10.7576	0.434494	6.74813	0.821231	7.10413
0.841474	2.64399	0.447244	6.47934	0.841775	2.64395	0.734488	10.6858	0.436306	6.70764	0.8203	7.13676
0.839806	2.64422	0.449051	6.44401	0.840106	2.64418	0.735543	10.6255	0.438118	6.66796	0.819395	7.16997
0.838136	2.64444	0.450855	6.40932	0.838437	2.6444	0.736415	10.5762	0.43993	6.62907	0.818513	7.20379
0.836464	2.64467	0.452658	6.37523	0.836766	2.64463	0.737104	10.5377	0.441741	6.59093	0.817657	7.23822
0.834792	2.64489	0.454458	6.34174	0.835094	2.64485	0.737611	10.5096	0.443552	6.55353	0.816826	7.27328
0.833119	2.64511	0.456255	6.30882	0.833421	2.64507	0.737935	10.4917	0.445361	6.51683	0.81602	7.30898
0.831445	2.64533	0.458049	6.27645	0.831747	2.64529	0.738401	10.4661	0.447169	6.48082	0.815238	7.34533
0.829769	2.64554	0.45984	6.24462	0.830071	2.6455	0.738907	10.4385	0.448976	6.44546	0.814482	7.38233
0.828093	2.64576	0.461627	6.2133	0.828395	2.64572	0.739596	10.4012	0.450781	6.41074	0.813751	7.42001
0.826416	2.64597	0.46341	6.18248	0.826718	2.64593	0.740466	10.3545	0.452584	6.37663	0.813045	7.45838
0.824738	2.64618	0.465189	6.15214	0.82504	2.64614	0.741518	10.2987	0.454384	6.34311	0.812363	7.49744
0.823059	2.64638	0.466963	6.12226	0.823361	2.64635	0.74275	10.2342	0.456181	6.31017	0.811707	7.53721
0.821379	2.64659	0.468733	6.09283	0.821682	2.64655	0.744163	10.1615	0.457975	6.27778	0.811076	7.5777
0.819698	2.64679	0.470497	6.06384	0.820001	2.64675	0.745574	10.09	0.459766	6.24592	0.810469	7.61893
0.818016	2.64699	0.472256	6.03527	0.818319	2.64695	0.746983	10.0197	0.461553	6.21458	0.809887	7.66091
0.816333	2.64719	0.474009	6.0071	0.816637	2.64715	0.74839	9.95064	0.463337	6.18374	0.809331	7.70365
0.81465	2.64739	0.475757	5.97932	0.814954	2.64735	0.749795	9.88275	0.465116	6.15338	0.808798	7.74716
0.812966	2.64758	0.477497	5.95191	0.81327	2.64755	0.751197	9.81599	0.46689	6.12349	0.808291	7.79147
0.811281	2.64777	0.479232	5.92488	0.811585	2.64774	0.752596	9.75034	0.46866	6.09404	0.807807	7.83658
0.809596	2.64797	0.480959	5.89819	0.809899	2.64793	0.753992	9.68576	0.470425	6.06503	0.807349	7.8825
0.807909	2.64816	0.482679	5.87185	0.808213	2.64812	0.755386	9.62223	0.472184	6.03644	0.806914	7.92926
0.806222	2.64835	0.484392	5.84583	0.806526	2.64831	0.756776	9.55971	0.473937	6.00825	0.806504	7.97687
0.804534	2.64853	0.486097	5.82013	0.804839	2.6485	0.758163	9.49819	0.475685	5.98045	0.806117	8.02534
0.802846	2.64872	0.487794	5.79474	0.80315	2.64869	0.759547	9.43763	0.477426	5.95304	0.805754	8.07469
0.801157	2.64891	0.489482	5.76965	0.801461	2.64887	0.760926	9.378	0.47916	5.92599	0.805415	8.12494
0.799467	2.64909	0.491162	5.74483	0.799772	2.64906	0.762302	9.31929	0.480888	5.89929	0.8051	8.17609
0.797777	2.64927	0.492833	5.7203	0.798081	2.64924	0.763674	9.26147	0.482609	5.87293	0.804808	8.22818
0.796086	2.64945	0.494495	5.69603	0.79639	2.64942	0.765042	9.20452	0.484322	5.8469	0.804539	8.28121
0.794394	2.64963	0.496147	5.67202	0.794699	2.6496	0.766406	9.14841	0.486027	5.82119	0.804293	8.3352
0.792702	2.64981	0.49779	5.64826	0.793007	2.64978	0.767765	9.09313	0.487724	5.79578	0.80407	8.39017
0.791009	2.64999	0.499422	5.62473	0.791314	2.64996	0.769119	9.03864	0.489413	5.77067	0.80387	8.44614
0.789316	2.65016	0.501044	5.60144	0.789621	2.65013	0.770469	8.98494	0.491093	5.74585	0.803692	8.50313
0.787622	2.65034	0.502655	5.57837	0.787927	2.65031	0.771813	8.93199	0.492764	5.72131	0.803536	8.56116
0.785927	2.65051	0.504256	5.55551	0.786233	2.65048	0.773153	8.87979	0.494427	5.69703	0.803403	8.62024
0.784233	2.65069	0.505845	5.53286	0.784538	2.65066	0.774487	8.82832	0.496079	5.67301	0.803291	8.6804
0.782537	2.65086	0.507423	5.51041	0.782843	2.65083	0.775816	8.77755	0.497722	5.64923	0.803201	8.74166
0.780841	2.65103	0.508989	5.48815	0.781147	2.651	0.777139	8.72747	0.499355	5.6257	0.803132	8.80404
0.779145	2.6512	0.510543	5.46608	0.779451	2.65117	0.778456	8.67806	0.500977	5.60239	0.803085	8.86756
0.777448	2.65137	0.512085	5.44419	0.777754	2.65134	0.779768	8.6293	0.502589	5.57931	0.803058	8.93225
0.775751	2.65154	0.513614	5.42247	0.776057	2.65151	0.781073	8.58118	0.50419	5.55645	0.803052	8.99812
0.774053	2.65171	0.515131	5.40092	0.774359	2.65168	0.782372	8.53369	0.50578	5.53379	0.803067	9.0652
0.772355	2.65188	0.516635	5.37953	0.772661	2.65185	0.783665	8.48681	0.507358	5.51133	0.803102	9.13352
0.770656	2.65204	0.518125	5.35829	0.770963	2.65201	0.784952	8.44052	0.508925	5.48907	0.803157	9.2031
0.768958	2.65221	0.519603	5.3372	0.769264	2.65218	0.786231	8.39481	0.510479	5.46699	0.803232	9.27397
0.767258	2.65238	0.521066	5.31626	0.767565	2.65235	0.787504	8.34966	0.512022	5.44509	0.803327	9.34615
0.765558	2.65254	0.522516	5.29545	0.765865	2.65251	0.78877	8.30507	0.513552	5.42336	0.803441	9.41968
0.763858	2.65271	0.523951	5.27478	0.764165	2.65268	0.790028	8.26102	0.515069	5.4018	0.803574	9.49457
0.762158	2.65287	0.525372	5.25424	0.762465	2.65284	0.79128	8.2175	0.516573	5.38041	0.803726	9.57087
0.760457	2.65303	0.526779	5.23382	0.760764	2.653	0.792524	8.17449	0.518064	5.35916	0.803897	9.6486
0.758756	2.6532	0.528171	5.21353	0.759063	2.65317	0.79376	8.13198	0.519542	5.33807	0.804086	9.72779
0.757054	2.65336	0.529548	5.19335	0.757361	2.65333	0.794989	8.08997	0.521006	5.31712	0.804293	9.80847
0.755353	2.65352	0.53091	5.17328	0.755659	2.65349	0.79621	8.04843	0.522456	5.29631	0.804518	9.89069
0.75365	2.65368	0.532256	5.15332	0.753957	2.65365	0.797422	8.00737	0.523892	5.27563	0.804762	9.97446
0.751948	2.65385	0.533588	5.13347	0.752255	2.65382	0.798627	7.96676	0.525314	5.25509	0.805022	10.0598
0.750245	2.65401	0.534904	5.11372	0.750552	2.65398	0.799824	7.9266	0.526721	5.23466	0.8053	10.1468
0.748542	2.65417	0.536204	5.09406	0.748849	2.65414	0.801012	7.88688	0.528113	5.21436	0.805595	10.2355
0.746839	2.65433	0.537488	5.0745	0.747146	2.6543	0.802191	7.84759	0.529491	5.19418	0.805907	10.3259
0.745135	2.65449	0.538757	5.05504	0.745443	2.65446	0.803362	7.80871	0.530854	5.17411	0.806193	10.4061
0.743432	2.65465	0.540009	5.03566	0.743739	2.65462	0.804524	7.77025	0.532201	5.15414	0.806446	10.4756
0.741728	2.65481	0.541245	5.01637	0.742035	2.65478	0.805677	7.73219	0.533533	5.13428	0.806662	10.5338
0.740023	2.65497	0.542466	4.99717	0.74033	2.65494	0.806821	7.69452	0.53485	5.11453	0.806837	10.5803
0.738319	2.65513	0.543669	4.97805	0.738626	2.6551	0.807955	7.65723	0.53615	5.09487	0.806969	10.6147
0.736614	2.65529	0.544857	4.95901	0.736921	2.65526	0.809081	7.62032	0.537435	5.07531	0.807091	10.6467
0.734909	2.65545	0.546028	4.94004	0.735216	2.65542	0.810197	7.58377	0.538705	5.05584	0.807177	10.669
0.733204	2.65561	0.547183	4.92116	0.733511	2.65558	0.811303	7.54758	0.539958	5.03646	0.807314	10.7041
0.731498	2.65577	0.548321	4.90235	0.731806	2.65574	0.8124	7.51175	0.541195	5.01717	0.807503	10.7522
0.729793	2.65593	0.549443	4.88361	0.7301	2.6559	0.813487	7.47626	0.542415	4.99796	0.807747	10.8137
0.728087	2.65609	0.550548	4.86495	0.728394	2.65606	0.814564	7.4411	0.54362	4.97883	0.80805	10.8891
0.726381	2.65625	0.551637	4.84635	0.726689	2.65622	0.815631	7.40628	0.544808	4.95979	0.808416	10.979
0.724675	2.65641	0.552709	4.82783	0.724982	2.65639	0.816688	7.37178	0.54598	4.94082	0.80885	11.0841
0.722969	2.65658	0.553765	4.80938	0.723276	2.65655	0.817735	7.33759	0.547135	4.92193	0.809299	11.1913
0.721262	2.65674	0.554804	4.79099	0.72157	2.65671	0.818772	7.30372	0.548274	4.90312	0.809764	11.3006
0.719556	2.6569	0.555827	4.77268	0.719863	2.65687	0.819798	7.27014	0.549397	4.88438	0.810242	11.4122
0.717849	2.65706	0.556834	4.75443	0.718157	2.65703	0.820814	7.23687	0.550503	4.86572	0.810735	11.5261
0.716142	2.65722	0.557825	4.73624	0.71645	2.65719	0.821819	7.20389	0.551592	4.84712	0.811242	11.6424
0.714435	2.65738	0.558799	4.71812	0.714743	2.65735	0.822813	7.17119	0.552665	4.82859	0.811763	11.7611
0.712728	2.65755	0.559757	4.70007	0.713036	2.65752	0.823797	7.13878	0.553721	4.81014	0.812298	11.8822
0.711021	2.65771	0.5607	4.68208	0.711328	2.65768	0.82477	7.10664	0.554762	4.79175	0.812847	12.0059
0.709313	2.65787	0.561627	4.66416	0.709621	2.65784	0.825732	7.07477	0.555785	4.77343	0.813408	12.1323
0.707606	2.65804	0.562538	4.64631	0.707914	2.65801	0.826684	7.04316	0.556793	4.75518	0.813983	12.2614
0.705898	2.6582	0.563433	4.62852	0.706206	2.65817	0.827624	7.01182	0.557784	4.73699	0.814571	12.3932
0.704191	2.65836	0.564313	4.61079	0.704499	2.65833	0.828553	6.98072	0.558759	4.71887	0.815172	12.5279
0.702483	2.65853	0.565178	4.59313	0.702791	2.6585	0.829471	6.94988	0.559718	4.70081	0.815785	12.6656
0.700775	2.6587	0.566027	4.57554	0.701083	2.65867	0.830378	6.91929	0.560661	4.68283	0.816411	12.8063
0.699067	2.65886	0.566862	4.55802	0.699375	2.65883	0.831273	6.88893	0.561589	4.6649	0.817049	12.9501
0.69736	2.65903	0.567682	4.54056	0.697668	2.659	0.832158	6.85881	0.5625	4.64704	0.817699	13.0972
0.695652	2.6592	0.568488	4.52317	0.69596	2.65917	0.833031	6.82893	0.563396	4.62925	0.818361	13.2476
0.693944	2.65937	0.569279	4.50584	0.694252	2.65933	0.833892	6.79927	0.564277	4.61152	0.819034	13.4014
0.692236	2.65953	0.570056	4.48859	0.692544	2.6595	0.834742	6.76984	0.565142	4.59386	0.819719	13.5588
0.690528	2.6597	0.570819	4.4714	0.690836	2.65967	0.835581	6.74062	0.565993	4.57627	0.820416	13.7198
0.68882	2.65987	0.571569	4.45428	0.689128	2.65984	0.836409	6.71163	0.566828	4.55874	0.821123	13.8846
0.687112	2.66005	0.572304	4.43724	0.687419	2.66002	0.837225	6.68285	0.567649	4.54128	0.821842	14.0533
0.685403	2.66022	0.573027	4.42026	0.685711	2.66019	0.838029	6.65428	0.568455	4.52388	0.822572	14.226
0.683695	2.66039	0.573737	4.40336	0.684003	2.66036	0.838823	6.62592	0.569247	4.50656	0.823312	14.4029
0.681987	2.66057	0.574434	4.38653	0.682295	2.66053	0.839604	6.59775	0.570024	4.4893	0.824063	14.5842
0.680279	2.66074	0.575118	4.36977	0.680587	2.66071	0.840374	6.56979	0.570788	4.47211	0.824824	14.7698
0.678571	2.66092	0.57579	4.35309	0.678879	2.66088	0.841133	6.54203	0.571538	4.45499	0.825595	14.9601
0.676863	2.66109	0.57645	4.33648	0.677171	2.66106	0.84188	6.51446	0.572274	4.43794	0.826376	15.1552
0.675155	2.66127	0.577098	4.31994	0.675463	2.66124	0.842616	6.48709	0.572998	4.42096	0.827168	15.3553
0.673447	2.66145	0.577735	4.30348	0.673755	2.66142	0.84334	6.4599	0.573708	4.40405	0.827969	15.5604
0.671739	2.66163	0.57836	4.2871	0.672047	2.6616	0.844053	6.4329	0.574405	4.38722	0.828779	15.7709
0.670032	2.66181	0.578974	4.2708	0.670339	2.66178	0.844755	6.40608	0.57509	4.37046	0.829599	15.9869
0.668324	2.662	0.579578	4.25458	0.668632	2.66196	0.845445	6.37944	0.575762	4.35377	0.830429	16.2087
0.666616	2.66218	0.580171	4.23843	0.666924	2.66215	0.846124	6.35298	0.576423	4.33716	0.831267	16.4364
0.664908	2.66236	0.580754	4.22237	0.665216	2.66233	0.846792	6.3267	0.577071	4.32062	0.832114	16.6703
0.663201	2.66255	0.581327	4.20639	0.663509	2.66252	0.847448	6.30059	0.577709	4.30416	0.832971	16.9107
0.661493	2.66274	0.58189	4.19049	0.661801	2.6627	0.848093	6.27465	0.578334	4.28778	0.833835	17.1577
0.659786	2.66293	0.582444	4.17467	0.660094	2.66289	0.848727	6.24889	0.578949	4.27147	0.834709	17.4117
0.658079	2.66312	0.582988	4.15893	0.658387	2.66308	0.84935	6.22329	0.579553	4.25525	0.83559	17.673
0.656372	2.66331	0.583524	4.14328	0.65668	2.66328	0.849962	6.19785	0.580147	4.2391	0.83648	17.9418
0.654665	2.6635	0.584051	4.12772	0.654972	2.66347	0.850563	6.17258	0.58073	4.22303	0.837378	18.2185
0.652958	2.6637	0.58457	4.11224	0.653266	2.66366	0.851153	6.14747	0.581303	4.20704	0.838284	18.5034
0.651251	2.6639	0.585081	4.09684	0.651559	2.66386	0.851733	6.12252	0.581867	4.19114	0.839198	18.797
0.649545	2.66409	0.585583	4.08153	0.649852	2.66406	0.852301	6.09773	0.582421	4.17532	0.840119	19.0994
0.647838	2.66429	0.586079	4.06631	0.648146	2.66426	0.852859	6.0731	0.582966	4.15958	0.841048	19.4113
0.646132	2.6645	0.586566	4.05118	0.646439	2.66446	0.853406	6.04862	0.583502	4.14393	0.841984	19.7329
0.644426	2.6647	0.587047	4.03614	0.644733	2.66466	0.853943	6.0243	0.58403	4.12836	0.842927	20.0648
0.64272	2.66491	0.587521	4.02118	0.643027	2.66487	0.854469	6.00012	0.584549	4.11287	0.843877	20.4075
0.641014	2.66511	0.587989	4.00632	0.641322	2.66508	0.854985	5.9761	0.58506	4.09747	0.844834	20.7614
0.639308	2.66532	0.58845	3.99154	0.639616	2.66529	0.855491	5.95223	0.585563	4.08216	0.845797	21.1271
0.637603	2.66553	0.588905	3.97686	0.637911	2.6655	0.855987	5.9285	0.586058	4.06694	0.846767	21.5052
0.635898	2.66575	0.589355	3.96226	0.636205	2.66571	0.856473	5.90492	0.586546	4.0518	0.847744	21.8964
0.634193	2.66596	0.589798	3.94776	0.6345	2.66593	0.856949	5.88149	0.587028	4.03676	0.848726	22.3013
0.632488	2.66618	0.590237	3.93335	0.632796	2.66614	0.857414	5.8582	0.587502	4.0218	0.849715	22.7205
0.630784	2.6664	0.59067	3.91903	0.631091	2.66636	0.857871	5.83505	0.58797	4.00693	0.850709	23.155
0.62908	2.66662	0.591099	3.90481	0.629387	2.66658	0.858317	5.81204	0.588431	3.99215	0.851709	23.6055
0.627376	2.66685	0.591523	3.89068	0.627683	2.66681	0.858755	5.78918	0.588887	3.97746	0.852715	24.073
0.625672	2.66708	0.591942	3.87664	0.625979	2.66704	0.859182	5.76645	0.589336	3.96286	0.853726	24.5583
0.623969	2.66731	0.592357	3.86269	0.624276	2.66726	0.859601	5.74386	0.58978	3.94836	0.854742	25.0624
0.622266	2.66754	0.592769	3.84884	0.622573	2.6675	0.86001	5.72141	0.590219	3.93394	0.855762	25.5866
0.620563	2.66777	0.593176	3.83508	0.62087	2.66773	0.860411	5.6991	0.590652	3.91962	0.856788	26.132
0.618861	2.66801	0.59358	3.82142	0.619167	2.66797	0.860802	5.67692	0.591081	3.90539	0.857817	26.6999
0.617158	2.66825	0.593981	3.80785	0.617465	2.66821	0.861185	5.65488	0.591505	3.89126	0.858852	27.2918
0.615457	2.66849	0.594379	3.79437	0.615763	2.66845	0.861559	5.63296	0.591925	3.87721	0.85989	27.909
0.613755	2.66874	0.594774	3.78099	0.614062	2.6687	0.861925	5.61119	0.59234	3.86326	0.860931	28.5534
0.612054	2.66899	0.595166	3.7677	0.612361	2.66894	0.862282	5.58954	0.592752	3.84941	0.861977	29.2267
0.610353	2.66924	0.595555	3.75451	0.61066	2.6692	0.862632	5.56802	0.593159	3.83565	0.863025	29.9308
0.608653	2.6695	0.595942	3.74141	0.60896	2.66945	0.862973	5.54664	0.593564	3.82198	0.864077	30.668
0.606953	2.66975	0.596327	3.72841	0.60726	2.66971	0.863305	5.52538	0.593965	3.8084	0.865131	31.4405
0.605254	2.67002	0.596711	3.7155	0.60556	2.66997	0.863631	5.50425	0.594362	3.79492	0.866187	32.2511
0.603554	2.67028	0.597092	3.70268	0.603861	2.67023	0.863948	5.48325	0.594757	3.78154	0.867246	33.1025
0.601856	2.67055	0.597472	3.68997	0.602162	2.6705	0.864258	5.46238	0.595149	3.76825	0.868306	33.9979
0.600158	2.67082	0.59785	3.67734	0.600464	2.67077	0.864561	5.44163	0.595539	3.75505	0.869367	34.9408
0.59846	2.6711	0.598228	3.66481	0.598766	2.67105	0.864856	5.42101	0.595926	3.74195	0.870429	35.9349
0.596762	2.67138	0.598604	3.65237	0.597068	2.67133	0.865144	5.40052	0.596312	3.72894	0.871492	36.9847
0.595066	2.67166	0.598979	3.64003	0.595372	2.67161	0.865425	5.38015	0.596695	3.71603	0.872555	38.0949
0.593369	2.67195	0.599353	3.62778	0.593675	2.6719	0.865699	5.3599	0.597076	3.70321	0.873617	39.2708
0.591674	2.67224	0.599727	3.61563	0.591979	2.67219	0.865966	5.33977	0.597456	3.69049	0.874678	40.5185
0.589978	2.67254	0.600101	3.60357	0.590284	2.67248	0.866227	5.31977	0.597835	3.67786	0.875737	41.8446
0.588284	2.67284	0.600474	3.5916	0.588589	2.67278	0.866481	5.29989	0.598212	3.66532	0.876794	43.2568
0.58659	2.67314	0.600847	3.57972	0.586895	2.67308	0.866729	5.28013	0.598588	3.65288	0.877848	44.7637
0.584896	2.67345	0.60122	3.56794	0.585201	2.67339	0.866971	5.26049	0.598963	3.64054	0.878898	46.3752
0.583203	2.67376	0.601593	3.55625	0.583508	2.6737	0.867207	5.24097	0.599338	3.62829	0.879944	48.1025
0.581511	2.67408	0.601919	3.54614	0.581816	2.67402	0.867437	5.22157	0.599712	3.61613	0.880985	49.9586
0.579819	2.6744	0.602197	3.53758	0.580124	2.67434	0.867661	5.20229	0.600085	3.60406	0.882019	51.9584
0.578128	2.67473	0.602427	3.53054	0.578433	2.67467	0.867879	5.18312	0.600459	3.59209	0.883046	54.1192
0.576438	2.67506	0.602609	3.52499	0.576743	2.675	0.868092	5.16408	0.600832	3.58021	0.884064	56.4613
0.574748	2.6754	0.602742	3.52093	0.575053	2.67534	0.8683	5.14515	0.601205	3.56843	0.885072	59.0085
0.57306	2.67575	0.602828	3.51834	0.573364	2.67569	0.868502	5.12634	0.601578	3.55673	0.886068	61.7889
0.571371	2.6761	0.602952	3.51462	0.571676	2.67603	0.8687	5.10764	0.601952	3.54513	0.887052	64.8362
0.569684	2.67645	0.603086	3.51058	0.569988	2.67639	0.868892	5.08906	0.602326	3.53363	0.888022	68.1906
0.567998	2.67681	0.603268	3.50512	0.568302	2.67675	0.86908	5.07059	0.6027	3.52221	0.888974	71.9012
0.566312	2.67718	0.603499	3.49823	0.566616	2.67712	0.869263	5.05224	0.603076	3.51089	0.889909	76.0279
0.564627	2.67756	0.60378	3.48996	0.564931	2.67749	0.869441	5.034	0.603452	3.49965	0.890822	80.645
0.562943	2.67794	0.604109	3.48031	0.563246	2.67787	0.869615	5.01587	0.603829	3.48851	0.891712	85.8455
0.56126	2.67832	0.604488	3.46933	0.561563	2.67825	0.869784	4.99786	0.604207	3.47746	0.892575	91.7476
0.559578	2.67872	0.604868	3.45843	0.559881	2.67865	0.86995	4.97996	0.604586	3.4665	0.89341	98.5039
0.557896	2.67912	0.60525	3.44763	0.558199	2.67905	0.870111	4.96217	0.604967	3.45563	0.894211	106.315
0.556216	2.67953	0.605633	3.43691	0.556519	2.67945	0.870269	4.94449	0.605349	3.44485	0.894977	115.449
0.554537	2.67994	0.606017	3.42629	0.554839	2.67987	0.870422	4.92692	0.605732	3.43416	0.895703	126.273
0.552858	2.68037	0.606404	3.41575	0.553161	2.68029	0.870573	4.90946	0.606117	3.42355	0.896385	139.308
0.551181	2.6808	0.606792	3.4053	0.551484	2.68072	0.870719	4.89211	0.606504	3.41304	0.897018	155.308
0.549505	2.68124	0.607182	3.39494	0.549807	2.68116	0.870862	4.87487	0.606893	3.40261	0.897599	175.417
0.54783	2.68168	0.607575	3.38466	0.548132	2.6816	0.871002	4.85774	0.607284	3.39227	0.898123	201.457
0.546157	2.68214	0.607969	3.37447	0.546458	2.68206	0.871139	4.84072	0.607676	3.38202	0.898586	236.512
0.544484	2.68261	0.608365	3.36437	0.544785	2.68252	0.871273	4.8238	0.608071	3.37185	0.898983	286.253
0.542813	2.68308	0.608764	3.35436	0.543114	2.683	0.871403	4.80699	0.608468	3.36177	0.89931	362.375
0.541143	2.68357	0.609165	3.34443	0.541444	2.68348	0.871531	4.79029	0.608868	3.35178	0.899564	493.479
0.539474	2.68406	0.609569	3.33458	0.539775	2.68397	0.871656	4.77369	0.60927	3.34187	0.899742	772.912
0.537807	2.68456	0.609975	3.32482	0.538107	2.68447	0.871779	4.7572	0.609674	3.33205	0.899842	1780.86
0.536141	2.68508	0.610384	3.31515	0.536441	2.68498	0.871899	4.74081	0.610081	3.32231		
0.534476	2.6856	0.610796	3.30555	0.534776	2.68551	0.872017	4.72453	0.61049	3.31266		
0.532813	2.68614	0.61121	3.29604	0.533113	2.68604	0.872133	4.70835	0.610903	3.30308		
0.531152	2.68669	0.611627	3.28662	0.531451	2.68659	0.872247	4.69227	0.611318	3.2936		
0.529492	2.68724	0.612048	3.27727	0.529791	2.68714	0.872358	4.6763	0.611736	3.28419		
0.527834	2.68782	0.612471	3.26801	0.528133	2.68771	0.872468	4.66043	0.612157	3.27487		
0.526177	2.6884	0.612897	3.25883	0.526476	2.68829	0.872575	4.64466	0.612581	3.26563		
0.524523	2.689	0.613326	3.24973	0.524821	2.68889	0.872682	4.62899	0.613008	3.25647		
0.52287	2.68961	0.613759	3.24071	0.523168	2.6895	0.872786	4.61343	0.613438	3.24739		
0.521219	2.69023	0.614195	3.23177	0.521516	2.69012	0.872889	4.59796	0.613872	3.23839		
0.51957	2.69087	0.614634	3.22291	0.519867	2.69075	0.872991	4.58259	0.614308	3.22947		
0.517923	2.69152	0.615077	3.21413	0.518219	2.6914	0.873091	4.56732	0.614749	3.22063		
0.516277	2.69219	0.615523	3.20542	0.516574	2.69207	0.87319	4.55215	0.615192	3.21187		
0.514635	2.69287	0.615973	3.1968	0.514931	2.69275	0.873289	4.53708	0.615639	3.20318		
0.512994	2.69358	0.616426	3.18825	0.513289	2.69345	0.873386	4.52211	0.61609	3.19458		
0.511355	2.69429	0.616883	3.17978	0.511651	2.69416	0.873482	4.50723	0.616544	3.18605		
0.509719	2.69503	0.617344	3.17138	0.510014	2.69489	0.873577	4.49245	0.617002	3.1776		
0.508086	2.69578	0.617808	3.16306	0.50838	2.69564	0.873672	4.47777	0.617463	3.16922		
0.506455	2.69655	0.618276	3.15482	0.506748	2.69641	0.873766	4.46318	0.617929	3.16092		
0.504826	2.69734	0.618748	3.14665	0.505119	2.6972	0.87386	4.44869	0.618398	3.1527		
0.5032	2.69815	0.619224	3.13855	0.503493	2.69801	0.873953	4.43429	0.618871	3.14455		
0.501577	2.69898	0.619704	3.13053	0.50187	2.69883	0.874046	4.41999	0.619348	3.13647		
0.499957	2.69984	0.620187	3.12258	0.500249	2.69968	0.874138	4.40578	0.619828	3.12847		
0.49834	2.70071	0.620675	3.11471	0.498631	2.70055	0.87423	4.39166	0.620313	3.12054		
0.496726	2.70161	0.621167	3.1069	0.497017	2.70145	0.874323	4.37763	0.620802	3.11268		
0.495115	2.70253	0.621663	3.09917	0.495405	2.70237	0.874415	4.3637	0.621295	3.10489		
0.493508	2.70348	0.622163	3.09151	0.493797	2.70331	0.874507	4.34986	0.621792	3.09718		
0.491903	2.70445	0.622667	3.08392	0.492192	2.70428	0.8746	4.33611	0.622293	3.08954		
0.490303	2.70545	0.623175	3.0764	0.490591	2.70527	0.874692	4.32245	0.622798	3.08197		
0.488706	2.70648	0.623688	3.06895	0.488994	2.70629	0.874785	4.30888	0.623308	3.07446		
0.487113	2.70754	0.624205	3.06157	0.4874	2.70734	0.874878	4.2954	0.623821	3.06703		
0.485524	2.70862	0.624726	3.05425	0.48581	2.70842	0.874972	4.28201	0.624339	3.05967		
0.483939	2.70974	0.625252	3.04701	0.484224	2.70954	0.875066	4.26871	0.624862	3.05237		
0.482358	2.71089	0.625782	3.03983	0.482643	2.71068	0.875161	4.2555	0.625388	3.04515		
0.480781	2.71207	0.626316	3.03272	0.481065	2.71185	0.875257	4.24237	0.625919	3.03799		
0.47921	2.71329	0.626855	3.02568	0.479493	2.71306	0.875353	4.22934	0.626455	3.03089		
0.477642	2.71454	0.627398	3.0187	0.477925	2.71431	0.87545	4.21638	0.626995	3.02387		
0.47608	2.71583	0.627945	3.01179	0.476361	2.71559	0.875548	4.20352	0.627539	3.01691		
0.474523	2.71716	0.628498	3.00494	0.474803	2.71691	0.875647	4.19074	0.628088	3.01001		
0.472971	2.71852	0.629054	2.99816	0.47325	2.71827	0.875747	4.17804	0.628641	3.00318		
0.471424	2.71993	0.629616	2.99144	0.471703	2.71968	0.875848	4.16543	0.629199	2.99642		
0.469883	2.72139	0.630181	2.98479	0.47016	2.72112	0.87595	4.15291	0.629762	2.98972		
0.468348	2.72288	0.630752	2.9782	0.468624	2.72261	0.876054	4.14046	0.630329	2.98308		
0.466819	2.72443	0.631327	2.97167	0.467094	2.72415	0.876158	4.12811	0.6309	2.9765		
0.465296	2.72602	0.631907	2.9652	0.46557	2.72573	0.876264	4.11583	0.631476	2.96999		
0.463779	2.72767	0.632491	2.9588	0.464052	2.72737	0.876372	4.10364	0.632057	2.96354		
0.46227	2.72936	0.63308	2.95245	0.462541	2.72905	0.876481	4.09152	0.632643	2.95715		
0.460767	2.73111	0.633673	2.94617	0.461037	2.73079	0.876591	4.07949	0.633233	2.95082		
0.459271	2.73292	0.634272	2.93995	0.45954	2.73259	0.876703	4.06754	0.633828	2.94455		
0.457783	2.73479	0.634875	2.93378	0.458051	2.73444	0.876817	4.05567	0.634427	2.93835		
0.456302	2.73671	0.635483	2.92768	0.456569	2.73636	0.876932	4.04388	0.635032	2.9322		
0.45483	2.7387	0.636095	2.92163	0.455095	2.73834	0.877049	4.03217	0.635641	2.92611		
0.453365	2.74076	0.636712	2.91565	0.453629	2.74038	0.877168	4.02054	0.636254	2.92008		
0.451909	2.74288	0.637335	2.90972	0.452171	2.74249	0.877288	4.00899	0.636873	2.91411		
0.450462	2.74507	0.637961	2.90384	0.450722	2.74467	0.877411	3.99751	0.637496	2.90819		
0.449024	2.74734	0.638593	2.89803	0.449283	2.74692	0.877535	3.98612	0.638124	2.90233		
0.447595	2.74968	0.639229	2.89227	0.447852	2.74925	0.877662	3.9748	0.638757	2.89653		
0.446176	2.7521	0.639871	2.88657	0.446432	2.75166	0.877791	3.96355	0.639395	2.89079		
0.444767	2.7546	0.640517	2.88092	0.445021	2.75414	0.877921	3.95239	0.640037	2.8851		
0.443368	2.75719	0.641168	2.87533	0.44362	2.75672	0.878054	3.94129	0.640685	2.87947		
0.44198	2.75986	0.641823	2.86979	0.44223	2.75937	0.878189	3.93028	0.641337	2.87389		
0.440603	2.76263	0.642484	2.8643	0.44085	2.76212	0.878326	3.91934	0.641994	2.86836		
0.439237	2.76548	0.643149	2.85887	0.439482	2.76496	0.878466	3.90847	0.642656	2.86289		
0.437882	2.76844	0.64382	2.8535	0.438125	2.7679	0.878608	3.89768	0.643322	2.85748		
0.436539	2.77149	0.644495	2.84817	0.43678	2.77093	0.878752	3.88696	0.643994	2.85211		
0.435208	2.77465	0.645175	2.8429	0.435447	2.77407	0.878899	3.87631	0.64467	2.8468		
0.43389	2.77791	0.64586	2.83768	0.434127	2.77732	0.879048	3.86574	0.645352	2.84155		
0.432585	2.78128	0.646549	2.83251	0.432819	2.78067	0.8792	3.85523	0.646038	2.83634		
0.431292	2.78477	0.647244	2.8274	0.431524	2.78413	0.879354	3.8448	0.646729	2.83118		
0.430013	2.78837	0.647943	2.82233	0.430243	2.78772	0.879511	3.83444	0.647424	2.82608		
0.428748	2.7921	0.648648	2.81731	0.428975	2.79142	0.879671	3.82416	0.648125	2.82103		
0.427497	2.79594	0.649357	2.81235	0.427721	2.79524	0.879833	3.81394	0.648831	2.81602		
0.426259	2.79992	0.650071	2.80743	0.426481	2.79919	0.879998	3.80379	0.649541	2.81107		
0.425037	2.80402	0.65079	2.80256	0.425256	2.80327	0.880165	3.79371	0.650257	2.80616		
0.423829	2.80826	0.651514	2.79774	0.424046	2.80748	0.880336	3.7837	0.650977	2.80131		
0.422636	2.81263	0.652243	2.79297	0.42285	2.81183	0.880509	3.77376	0.651702	2.7965		
0.421459	2.81715	0.652976	2.78824	0.42167	2.81632	0.880685	3.76389	0.652432	2.79174		
0.420297	2.82181	0.653715	2.78357	0.420506	2.82096	0.880864	3.75408	0.653167	2.78703		
0.419151	2.82662	0.654458	2.77894	0.419357	2.82574	0.881046	3.74434	0.653907	2.78236		
0.418021	2.83158	0.655207	2.77435	0.418224	2.83067	0.881231	3.73467	0.654652	2.77774		
0.416907	2.83669	0.65596	2.76981	0.417107	2.83576	0.881419	3.72507	0.655401	2.77317		
0.415809	2.84196	0.656718	2.76532	0.416006	2.841	0.88161	3.71553	0.656156	2.76865		
0.414728	2.84739	0.657481	2.76088	0.414922	2.8464	0.881804	3.70606	0.656915	2.76417		
0.413664	2.85299	0.658249	2.75647	0.413854	2.85197	0.882002	3.69665	0.657679	2.75973		
0.412616	2.85875	0.659021	2.75212	0.412804	2.8577	0.882202	3.68731	0.658448	2.75534		
0.411585	2.86469	0.659799	2.7478	0.41177	2.8636	0.882405	3.67804	0.659222	2.751		
0.410571	2.87079	0.660581	2.74354	0.410753	2.86968	0.882612	3.66882	0.660001	2.7467		
0.409575	2.87708	0.661368	2.73931	0.409753	2.87593	0.882822	3.65967	0.660784	2.74244		
0.408595	2.88354	0.66216	2.73513	0.40877	2.88236	0.883035	3.65059	0.661573	2.73822		
0.407633	2.89019	0.662957	2.73099	0.407805	2.88897	0.883252	3.64156	0.662366	2.73405		
0.406688	2.89702	0.663759	2.72689	0.406857	2.89577	0.883472	3.6326	0.663164	2.72992		
0.40576	2.90404	0.664566	2.72283	0.405926	2.90276	0.883695	3.6237	0.663967	2.72584		
0.404849	2.91125	0.665377	2.71882	0.405012	2.90993	0.883921	3.61487	0.664775	2.72179		
0.403956	2.91865	0.666193	2.71485	0.404116	2.9173	0.884151	3.60609	0.665588	2.71779		
0.40308	2.92625	0.667014	2.71091	0.403237	2.92487	0.884385	3.59738	0.666405	2.71382		
0.402222	2.93405	0.66784	2.70702	0.402375	2.93263	0.884621	3.58872	0.667228	2.7099		
0.401381	2.94205	0.668671	2.70317	0.401531	2.9406	0.884862	3.58013	0.668055	2.70602		
0.400556	2.95026	0.669506	2.69936	0.400704	2.94877	0.885106	3.5716	0.668887	2.70218		
0.39975	2.95867	0.670347	2.69559	0.399894	2.95714	0.885353	3.56312	0.669723	2.69838		
0.39896	2.9673	0.671192	2.69185	0.399101	2.96573	0.885604	3.55471	0.670565	2.69462		
0.398187	2.97613	0.672042	2.68816	0.398325	2.97453	0.885858	3.54635	0.671411	2.69089		
0.397432	2.98519	0.672896	2.6845	0.397567	2.98354	0.886116	3.53805	0.672262	2.68721		
0.396693	2.99446	0.673756	2.68089	0.396825	2.99277	0.886378	3.52981	0.673118	2.68356		
0.395971	3.00395	0.67462	2.67731	0.3961	3.00222	0.886643	3.52163	0.673979	2.67996		
0.395266	3.01366	0.675489	2.67377	0.395392	3.01189	0.886912	3.5135	0.674844	2.67639		
0.394578	3.0236	0.676363	2.67026	0.394701	3.02179	0.887185	3.50544	0.675715	2.67285		
0.393906	3.03377	0.677241	2.66679	0.394026	3.03192	0.887462	3.49742	0.67659	2.66936		
0.393251	3.04417	0.678124	2.66336	0.393368	3.04228	0.887742	3.48947	0.677469	2.6659		
0.392613	3.0548	0.679012	2.65997	0.392726	3.05287	0.888026	3.48157	0.678354	2.66248		
0.39199	3.06568	0.679905	2.65661	0.392101	3.0637	0.888313	3.47373	0.679243	2.65909		
0.391384	3.07679	0.680803	2.65328	0.391492	3.07477	0.888605	3.46594	0.680137	2.65574		
0.390794	3.08815	0.681705	2.65	0.390899	3.08608	0.8889	3.4582	0.681036	2.65243		
0.39022	3.09975	0.682612	2.64674	0.390323	3.09764	0.8892	3.45052	0.681939	2.64915		
0.389662	3.1116	0.683524	2.64353	0.389762	3.10944	0.889503	3.4429	0.682848	2.64591		
0.38912	3.1237	0.68444	2.64034	0.389217	3.1215	0.88981	3.43532	0.68376	2.6427		
0.388594	3.13607	0.685362	2.6372	0.388688	3.13382	0.89012	3.42781	0.684678	2.63953		
0.388083	3.14869	0.686288	2.63408	0.388174	3.14639	0.890435	3.42034	0.685601	2.63639		
0.387588	3.16157	0.687218	2.631	0.387677	3.15923	0.890754	3.41293	0.686528	2.63328		
0.387109	3.17472	0.688154	2.62795	0.387194	3.17233	0.891077	3.40557	0.68746	2.63021		
0.386645	3.18814	0.689094	2.62494	0.386727	3.1857	0.891403	3.39826	0.688397	2.62717		
0.386196	3.20183	0.69004	2.62196	0.386276	3.19934	0.891734	3.391	0.689338	2.62417		
0.385762	3.2158	0.69099	2.61902	0.385839	3.21326	0.892069	3.3838	0.690285	2.6212		
0.385344	3.23005	0.691944	2.6161	0.385418	3.22746	0.892407	3.37665	0.691236	2.61826		
0.38494	3.24459	0.692904	2.61322	0.385012	3.24194	0.89275	3.36954	0.692192	2.61535		
0.384552	3.25941	0.693869	2.61037	0.384621	3.25672	0.893097	3.36249	0.693153	2.61248		
0.384178	3.27453	0.694838	2.60756	0.384245	3.27178	0.893448	3.35549	0.694119	2.60964		
0.38382	3.28994	0.695813	2.60478	0.383883	3.28714	0.893803	3.34854	0.69509	2.60684		
0.383475	3.30566	0.696793	2.60203	0.383536	3.30281	0.894162	3.34163	0.696066	2.60406		
0.383146	3.32169	0.697777	2.59931	0.383204	3.31877	0.894525	3.33478	0.697047	2.60132		
0.382831	3.33802	0.698767	2.59662	0.382887	3.33505	0.894892	3.32798	0.698033	2.59861		
0.38253	3.35467	0.699763	2.59397	0.382584	3.35165	0.895264	3.32122	0.699024	2.59593		
0.382244	3.37164	0.700763	2.59135	0.382295	3.36856	0.895639	3.31451	0.700021	2.59329		
0.381972	3.38894	0.701769	2.58877	0.38202	3.38579	0.896019	3.30785	0.701023	2.59068		
0.381715	3.40656	0.702781	2.58622	0.38176	3.40336	0.896403	3.30124	0.702031	2.5881		
0.381471	3.42452	0.703799	2.5837	0.381514	3.42126	0.896791	3.29468	0.703044	2.58556		
0.381242	3.44283	0.704824	2.58121	0.381282	3.4395	0.897184	3.28816	0.704064	2.58305		
0.381027	3.46148	0.705854	2.57877	0.381064	3.45809	0.89758	3.28169	0.70509	2.58058		
0.380825	3.48048	0.706892	2.57636	0.380861	3.47703	0.897981	3.27527	0.706122	2.57814		
0.380638	3.49984	0.707937	2.57399	0.380671	3.49632	0.898387	3.26889	0.707162	2.57574		
0.380464	3.51956	0.70899	2.57166	0.380494	3.51598	0.898796	3.26256	0.708209	2.57338		
0.380304	3.53965	0.710052	2.56937	0.380332	3.536	0.89921	3.25628	0.709264	2.57106		
0.380158	3.56012	0.711125	2.56713	0.380183	3.5564	0.899628	3.25004	0.710329	2.56878		
0.380025	3.58097	0.712208	2.56494	0.380048	3.57718	0.90005	3.24384	0.711404	2.56656		
0.379906	3.60221	0.713305	2.56281	0.379926	3.59835	0.900477	3.23769	0.712491	2.56438		
0.3798	3.62384	0.714417	2.56074	0.379818	3.61991	0.900908	3.23159	0.713591	2.56227		
0.379707	3.64588	0.715548	2.55876	0.379723	3.64187	0.901344	3.22553	0.714708	2.56022		
0.379628	3.66832	0.716702	2.55686	0.379642	3.66424	0.901784	3.21951	0.715844	2.55825		
0.379562	3.69118	0.717885	2.55507	0.379573	3.68703	0.902228	3.21354	0.717005	2.55638		
0.37951	3.71447	0.719103	2.55342	0.379518	3.71024	0.902676	3.20761	0.718196	2.55463		
0.37947	3.73819	0.720365	2.55193	0.379476	3.73388	0.903129	3.20173	0.719425	2.55302		
0.379444	3.76234	0.721679	2.55063	0.379447	3.75795	0.903587	3.19588	0.720699	2.55157		
0.37943	3.78695	0.723053	2.54955	0.379432	3.78248	0.904049	3.19008	0.722028	2.55033		
0.379429	3.812	0.72449	2.5487	0.379429	3.80745	0.904515	3.18433	0.723418	2.54931		
0.379442	3.83753	0.72599	2.54807	0.379439	3.83289	0.904986	3.17861	0.724873	2.54852		
0.379467	3.86352	0.727547	2.54765	0.379461	3.8588	0.905461	3.17294	0.726388	2.54794		
0.379504	3.89	0.729152	2.54739	0.379497	3.88519	0.905941	3.16731	0.727958	2.54757		
0.379555	3.91696	0.730796	2.54727	0.379545	3.91207	0.906425	3.16172	0.729574	2.54735		
0.379618	3.94443	0.73247	2.54725	0.379605	3.93944	0.906914	3.15617	0.731227	2.54726		
0.379693	3.97241	0.734167	2.54732	0.379678	3.96733	0.907407	3.15066	0.732907	2.54727		
0.379781	4.0009	0.735883	2.54745	0.379764	3.99573	0.907905	3.1452	0.73461	2.54735		
0.379881	4.02993	0.737612	2.54763	0.379862	4.02465	0.908408	3.13977	0.736329	2.54749		
0.379993	4.05949	0.739352	2.54784	0.379972	4.05412	0.908914	3.13439	0.738061	2.54768		
0.380118	4.0896	0.7411	2.54808	0.380094	4.08413	0.909426	3.12904	0.739804	2.5479		
0.380255	4.12028	0.742856	2.54834	0.380229	4.11471	0.909942	3.12374	0.741554	2.54814		
0.380403	4.15153	0.744616	2.54862	0.380376	4.14585	0.910463	3.11847	0.743311	2.54841		
0.380564	4.18336	0.746381	2.54892	0.380534	4.17758	0.910988	3.11325	0.745073	2.5487		
0.380737	4.21579	0.74815	2.54922	0.380705	4.2099	0.911518	3.10806	0.746839	2.54899		
0.380921	4.24883	0.749922	2.54953	0.380887	4.24282	0.912052	3.10291	0.748608	2.5493		
0.381118	4.28248	0.751696	2.54985	0.381081	4.27637	0.912592	3.0978	0.750381	2.54962		
0.381325	4.31678	0.753472	2.55018	0.381287	4.31055	0.913135	3.09273	0.752155	2.54994		
0.381545	4.35172	0.75525	2.55051	0.381504	4.34537	0.913684	3.0877	0.753932	2.55026		
0.381776	4.38732	0.757029	2.55084	0.381733	4.38085	0.914237	3.08271	0.75571	2.5506		
0.382018	4.42359	0.758809	2.55118	0.381974	4.417	0.914795	3.07775	0.757489	2.55093		
0.382272	4.46056	0.760591	2.55152	0.382225	4.45384	0.915358	3.07283	0.75927	2.55127		
0.382537	4.49823	0.762373	2.55186	0.382488	4.49138	0.915925	3.06795	0.761052	2.5516		
0.382813	4.53662	0.764156	2.5522	0.382762	4.52965	0.916497	3.06311	0.762834	2.55194		
0.3831	4.57575	0.76594	2.55254	0.383048	4.56864	0.917074	3.0583	0.764618	2.55228		
0.383398	4.61563	0.767724	2.55288	0.383344	4.60838	0.917655	3.05353	0.766402	2.55263		
0.383707	4.65628	0.769509	2.55322	0.383651	4.64889	0.918242	3.0488	0.768186	2.55297		
0.384027	4.69772	0.771294	2.55356	0.383969	4.69019	0.918833	3.0441	0.769971	2.55331		
0.384358	4.73996	0.773079	2.5539	0.384297	4.73228	0.919429	3.03944	0.771756	2.55365		
0.384699	4.78303	0.774865	2.55424	0.384637	4.7752	0.92003	3.03482	0.773541	2.55399		
0.38505	4.82694	0.776651	2.55458	0.384986	4.81896	0.920635	3.03023	0.775327	2.55433		
0.385412	4.87171	0.778437	2.55492	0.385346	4.86357	0.921246	3.02568	0.777113	2.55467		
0.385785	4.91736	0.780224	2.55526	0.385717	4.90907	0.921861	3.02117	0.778899	2.55501		
0.386167	4.96393	0.78201	2.55559	0.386098	4.95546	0.922481	3.01669	0.780686	2.55534		
0.38656	5.01141	0.783796	2.55593	0.386489	5.00278	0.923106	3.01224	0.782472	2.55568		
0.386963	5.05985	0.785583	2.55626	0.386889	5.05104	0.923736	3.00783	0.784259	2.55602		
0.387375	5.10925	0.78737	2.5566	0.3873	5.10027	0.924371	3.00345	0.786045	2.55635		
0.387798	5.15966	0.789156	2.55693	0.387721	5.1505	0.925011	2.99911	0.787832	2.55668		
0.38823	5.21108	0.790943	2.55726	0.388151	5.20174	0.925656	2.99481	0.789619	2.55701		
0.388671	5.26356	0.79273	2.55759	0.388591	5.25402	0.926306	2.99054	0.791405	2.55734		
0.389122	5.3171	0.794516	2.55791	0.38904	5.30737	0.926961	2.9863	0.793192	2.55767		
0.389582	5.37175	0.796303	2.55824	0.389499	5.36181	0.927621	2.98209	0.794978	2.558		
0.390052	5.42753	0.798089	2.55856	0.389966	5.41738	0.928286	2.97793	0.796765	2.55832		
0.39053	5.48446	0.799876	2.55889	0.390443	5.47411	0.928956	2.97379	0.798552	2.55865		
0.391018	5.54259	0.801662	2.55921	0.390929	5.53202	0.929631	2.96969	0.800338	2.55897		
0.391514	5.60194	0.803448	2.55953	0.391424	5.59115	0.930311	2.96562	0.802124	2.55929		
0.392019	5.66255	0.805235	2.55985	0.391928	5.65152	0.930996	2.96158	0.803911	2.55961		
0.392533	5.72444	0.807021	2.56016	0.39244	5.71318	0.931687	2.95758	0.805697	2.55993		
0.392988	5.77946	0.808807	2.56048	0.392961	5.77616	0.932382	2.95361	0.807483	2.56024		
0.39338	5.82717	0.810593	2.56079	0.39349	5.8405	0.933083	2.94968	0.809269	2.56056		
0.393708	5.8672	0.812379	2.5611	0.394027	5.90623	0.933789	2.94577	0.811055	2.56087		
0.39397	5.89923	0.814164	2.56141	0.394572	5.97339	0.9345	2.9419	0.812841	2.56118		
0.394163	5.92299	0.81595	2.56172	0.395125	6.04202	0.935217	2.93807	0.814626	2.56149		
0.394342	5.94502	0.817735	2.56202	0.395686	6.11218	0.935938	2.93426	0.816412	2.5618		
0.394467	5.96044	0.819521	2.56233	0.396255	6.18389	0.936665	2.93049	0.818197	2.5621		
0.394663	5.98468	0.821306	2.56263	0.396831	6.25722	0.937398	2.92675	0.819983	2.56241		
0.394932	6.01795	0.823091	2.56293	0.397415	6.3322	0.938136	2.92304	0.821768	2.56271		
0.395274	6.06053	0.824876	2.56323	0.398005	6.40888	0.938879	2.91936	0.823553	2.56301		
0.395691	6.11281	0.826661	2.56353	0.398603	6.48733	0.939628	2.91572	0.825338	2.56331		
0.396186	6.17522	0.828445	2.56383	0.399208	6.56759	0.940382	2.9121	0.827122	2.56361		
0.396762	6.24835	0.83023	2.56412	0.399819	6.64972	0.941141	2.90852	0.828907	2.5639		
0.397344	6.32313	0.832014	2.56441	0.400437	6.73378	0.941906	2.90497	0.830691	2.5642		
0.397934	6.39961	0.833798	2.56471	0.401061	6.81983	0.942677	2.90145	0.832476	2.56449		
0.398531	6.47784	0.835582	2.565	0.401692	6.90794	0.943453	2.89796	0.83426	2.56478		
0.399135	6.55788	0.837366	2.56528	0.402329	6.99818	0.944235	2.89451	0.836044	2.56507		
0.399746	6.63979	0.83915	2.56557	0.402971	7.09061	0.945022	2.89108	0.837827	2.56536		
0.400363	6.72361	0.840933	2.56585	0.403619	7.18531	0.945815	2.88769	0.839611	2.56564		
0.400986	6.80942	0.842716	2.56614	0.404273	7.28236	0.946614	2.88433	0.841395	2.56593		
0.401616	6.89728	0.8445	2.56642	0.404932	7.38183	0.947419	2.881	0.843178	2.56621		
0.402252	6.98726	0.846282	2.5667	0.405596	7.48382	0.948229	2.87769	0.844961	2.56649		
0.402894	7.07942	0.848065	2.56698	0.406266	7.58841	0.949046	2.87442	0.846744	2.56677		
0.403542	7.17385	0.849848	2.56725	0.40694	7.6957	0.949868	2.87119	0.848527	2.56705		
0.404195	7.27061	0.85163	2.56753	0.407618	7.80578	0.950696	2.86798	0.850309	2.56732		
0.404853	7.36979	0.853413	2.5678	0.408301	7.91876	0.95153	2.8648	0.852092	2.5676		
0.405517	7.47148	0.855195	2.56807	0.408988	8.03475	0.95237	2.86165	0.853874	2.56787		
0.406185	7.57575	0.856977	2.56834	0.409679	8.15385	0.953216	2.85854	0.855656	2.56814		
0.406859	7.68271	0.858758	2.56861	0.410373	8.2762	0.954068	2.85545	0.857438	2.56841		
0.407537	7.79245	0.86054	2.56888	0.411072	8.40191	0.954926	2.85239	0.859219	2.56868		
0.408219	7.90508	0.862321	2.56914	0.411773	8.53112	0.955791	2.84937	0.861001	2.56895		
0.408906	8.0207	0.864103	2.56941	0.412477	8.66397	0.956661	2.84637	0.862782	2.56921		
0.409596	8.13942	0.865884	2.56967	0.413185	8.80061	0.957538	2.84341	0.864563	2.56947		
0.41029	8.26137	0.867664	2.56993	0.413895	8.94119	0.958422	2.84048	0.866344	2.56973		
0.410988	8.38668	0.869445	2.57019	0.414607	9.08588	0.959311	2.83757	0.868125	2.56999		
0.411689	8.51546	0.871225	2.57044	0.415321	9.23486	0.960207	2.8347	0.869906	2.57025		
0.412393	8.64787	0.873006	2.5707	0.415945	9.36833	0.96111	2.83186	0.871686	2.57051		
0.4131	8.78405	0.874786	2.57095	0.416477	9.48488	0.962019	2.82904	0.873466	2.57077		
0.413809	8.92415	0.876566	2.57121	0.416919	9.58325	0.962935	2.82626	0.875246	2.57102		
0.414521	9.06834	0.878345	2.57146	0.417268	9.66234	0.963858	2.82351	0.877026	2.57127		
0.415235	9.2168	0.880125	2.57171	0.417525	9.72125	0.964787	2.82079	0.878806	2.57152		
0.415951	9.3697	0.881904	2.57195	0.417761	9.77603	0.965723	2.8181	0.880585	2.57177		
0.416668	9.52725	0.883683	2.5722	0.417926	9.81447	0.966666	2.81544	0.882364	2.57202		
0.417387	9.68964	0.885462	2.57245	0.418183	9.87507	0.967615	2.8128	0.884143	2.57226		
0.418107	9.85711	0.887241	2.57269	0.418533	9.95859	0.968572	2.8102	0.885922	2.57251		
0.418827	10.0299	0.889019	2.57293	0.418976	10.0661	0.969536	2.80763	0.887701	2.57275		
0.419549	10.2082	0.890798	2.57317	0.419511	10.1988	0.970507	2.80509	0.889479	2.57299		
0.42027	10.3923	0.892576	2.57341	0.42014	10.3587	0.971485	2.80258	0.891258	2.57323		
0.420991	10.5826	0.894354	2.57365	0.420861	10.5478	0.97247	2.8001	0.893036	2.57347		
0.421712	10.7792	0.896131	2.57388	0.421582	10.7433	0.973462	2.79765	0.894814	2.57371		
0.422432	10.9825	0.897909	2.57412	0.422302	10.9454	0.974462	2.79523	0.896591	2.57395		
0.423151	11.193	0.899686	2.57435	0.423022	11.1545	0.975469	2.79285	0.898369	2.57418		
0.423869	11.4108	0.901463	2.57458	0.42374	11.371	0.976484	2.79049	0.900146	2.57441		
0.424585	11.6365	0.90324	2.57481	0.424456	11.5952	0.977506	2.78816	0.901923	2.57464		
0.425299	11.8704	0.905017	2.57504	0.425171	11.8276	0.978536	2.78586	0.9037	2.57487		
0.426011	12.113	0.906794	2.57527	0.425883	12.0686	0.979574	2.7836	0.905477	2.5751		
0.426721	12.3647	0.90857	2.5755	0.426593	12.3186	0.980619	2.78136	0.907253	2.57533		
0.427427	12.6262	0.910346	2.57572	0.4273	12.5784	0.981672	2.77915	0.909029	2.57555		
0.42813	12.898	0.912122	2.57594	0.428004	12.8482	0.982733	2.77698	0.910805	2.57578		
0.428829	13.1807	0.913898	2.57617	0.428703	13.1289	0.983802	2.77483	0.912581	2.576		
0.429524	13.4749	0.915673	2.57639	0.429399	13.421	0.984879	2.77272	0.914357	2.57622		
0.430215	13.7814	0.917448	2.5766	0.430091	13.7252	0.985964	2.77063	0.916132	2.57644		
0.430901	14.101	0.919223	2.57682	0.430778	14.0424	0.987057	2.76858	0.917908	2.57666		
0.431582	14.4344	0.920998	2.57704	0.43146	14.3733	0.988159	2.76656	0.919683	2.57688		
0.432257	14.7828	0.922773	2.57725	0.432136	14.7188	0.989268	2.76456	0.921457	2.57709		
0.432926	15.1469	0.924547	2.57747	0.432806	15.08	0.990386	2.7626	0.923232	2.57731		
0.433589	15.528	0.926322	2.57768	0.43347	15.458	0.991512	2.76067	0.925006	2.57752		
0.434245	15.9273	0.928096	2.57789	0.434127	15.8539	0.992646	2.75877	0.926781	2.57773		
0.434893	16.346	0.929869	2.5781	0.434777	16.269	0.993789	2.75689	0.928555	2.57794		
0.435534	16.7858	0.931643	2.57831	0.435419	16.7049	0.99494	2.75505	0.930328	2.57815		
0.436167	17.2481	0.933416	2.57851	0.436053	17.163	0.9961	2.75324	0.932102	2.57836		
0.436791	17.7348	0.93519	2.57872	0.436679	17.6452	0.997268	2.75146	0.933875	2.57857		
0.437406	18.248	0.936962	2.57892	0.437296	18.1534	0.998445	2.74971	0.935648	2.57877		
0.438012	18.7897	0.938735	2.57912	0.437904	18.6898	0.99963	2.74799	0.937421	2.57897		
0.438608	19.3624	0.940508	2.57933	0.438502	19.2567	1.00082	2.7463	0.939194	2.57918		
0.439194	19.969	0.94228	2.57953	0.439089	19.857			0.940966	2.57938		
0.439769	20.6126	0.944052	2.57972	0.439666	20.4937			0.942739	2.57958		
0.440333	21.2967	0.945824	2.57992	0.440232	21.1702			0.944511	2.57977		
0.440885	22.0252	0.947595	2.58012	0.440786	21.8903			0.946282	2.57997		
0.441424	22.8026	0.949367	2.58031	0.441328	22.6586			0.948054	2.58017		
0.441952	23.6342	0.951138	2.5805	0.441858	23.48			0.949825	2.58036		
0.442466	24.5257	0.952909	2.5807	0.442374	24.3603			0.951596	2.58055		
0.442967	25.4841	0.95468	2.58089	0.442877	25.306			0.953367	2.58075		
0.443453	26.5171	0.95645	2.58108	0.443367	26.325			0.955138	2.58094		
0.443926	27.634	0.958221	2.58126	0.443842	27.426			0.956908	2.58113		
0.444383	28.8455	0.95999	2.58145	0.444302	28.6195			0.958679	2.58131		
0.444825	30.1641	0.96176	2.58164	0.444747	29.9178			0.960448	2.5815		
0.445252	31.605	0.96353	2.58182	0.445176	31.3354			0.962218	2.58169		
0.445662	33.186	0.965299	2.582	0.44559	32.8897			0.963988	2.58187		
0.446056	34.9288	0.967068	2.58219	0.445986	34.6015			0.965757	2.58205		
0.446433	36.8599	0.968837	2.58237	0.446366	36.4965			0.967526	2.58223		
0.446792	39.0116	0.970606	2.58255	0.446729	38.6056			0.969295	2.58241		
0.447134	41.4243	0.972374	2.58272	0.447073	40.9679			0.971063	2.58259		
0.447457	44.1488	0.974142	2.5829	0.4474	43.6319			0.972832	2.58277		
0.447762	47.2503	0.97591	2.58308	0.447708	46.6598			0.9746	2.58295		
0.448048	50.813	0.977678	2.58325	0.447998	50.1321			0.976368	2.58312		
0.448315	54.9488	0.979445	2.58342	0.448268	54.1547			0.978135	2.5833		
0.448562	59.8086	0.981213	2.58359	0.448519	58.8705			0.979903	2.58347		
0.44879	65.6015	0.982979	2.58377	0.44875	64.4763			0.98167	2.58364		
0.448998	72.6257	0.984746	2.58393	0.448962	71.251			0.983437	2.58381		
0.449185	81.3219	0.986513	2.5841	0.449153	79.6043			0.985203	2.58398		
0.449352	92.3692	0.988279	2.58427	0.449323	90.162			0.98697	2.58415		
0.449498	106.872	0.990045	2.58443	0.449473	103.932			0.988736	2.58431		
0.449623	126.757	0.99181	2.5846	0.449602	122.645			0.990502	2.58448		
0.449727	155.706	0.993576	2.58476	0.44971	149.55			0.992267	2.58464		
0.44981	201.754	0.995341	2.58492	0.449797	191.543			0.994033	2.5848		
0.449872	286.416	0.997106	2.58508	0.449863	266.274			0.995798	2.58497		
0.449912	493.385	0.998871	2.58524	0.449907	436.522			0.997563	2.58513		
0.449931	1777.82	1.00063	2.5854	0.449929	1209.96			0.999327	2.58528		
								1.00109	2.58544		
