Sym0		Asym0		Sym1		Sym2		Sym3		Sym4		Asym1		Asym2		Asym3		Asym4	
424  Points		527  Points		423  Points		405  Points		352  Points		251  Points		455  Points		400  Points		344  Points		206  Points	
Freq (MHz)	Vph (m/ms)	Freq (MHz)	Vph (m/ms)	Freq (MHz)	Vph (m/ms)	Freq (MHz)	Vph (m/ms)	Freq (MHz)	Vph (m/ms)	Freq (MHz)	Vph (m/ms)	Freq (MHz)	Vph (m/ms)	Freq (MHz)	Vph (m/ms)	Freq (MHz)	Vph (m/ms)	Freq (MHz)	Vph (m/ms)
0.27951	640.435	0.000184464	0.0836926	0.279514	306.607	0.449933	11322.8	0.559017	7211.21	0.838526	2143.52	0.139755	949.391	0.419268	466.954	0.698771	3584.44	0.899866	2224.59
0.27952	204.308	0.000372865	0.118908	0.27953	151.644	0.449939	463.171	0.559024	553.919	0.838531	633.865	0.139799	129.576	0.419285	229.171	0.698776	620.229	0.899871	673.454
0.279542	121.549	0.00062616	0.153944	0.279557	100.74	0.449955	236.43	0.559041	288.031	0.838543	371.928	0.13991	69.5862	0.419314	151.856	0.698786	339.491	0.899881	396.791
0.279574	86.5145	0.000943732	0.188779	0.279594	75.429	0.449983	158.734	0.559071	194.621	0.83856	263.179	0.140087	47.6114	0.419354	113.555	0.698802	233.711	0.899897	281.253
0.279617	67.1636	0.00132462	0.223344	0.279643	60.2884	0.450021	119.479	0.559111	146.968	0.838582	203.64	0.140329	36.2235	0.419406	90.6892	0.698825	178.193	0.899917	217.83
0.279671	54.8921	0.00176786	0.25761	0.279702	50.2148	0.45007	95.796	0.559163	118.067	0.838611	166.073	0.140637	29.2648	0.41947	75.4938	0.698854	143.992	0.899943	177.75
0.279735	46.4167	0.00227221	0.291524	0.279772	43.03	0.45013	79.9533	0.559226	98.6691	0.838646	140.21	0.14101	24.5774	0.419546	64.6644	0.698888	120.808	0.899974	150.129
0.279811	40.2125	0.00283652	0.325068	0.279853	37.6476	0.4502	68.6113	0.5593	84.7503	0.838686	121.319	0.141446	21.2092	0.419633	56.5562	0.698929	104.057	0.900011	129.94
0.279897	35.4749	0.00345924	0.358188	0.279945	33.4655	0.450281	60.0912	0.559385	74.2769	0.838732	106.916	0.141944	18.6749	0.419731	50.2586	0.698976	91.3872	0.900052	114.539
0.279994	31.7393	0.00413897	0.390863	0.280048	30.1227	0.450373	53.4568	0.559482	66.111	0.838784	95.5722	0.142502	16.7012	0.419842	45.2263	0.699028	81.4699	0.900099	102.403
0.280102	28.7184	0.00487406	0.423058	0.280161	27.39	0.450476	48.1448	0.55959	59.5659	0.838842	86.4061	0.143121	15.1224	0.419964	41.1131	0.699087	73.4961	0.900151	92.5943
0.280221	26.2254	0.00566292	0.454754	0.280286	25.1146	0.450589	43.7959	0.559709	54.203	0.838906	78.8458	0.143797	13.8322	0.420097	37.6886	0.699152	66.9456	0.900209	84.5016
0.28035	24.1332	0.00650381	0.485925	0.280421	23.1906	0.450713	40.1703	0.55984	49.7288	0.838975	72.5034	0.144531	12.7592	0.420242	34.7934	0.699223	61.4686	0.900271	77.7111
0.280491	22.3526	0.00739511	0.516559	0.280566	21.5428	0.450848	37.1014	0.559982	45.9395	0.839051	67.1067	0.145319	11.8538	0.420399	32.3137	0.6993	56.8214	0.900339	71.9319
0.280642	20.8189	0.00833495	0.546633	0.280723	20.1158	0.450994	34.4705	0.560135	42.6891	0.839132	62.459	0.14616	11.0803	0.420567	30.1663	0.699383	52.8288	0.900412	66.9539
0.280804	19.4842	0.00932165	0.57614	0.28089	18.8681	0.45115	32.1901	0.560299	39.8705	0.839219	58.4145	0.146935	10.4932	0.420747	28.2887	0.699472	49.3616	0.90049	62.6213
0.280976	18.3123	0.0103534	0.605065	0.281069	17.7681	0.451317	30.1948	0.560474	37.4032	0.839312	54.863	0.147626	10.046	0.420939	26.6333	0.699568	46.3226	0.900574	58.8163
0.28116	17.2753	0.0114284	0.633404	0.281257	16.791	0.451495	28.4342	0.56066	35.2255	0.83941	51.7197	0.148217	9.70815	0.421142	25.1628	0.699669	43.6372	0.900662	55.4482
0.281354	16.3512	0.0125451	0.661155	0.281457	15.9176	0.451683	26.8695	0.560858	33.2892	0.839515	48.9179	0.148698	9.45924	0.421356	23.848	0.699776	41.2471	0.900756	52.4457
0.281559	15.5226	0.0137017	0.688312	0.281667	15.1321	0.451882	25.4697	0.561067	31.5565	0.839625	46.4051	0.149058	9.28561	0.421582	22.6656	0.699889	39.1062	0.900856	49.7526
0.281774	14.7755	0.0148965	0.714872	0.281888	14.4221	0.452091	24.2101	0.561286	29.997	0.839741	44.1386	0.149292	9.1784	0.42182	21.5966	0.700009	37.1775	0.90096	47.3233
0.282001	14.0986	0.0161279	0.740845	0.28212	13.7773	0.452312	23.0708	0.561517	28.586	0.839863	42.0841	0.149632	9.02937	0.422069	20.6255	0.700134	35.4309	0.90107	45.1209
0.282238	13.4824	0.0173944	0.766227	0.282362	13.189	0.452542	22.0354	0.561759	27.3033	0.839991	40.2131	0.150007	8.87383	0.422329	19.7395	0.700266	33.842	0.901185	43.1152
0.282485	12.9193	0.0186943	0.791024	0.282616	12.6503	0.452784	21.0904	0.562013	26.1322	0.840124	38.5022	0.150526	8.6724	0.422601	18.9279	0.700403	32.3902	0.901305	41.2808
0.282743	12.4026	0.0200263	0.815246	0.282879	12.1552	0.453036	20.2244	0.562277	25.0589	0.840264	36.9316	0.151198	8.43302	0.422884	18.1819	0.700547	31.0586	0.90143	39.5969
0.283012	11.927	0.0213888	0.838895	0.283154	11.6986	0.453298	19.4281	0.562552	24.0717	0.840409	35.4849	0.152031	8.16435	0.423179	17.4938	0.700696	29.833	0.901561	38.0455
0.283292	11.4877	0.0227806	0.861983	0.283439	11.2763	0.453571	18.6933	0.562838	23.1605	0.84056	34.1479	0.153038	7.87506	0.423485	16.8572	0.700852	28.7011	0.901696	36.6118
0.283582	11.0808	0.0242002	0.884516	0.283734	10.8846	0.453855	18.0133	0.563135	22.3172	0.840717	32.9087	0.154231	7.57334	0.423803	16.2665	0.701013	27.6526	0.901838	35.2828
0.283883	10.7029	0.0256464	0.906505	0.28404	10.5204	0.454149	17.3822	0.563444	21.5343	0.840879	31.7569	0.155462	7.29981	0.424131	15.7171	0.701181	26.6787	0.901984	34.0474
0.284194	10.3511	0.027118	0.927962	0.284316	10.2231	0.454453	16.795	0.563763	20.8056	0.841047	30.6836	0.156729	7.05086	0.424471	15.2047	0.701355	25.7717	0.902135	32.8962
0.284516	10.0227	0.0286138	0.948893	0.284557	9.98337	0.454768	16.2472	0.564093	20.1258	0.841222	29.6811	0.158032	6.82346	0.424823	14.7259	0.701534	24.925	0.902292	31.8209
0.284849	9.71551	0.0301327	0.969314	0.284761	9.79386	0.455093	15.735	0.564434	19.4901	0.841401	28.7425	0.159368	6.61503	0.425185	14.2773	0.70172	24.1328	0.902454	30.8141
0.285192	9.42762	0.0316736	0.989235	0.284925	9.64932	0.455429	15.2552	0.564785	18.8943	0.841587	27.8621	0.160736	6.42341	0.425559	13.8564	0.701912	23.3899	0.902621	29.8696
0.285545	9.15727	0.0332356	1.00867	0.285047	9.54588	0.455775	14.8048	0.565148	18.335	0.841779	27.0346	0.162135	6.24673	0.425944	13.4606	0.70211	22.692	0.902793	28.9817
0.285909	8.90293	0.0348175	1.02762	0.285126	9.48091	0.456132	14.3811	0.565521	17.8088	0.841976	26.2553	0.163563	6.08338	0.42634	13.0878	0.702313	22.035	0.90297	28.1456
0.286284	8.66326	0.0364186	1.04611	0.28524	9.38914	0.456498	13.982	0.565906	17.3129	0.842179	25.5202	0.165019	5.93198	0.426748	12.736	0.702523	21.4156	0.903153	27.3568
0.286669	8.43703	0.0380379	1.06414	0.285366	9.2915	0.456876	13.6053	0.5663	16.8449	0.842388	24.8256	0.166502	5.79132	0.427166	12.4036	0.702739	20.8305	0.903341	26.6115
0.287064	8.22318	0.0396746	1.08174	0.285539	9.16213	0.457263	13.2492	0.566706	16.4024	0.842602	24.1683	0.16801	5.66036	0.427596	12.089	0.70296	20.2771	0.903534	25.9061
0.28747	8.02074	0.0413279	1.0989	0.285761	9.00391	0.457661	12.9122	0.567123	15.9834	0.842822	23.5454	0.169543	5.53816	0.428036	11.7909	0.703188	19.7528	0.903732	25.2376
0.287886	7.82884	0.0429971	1.11564	0.286035	8.8202	0.458069	12.5927	0.56755	15.5862	0.843048	22.9543	0.171099	5.42392	0.428488	11.508	0.703422	19.2554	0.903936	24.6032
0.288313	7.64669	0.0446814	1.13198	0.286364	8.61466	0.458487	12.2894	0.567987	15.2091	0.84328	22.3925	0.172678	5.31692	0.42895	11.2392	0.703661	18.783	0.904144	24.0002
0.28875	7.4736	0.0463801	1.14792	0.286751	8.39112	0.458915	12.0012	0.568436	14.8506	0.843518	21.8581	0.174277	5.21653	0.429424	10.9834	0.703907	18.3336	0.904358	23.4265
0.289197	7.30892	0.0480927	1.16348	0.287149	8.17974	0.459354	11.7269	0.568894	14.5094	0.843761	21.3489	0.175898	5.12217	0.429909	10.7399	0.704159	17.9056	0.904577	22.88
0.289654	7.15208	0.0498183	1.17866	0.287557	7.97958	0.459802	11.4656	0.569364	14.1843	0.84401	20.8634	0.177537	5.03335	0.430404	10.5077	0.704416	17.4976	0.904801	22.3588
0.290122	7.00253	0.0515566	1.19348	0.287975	7.78979	0.460261	11.2165	0.569844	13.8742	0.844265	20.3999	0.179195	4.94962	0.430845	10.314	0.70468	17.1082	0.90503	21.8611
0.2906	6.85981	0.0533069	1.20794	0.288404	7.60961	0.460729	10.9786	0.570334	13.5782	0.844525	19.9569	0.180871	4.87056	0.431227	10.1549	0.704949	16.7362	0.905265	21.3855
0.291088	6.72346	0.0550687	1.22206	0.288843	7.43834	0.461208	10.7513	0.570835	13.2952	0.844791	19.5331	0.182564	4.79582	0.431547	10.0273	0.705224	16.3804	0.905505	20.9305
0.291587	6.59309	0.0568415	1.23585	0.289292	7.27535	0.461697	10.5339	0.571346	13.0245	0.845063	19.1274	0.184272	4.72507	0.431803	9.92887	0.705506	16.0398	0.905749	20.4948
0.292096	6.46833	0.0586247	1.24932	0.289752	7.12008	0.462131	10.3521	0.571868	12.7652	0.845341	18.7385	0.185997	4.65801	0.431993	9.85782	0.705793	15.7135	0.905999	20.0772
0.292614	6.34883	0.060418	1.26247	0.290222	6.97201	0.462507	10.2023	0.5724	12.5168	0.845624	18.3655	0.187736	4.59436	0.432116	9.81292	0.706086	15.4006	0.906255	19.6766
0.293143	6.23428	0.062221	1.27531	0.290702	6.83066	0.462822	10.082	0.572942	12.2785	0.845913	18.0074	0.18949	4.5339	0.432292	9.74917	0.706386	15.1003	0.906515	19.292
0.293682	6.1244	0.0640332	1.28786	0.291192	6.6956	0.463073	9.98901	0.573494	12.0497	0.846208	17.6633	0.191257	4.47639	0.432486	9.68088	0.706691	14.8118	0.90678	18.9224
0.294232	6.0189	0.0658541	1.30012	0.291693	6.56644	0.46326	9.92182	0.574057	11.83	0.846508	17.3325	0.193037	4.42163	0.432751	9.58968	0.707002	14.5345	0.907051	18.5671
0.294791	5.91756	0.0676835	1.3121	0.292204	6.44281	0.46338	9.87933	0.57463	11.6187	0.846814	17.0142	0.194829	4.36944	0.433091	9.47701	0.707319	14.2677	0.907326	18.2251
0.29536	5.82014	0.069521	1.32382	0.292725	6.32437	0.463553	9.81894	0.575213	11.4154	0.847126	16.7077	0.196634	4.31966	0.433506	9.34458	0.707642	14.0109	0.907607	17.8959
0.295939	5.72642	0.0713662	1.33526	0.293256	6.21082	0.463743	9.75421	0.575806	11.2197	0.847444	16.4124	0.19845	4.27211	0.434002	9.19434	0.70797	13.7635	0.907893	17.5786
0.296529	5.63621	0.0732188	1.34645	0.293797	6.10188	0.464003	9.66766	0.576409	11.0312	0.847767	16.1276	0.200277	4.22666	0.43458	9.02838	0.708305	13.525	0.908184	17.2726
0.297128	5.54933	0.0750786	1.3574	0.294348	5.99728	0.464335	9.56057	0.577022	10.8495	0.848096	15.8529	0.202114	4.18319	0.435168	8.86895	0.708645	13.295	0.908481	16.9774
0.297737	5.4656	0.0769452	1.3681	0.29491	5.89678	0.464742	9.4345	0.577645	10.6742	0.84843	15.5877	0.203962	4.14156	0.435768	8.71566	0.708992	13.073	0.908782	16.6924
0.298356	5.38487	0.0788183	1.37857	0.295481	5.80015	0.465226	9.29119	0.578196	10.5265	0.84877	15.3315	0.205819	4.10168	0.436377	8.56819	0.709344	12.8586	0.909088	16.4171
0.298985	5.30698	0.0806977	1.38881	0.296062	5.70719	0.465791	9.13253	0.578672	10.4041	0.849116	15.0839	0.207686	4.06343	0.436997	8.42623	0.709702	12.6514	0.9094	16.151
0.299624	5.2318	0.0825831	1.39883	0.296654	5.61769	0.466365	8.97975	0.579069	10.3052	0.849467	14.8444	0.209561	4.02672	0.437628	8.28946	0.710066	12.4511	0.909717	15.8936
0.300273	5.1592	0.0844743	1.40863	0.297255	5.53149	0.466949	8.83254	0.579386	10.2284	0.849824	14.6128	0.211445	3.99146	0.438269	8.15764	0.710436	12.2573	0.910039	15.6446
0.300932	5.08905	0.0863711	1.41822	0.297866	5.4484	0.467542	8.69061	0.579621	10.1728	0.850187	14.3885	0.213337	3.95758	0.43892	8.0305	0.710812	12.0698	0.910365	15.4035
0.3016	5.02124	0.0882731	1.42762	0.298488	5.36828	0.468145	8.55369	0.579771	10.1376	0.850555	14.1713	0.215238	3.92499	0.439582	7.90781	0.711194	11.8882	0.910697	15.1699
0.302278	4.95566	0.0901804	1.43681	0.299119	5.29097	0.468758	8.42152	0.579989	10.0874	0.850929	13.9608	0.217145	3.89363	0.440254	7.78934	0.711581	11.7123	0.911034	14.9436
0.302966	4.89221	0.0920924	1.44581	0.29976	5.21634	0.46938	8.29387	0.580227	10.0334	0.851309	13.7567	0.219061	3.86343	0.440936	7.67489	0.711974	11.5418	0.911377	14.7242
0.303664	4.8308	0.0940093	1.45463	0.300411	5.14426	0.470012	8.17052	0.580552	9.96111	0.851694	13.5588	0.220983	3.83433	0.441628	7.56427	0.712373	11.3764	0.911724	14.5114
0.30428	4.77888	0.0959307	1.46327	0.301071	5.07462	0.470653	8.05126	0.580967	9.87129	0.852084	13.3668	0.222912	3.80626	0.442331	7.4573	0.712778	11.216	0.912076	14.3049
0.304811	4.73574	0.0978564	1.47172	0.301742	5.00728	0.471303	7.9359	0.581473	9.76506	0.852481	13.1803	0.224847	3.77919	0.443043	7.3538	0.713189	11.0603	0.912433	14.1044
0.305254	4.70082	0.0997864	1.48001	0.302422	4.94216	0.471963	7.82427	0.582074	9.64366	0.852882	12.9993	0.226789	3.75306	0.443766	7.25362	0.713606	10.9091	0.912796	13.9097
0.305607	4.67369	0.10172	1.48813	0.303112	4.87915	0.472632	7.71617	0.582772	9.50846	0.85329	12.8234	0.228737	3.72782	0.444499	7.15661	0.713973	10.7809	0.913163	13.7205
0.305868	4.65399	0.103658	1.49609	0.303812	4.81815	0.47331	7.61147	0.58348	9.37746	0.853703	12.6525	0.230691	3.70342	0.445241	7.06262	0.71429	10.6742	0.913536	13.5366
0.306036	4.6415	0.1056	1.50389	0.304522	4.75909	0.473998	7.51001	0.584198	9.25048	0.854121	12.4863	0.23265	3.67984	0.445994	6.97152	0.714555	10.5876	0.913913	13.3577
0.306278	4.62371	0.107545	1.51154	0.305241	4.70186	0.474695	7.41164	0.584925	9.12734	0.854545	12.3246	0.234615	3.65702	0.446756	6.88319	0.714765	10.5202	0.914296	13.1838
0.306542	4.60456	0.109494	1.51903	0.30597	4.64641	0.475401	7.31623	0.585662	9.00787	0.854975	12.1673	0.236585	3.63494	0.447528	6.79751	0.714921	10.4712	0.914684	13.0145
0.306903	4.57886	0.111446	1.52638	0.306708	4.59265	0.476116	7.22366	0.586408	8.89192	0.85541	12.0142	0.23856	3.61356	0.44831	6.71437	0.715021	10.4401	0.915076	12.8498
0.307363	4.5469	0.113401	1.53359	0.307456	4.5405	0.47684	7.1338	0.587163	8.77934	0.855851	11.8651	0.24054	3.59285	0.449102	6.63366	0.715166	10.3957	0.915474	12.6894
0.307924	4.50904	0.115359	1.54066	0.308214	4.48992	0.477573	7.04655	0.587928	8.67	0.856297	11.7199	0.242525	3.57277	0.449903	6.55529	0.715323	10.3479	0.915877	12.5331
0.308589	4.46568	0.117068	1.54672	0.308982	4.44082	0.478315	6.9618	0.588702	8.56375	0.856749	11.5785	0.244514	3.5533	0.450714	6.47915	0.715539	10.2837	0.916284	12.3808
0.309361	4.4173	0.118527	1.5518	0.309759	4.39317	0.479066	6.87944	0.589485	8.46048	0.857206	11.4406	0.246507	3.53442	0.451535	6.40516	0.715814	10.2038	0.916697	12.2324
0.310143	4.37032	0.119734	1.55594	0.310545	4.34688	0.479826	6.79938	0.590277	8.36006	0.857669	11.3062	0.248505	3.51609	0.452365	6.33323	0.716149	10.1088	0.917115	12.0877
0.310934	4.32469	0.120689	1.55919	0.311342	4.30192	0.480595	6.72153	0.591079	8.26238	0.858137	11.1751	0.250507	3.4983	0.453205	6.26329	0.716546	9.9998	0.917538	11.9466
0.311735	4.28037	0.121392	1.56156	0.312147	4.25824	0.481372	6.64581	0.591889	8.16734	0.858549	11.0635	0.252513	3.48102	0.454054	6.19526	0.717007	9.8778	0.917965	11.8089
0.312546	4.23729	0.121842	1.56306	0.312963	4.21578	0.482159	6.57213	0.592709	8.07484	0.858904	10.9702	0.254522	3.46423	0.454913	6.12906	0.717473	9.75897	0.918398	11.6745
0.313366	4.19541	0.122489	1.56522	0.313788	4.1745	0.482954	6.50041	0.593538	7.98478	0.8592	10.8944	0.256535	3.44791	0.45578	6.06462	0.717946	9.64319	0.918836	11.5434
0.314195	4.15469	0.123193	1.56754	0.314622	4.13436	0.483758	6.43059	0.594375	7.89707	0.859435	10.8352	0.258552	3.43203	0.456658	6.00189	0.718424	9.53035	0.919278	11.4153
0.315034	4.11509	0.12415	1.57068	0.315466	4.09531	0.48457	6.36259	0.595222	7.81161	0.859609	10.7921	0.260573	3.4166	0.457544	5.9408	0.718908	9.42034	0.919726	11.2902
0.315883	4.07656	0.125362	1.57461	0.316319	4.05731	0.485391	6.29634	0.596077	7.72834	0.859721	10.7647	0.262596	3.40158	0.45844	5.88128	0.719397	9.31306	0.92012	11.1836
0.316741	4.03907	0.126829	1.57931	0.317182	4.02033	0.48622	6.23179	0.596941	7.64717	0.859882	10.7256	0.264623	3.38695	0.459345	5.82329	0.719893	9.2084	0.920459	11.0944
0.317609	4.00258	0.128551	1.58473	0.318055	3.98434	0.487059	6.16887	0.597814	7.56802	0.860057	10.6835	0.266653	3.37271	0.460259	5.76676	0.720394	9.10628	0.920741	11.0218
0.318486	3.96705	0.13053	1.59085	0.318937	3.94929	0.487905	6.10752	0.598695	7.49083	0.860297	10.6267	0.268686	3.35884	0.461183	5.71165	0.7209	9.00662	0.920966	10.9651
0.319372	3.93246	0.132511	1.59686	0.319828	3.91517	0.48876	6.04769	0.599586	7.41552	0.860602	10.5558	0.270721	3.34533	0.462115	5.65791	0.721413	8.90931	0.921132	10.9238
0.320268	3.89877	0.134494	1.60276	0.320729	3.88192	0.489623	5.98932	0.600484	7.34204	0.860974	10.4715	0.27276	3.33216	0.463056	5.6055	0.721931	8.81429	0.921238	10.8975
0.321174	3.86594	0.136479	1.60856	0.32164	3.84953	0.490495	5.93237	0.601392	7.27031	0.861415	10.3744	0.274801	3.31931	0.464006	5.55435	0.722454	8.72147	0.921392	10.86
0.322089	3.83396	0.138466	1.61425	0.32256	3.81797	0.491375	5.87679	0.602308	7.20028	0.861925	10.2654	0.276845	3.30679	0.464966	5.50445	0.722984	8.63079	0.921559	10.8195
0.323014	3.8028	0.140454	1.61984	0.323489	3.7872	0.492263	5.82253	0.603232	7.1319	0.86244	10.1588	0.278892	3.29457	0.465934	5.45573	0.723519	8.54217	0.921788	10.765
0.323948	3.77242	0.142445	1.62534	0.324428	3.75722	0.493159	5.76955	0.604165	7.0651	0.862961	10.0546	0.280941	3.28264	0.46691	5.40817	0.724059	8.45554	0.922079	10.6969
0.324892	3.7428	0.144438	1.63074	0.325377	3.72798	0.494064	5.71781	0.605106	6.99984	0.863488	9.95268	0.282992	3.271	0.467896	5.36172	0.724606	8.37084	0.922433	10.6158
0.325845	3.71392	0.146432	1.63604	0.326335	3.69947	0.494976	5.66726	0.606055	6.93607	0.864019	9.853	0.285045	3.25964	0.46889	5.31636	0.725157	8.28801	0.922852	10.5223
0.326808	3.68575	0.148428	1.64126	0.327303	3.67166	0.495897	5.61787	0.607013	6.87373	0.864557	9.75547	0.287101	3.24853	0.469893	5.27204	0.725715	8.20699	0.923338	10.4172
0.327781	3.65828	0.150426	1.64638	0.328281	3.64453	0.496825	5.56961	0.607979	6.81279	0.865099	9.66004	0.289159	3.23769	0.470905	5.22873	0.726278	8.12772	0.923828	10.3143
0.328763	3.63148	0.152425	1.65142	0.329268	3.61807	0.497762	5.52243	0.608953	6.7532	0.865647	9.56663	0.291219	3.22709	0.471925	5.1864	0.726846	8.05014	0.924324	10.2136
0.329755	3.60533	0.154425	1.65638	0.330264	3.59224	0.498706	5.4763	0.609935	6.69492	0.8662	9.47518	0.293281	3.21673	0.472954	5.14503	0.727421	7.97422	0.924824	10.115
0.330756	3.57982	0.156427	1.66125	0.331271	3.56704	0.499659	5.43119	0.610925	6.63791	0.866759	9.38564	0.295345	3.2066	0.473991	5.10457	0.728	7.89989	0.925329	10.0184
0.331768	3.55492	0.158431	1.66604	0.332287	3.54245	0.500619	5.38707	0.611923	6.58212	0.867323	9.29794	0.297411	3.19669	0.475037	5.06501	0.728586	7.82711	0.925839	9.92384
0.332789	3.53061	0.160436	1.67076	0.333313	3.51844	0.501587	5.34391	0.612929	6.52753	0.867892	9.21203	0.299479	3.187	0.476091	5.02632	0.729176	7.75582	0.926354	9.83118
0.33382	3.50688	0.162442	1.67539	0.334349	3.495	0.502563	5.30168	0.613943	6.47409	0.868466	9.12786	0.301548	3.17752	0.477153	4.98847	0.729773	7.686	0.926874	9.74038
0.33486	3.48372	0.164449	1.67995	0.335395	3.47211	0.503546	5.26035	0.614965	6.42177	0.869046	9.04538	0.303619	3.16824	0.478224	4.95143	0.730375	7.61759	0.927399	9.6514
0.335911	3.4611	0.166458	1.68444	0.336451	3.44977	0.504537	5.2199	0.615995	6.37054	0.869631	8.96454	0.305692	3.15915	0.479303	4.91519	0.730982	7.55056	0.927928	9.56417
0.336971	3.43901	0.168467	1.68885	0.337516	3.42795	0.505536	5.18029	0.617033	6.32037	0.870222	8.88528	0.307767	3.15026	0.48039	4.87972	0.731595	7.48485	0.928463	9.47866
0.338042	3.41744	0.170478	1.69319	0.338592	3.40664	0.506542	5.14152	0.618078	6.27123	0.870817	8.80758	0.309842	3.14155	0.481486	4.84499	0.732214	7.42045	0.929002	9.3948
0.339123	3.39638	0.17249	1.69747	0.339678	3.38582	0.507555	5.10354	0.619131	6.22308	0.871418	8.73138	0.31192	3.13301	0.482589	4.81099	0.732838	7.3573	0.929546	9.31256
0.340213	3.3758	0.174503	1.70168	0.340774	3.36549	0.508576	5.06634	0.620191	6.17591	0.872025	8.65664	0.313999	3.12465	0.483701	4.77769	0.733467	7.29538	0.930095	9.23189
0.341315	3.35571	0.176517	1.70582	0.34188	3.34564	0.509605	5.02991	0.621259	6.12967	0.872636	8.58333	0.316079	3.11646	0.48482	4.74509	0.734102	7.23466	0.930648	9.15274
0.342426	3.33607	0.178531	1.70989	0.342997	3.32624	0.510641	4.9942	0.622335	6.08435	0.873253	8.51139	0.31816	3.10843	0.485948	4.71314	0.734742	7.17508	0.931207	9.07508
0.343548	3.3169	0.180547	1.7139	0.344124	3.30729	0.511684	4.95922	0.623418	6.03992	0.873875	8.4408	0.320243	3.10055	0.487083	4.68185	0.735388	7.11664	0.93177	8.99886
0.34468	3.29816	0.182564	1.71785	0.345262	3.28877	0.512734	4.92493	0.624508	5.99636	0.874502	8.37152	0.322327	3.09283	0.488227	4.65119	0.736039	7.05929	0.932338	8.92404
0.345823	3.27986	0.184581	1.72174	0.34641	3.27068	0.513792	4.89131	0.625606	5.95364	0.875134	8.30352	0.324412	3.08525	0.489378	4.62114	0.736696	7.00302	0.932911	8.8506
0.346977	3.26197	0.1866	1.72557	0.347569	3.25301	0.514857	4.85836	0.626711	5.91174	0.875772	8.23675	0.326499	3.07783	0.490537	4.59169	0.737358	6.94777	0.933488	8.77848
0.348141	3.2445	0.188619	1.72934	0.348739	3.23575	0.515929	4.82604	0.627823	5.87064	0.876415	8.17119	0.328586	3.07053	0.491704	4.56281	0.738026	6.89355	0.934071	8.70767
0.349317	3.22743	0.190639	1.73306	0.349921	3.21888	0.517008	4.79435	0.628943	5.83031	0.877063	8.10681	0.330674	3.06338	0.492878	4.53451	0.738698	6.8403	0.934658	8.63811
0.350503	3.21076	0.192659	1.73672	0.351113	3.2024	0.518094	4.76327	0.63007	5.79075	0.877716	8.04358	0.332764	3.05636	0.494061	4.50676	0.739377	6.78802	0.93525	8.56979
0.351701	3.19447	0.19468	1.74032	0.352316	3.1863	0.519187	4.73278	0.631204	5.75191	0.878374	7.98147	0.334854	3.04946	0.495251	4.47954	0.74006	6.73667	0.935846	8.50267
0.35291	3.17855	0.196702	1.74387	0.353532	3.17058	0.520287	4.70287	0.632345	5.7138	0.879037	7.92044	0.336946	3.04269	0.496448	4.45284	0.740749	6.68624	0.936447	8.43671
0.354131	3.16301	0.198725	1.74737	0.354758	3.15522	0.521394	4.67351	0.633493	5.67639	0.879706	7.86048	0.339038	3.03604	0.497653	4.42666	0.741444	6.6367	0.937053	8.3719
0.355364	3.14782	0.200748	1.75082	0.355997	3.14021	0.522508	4.64471	0.634648	5.63965	0.880379	7.80155	0.341131	3.02951	0.498866	4.40097	0.742144	6.58802	0.937664	8.3082
0.356608	3.13299	0.202772	1.75422	0.357247	3.12555	0.523629	4.61644	0.635809	5.60358	0.881058	7.74363	0.343225	3.02309	0.500085	4.37577	0.742849	6.54018	0.93828	8.24558
0.357865	3.1185	0.204797	1.75756	0.35851	3.11124	0.524756	4.58868	0.636978	5.56816	0.881742	7.6867	0.34532	3.01679	0.501313	4.35104	0.743559	6.49318	0.9389	8.18402
0.359133	3.10435	0.206821	1.76086	0.359785	3.09726	0.52589	4.56144	0.638154	5.53337	0.882431	7.63072	0.347416	3.01059	0.502548	4.32677	0.744275	6.44697	0.939525	8.1235
0.360415	3.09054	0.208847	1.76411	0.361073	3.08362	0.527031	4.53469	0.639336	5.4992	0.883125	7.57569	0.349512	3.0045	0.50379	4.30294	0.744996	6.40156	0.940154	8.06398
0.361709	3.07705	0.210873	1.76732	0.362374	3.07029	0.528178	4.50842	0.640525	5.46563	0.883824	7.52157	0.351609	2.99851	0.505039	4.27956	0.745722	6.3569	0.940788	8.00544
0.363016	3.06388	0.212899	1.77048	0.363687	3.05729	0.529333	4.48262	0.641721	5.43264	0.884528	7.46835	0.353706	2.99262	0.506296	4.2566	0.746454	6.313	0.941427	7.94787
0.364336	3.05103	0.214926	1.77359	0.365014	3.0446	0.530493	4.45728	0.642924	5.40023	0.885238	7.416	0.355805	2.98683	0.50756	4.23406	0.747191	6.26983	0.942071	7.89123
0.365669	3.03849	0.216954	1.77666	0.366355	3.03222	0.53166	4.43239	0.644133	5.36837	0.885952	7.3645	0.357903	2.98113	0.508831	4.21193	0.747933	6.22737	0.942719	7.83551
0.367017	3.02626	0.218982	1.77969	0.367709	3.02014	0.532834	4.40794	0.645348	5.33706	0.886671	7.31384	0.360003	2.97552	0.510109	4.19019	0.74868	6.18561	0.943371	7.78068
0.368378	3.01433	0.22101	1.78267	0.369078	3.00836	0.534014	4.38391	0.64657	5.30628	0.887396	7.26399	0.362102	2.97001	0.511394	4.16885	0.749433	6.14453	0.944029	7.72673
0.369754	3.00269	0.223039	1.78562	0.370461	2.99687	0.5352	4.3603	0.647799	5.27602	0.888125	7.21493	0.364203	2.96458	0.512686	4.14788	0.75019	6.10411	0.944691	7.67363
0.371144	2.99135	0.225067	1.78852	0.371858	2.98567	0.536393	4.3371	0.649034	5.24627	0.888859	7.16665	0.366304	2.95924	0.513986	4.12728	0.750954	6.06435	0.945357	7.62137
0.372549	2.98029	0.227097	1.79138	0.373271	2.97476	0.537592	4.31429	0.650275	5.21701	0.889599	7.11914	0.368405	2.95398	0.515292	4.10704	0.751722	6.02522	0.946029	7.56992
0.373969	2.96952	0.229126	1.79421	0.374699	2.96413	0.538797	4.29187	0.651523	5.18824	0.890343	7.07236	0.370507	2.9488	0.516605	4.08716	0.752495	5.98671	0.946704	7.51927
0.375404	2.95903	0.231156	1.79699	0.376142	2.95378	0.540009	4.26983	0.652777	5.15994	0.891092	7.02631	0.372608	2.9437	0.517925	4.06762	0.753274	5.94881	0.947385	7.4694
0.376856	2.94881	0.233187	1.79974	0.377602	2.94371	0.541227	4.24816	0.654037	5.13211	0.891847	6.98097	0.374711	2.93868	0.519252	4.04842	0.754058	5.91151	0.94807	7.42029
0.378323	2.93887	0.235217	1.80245	0.379078	2.9339	0.54245	4.22686	0.655304	5.10473	0.892606	6.93633	0.376814	2.93373	0.520586	4.02954	0.754847	5.87478	0.948759	7.37193
0.379807	2.92919	0.237248	1.80513	0.38057	2.92436	0.54368	4.20591	0.656576	5.07779	0.89337	6.89237	0.378917	2.92886	0.521926	4.01099	0.755641	5.83862	0.949454	7.3243
0.381307	2.91979	0.239279	1.80777	0.382079	2.91509	0.544916	4.1853	0.657855	5.05128	0.894139	6.84907	0.38102	2.92406	0.523274	3.99276	0.75644	5.80302	0.950152	7.27739
0.382825	2.91064	0.241311	1.81037	0.383606	2.90608	0.546158	4.16504	0.659139	5.02519	0.894913	6.80642	0.383123	2.91933	0.524627	3.97483	0.757244	5.76797	0.950855	7.23117
0.38436	2.90176	0.243342	1.81294	0.38515	2.89733	0.547406	4.1451	0.66043	4.99952	0.895692	6.76441	0.385227	2.91467	0.525988	3.95721	0.758054	5.73345	0.951563	7.18564
0.385913	2.89313	0.245374	1.81548	0.386711	2.88883	0.54866	4.12549	0.661727	4.97425	0.896475	6.72302	0.387331	2.91007	0.527355	3.93988	0.758868	5.69944	0.952275	7.14078
0.387483	2.88475	0.247406	1.81798	0.388291	2.88058	0.549919	4.10619	0.663029	4.94938	0.897264	6.68225	0.389435	2.90554	0.528729	3.92283	0.759688	5.66595	0.952992	7.09657
0.389072	2.87663	0.249438	1.82045	0.38989	2.87258	0.551185	4.08721	0.664338	4.92489	0.898057	6.64207	0.391539	2.90107	0.530109	3.90607	0.760513	5.63296	0.953713	7.05301
0.39068	2.86875	0.251471	1.82289	0.391507	2.86483	0.552456	4.06853	0.665652	4.90079	0.898856	6.60248	0.393643	2.89667	0.531496	3.88959	0.761343	5.60046	0.954439	7.01007
0.392306	2.86112	0.253503	1.82529	0.393143	2.85732	0.553733	4.05014	0.666972	4.87705	0.899659	6.56346	0.395748	2.89232	0.53289	3.87338	0.762178	5.56844	0.955169	6.96776
0.393951	2.85373	0.255536	1.82767	0.394798	2.85005	0.555015	4.03205	0.668298	4.85368	0.900467	6.525	0.397852	2.88804	0.534289	3.85743	0.763018	5.53689	0.955904	6.92604
0.395615	2.84657	0.257569	1.83001	0.396472	2.84302	0.556304	4.01424	0.669629	4.83066	0.90128	6.4871	0.399957	2.88381	0.535696	3.84174	0.763863	5.50579	0.956643	6.88492
0.397299	2.83965	0.259602	1.83233	0.398166	2.83621	0.557598	3.9967	0.670966	4.80799	0.902097	6.44973	0.402061	2.87964	0.537108	3.8263	0.764713	5.47515	0.957387	6.84438
0.399003	2.83296	0.261635	1.83461	0.399879	2.82964	0.558897	3.97944	0.672309	4.78566	0.90292	6.41289	0.404166	2.87553	0.538527	3.81112	0.765568	5.44495	0.958135	6.8044
0.400726	2.8265	0.263668	1.83687	0.401612	2.82329	0.560203	3.96245	0.673657	4.76367	0.903747	6.37657	0.40627	2.87146	0.539952	3.79617	0.766428	5.41518	0.958887	6.76499
0.402469	2.82026	0.265701	1.8391	0.403365	2.81716	0.561513	3.94572	0.675011	4.742	0.904579	6.34076	0.408374	2.86746	0.541384	3.78147	0.767293	5.38584	0.959644	6.72611
0.404232	2.81424	0.267735	1.8413	0.405138	2.81125	0.562829	3.92924	0.676371	4.72065	0.905416	6.30544	0.410479	2.8635	0.542821	3.76699	0.768163	5.35692	0.960405	6.68778
0.406014	2.80843	0.269768	1.84347	0.406931	2.80555	0.564151	3.91301	0.677735	4.69962	0.906257	6.27062	0.412583	2.85959	0.544265	3.75275	0.769038	5.3284	0.961171	6.64996
0.407816	2.80284	0.271802	1.84561	0.408743	2.80006	0.565478	3.89703	0.679106	4.67889	0.907104	6.23627	0.414687	2.85573	0.545715	3.73873	0.769918	5.30028	0.961941	6.61267
0.409638	2.79744	0.273835	1.84773	0.410575	2.79477	0.56681	3.88129	0.680481	4.65846	0.907955	6.20239	0.416791	2.85192	0.547171	3.72493	0.770802	5.27255	0.962715	6.57587
0.41148	2.79225	0.275869	1.84983	0.412426	2.78968	0.568148	3.86579	0.681862	4.63833	0.90881	6.16897	0.418895	2.84816	0.548634	3.71134	0.771692	5.24521	0.963494	6.53958
0.413341	2.78726	0.277903	1.85189	0.414297	2.78479	0.56949	3.85052	0.683248	4.61849	0.909671	6.13601	0.420999	2.84445	0.550102	3.69797	0.772587	5.21824	0.964277	6.50376
0.415221	2.78246	0.279937	1.85394	0.416187	2.78008	0.570839	3.83547	0.68464	4.59893	0.910536	6.10349	0.423102	2.84078	0.551576	3.6848	0.773487	5.19165	0.965065	6.46843
0.41712	2.77784	0.28197	1.85595	0.418096	2.77555	0.572192	3.82065	0.686036	4.57965	0.911406	6.0714	0.425205	2.83715	0.553057	3.67184	0.774391	5.16542	0.965857	6.43356
0.419038	2.7734	0.284004	1.85795	0.420023	2.77121	0.57355	3.80604	0.687438	4.56065	0.91228	6.03974	0.427308	2.83357	0.554543	3.65907	0.7753	5.13954	0.966653	6.39915
0.420974	2.76914	0.286038	1.85992	0.421968	2.76703	0.574914	3.79165	0.688845	4.54191	0.913159	6.0085	0.429411	2.83003	0.556035	3.6465	0.776215	5.11402	0.967454	6.36519
0.422928	2.76505	0.288072	1.86186	0.423931	2.76303	0.576283	3.77746	0.690257	4.52343	0.914043	5.97767	0.431514	2.82653	0.557533	3.63412	0.777134	5.08884	0.968258	6.33167
0.4249	2.76112	0.290106	1.86378	0.425912	2.75918	0.577657	3.76348	0.691674	4.50521	0.914931	5.94724	0.433616	2.82307	0.559037	3.62193	0.778058	5.06399	0.969068	6.29859
0.426889	2.75735	0.292139	1.86568	0.42791	2.75549	0.579035	3.7497	0.693096	4.48724	0.915824	5.91721	0.435718	2.81965	0.560547	3.60992	0.778987	5.03948	0.969881	6.26593
0.428895	2.75374	0.294173	1.86756	0.429924	2.75195	0.580419	3.73612	0.694523	4.46952	0.916722	5.88757	0.437819	2.81627	0.562063	3.59809	0.77992	5.01529	0.970699	6.23369
0.430917	2.75027	0.296207	1.86941	0.431955	2.74856	0.581808	3.72274	0.695955	4.45204	0.917624	5.85831	0.43992	2.81292	0.563584	3.58644	0.780859	4.99142	0.971521	6.20187
0.432955	2.74695	0.298241	1.87124	0.434001	2.7453	0.583201	3.70954	0.697392	4.4348	0.918531	5.82942	0.442021	2.80962	0.565111	3.57496	0.781802	4.96786	0.972347	6.17044
0.435009	2.74376	0.300274	1.87305	0.436062	2.74218	0.5846	3.69653	0.698834	4.41779	0.919443	5.80091	0.444121	2.80635	0.566644	3.56365	0.78275	4.94461	0.973177	6.13941
0.437078	2.7407	0.302308	1.87484	0.438139	2.73919	0.586003	3.6837	0.70028	4.40102	0.920359	5.77275	0.446221	2.80312	0.568182	3.55251	0.783703	4.92167	0.974012	6.10877
0.439161	2.73777	0.304342	1.87661	0.440229	2.73632	0.587411	3.67105	0.701732	4.38447	0.921279	5.74495	0.448321	2.79992	0.569727	3.54154	0.78466	4.89901	0.974851	6.07851
0.441258	2.73496	0.306375	1.87836	0.442333	2.73357	0.588824	3.65858	0.703188	4.36813	0.922204	5.7175	0.45042	2.79675	0.571276	3.53072	0.785623	4.87666	0.975694	6.04863
0.443369	2.73226	0.308409	1.88009	0.44445	2.73093	0.590242	3.64628	0.704649	4.35202	0.923134	5.6904	0.452519	2.79362	0.572832	3.52006	0.78659	4.85458	0.976542	6.01912
0.445493	2.72967	0.310442	1.8818	0.446581	2.7284	0.591664	3.63415	0.706114	4.33612	0.924068	5.66363	0.454617	2.79053	0.574393	3.50956	0.787562	4.83279	0.977393	5.98997
0.447629	2.72719	0.312476	1.88349	0.448723	2.72597	0.593091	3.62219	0.707584	4.32043	0.925007	5.63719	0.456714	2.78746	0.575959	3.49921	0.788538	4.81128	0.978249	5.96118
0.449777	2.72482	0.314509	1.88515	0.450877	2.72364	0.594523	3.61039	0.709059	4.30494	0.92595	5.61108	0.458812	2.78443	0.577531	3.48902	0.789519	4.79003	0.979109	5.93274
0.451937	2.72253	0.316542	1.8868	0.453043	2.72141	0.595959	3.59875	0.710538	4.28966	0.926898	5.58529	0.460908	2.78142	0.579109	3.47896	0.790505	4.76906	0.979973	5.90464
0.454108	2.72034	0.318575	1.88844	0.455219	2.71926	0.5974	3.58726	0.712022	4.27457	0.92785	5.55981	0.463004	2.77845	0.580691	3.46906	0.791496	4.74834	0.980842	5.87688
0.456289	2.71824	0.320608	1.89005	0.457406	2.7172	0.598846	3.57594	0.71351	4.25968	0.928806	5.53465	0.4651	2.77551	0.58228	3.45929	0.792491	4.72789	0.981714	5.84945
0.458481	2.71622	0.322641	1.89164	0.459603	2.71522	0.600296	3.56476	0.715003	4.24498	0.929768	5.50978	0.467195	2.77259	0.583873	3.44966	0.793491	4.70769	0.982591	5.82235
0.460683	2.71428	0.324674	1.89322	0.461809	2.71332	0.60175	3.55374	0.7165	4.23047	0.930733	5.48522	0.469289	2.76971	0.585472	3.44017	0.794496	4.68773	0.983471	5.79557
0.462894	2.71242	0.326707	1.89478	0.464025	2.7115	0.603209	3.54286	0.718001	4.21614	0.931703	5.46095	0.471383	2.76685	0.587077	3.43082	0.795505	4.66803	0.984356	5.76911
0.465114	2.71063	0.328739	1.89632	0.466249	2.70974	0.604672	3.53212	0.719507	4.20199	0.932677	5.43697	0.473476	2.76402	0.588686	3.4216	0.796519	4.64856	0.985245	5.74296
0.467342	2.70891	0.330772	1.89784	0.468482	2.70806	0.606139	3.52153	0.721017	4.18803	0.933656	5.41328	0.475568	2.76122	0.590301	3.4125	0.797537	4.62933	0.986138	5.71712
0.469579	2.70725	0.332804	1.89935	0.470723	2.70643	0.607611	3.51108	0.722532	4.17423	0.934639	5.38986	0.47766	2.75844	0.591922	3.40354	0.79856	4.61034	0.987035	5.69158
0.471823	2.70566	0.334836	1.90084	0.472971	2.70487	0.609088	3.50076	0.72405	4.16061	0.935627	5.36672	0.479751	2.75569	0.593547	3.3947	0.799588	4.59157	0.987936	5.66633
0.474075	2.70413	0.336868	1.90232	0.475227	2.70337	0.610568	3.49058	0.725573	4.14716	0.936619	5.34385	0.481842	2.75297	0.595178	3.38598	0.80062	4.57304	0.988842	5.64138
0.476335	2.70265	0.3389	1.90378	0.47749	2.70192	0.612053	3.48053	0.7271	4.13387	0.937615	5.32125	0.483931	2.75027	0.596813	3.37738	0.801657	4.55472	0.989751	5.61671
0.478601	2.70123	0.340932	1.90522	0.479759	2.70052	0.613542	3.47061	0.728632	4.12075	0.938616	5.29891	0.48602	2.74759	0.598454	3.36891	0.802698	4.53662	0.990664	5.59233
0.480873	2.69986	0.342964	1.90664	0.482035	2.69918	0.615035	3.46082	0.730167	4.10779	0.939621	5.27683	0.488109	2.74494	0.6001	3.36055	0.803744	4.51874	0.991581	5.56822
0.483152	2.69853	0.344996	1.90806	0.484316	2.69788	0.616533	3.45115	0.731706	4.09499	0.94063	5.255	0.490196	2.74231	0.601751	3.3523	0.804794	4.50107	0.992503	5.54439
0.485437	2.69726	0.347027	1.90945	0.486604	2.69663	0.618034	3.4416	0.73325	4.08234	0.941643	5.23342	0.492283	2.7397	0.603408	3.34417	0.805849	4.4836	0.993428	5.52082
0.487727	2.69603	0.349058	1.91083	0.488897	2.69542	0.61954	3.43218	0.734797	4.06984	0.942661	5.21209	0.494369	2.73712	0.605069	3.33615	0.806909	4.46634	0.994357	5.49752
0.490023	2.69484	0.351089	1.9122	0.491196	2.69425	0.62105	3.42288	0.736349	4.0575	0.943684	5.191	0.496454	2.73456	0.606735	3.32824	0.807973	4.44929	0.995291	5.47448
0.492324	2.69369	0.35312	1.91355	0.493499	2.69312	0.622563	3.41369	0.737904	4.0453	0.94471	5.17015	0.498539	2.73202	0.608406	3.32044	0.809041	4.43243	0.996228	5.4517
0.49463	2.69258	0.355151	1.91489	0.495807	2.69203	0.624081	3.40462	0.739463	4.03325	0.945741	5.14953	0.500623	2.7295	0.610082	3.31274	0.810114	4.41577	0.997169	5.42917
0.49694	2.69151	0.357182	1.91621	0.49812	2.69098	0.625603	3.39566	0.741027	4.02134	0.946776	5.12915	0.502705	2.72701	0.611763	3.30515	0.811191	4.3993	0.998115	5.40689
0.499255	2.69047	0.359212	1.91752	0.500438	2.68996	0.627129	3.38682	0.742594	4.00957	0.947815	5.10899	0.504787	2.72453	0.613449	3.29766	0.812273	4.38302	0.999064	5.38485
0.501575	2.68947	0.361243	1.91881	0.502759	2.68897	0.628658	3.37808	0.744164	3.99794	0.948859	5.08906	0.506869	2.72208	0.61514	3.29027	0.813359	4.36693	1.00002	5.36306
0.503898	2.6885	0.363273	1.92009	0.505085	2.68801	0.630192	3.36945	0.745739	3.98645	0.949906	5.06935	0.508949	2.71964	0.616836	3.28298	0.81445	4.35102		
0.506226	2.68755	0.365303	1.92136	0.507415	2.68709	0.631729	3.36093	0.747318	3.97509	0.950958	5.04985	0.511028	2.71722	0.618536	3.27578	0.815545	4.33529		
0.508557	2.68664	0.367332	1.92262	0.509748	2.68619	0.633271	3.35251	0.7489	3.96386	0.952014	5.03057	0.513107	2.71483	0.620241	3.26869	0.816644	4.31974		
0.510892	2.68576	0.369362	1.92386	0.512084	2.68532	0.634816	3.3442	0.750486	3.95276	0.953075	5.0115	0.515185	2.71245	0.621951	3.26168	0.817748	4.30436		
0.513231	2.6849	0.371391	1.92509	0.514424	2.68447	0.636365	3.33599	0.752075	3.94179	0.954139	4.99264	0.517262	2.71009	0.623666	3.25477	0.818856	4.28916		
0.515572	2.68407	0.373421	1.9263	0.516768	2.68365	0.637918	3.32787	0.753668	3.93094	0.955208	4.97398	0.519337	2.70775	0.625386	3.24795	0.819969	4.27413		
0.517917	2.68326	0.37545	1.9275	0.519114	2.68286	0.639474	3.31986	0.755265	3.92022	0.956281	4.95553	0.521412	2.70542	0.62711	3.24123	0.821086	4.25927		
0.520265	2.68247	0.377478	1.92869	0.521463	2.68208	0.641034	3.31194	0.756866	3.90962	0.957358	4.93727	0.523486	2.70312	0.628839	3.23458	0.822207	4.24457		
0.522615	2.68171	0.379507	1.92987	0.523815	2.68133	0.642598	3.30411	0.758469	3.89914	0.958439	4.91921	0.52556	2.70083	0.630572	3.22803	0.823333	4.23004		
0.524968	2.68097	0.381536	1.93104	0.52617	2.6806	0.644166	3.29638	0.760077	3.88878	0.959524	4.90134	0.527632	2.69856	0.63231	3.22156	0.824463	4.21566		
0.527324	2.68025	0.383564	1.93219	0.528527	2.67989	0.645737	3.28874	0.761688	3.87853	0.960613	4.88366	0.529703	2.6963	0.634053	3.21518	0.825597	4.20145		
0.529683	2.67955	0.385592	1.93333	0.530887	2.6792	0.647312	3.28119	0.763302	3.8684	0.961707	4.86617	0.531773	2.69406	0.6358	3.20888	0.826735	4.18739		
0.532044	2.67886	0.38762	1.93447	0.533249	2.67852	0.648891	3.27373	0.76492	3.85838	0.962804	4.84887	0.533843	2.69184	0.637552	3.20266	0.827878	4.17348		
0.534407	2.6782	0.389647	1.93558	0.535613	2.67787	0.650473	3.26636	0.766541	3.84847	0.963906	4.83174	0.535911	2.68963	0.639308	3.19652	0.829025	4.15972		
0.536772	2.67755	0.391675	1.93669	0.537979	2.67723	0.652059	3.25908	0.768166	3.83867	0.965012	4.8148	0.537978	2.68744	0.641069	3.19046	0.830177	4.14612		
0.53914	2.67692	0.393702	1.93779	0.540348	2.6766	0.653648	3.25188	0.769794	3.82898	0.966121	4.79803	0.540045	2.68527	0.642834	3.18448	0.831332	4.13266		
0.541509	2.6763	0.395729	1.93888	0.542718	2.676	0.65524	3.24476	0.771425	3.81939	0.967235	4.78144	0.54211	2.68311	0.644604	3.17858	0.832492	4.11935		
0.54388	2.6757	0.397756	1.93995	0.545091	2.6754	0.656837	3.23773	0.77306	3.80991	0.968353	4.76502	0.544174	2.68096	0.646378	3.17275	0.833656	4.10618		
0.546254	2.67512	0.399782	1.94101	0.547465	2.67482	0.658436	3.23077	0.774698	3.80053	0.969475	4.74877	0.546238	2.67883	0.648156	3.167	0.834825	4.09315		
0.548629	2.67454	0.401809	1.94207	0.549841	2.67426	0.66004	3.2239	0.776339	3.79126	0.9706	4.73268	0.5483	2.67671	0.649939	3.16132	0.835997	4.08026		
0.551005	2.67398	0.403835	1.94311	0.552218	2.6737	0.661646	3.21711	0.777983	3.78208	0.97173	4.71676	0.550361	2.67461	0.651726	3.15571	0.837174	4.0675		
0.553383	2.67344	0.405861	1.94414	0.554597	2.67316	0.663256	3.21039	0.779631	3.773	0.972864	4.70101	0.552421	2.67252	0.653518	3.15017	0.838355	4.05489		
0.555763	2.6729	0.407887	1.94516	0.556977	2.67264	0.664869	3.20375	0.781282	3.76402	0.974002	4.68541	0.55448	2.67045	0.655313	3.1447	0.83954	4.0424		
0.558144	2.67238	0.409912	1.94618	0.559359	2.67212	0.666486	3.19719	0.782936	3.75513	0.975144	4.66997	0.556539	2.66839	0.657113	3.13931	0.840729	4.03005		
0.560527	2.67187	0.411937	1.94718	0.561743	2.67161	0.668106	3.1907	0.784593	3.74633	0.976289	4.65469	0.558596	2.66634	0.658917	3.13397	0.841922	4.01782		
0.562911	2.67137	0.413962	1.94817	0.564127	2.67112	0.66973	3.18429	0.786253	3.73763	0.977439	4.63956	0.560652	2.66431	0.660726	3.12871	0.84312	4.00573		
0.565296	2.67088	0.415987	1.94915	0.566513	2.67063	0.671356	3.17794	0.787916	3.72902	0.978593	4.62459	0.562707	2.66228	0.662538	3.12351	0.844321	3.99376		
0.567682	2.6704	0.418012	1.95013	0.5689	2.67016	0.672986	3.17167	0.789582	3.7205	0.97975	4.60976	0.564761	2.66027	0.664355	3.11838	0.845527	3.98191		
0.57007	2.66993	0.420036	1.95109	0.571288	2.66969	0.674619	3.16547	0.791251	3.71207	0.980912	4.59508	0.566813	2.65828	0.666176	3.11331	0.846737	3.97019		
0.572459	2.66947	0.42206	1.95204	0.573677	2.66923	0.676256	3.15933	0.792923	3.70373	0.982077	4.58055	0.568865	2.65629	0.668001	3.10831	0.847951	3.95859		
0.574848	2.66901	0.424084	1.95299	0.576067	2.66879	0.677896	3.15327	0.794598	3.69547	0.983246	4.56616	0.570916	2.65432	0.66983	3.10336	0.849169	3.94711		
0.577239	2.66857	0.426108	1.95393	0.578459	2.66835	0.679538	3.14727	0.796277	3.6873	0.984419	4.55191	0.572966	2.65236	0.671663	3.09848	0.850391	3.93574		
0.579631	2.66813	0.428131	1.95485	0.580851	2.66792	0.681185	3.14134	0.797957	3.67921	0.985596	4.53781	0.575014	2.65041	0.6735	3.09366	0.851617	3.9245		
0.582023	2.66771	0.430154	1.95577	0.583244	2.66749	0.682834	3.13547	0.799641	3.6712	0.986777	4.52384	0.577061	2.64848	0.675341	3.0889	0.852847	3.91336		
0.584417	2.66729	0.432177	1.95668	0.585638	2.66708	0.684486	3.12967	0.801328	3.66328	0.987962	4.51	0.579108	2.64655	0.677186	3.08419	0.854082	3.90234		
0.586811	2.66687	0.4342	1.95758	0.588032	2.66667	0.686142	3.12393	0.803018	3.65543	0.98915	4.49631	0.581153	2.64464	0.679035	3.07955	0.85532	3.89144		
0.589206	2.66647	0.436222	1.95847	0.590428	2.66626	0.6878	3.11826	0.80471	3.64766	0.990342	4.48274	0.583197	2.64274	0.680888	3.07496	0.856562	3.88064		
0.591601	2.66607	0.438245	1.95935	0.592824	2.66587	0.689462	3.11265	0.806405	3.63997	0.991538	4.46931	0.58524	2.64084	0.682744	3.07042	0.857809	3.86995		
0.593998	2.66568	0.440267	1.96023	0.59522	2.66548	0.691127	3.10709	0.808103	3.63236	0.992738	4.456	0.587282	2.63896	0.684605	3.06594	0.859059	3.85937		
0.596395	2.66529	0.442288	1.9611	0.597618	2.66509	0.692795	3.1016	0.809804	3.62483	0.993942	4.44283	0.589323	2.63709	0.686469	3.06152	0.860313	3.84889		
0.598793	2.66491	0.44431	1.96195	0.600016	2.66472	0.694466	3.09617	0.811507	3.61737	0.99515	4.42977	0.591363	2.63524	0.688337	3.05715	0.861572	3.83852		
0.601191	2.66453	0.446331	1.9628	0.602414	2.66434	0.69614	3.09079	0.813213	3.60998	0.996361	4.41685	0.593402	2.63339	0.690209	3.05283	0.862834	3.82826		
0.60359	2.66416	0.448352	1.96365	0.604813	2.66398	0.697817	3.08547	0.814922	3.60266	0.997576	4.40405	0.595439	2.63155	0.692085	3.04856	0.8641	3.81809		
0.605989	2.6638	0.450373	1.96448	0.607213	2.66361	0.699497	3.08021	0.816633	3.59542	0.998795	4.39136	0.597476	2.62972	0.693965	3.04435	0.86537	3.80803		
0.608389	2.66344	0.452393	1.96531	0.609613	2.66326	0.70118	3.07501	0.818347	3.58825	1.00002	4.3788	0.599511	2.6279	0.695848	3.04018	0.866644	3.79806		
0.610789	2.66308	0.454414	1.96612	0.612013	2.66291	0.702867	3.06986	0.820064	3.58114			0.601546	2.6261	0.697734	3.03607	0.867922	3.78819		
0.61319	2.66274	0.456434	1.96694	0.614414	2.66256	0.704556	3.06477	0.821783	3.57411			0.603579	2.6243	0.699625	3.032	0.869204	3.77842		
0.615591	2.66239	0.458453	1.96774	0.616815	2.66222	0.706248	3.05973	0.823505	3.56714			0.605611	2.62251	0.701519	3.02798	0.87049	3.76875		
0.617992	2.66205	0.460473	1.96853	0.619217	2.66188	0.707943	3.05474	0.825229	3.56024			0.607642	2.62073	0.703417	3.02401	0.87178	3.75917		
0.620394	2.66171	0.462492	1.96932	0.621619	2.66154	0.70964	3.0498	0.826956	3.55341			0.609672	2.61896	0.705318	3.02009	0.873073	3.74968		
0.622795	2.66138	0.464511	1.9701	0.624021	2.66121	0.711341	3.04492	0.828686	3.54664			0.611701	2.6172	0.707222	3.01621	0.874371	3.74029		
0.625198	2.66105	0.46653	1.97088	0.626423	2.66088	0.713045	3.04009	0.830417	3.53994			0.613729	2.61545	0.709131	3.01238	0.875672	3.73099		
0.6276	2.66072	0.468548	1.97165	0.628825	2.66056	0.714752	3.03531	0.832152	3.5333			0.615756	2.61371	0.711042	3.00859	0.876978	3.72177		
0.630003	2.6604	0.470567	1.97241	0.631228	2.66024	0.716461	3.03058	0.833888	3.52672			0.617781	2.61198	0.712957	3.00485	0.878287	3.71265		
0.632405	2.66008	0.472585	1.97316	0.633631	2.65992	0.718173	3.0259	0.835627	3.52021			0.619806	2.61026	0.714876	3.00115	0.8796	3.70361		
0.634808	2.65976	0.474602	1.9739	0.636034	2.6596	0.719889	3.02126	0.837369	3.51375			0.621829	2.60855	0.716798	2.99749	0.880916	3.69466		
0.637211	2.65945	0.47662	1.97464	0.638437	2.65929	0.721607	3.01668	0.839113	3.50736			0.623852	2.60684	0.718723	2.99388	0.882237	3.6858		
0.639614	2.65914	0.478637	1.97538	0.64084	2.65898	0.723328	3.01214	0.840859	3.50102			0.625873	2.60514	0.720651	2.99031	0.883561	3.67702		
0.642018	2.65883	0.480654	1.9761	0.643243	2.65868	0.725051	3.00765	0.842607	3.49474			0.627893	2.60346	0.722583	2.98678	0.88489	3.66832		
0.644421	2.65853	0.482671	1.97682	0.645647	2.65837	0.726778	3.0032	0.844358	3.48853			0.629913	2.60178	0.724518	2.98329	0.886221	3.65971		
0.646824	2.65823	0.484687	1.97753	0.64805	2.65807	0.728507	2.9988	0.846111	3.48236			0.631931	2.60011	0.726457	2.97984	0.887557	3.65118		
0.649227	2.65792	0.486703	1.97824	0.650453	2.65777	0.73024	2.99445	0.847867	3.47626			0.633948	2.59845	0.728399	2.97643	0.888897	3.64273		
0.651631	2.65763	0.488719	1.97894	0.652856	2.65747	0.731975	2.99014	0.849624	3.47021			0.635964	2.59679	0.730343	2.97305	0.89024	3.63436		
0.654034	2.65733	0.490735	1.97963	0.655259	2.65718	0.733713	2.98588	0.851384	3.46421			0.637979	2.59515	0.732291	2.96972	0.891587	3.62606		
0.656437	2.65703	0.49275	1.98032	0.657662	2.65689	0.735453	2.98165	0.853146	3.45827			0.639993	2.59351	0.734242	2.96643	0.892938	3.61785		
0.65884	2.65674	0.494765	1.981	0.660065	2.65659	0.737197	2.97748	0.854911	3.45239			0.642006	2.59188	0.736196	2.96317	0.894292	3.60971		
0.661242	2.65645	0.49678	1.98167	0.662468	2.6563	0.738943	2.97334	0.856677	3.44655			0.644018	2.59026	0.738154	2.95994	0.895651	3.60165		
0.663645	2.65616	0.498795	1.98234	0.66487	2.65601	0.740692	2.96925	0.858446	3.44077			0.646029	2.58865	0.740114	2.95676	0.897013	3.59366		
0.666047	2.65587	0.500809	1.98301	0.667273	2.65573	0.742444	2.96519	0.860216	3.43504			0.648039	2.58705	0.742077	2.95361	0.898378	3.58575		
0.668449	2.65559	0.502823	1.98366	0.669675	2.65544	0.744198	2.96118	0.861989	3.42936			0.650048	2.58545	0.744043	2.95049	0.899748	3.57791		
0.670851	2.6553	0.504837	1.98431	0.672076	2.65515	0.745955	2.95721	0.863764	3.42373			0.652056	2.58386	0.746013	2.94741	0.901121	3.57014		
0.673253	2.65501	0.506851	1.98496	0.674478	2.65487	0.747716	2.95328	0.865541	3.41815			0.654063	2.58228	0.747985	2.94437	0.902497	3.56245		
0.675655	2.65473	0.508864	1.9856	0.676879	2.65459	0.749478	2.94939	0.86732	3.41262			0.656069	2.58071	0.74996	2.94135	0.903878	3.55482		
0.678056	2.65445	0.510877	1.98623	0.67928	2.6543	0.751244	2.94554	0.869101	3.40714			0.658074	2.57914	0.751938	2.93837	0.905262	3.54727		
0.680456	2.65417	0.51289	1.98686	0.681681	2.65402	0.753012	2.94173	0.870884	3.4017			0.660078	2.57759	0.753918	2.93543	0.90665	3.53978		
0.682857	2.65388	0.514902	1.98749	0.684081	2.65374	0.754783	2.93795	0.872669	3.39632			0.662081	2.57604	0.755902	2.93251	0.908041	3.53236		
0.685257	2.6536	0.516915	1.9881	0.686481	2.65346	0.756557	2.93421	0.874456	3.39098			0.664083	2.57449	0.757888	2.92963	0.909436	3.52501		
0.687656	2.65332	0.518927	1.98871	0.68888	2.65318	0.758334	2.93052	0.876245	3.38568			0.666084	2.57296	0.759877	2.92677	0.910834	3.51773		
0.690056	2.65304	0.520938	1.98932	0.691279	2.6529	0.760113	2.92685	0.878036	3.38043			0.668085	2.57143	0.761869	2.92395	0.912237	3.51052		
0.692454	2.65276	0.52295	1.98992	0.693677	2.65262	0.761895	2.92323	0.879829	3.37523			0.670084	2.56991	0.763863	2.92116	0.913643	3.50336		
0.694852	2.65248	0.524961	1.99052	0.696075	2.65234	0.76368	2.91964	0.881624	3.37007			0.672082	2.5684	0.765861	2.9184	0.915052	3.49628		
0.69725	2.6522	0.526972	1.99111	0.698473	2.65206	0.765468	2.91609	0.883421	3.36495			0.67408	2.56689	0.76786	2.91567	0.916465	3.48926		
0.699647	2.65192	0.528983	1.99169	0.700869	2.65178	0.767258	2.91257	0.885219	3.35988			0.676076	2.56539	0.769863	2.91297	0.917882	3.4823		
0.702044	2.65164	0.530993	1.99228	0.703266	2.6515	0.769051	2.90909	0.88702	3.35485			0.678072	2.5639	0.771867	2.91029	0.919302	3.4754		
0.70444	2.65136	0.533003	1.99285	0.705661	2.65122	0.770847	2.90564	0.888822	3.34986			0.680067	2.56241	0.773875	2.90765	0.920726	3.46857		
0.706835	2.65108	0.535013	1.99342	0.708056	2.65093	0.772646	2.90223	0.890626	3.34491			0.682061	2.56094	0.775885	2.90503	0.922153	3.46179		
0.70923	2.6508	0.537023	1.99399	0.710451	2.65065	0.774447	2.89885	0.892432	3.34001			0.684054	2.55947	0.777897	2.90244	0.923584	3.45508		
0.711623	2.65051	0.539032	1.99455	0.712844	2.65037	0.776252	2.89551	0.89424	3.33514			0.686046	2.558	0.779912	2.89988	0.925018	3.44843		
0.714017	2.65023	0.541041	1.9951	0.715237	2.65009	0.778059	2.8922	0.896049	3.33032			0.688037	2.55655	0.781929	2.89734	0.926456	3.44183		
0.716409	2.64995	0.54305	1.99565	0.717629	2.6498	0.779869	2.88892	0.89786	3.32554			0.690028	2.5551	0.783949	2.89483	0.927898	3.4353		
0.718801	2.64966	0.545058	1.9962	0.72002	2.64952	0.781681	2.88567	0.899673	3.32079			0.692017	2.55365	0.785971	2.89235	0.929343	3.42882		
0.721192	2.64938	0.547067	1.99674	0.722411	2.64923	0.783497	2.88246	0.901488	3.31609			0.694006	2.55222	0.787995	2.88989	0.930792	3.4224		
0.723582	2.64909	0.549075	1.99728	0.724801	2.64894	0.785315	2.87928	0.903304	3.31142			0.695994	2.55079	0.790022	2.88745	0.932244	3.41604		
0.725971	2.6488	0.551082	1.99781	0.727189	2.64865	0.787136	2.87613	0.905122	3.30679			0.697981	2.54937	0.792051	2.88505	0.933699	3.40973		
0.728359	2.64851	0.55309	1.99834	0.729577	2.64836	0.78896	2.87302	0.906942	3.3022			0.699967	2.54795	0.794082	2.88266	0.935158	3.40348		
0.730747	2.64822	0.555097	1.99886	0.731964	2.64807	0.790787	2.86993	0.908763	3.29764			0.701953	2.54654	0.796115	2.8803	0.936621	3.39728		
0.733133	2.64793	0.557104	1.99938	0.73435	2.64778	0.792617	2.86688	0.910586	3.29312			0.703938	2.54514	0.798151	2.87796	0.938087	3.39114		
0.735519	2.64764	0.559111	1.9999	0.736735	2.64749	0.79445	2.86386	0.912411	3.28864			0.705922	2.54375	0.800189	2.87565	0.939557	3.38505		
0.737903	2.64734	0.561117	2.00041	0.739119	2.64719	0.796285	2.86087	0.914237	3.2842			0.707905	2.54236	0.802229	2.87336	0.94103	3.37902		
0.740286	2.64704	0.563123	2.00091	0.741502	2.64689	0.798124	2.85791	0.916065	3.27978			0.709888	2.54097	0.804271	2.87109	0.942506	3.37303		
0.742669	2.64674	0.565129	2.00141	0.743883	2.64659	0.799965	2.85498	0.917895	3.27541			0.711869	2.5396	0.806314	2.86885	0.943986	3.3671		
0.74505	2.64644	0.567135	2.00191	0.746264	2.64629	0.80181	2.85208	0.919726	3.27107			0.71385	2.53823	0.808361	2.86663	0.945469	3.36122		
0.74743	2.64614	0.56914	2.0024	0.748643	2.64598	0.803657	2.8492	0.921558	3.26676			0.715831	2.53687	0.810409	2.86442	0.946956	3.35539		
0.749808	2.64583	0.571145	2.00289	0.751021	2.64568	0.805508	2.84636	0.923392	3.26249			0.71781	2.53551	0.812459	2.86224	0.948446	3.34962		
0.752186	2.64552	0.57315	2.00338	0.753398	2.64537	0.807361	2.84355	0.925228	3.25825			0.719789	2.53416	0.814511	2.86009	0.94994	3.34389		
0.754562	2.64521	0.575154	2.00386	0.755773	2.64505	0.809218	2.84077	0.927065	3.25404			0.721767	2.53282	0.816564	2.85795	0.951437	3.33821		
0.756937	2.6449	0.577159	2.00434	0.758147	2.64474	0.811077	2.83801	0.928904	3.24987			0.723745	2.53148	0.81862	2.85583	0.952938	3.33258		
0.75931	2.64458	0.579162	2.00481	0.76052	2.64442	0.81294	2.83529	0.930744	3.24572			0.725722	2.53015	0.820678	2.85373	0.954442	3.327		
0.761682	2.64426	0.581166	2.00528	0.762891	2.6441	0.814806	2.83259	0.932585	3.24161			0.727698	2.52882	0.822737	2.85166	0.955949	3.32147		
0.764053	2.64394	0.58317	2.00574	0.765261	2.64378	0.816675	2.82992	0.934428	3.23753			0.729673	2.52751	0.824799	2.8496	0.95746	3.31598		
0.766422	2.64362	0.585173	2.0062	0.767629	2.64345	0.818547	2.82728	0.936273	3.23349			0.731648	2.52619	0.826862	2.84756	0.958974	3.31054		
0.768789	2.64329	0.587176	2.00666	0.769996	2.64312	0.820422	2.82467	0.938119	3.22947			0.733622	2.52489	0.828926	2.84554	0.960491	3.30515		
0.771155	2.64296	0.589178	2.00711	0.772361	2.64279	0.822301	2.82208	0.939966	3.22548			0.735596	2.52359	0.830993	2.84354	0.962012	3.29981		
0.773519	2.64262	0.591181	2.00756	0.774725	2.64245	0.824182	2.81953	0.941815	3.22153			0.737569	2.52229	0.833061	2.84156	0.963536	3.29451		
0.775882	2.64228	0.593183	2.00801	0.777086	2.64211	0.826068	2.817	0.943665	3.2176			0.739541	2.52101	0.835131	2.83959	0.965064	3.28925		
0.778243	2.64194	0.595185	2.00845	0.779446	2.64176	0.827956	2.81449	0.945516	3.21371			0.741513	2.51973	0.837202	2.83765	0.966595	3.28404		
0.780602	2.64159	0.597187	2.00889	0.781804	2.64141	0.829848	2.81202	0.947369	3.20984			0.743484	2.51845	0.839276	2.83572	0.968129	3.27887		
0.782959	2.64124	0.599188	2.00933	0.78416	2.64106	0.831743	2.80957	0.949223	3.206			0.745455	2.51718	0.84135	2.83381	0.969667	3.27375		
0.785314	2.64089	0.601189	2.00976	0.786515	2.6407	0.833641	2.80715	0.951078	3.20219			0.747425	2.51592	0.843426	2.83191	0.971208	3.26867		
0.787668	2.64053	0.60319	2.01018	0.788867	2.64034	0.835543	2.80475	0.952935	3.19841			0.749395	2.51466	0.845504	2.83004	0.972752	3.26364		
0.790019	2.64016	0.60519	2.01061	0.791218	2.63998	0.837449	2.80239	0.954793	3.19465			0.751363	2.51341	0.847583	2.82818	0.9743	3.25864		
0.792368	2.6398	0.607191	2.01103	0.793566	2.63961	0.839358	2.80004	0.956652	3.19093			0.753332	2.51217	0.849664	2.82633	0.975851	3.25369		
0.794716	2.63942	0.609191	2.01145	0.795912	2.63923	0.841271	2.79773	0.958513	3.18723			0.7553	2.51093	0.851746	2.82451	0.977405	3.24878		
0.797061	2.63905	0.61119	2.01186	0.798256	2.63885	0.843187	2.79544	0.960374	3.18356			0.757267	2.50969	0.85383	2.82269	0.978963	3.24391		
0.799403	2.63866	0.61319	2.01227	0.800598	2.63847	0.845107	2.79318	0.962237	3.17991			0.759234	2.50847	0.855915	2.8209	0.980524	3.23909		
0.801744	2.63827	0.615189	2.01268	0.802937	2.63808	0.847031	2.79094	0.964102	3.17629			0.7612	2.50725	0.858001	2.81912	0.982088	3.2343		
0.804082	2.63788	0.617188	2.01308	0.805274	2.63768	0.848958	2.78873	0.965967	3.1727			0.763166	2.50603	0.860088	2.81735	0.983656	3.22955		
0.806418	2.63748	0.619187	2.01348	0.807609	2.63728	0.850889	2.78655	0.967834	3.16913			0.765131	2.50482	0.862177	2.8156	0.985227	3.22484		
0.808752	2.63708	0.621185	2.01388	0.809941	2.63687	0.852824	2.78439	0.969702	3.16559			0.767096	2.50362	0.864267	2.81386	0.986801	3.22018		
0.811082	2.63667	0.623184	2.01427	0.81227	2.63646	0.854763	2.78226	0.971571	3.16207			0.769061	2.50242	0.866359	2.81214	0.988378	3.21555		
0.813411	2.63625	0.625181	2.01466	0.814597	2.63604	0.856706	2.78015	0.973441	3.15858			0.771025	2.50123	0.868451	2.81044	0.989959	3.21096		
0.815736	2.63583	0.627179	2.01505	0.816921	2.63561	0.858653	2.77807	0.975312	3.15512			0.772988	2.50004	0.870545	2.80874	0.991543	3.20641		
0.818059	2.6354	0.629177	2.01544	0.819243	2.63518	0.860604	2.77601	0.977185	3.15168			0.774951	2.49886	0.87264	2.80706	0.993131	3.20189		
0.820379	2.63497	0.631174	2.01582	0.821562	2.63475	0.862559	2.77398	0.979058	3.14826			0.776914	2.49768	0.874736	2.8054	0.994721	3.19742		
0.822697	2.63453	0.633171	2.01619	0.823877	2.6343	0.864518	2.77198	0.980933	3.14487			0.778876	2.49651	0.876833	2.80375	0.996315	3.19298		
0.825011	2.63408	0.635167	2.01657	0.82619	2.63385	0.866482	2.77	0.982809	3.1415			0.780838	2.49535	0.878932	2.80211	0.997912	3.18857		
0.827323	2.63363	0.637163	2.01694	0.8285	2.63339	0.86845	2.76804	0.984686	3.13815			0.7828	2.49419	0.881031	2.80048	0.999513	3.18421		
0.829631	2.63317	0.63916	2.01731	0.830807	2.63293	0.870421	2.76611	0.986564	3.13483			0.784761	2.49304	0.883131	2.79887	1.00112	3.17988		
0.831936	2.6327	0.641155	2.01768	0.833111	2.63246	0.872398	2.76421	0.988443	3.13153			0.786721	2.49189	0.885233	2.79727				
0.834238	2.63222	0.643151	2.01804	0.835411	2.63198	0.874378	2.76233	0.990323	3.12825			0.788682	2.49075	0.887335	2.79568				
0.836537	2.63174	0.645146	2.0184	0.837709	2.63149	0.876364	2.76048	0.992205	3.12499			0.790641	2.48962	0.889438	2.79411				
0.838833	2.63125	0.647141	2.01876	0.840002	2.63099	0.878353	2.75865	0.994087	3.12176			0.792601	2.48849	0.891543	2.79255				
0.841125	2.63075	0.649136	2.01911	0.842293	2.63049	0.880348	2.75684	0.99597	3.11855			0.79456	2.48736	0.893648	2.79099				
0.843414	2.63024	0.651131	2.01946	0.84458	2.62998	0.882347	2.75507	0.997854	3.11536			0.796519	2.48624	0.895754	2.78945				
0.845699	2.62973	0.653125	2.01981	0.846864	2.62946	0.88435	2.75331	0.99974	3.1122			0.798478	2.48513	0.89786	2.78793				
0.847981	2.62921	0.655119	2.02016	0.849143	2.62894	0.886359	2.75158	1.00163	3.10905			0.800436	2.48402	0.899968	2.78641				
0.850259	2.62868	0.657113	2.0205	0.85142	2.6284	0.888372	2.74988					0.802394	2.48292	0.902077	2.7849				
0.852534	2.62814	0.659106	2.02084	0.853692	2.62786	0.89039	2.7482					0.804351	2.48182	0.904186	2.78341				
0.854804	2.62759	0.6611	2.02118	0.855961	2.62731	0.892413	2.74655					0.806308	2.48073	0.906296	2.78193				
0.857071	2.62704	0.663093	2.02151	0.858226	2.62675	0.894441	2.74492					0.808265	2.47964	0.908406	2.78045				
0.859334	2.62647	0.665085	2.02185	0.860487	2.62618	0.896473	2.74331					0.810222	2.47856	0.910518	2.77899				
0.861593	2.6259	0.667078	2.02218	0.862744	2.6256	0.898511	2.74173					0.812179	2.47748	0.91263	2.77754				
0.863848	2.62532	0.66907	2.0225	0.864997	2.62502	0.900554	2.74017					0.814135	2.47641	0.914742	2.7761				
0.8661	2.62473	0.671062	2.02283	0.867246	2.62442	0.902602	2.73864					0.816091	2.47534	0.916856	2.77466				
0.868346	2.62413	0.673054	2.02315	0.869491	2.62382	0.904656	2.73713					0.818046	2.47428	0.91897	2.77324				
0.870589	2.62352	0.675045	2.02347	0.871732	2.6232	0.906714	2.73565					0.820002	2.47323	0.921084	2.77183				
0.872828	2.6229	0.677037	2.02379	0.873968	2.62258	0.908778	2.73419					0.821957	2.47218	0.923199	2.77043				
0.875062	2.62227	0.679028	2.0241	0.8762	2.62195	0.910847	2.73276					0.823912	2.47113	0.925315	2.76903				
0.877292	2.62164	0.681018	2.02441	0.878428	2.62131	0.912921	2.73134					0.825866	2.47009	0.927431	2.76765				
0.879518	2.62099	0.683009	2.02472	0.880652	2.62066	0.915001	2.72996					0.827821	2.46906	0.929547	2.76627				
0.88174	2.62034	0.684999	2.02503	0.882871	2.62	0.917086	2.72859					0.829775	2.46803	0.931664	2.76491				
0.883957	2.61967	0.686989	2.02533	0.885086	2.61933	0.919176	2.72725					0.831729	2.467	0.933781	2.76355				
0.88617	2.619	0.688979	2.02563	0.887296	2.61865	0.921272	2.72593					0.833683	2.46599	0.935899	2.7622				
0.888378	2.61831	0.690968	2.02593	0.889502	2.61796	0.923373	2.72464					0.835637	2.46497	0.938017	2.76086				
0.890582	2.61762	0.692957	2.02623	0.891704	2.61726	0.92548	2.72337					0.83759	2.46396	0.940136	2.75953				
0.892781	2.61692	0.694946	2.02653	0.893901	2.61656	0.927592	2.72212					0.839543	2.46296	0.942255	2.75821				
0.894976	2.61621	0.696935	2.02682	0.896094	2.61584	0.92971	2.7209					0.841496	2.46196	0.944374	2.75689				
0.897166	2.61549	0.698923	2.02711	0.898282	2.61512	0.931833	2.7197					0.843449	2.46096	0.946493	2.75558				
0.899352	2.61476	0.700912	2.0274	0.900465	2.61438	0.933961	2.71852					0.845402	2.45997	0.948613	2.75428				
0.901533	2.61402	0.702899	2.02768	0.902644	2.61364	0.936095	2.71736					0.847355	2.45899	0.950733	2.75299				
0.90371	2.61327	0.704887	2.02797	0.904819	2.61289	0.938235	2.71622					0.849307	2.45801	0.952853	2.75171				
0.905883	2.61251	0.706875	2.02825	0.906989	2.61212	0.94038	2.71511					0.85126	2.45703	0.954973	2.75043				
0.90805	2.61175	0.708862	2.02853	0.909154	2.61135	0.94253	2.71402					0.853212	2.45606	0.957094	2.74916				
0.910214	2.61097	0.710849	2.0288	0.911316	2.61058	0.944686	2.71294					0.855164	2.4551	0.959214	2.7479				
0.912373	2.61019	0.712836	2.02908	0.913472	2.60979	0.946847	2.7119					0.857116	2.45414	0.961335	2.74664				
0.914527	2.6094	0.714822	2.02935	0.915624	2.60899	0.949013	2.71087					0.859068	2.45318	0.963456	2.74539				
0.916677	2.6086	0.716808	2.02962	0.917772	2.60819	0.951185	2.70986					0.86102	2.45223	0.965577	2.74415				
0.918823	2.60779	0.718794	2.02989	0.919916	2.60738	0.953362	2.70887					0.862971	2.45129	0.967698	2.74291				
0.920964	2.60698	0.72078	2.03015	0.922055	2.60656	0.955544	2.7079					0.864923	2.45034	0.969819	2.74169				
0.923101	2.60615	0.722766	2.03042	0.92419	2.60573	0.957732	2.70695					0.866874	2.44941	0.97194	2.74046				
0.925234	2.60532	0.724751	2.03068	0.92632	2.60489	0.959924	2.70602					0.868826	2.44848	0.974061	2.73925				
0.927363	2.60448	0.726736	2.03094	0.928447	2.60405	0.962122	2.70511					0.870777	2.44755	0.976182	2.73804				
0.929487	2.60363	0.72872	2.0312	0.930569	2.6032	0.964324	2.70422					0.872728	2.44663	0.978303	2.73684				
0.931607	2.60278	0.730705	2.03145	0.932687	2.60234	0.966532	2.70335					0.874679	2.44571	0.980424	2.73564				
0.933723	2.60192	0.732689	2.03171	0.934801	2.60148	0.968745	2.7025					0.87663	2.44479	0.982545	2.73445				
0.935835	2.60105	0.734673	2.03196	0.936911	2.60061	0.970962	2.70166					0.878581	2.44388	0.984665	2.73326				
0.937944	2.60018	0.736657	2.03221	0.939017	2.59973	0.973184	2.70084					0.880532	2.44298	0.986786	2.73208				
0.940048	2.5993	0.738641	2.03246	0.94112	2.59885	0.975411	2.70004					0.882483	2.44208	0.988906	2.73091				
0.942148	2.59841	0.740624	2.03271	0.943218	2.59796	0.977642	2.69926					0.884434	2.44119	0.991026	2.72974				
0.944245	2.59752	0.742607	2.03295	0.945313	2.59706	0.979879	2.69849					0.886385	2.44029	0.993146	2.72858				
0.946338	2.59662	0.74459	2.03319	0.947404	2.59616	0.982119	2.69774					0.888336	2.43941	0.995266	2.72742				
0.948427	2.59572	0.746573	2.03343	0.949491	2.59525	0.984364	2.697					0.890286	2.43853	0.997386	2.72627				
0.950513	2.59481	0.748555	2.03367	0.951575	2.59434	0.986614	2.69628					0.892237	2.43765	0.999505	2.72512				
0.952595	2.5939	0.750537	2.03391	0.953655	2.59343	0.988867	2.69558					0.894188	2.43677	1.00162	2.72398				
0.954673	2.59298	0.752519	2.03414	0.955732	2.59251	0.991125	2.69489					0.896139	2.43591						
0.956749	2.59205	0.754501	2.03438	0.957806	2.59158	0.993387	2.69421					0.898089	2.43504						
0.95882	2.59113	0.756482	2.03461	0.959876	2.59065	0.995653	2.69355					0.90004	2.43418						
0.960889	2.5902	0.758463	2.03484	0.961943	2.58972	0.997923	2.69291					0.901991	2.43333						
0.962955	2.58926	0.760444	2.03506	0.964007	2.58878	1.0002	2.69227					0.903941	2.43247						
0.965017	2.58832	0.762425	2.03529	0.966068	2.58784							0.905892	2.43163						
0.967077	2.58738	0.764405	2.03551	0.968126	2.5869							0.907843	2.43078						
0.969133	2.58644	0.766386	2.03574	0.970181	2.58595							0.909793	2.42994						
0.971187	2.58549	0.768366	2.03596	0.972233	2.585							0.911744	2.42911						
0.973238	2.58454	0.770345	2.03618	0.974283	2.58405							0.913695	2.42828						
0.975286	2.58358	0.772325	2.03639	0.976329	2.5831							0.915646	2.42745						
0.977331	2.58263	0.774304	2.03661	0.978373	2.58214							0.917596	2.42663						
0.979374	2.58167	0.776283	2.03682	0.980415	2.58118							0.919547	2.42581						
0.981414	2.58071	0.778262	2.03704	0.982454	2.58022							0.921498	2.425						
0.983452	2.57975	0.780241	2.03725	0.984491	2.57926							0.923449	2.42419						
0.985488	2.57879	0.782219	2.03746	0.986525	2.57829							0.9254	2.42338						
0.987521	2.57782	0.784197	2.03766	0.988557	2.57733							0.927351	2.42258						
0.989552	2.57686	0.786175	2.03787	0.990587	2.57636							0.929302	2.42179						
0.99158	2.57589	0.788153	2.03807	0.992614	2.5754							0.931253	2.42099						
0.993607	2.57492	0.79013	2.03828	0.99464	2.57443							0.933204	2.4202						
0.995632	2.57395	0.792108	2.03848	0.996663	2.57346							0.935156	2.41942						
0.997654	2.57298	0.794085	2.03868	0.998685	2.57249							0.937107	2.41864						
0.999675	2.57202	0.796061	2.03888	1.0007	2.57152							0.939058	2.41786						
1.00169	2.57105	0.798038	2.03907									0.94101	2.41708						
		0.800014	2.03927									0.942961	2.41631						
		0.80199	2.03946									0.944913	2.41555						
		0.803966	2.03965									0.946865	2.41479						
		0.805942	2.03984									0.948816	2.41403						
		0.807917	2.04003									0.950768	2.41327						
		0.809893	2.04022									0.95272	2.41252						
		0.811868	2.04041									0.954672	2.41177						
		0.813842	2.04059									0.956624	2.41103						
		0.815817	2.04078									0.958576	2.41029						
		0.817791	2.04096									0.960529	2.40956						
		0.819765	2.04114									0.962481	2.40882						
		0.821739	2.04132									0.964434	2.4081						
		0.823713	2.0415									0.966386	2.40737						
		0.825686	2.04167									0.968339	2.40665						
		0.82766	2.04185									0.970292	2.40593						
		0.829633	2.04202									0.972245	2.40522						
		0.831605	2.04219									0.974198	2.40451						
		0.833578	2.04236									0.976151	2.4038						
		0.83555	2.04253									0.978105	2.4031						
		0.837523	2.0427									0.980058	2.4024						
		0.839494	2.04287									0.982012	2.4017						
		0.841466	2.04304									0.983966	2.40101						
		0.843438	2.0432									0.98592	2.40032						
		0.845409	2.04336									0.987874	2.39963						
		0.84738	2.04353									0.989828	2.39895						
		0.849351	2.04369									0.991782	2.39827						
		0.851322	2.04385									0.993737	2.3976						
		0.853292	2.04401									0.995691	2.39692						
		0.855262	2.04416									0.997646	2.39626						
		0.857232	2.04432									0.999601	2.39559						
		0.859202	2.04448									1.00156	2.39493						
		0.861172	2.04463																
		0.863141	2.04478																
		0.865111	2.04493																
		0.867079	2.04508																
		0.869048	2.04523																
		0.871017	2.04538																
		0.872985	2.04553																
		0.874953	2.04567																
		0.876921	2.04582																
		0.878889	2.04596																
		0.880857	2.0461																
		0.882824	2.04625																
		0.884791	2.04639																
		0.886758	2.04653																
		0.888725	2.04666																
		0.890692	2.0468																
		0.892658	2.04694																
		0.894624	2.04707																
		0.89659	2.04721																
		0.898556	2.04734																
		0.900522	2.04747																
		0.902487	2.0476																
		0.904452	2.04773																
		0.906417	2.04786																
		0.908382	2.04799																
		0.910346	2.04812																
		0.912311	2.04824																
		0.914275	2.04837																
		0.916239	2.04849																
		0.918203	2.04862																
		0.920167	2.04874																
		0.92213	2.04886																
		0.924093	2.04898																
		0.926056	2.0491																
		0.928019	2.04922																
		0.929982	2.04934																
		0.931945	2.04945																
		0.933907	2.04957																
		0.935869	2.04968																
		0.937831	2.0498																
		0.939793	2.04991																
		0.941754	2.05002																
		0.943716	2.05014																
		0.945677	2.05025																
		0.947638	2.05036																
		0.949599	2.05047																
		0.95156	2.05057																
		0.95352	2.05068																
		0.95548	2.05079																
		0.95744	2.05089																
		0.9594	2.051																
		0.96136	2.0511																
		0.96332	2.05121																
		0.965279	2.05131																
		0.967239	2.05141																
		0.969198	2.05151																
		0.971156	2.05161																
		0.973115	2.05171																
		0.975074	2.05181																
		0.977032	2.05191																
		0.97899	2.05201																
		0.980948	2.0521																
		0.982906	2.0522																
		0.984864	2.0523																
		0.986821	2.05239																
		0.988779	2.05248																
		0.990736	2.05258																
		0.992693	2.05267																
		0.99465	2.05276																
		0.996607	2.05285																
		0.998563	2.05294																
		1.00052	2.05303																
