Sym0		Asym0		Sym1		Sym2		Sym3		Sym4		Asym1		Asym2		Asym3	
467  Points		497  Points		224  Points		189  Points		175  Points		123  Points		335  Points		201  Points		164  Points	
Freq (MHz)	Vph (m/ms)	Freq (MHz)	Vph (m/ms)	Freq (MHz)	Vph (m/ms)	Freq (MHz)	Vph (m/ms)	Freq (MHz)	Vph (m/ms)	Freq (MHz)	Vph (m/ms)	Freq (MHz)	Vph (m/ms)	Freq (MHz)	Vph (m/ms)	Freq (MHz)	Vph (m/ms)
0.00428678	5.44951	1.33978e-005	0.0325664	0.279526	420.906	0.471925	2208.46	0.559028	868.221	0.838528	2285.02	0.139825	180.736	0.419265	1570.3	0.698773	2513.33
0.00936375	5.44933	0.000142424	0.106042	0.279612	175.217	0.471942	412.038	0.55908	354.843	0.838551	645.704	0.140097	82.1523	0.419306	349.803	0.698797	577.651
0.0144403	5.44913	0.000407412	0.179099	0.279767	110.689	0.471981	227.233	0.559177	223.023	0.838601	375.994	0.140573	53.3071	0.419401	196.866	0.698852	326.35
0.019516	5.44878	0.000806069	0.251387	0.279992	80.9416	0.472043	156.889	0.559319	162.642	0.838677	265.232	0.141248	39.5793	0.419548	137.014	0.698937	227.436
0.0245907	5.44837	0.00133504	0.322615	0.280288	63.8339	0.472129	119.815	0.559504	128.014	0.83878	204.893	0.142119	31.579	0.419747	105.1	0.699053	174.553
0.0296641	5.44784	0.00199007	0.392528	0.280652	52.7286	0.472237	96.9255	0.559733	105.563	0.838909	166.932	0.14318	26.3581	0.419999	85.2709	0.699199	141.638
0.0347358	5.44722	0.00276606	0.460889	0.281086	44.943	0.472368	81.3887	0.560007	89.8304	0.839065	140.85	0.144427	22.695	0.420304	71.7589	0.699375	119.181
0.0398057	5.4465	0.00365719	0.527484	0.281588	39.1859	0.472523	70.1536	0.560324	78.1949	0.839246	121.827	0.145851	19.992	0.420661	61.9634	0.699582	102.881
0.0448733	5.44566	0.00465725	0.592152	0.282159	34.7586	0.472702	61.6521	0.560685	69.2423	0.839455	107.34	0.147447	17.9219	0.42107	54.5388	0.699819	90.5143
0.0499385	5.44474	0.00575974	0.654765	0.282797	31.2505	0.472904	54.9956	0.56109	62.1422	0.839689	95.9401	0.149206	16.2909	0.421531	48.7192	0.700086	80.8108
0.0550009	5.4437	0.00695788	0.715217	0.283502	28.404	0.47313	49.6431	0.561538	56.3746	0.83995	86.7365	0.151121	14.9765	0.422043	44.0365	0.700384	72.9949
0.0600602	5.44256	0.00824484	0.773434	0.284273	26.0496	0.473381	45.2462	0.562029	51.5977	0.840236	79.151	0.153184	13.8977	0.422608	40.1885	0.700712	66.5654
0.065116	5.44131	0.00961404	0.829387	0.28511	24.0712	0.473656	41.5705	0.562564	47.5772	0.840549	72.7918	0.155388	12.9988	0.423223	36.9713	0.70107	61.1841
0.0701682	5.43995	0.0110587	0.883042	0.286011	22.3863	0.473956	38.4526	0.563141	44.1474	0.840889	67.3843	0.157724	12.2403	0.42389	34.2426	0.701458	56.6146
0.0752162	5.43848	0.0125728	0.934421	0.286976	20.9352	0.474281	35.7748	0.563761	41.1877	0.841254	62.7301	0.160185	11.593	0.424607	31.8996	0.701876	52.6865
0.0802598	5.4369	0.01415	0.983542	0.288004	19.673	0.474632	33.4505	0.564423	38.608	0.841645	58.6824	0.162765	11.0356	0.425375	29.8668	0.702324	49.274
0.0852986	5.43519	0.0157849	1.03045	0.289093	18.5659	0.475009	31.4143	0.565127	36.3402	0.842063	55.1302	0.165104	10.6101	0.426193	28.0868	0.702802	46.2822
0.0903323	5.43337	0.017472	1.07518	0.290244	17.5874	0.475413	29.6161	0.565873	34.3313	0.842506	51.988	0.167161	10.2849	0.427061	26.5159	0.70331	43.6382
0.0953604	5.43143	0.0192063	1.11782	0.291454	16.717	0.475843	28.0168	0.56666	32.5398	0.842976	49.189	0.168904	10.0386	0.427978	25.1197	0.703847	41.2849
0.100383	5.42936	0.0209833	1.15843	0.292723	15.9381	0.476301	26.5854	0.567489	30.9324	0.843471	46.6801	0.170309	9.857	0.428944	23.8711	0.704414	39.1772
0.105398	5.42716	0.0227987	1.19708	0.29405	15.2373	0.476787	25.297	0.568359	29.4826	0.843992	44.4186	0.171356	9.73021	0.429959	22.7481	0.705011	37.2786
0.110407	5.42483	0.0246486	1.23385	0.295434	14.6039	0.477301	24.1314	0.569269	28.1684	0.844539	42.3698	0.172032	9.65189	0.431022	21.733	0.705637	35.5599
0.115409	5.42236	0.0265294	1.26882	0.296872	14.029	0.477844	23.072	0.57022	26.972	0.845112	40.5052	0.173012	9.54299	0.432133	20.8114	0.706293	33.9967
0.120403	5.41975	0.0284378	1.30208	0.298365	13.5049	0.478416	22.1052	0.571211	25.8784	0.84571	38.8012	0.174089	9.42931	0.433291	19.971	0.706977	32.5691
0.125389	5.41699	0.0303711	1.3337	0.299911	13.0256	0.479019	21.2196	0.572241	24.8751	0.846334	37.2381	0.175571	9.28207	0.434497	19.202	0.707691	31.2602
0.130366	5.41408	0.0323264	1.36377	0.301509	12.5857	0.479652	20.4055	0.573311	23.9516	0.846983	35.7991	0.177474	9.1071	0.435749	18.4958	0.708434	30.0561
0.135333	5.41102	0.0343014	1.39236	0.303158	12.1808	0.480316	19.6547	0.57442	23.0988	0.847658	34.4702	0.179816	8.91081	0.437046	17.8451	0.709206	28.9447
0.140291	5.40779	0.0362938	1.41955	0.304856	11.807	0.481013	18.9603	0.575567	22.3091	0.848359	33.2393	0.182618	8.69964	0.43839	17.244	0.710007	27.9159
0.145238	5.4044	0.0383017	1.44541	0.306603	11.4611	0.481741	18.3164	0.576753	21.5759	0.849084	32.0961	0.185902	8.47974	0.439778	16.6871	0.710836	26.9608
0.150174	5.40083	0.0403233	1.47002	0.308396	11.1402	0.482503	17.7177	0.577977	20.8935	0.849835	31.0316	0.189256	8.28081	0.441211	16.1698	0.711694	26.0721
0.155099	5.39709	0.0423571	1.49343	0.310236	10.8418	0.483299	17.1598	0.579238	20.2568	0.850611	30.038	0.192676	8.10022	0.442688	15.6882	0.71258	25.2429
0.16001	5.39315	0.0441382	1.51292	0.311877	10.5984	0.484129	16.6389	0.580537	19.6616	0.851412	29.1086	0.196157	7.93573	0.444209	15.239	0.713494	24.4678
0.164909	5.38902	0.0456622	1.52889	0.313301	10.4021	0.484994	16.1514	0.581872	19.104	0.852239	28.2374	0.199696	7.78546	0.445772	14.8189	0.714437	23.7415
0.169793	5.38469	0.0469261	1.54167	0.314497	10.2471	0.485895	15.6945	0.583244	18.5807	0.85309	27.4192	0.20329	7.64778	0.447378	14.4255	0.715408	23.0598
0.174662	5.38014	0.0479276	1.5515	0.315454	10.1289	0.486833	15.2654	0.584653	18.0887	0.853965	26.6493	0.206936	7.5213	0.449026	14.0564	0.716406	22.4188
0.179516	5.37537	0.0486652	1.55859	0.316165	10.0444	0.487807	14.8617	0.586097	17.6253	0.854866	25.9237	0.21063	7.40481	0.450715	13.7094	0.717432	21.8148
0.184352	5.37037	0.0491377	1.56306	0.316622	9.99137	0.48882	14.4815	0.587576	17.1882	0.855791	25.2386	0.214369	7.29727	0.452445	13.3828	0.718486	21.245
0.189171	5.36513	0.0498176	1.56941	0.317283	9.91643	0.489871	14.1229	0.58909	16.7753	0.856741	24.591	0.218153	7.19777	0.454215	13.0748	0.719568	20.7065
0.193971	5.35964	0.0505574	1.57619	0.318007	9.83675	0.490962	13.7841	0.59064	16.3847	0.857715	23.9777	0.221977	7.10551	0.456025	12.7841	0.720676	20.1969
0.198751	5.35388	0.0515649	1.58523	0.318999	9.73124	0.492093	13.4636	0.592223	16.0147	0.858714	23.3962	0.225839	7.01979	0.457874	12.5092	0.721812	19.714
0.203509	5.34785	0.052841	1.59638	0.320268	9.6023	0.493264	13.1602	0.59384	15.6638	0.859737	22.8442	0.229738	6.94	0.459762	12.249	0.722974	19.2558
0.208245	5.34152	0.0543869	1.60943	0.321823	9.45277	0.494477	12.8726	0.595492	15.3306	0.860784	22.3195	0.233671	6.86558	0.461688	12.0023	0.724163	18.8204
0.212957	5.33489	0.0562038	1.62417	0.323675	9.28571	0.495732	12.5997	0.597176	15.0138	0.861855	21.8201	0.237637	6.79606	0.463651	11.7683	0.725379	18.4063
0.217644	5.32795	0.0582928	1.64037	0.325836	9.10435	0.49703	12.3404	0.598893	14.7124	0.86295	21.3444	0.241633	6.73099	0.465651	11.546	0.726621	18.012
0.222304	5.32067	0.0603856	1.65585	0.328035	8.93324	0.498372	12.094	0.600643	14.4252	0.864068	20.8906	0.245658	6.67001	0.467687	11.3347	0.72789	17.6362
0.226936	5.31305	0.0624816	1.67064	0.330271	8.77158	0.499757	11.8595	0.602425	14.1513	0.865211	20.4574	0.24971	6.61275	0.469759	11.1335	0.729185	17.2775
0.231537	5.30506	0.0645802	1.68479	0.332544	8.61868	0.501188	11.6361	0.604238	13.8899	0.866377	20.0435	0.253788	6.55892	0.471866	10.9418	0.730505	16.9349
0.236107	5.29669	0.0666812	1.69832	0.334853	8.47391	0.502664	11.4233	0.606083	13.6402	0.867567	19.6475	0.257891	6.50823	0.473731	10.7821	0.731851	16.6074
0.240642	5.28792	0.0687841	1.71127	0.337199	8.3367	0.504186	11.2203	0.607959	13.4014	0.86878	19.2684	0.262016	6.46043	0.475341	10.6509	0.733223	16.2941
0.245143	5.27873	0.0708886	1.72367	0.33958	8.20653	0.505755	11.0266	0.609867	13.1729	0.870016	18.9052	0.266163	6.4153	0.476686	10.5458	0.73462	15.994
0.249605	5.26911	0.0729944	1.73556	0.341996	8.08294	0.50716	10.8649	0.611804	12.9541	0.871275	18.5568	0.27033	6.37263	0.477759	10.4648	0.736042	15.7063
0.254027	5.25903	0.0751012	1.74695	0.344448	7.96549	0.508387	10.7321	0.613772	12.7443	0.872558	18.2225	0.274516	6.33224	0.478552	10.4063	0.73749	15.4304
0.258408	5.24848	0.0772089	1.75788	0.346936	7.8538	0.509421	10.6255	0.615769	12.5432	0.873863	17.9015	0.27872	6.29395	0.479063	10.3694	0.738962	15.1656
0.262744	5.23744	0.0793172	1.76837	0.349459	7.74752	0.510252	10.5433	0.617795	12.3501	0.875191	17.5929	0.282941	6.25761	0.479799	10.317	0.740458	14.9112
0.267033	5.22589	0.081426	1.77844	0.352019	7.64632	0.51087	10.484	0.619851	12.1646	0.876542	17.2961	0.287178	6.22308	0.480603	10.2609	0.741979	14.6667
0.271274	5.21381	0.083535	1.78812	0.354615	7.54992	0.511269	10.4466	0.621936	11.9863	0.877915	17.0105	0.291429	6.19024	0.481704	10.186	0.743525	14.4314
0.275463	5.20118	0.0856442	1.79742	0.357248	7.45805	0.511847	10.3934	0.624049	11.8149	0.879311	16.7354	0.295695	6.15895	0.483107	10.0935	0.745094	14.205
0.279598	5.18799	0.0877535	1.80637	0.35992	7.37046	0.512481	10.3364	0.62619	11.6499	0.880729	16.4704	0.299973	6.12912	0.48482	9.98487	0.746687	13.9869
0.283676	5.17422	0.0898626	1.81498	0.36263	7.28692	0.513354	10.2604	0.628359	11.4911	0.882169	16.2148	0.304264	6.10065	0.486851	9.8618	0.748304	13.7768
0.287696	5.15986	0.0919717	1.82326	0.36538	7.20725	0.514474	10.1664	0.630555	11.3381	0.883632	15.9682	0.308565	6.07344	0.489211	9.72604	0.749944	13.5741
0.291655	5.14489	0.0940806	1.83125	0.36817	7.13124	0.515853	10.0562	0.632779	11.1906	0.885116	15.7302	0.312877	6.04741	0.491601	9.59582	0.751608	13.3786
0.295551	5.1293	0.0961891	1.83894	0.371003	7.05872	0.517507	9.93121	0.634739	11.0664	0.886622	15.5003	0.317199	6.02249	0.494021	9.47082	0.753294	13.1899
0.29938	5.11309	0.0982973	1.84636	0.373879	6.98954	0.519451	9.79342	0.636425	10.9635	0.888149	15.2781	0.321529	5.99859	0.496471	9.35077	0.755004	13.0076
0.303143	5.09626	0.100405	1.85351	0.3768	6.92355	0.521445	9.66131	0.637831	10.8804	0.889698	15.0634	0.325867	5.97566	0.498949	9.23539	0.756736	12.8315
0.306836	5.07879	0.102513	1.86042	0.379766	6.8606	0.52349	9.53461	0.638949	10.816	0.891269	14.8556	0.330213	5.95363	0.501456	9.12444	0.758491	12.6612
0.310458	5.0607	0.10462	1.86709	0.38278	6.80059	0.525585	9.41304	0.639775	10.7693	0.89286	14.6546	0.334565	5.93244	0.503991	9.01769	0.760267	12.4965
0.314008	5.04199	0.106726	1.87353	0.385843	6.74338	0.527732	9.29636	0.640306	10.7398	0.894473	14.4599	0.338923	5.91204	0.506554	8.91492	0.762066	12.3372
0.317484	5.02267	0.108832	1.87975	0.388955	6.68886	0.529929	9.18433	0.641071	10.6977	0.896107	14.2714	0.343286	5.89239	0.509143	8.81594	0.763887	12.1829
0.320886	5.00275	0.110937	1.88577	0.392119	6.63693	0.532177	9.07672	0.641906	10.6524	0.897762	14.0887	0.347654	5.87343	0.511759	8.72056	0.76573	12.0335
0.324213	4.98225	0.113042	1.89159	0.395336	6.58749	0.534476	8.97334	0.643046	10.5918	0.899437	13.9116	0.352025	5.85512	0.514402	8.62859	0.767594	11.8887
0.327465	4.96119	0.115147	1.89723	0.398606	6.54044	0.536826	8.87398	0.644497	10.5166	0.901133	13.7398	0.3564	5.83743	0.517069	8.53988	0.769479	11.7484
0.330642	4.9396	0.11725	1.90268	0.40193	6.49569	0.539226	8.77846	0.646265	10.4277	0.902849	13.5731	0.360778	5.82031	0.519763	8.45426	0.771385	11.6123
0.333744	4.9175	0.119354	1.90797	0.40531	6.45315	0.541677	8.6866	0.648356	10.3261	0.904585	13.4114	0.365157	5.80373	0.52248	8.3716	0.773312	11.4803
0.336772	4.89492	0.121456	1.91309	0.408746	6.41271	0.544178	8.59824	0.650779	10.2132	0.906342	13.2544	0.369538	5.78766	0.525223	8.29176	0.775009	11.3684
0.339351	4.87488	0.123558	1.91805	0.412237	6.37431	0.546729	8.51322	0.653227	10.1038	0.908119	13.1018	0.37392	5.77206	0.527989	8.2146	0.776467	11.2754
0.341507	4.85754	0.12566	1.92286	0.415784	6.33786	0.549329	8.4314	0.655699	9.998	0.909915	12.9536	0.378302	5.75691	0.530779	8.14001	0.777682	11.1999
0.343259	4.84305	0.127761	1.92753	0.419387	6.30326	0.551979	8.35262	0.658195	9.89548	0.911732	12.8096	0.382684	5.74217	0.533592	8.06787	0.778647	11.1412
0.344626	4.83149	0.129862	1.93206	0.423045	6.27043	0.554677	8.27676	0.660715	9.79615	0.913568	12.6695	0.387065	5.72783	0.536428	7.99808	0.77936	11.0986
0.345621	4.82293	0.131962	1.93646	0.426757	6.23929	0.557424	8.2037	0.663259	9.69988	0.915423	12.5333	0.391444	5.71386	0.539286	7.93053	0.779818	11.0715
0.346253	4.81744	0.134061	1.94074	0.430523	6.20977	0.560219	8.1333	0.665826	9.60653	0.917298	12.4008	0.395822	5.70023	0.542166	7.86513	0.780478	11.0329
0.347155	4.8095	0.13616	1.94489	0.434342	6.18177	0.563061	8.06547	0.668417	9.51598	0.919191	12.2718	0.400197	5.68693	0.545069	7.80179	0.781198	10.9914
0.348128	4.80085	0.138258	1.94893	0.438211	6.15522	0.565949	8.00007	0.67103	9.42813	0.921104	12.1463	0.404568	5.67393	0.547992	7.74041	0.782181	10.9356
0.349436	4.78901	0.140356	1.95285	0.442129	6.13003	0.568884	7.93702	0.673666	9.34286	0.923036	12.024	0.408936	5.66122	0.550937	7.68093	0.78343	10.8661
0.351069	4.77394	0.142453	1.95667	0.446096	6.10615	0.571864	7.87622	0.676324	9.26008	0.924986	11.9049	0.4133	5.64877	0.553903	7.62325	0.784951	10.7837
0.353011	4.75559	0.14455	1.96038	0.450108	6.08348	0.574889	7.81756	0.679005	9.17968	0.926955	11.7889	0.417658	5.63657	0.55689	7.56732	0.78675	10.6892
0.355244	4.7339	0.146647	1.964	0.454164	6.06197	0.577957	7.76097	0.681708	9.10157	0.928686	11.6902	0.422012	5.6246	0.559896	7.51306	0.788831	10.5835
0.35775	4.70882	0.148743	1.96752	0.458262	6.04153	0.58107	7.70634	0.684432	9.02568	0.930173	11.6078	0.426359	5.61284	0.562923	7.46041	0.790933	10.4807
0.360196	4.68358	0.150838	1.97095	0.462399	6.02211	0.584225	7.65361	0.687178	8.9519	0.93141	11.5408	0.4307	5.60129	0.56597	7.4093	0.793053	10.3806
0.362584	4.6582	0.152933	1.97429	0.466575	6.00364	0.587421	7.60269	0.689945	8.88017	0.932393	11.4886	0.435034	5.58992	0.569036	7.35967	0.795192	10.2832
0.364918	4.63274	0.155028	1.97754	0.470786	5.98606	0.590659	7.55352	0.692734	8.81041	0.933118	11.4506	0.439361	5.57872	0.572122	7.31147	0.797349	10.1884
0.3672	4.6072	0.157122	1.98071	0.47503	5.96932	0.593937	7.506	0.695544	8.74255	0.933583	11.4264	0.443679	5.56768	0.575227	7.26465	0.799526	10.096
0.369431	4.58164	0.159216	1.98381	0.479306	5.95335	0.597255	7.46009	0.698374	8.67651	0.934254	11.3919	0.447988	5.5568	0.57835	7.21916	0.80172	10.006
0.371614	4.55606	0.161309	1.98683	0.483612	5.93811	0.600611	7.41572	0.701225	8.61225	0.934985	11.3548	0.452288	5.54604	0.581493	7.17494	0.803933	9.91825
0.373751	4.53051	0.163402	1.98977	0.487945	5.92355	0.604005	7.37281	0.704096	8.54968	0.935984	11.3048	0.456579	5.53541	0.584654	7.13196	0.806164	9.83275
0.375844	4.50501	0.165495	1.99265	0.492303	5.90961	0.607437	7.33132	0.706988	8.48876	0.937252	11.2424	0.460859	5.52489	0.587834	7.09017	0.808413	9.74939
0.377896	4.47958	0.167587	1.99545	0.496685	5.89627	0.610905	7.29119	0.7099	8.42942	0.938795	11.1682	0.465127	5.51447	0.591032	7.04952	0.81068	9.66809
0.379908	4.45424	0.169679	1.9982	0.501089	5.88347	0.614408	7.25235	0.712832	8.37162	0.940617	11.0828	0.469385	5.50415	0.594248	7.00998	0.812964	9.58878
0.381883	4.42901	0.171771	2.00087	0.505513	5.87119	0.617946	7.21477	0.715783	8.3153	0.942725	10.987	0.47363	5.4939	0.597482	6.97151	0.815265	9.51141
0.383821	4.40391	0.173862	2.00349	0.509955	5.85938	0.621518	7.17839	0.718755	8.26041	0.94485	10.8935	0.477862	5.48373	0.600735	6.93408	0.817584	9.43589
0.385727	4.37895	0.175953	2.00604	0.514414	5.84801	0.625123	7.14316	0.721746	8.20691	0.946992	10.8022	0.482081	5.47362	0.604005	6.89765	0.819919	9.36218
0.387599	4.35416	0.178043	2.00854	0.518888	5.83705	0.62876	7.10904	0.724756	8.15474	0.949151	10.713	0.486286	5.46357	0.607293	6.86218	0.822272	9.29021
0.389442	4.32955	0.180133	2.01099	0.523376	5.82647	0.632429	7.07598	0.727786	8.10388	0.951328	10.6258	0.490477	5.45357	0.610599	6.82766	0.824642	9.21993
0.391256	4.30512	0.182223	2.01338	0.527877	5.81625	0.636129	7.04394	0.730834	8.05427	0.953521	10.5406	0.494652	5.4436	0.613922	6.79404	0.827028	9.15128
0.393042	4.28089	0.184313	2.01571	0.532389	5.80636	0.639858	7.01289	0.733902	8.00587	0.95573	10.4573	0.498812	5.43367	0.617263	6.7613	0.82943	9.08421
0.394803	4.25687	0.186402	2.018	0.536911	5.79677	0.643617	6.98278	0.736989	7.95866	0.957957	10.3759	0.502956	5.42376	0.620622	6.72941	0.831849	9.01868
0.396539	4.23306	0.188491	2.02024	0.541441	5.78746	0.647404	6.95358	0.740095	7.91259	0.9602	10.2963	0.507082	5.41387	0.623998	6.69835	0.834285	8.95462
0.398252	4.20948	0.19058	2.02243	0.545979	5.77842	0.651219	6.92526	0.743219	7.86762	0.962459	10.2184	0.511191	5.40398	0.627392	6.66809	0.836736	8.89201
0.399943	4.18614	0.192668	2.02457	0.550523	5.76962	0.655061	6.89777	0.746363	7.82373	0.964734	10.1422	0.515283	5.3941	0.630804	6.63861	0.839203	8.8308
0.401614	4.16302	0.194756	2.02668	0.555073	5.76105	0.65893	6.87109	0.749525	7.78089	0.967025	10.0677	0.519355	5.38422	0.634232	6.60989	0.841687	8.77094
0.403265	4.14016	0.196844	2.02873	0.559627	5.75269	0.662823	6.84519	0.752705	7.73905	0.969332	9.99479	0.523409	5.37434	0.637679	6.5819	0.844185	8.71239
0.404898	4.11754	0.198932	2.03075	0.564184	5.74452	0.666742	6.82004	0.755904	7.6982	0.971655	9.92341	0.527443	5.36444	0.641143	6.55462	0.8467	8.65512
0.406514	4.09517	0.20102	2.03273	0.568744	5.73653	0.670684	6.7956	0.759122	7.6583	0.973994	9.85353	0.531456	5.35452	0.644624	6.52803	0.84923	8.59908
0.408113	4.07305	0.203107	2.03466	0.573306	5.72871	0.67465	6.77186	0.762358	7.61933	0.976348	9.78512	0.535448	5.34457	0.648123	6.50211	0.851775	8.54425
0.409697	4.05119	0.205194	2.03656	0.577869	5.72104	0.678639	6.74878	0.765612	7.58126	0.978717	9.71812	0.53942	5.3346	0.651639	6.47685	0.854336	8.49058
0.411267	4.02959	0.20728	2.03842	0.582432	5.71351	0.68265	6.72635	0.768885	7.54407	0.981101	9.6525	0.543369	5.32459	0.655173	6.45222	0.856912	8.43805
0.412823	4.00824	0.209367	2.04025	0.586994	5.70612	0.686682	6.70453	0.772176	7.50773	0.983501	9.58822	0.547295	5.31455	0.658725	6.42822	0.859503	8.38662
0.414366	3.98715	0.211453	2.04204	0.591555	5.69884	0.690735	6.6833	0.775486	7.47222	0.985916	9.52524	0.551199	5.30446	0.662294	6.40481	0.862109	8.33627
0.415897	3.96633	0.213539	2.0438	0.596114	5.69168	0.694808	6.66265	0.778814	7.43752	0.988345	9.46353	0.555079	5.29433	0.66588	6.38199	0.86473	8.28695
0.417417	3.94576	0.215625	2.04552	0.600671	5.68461	0.6989	6.64254	0.78216	7.4036	0.990789	9.40304	0.558935	5.28416	0.669484	6.35974	0.867365	8.23865
0.418926	3.92546	0.217711	2.04721	0.605224	5.67764	0.703011	6.62297	0.785525	7.37045	0.993248	9.34376	0.562767	5.27393	0.673105	6.33805	0.870015	8.19133
0.420425	3.90541	0.219797	2.04887	0.609773	5.67075	0.70714	6.6039	0.788908	7.33805	0.995721	9.28564	0.566574	5.26364	0.676744	6.3169	0.87268	8.14497
0.421915	3.88562	0.221882	2.0505	0.614318	5.66394	0.711287	6.58533	0.79231	7.30637	0.998209	9.22865	0.570355	5.2533	0.6804	6.29627	0.87536	8.09955
0.423397	3.86609	0.223967	2.05211	0.618858	5.6572	0.71545	6.56723	0.795731	7.2754	1.00071	9.17277	0.57411	5.2429	0.684074	6.27615	0.878054	8.05503
0.42487	3.84681	0.226052	2.05368	0.623392	5.65053	0.71963	6.54959	0.79917	7.24513			0.57784	5.23244	0.687765	6.25653	0.880762	8.0114
0.426335	3.82779	0.228137	2.05522	0.62792	5.64391	0.723826	6.53238	0.802627	7.21553			0.581542	5.22191	0.691473	6.2374	0.883484	7.96864
0.427793	3.80902	0.230222	2.05674	0.632442	5.63734	0.728037	6.51559	0.806104	7.18659			0.585218	5.21132	0.695199	6.21874	0.886221	7.92671
0.429245	3.7905	0.232306	2.05823	0.636956	5.63082	0.732262	6.49922	0.809599	7.15829			0.588867	5.20066	0.698941	6.20054	0.888972	7.8856
0.430691	3.77224	0.23439	2.05969	0.641463	5.62434	0.736501	6.48323	0.813113	7.13062			0.592488	5.18994	0.7027	6.18279	0.891737	7.84529
0.432131	3.75421	0.236475	2.06113	0.645962	5.61789	0.740753	6.46762	0.816647	7.10357			0.596081	5.17914	0.706477	6.16547	0.894516	7.80576
0.433566	3.73643	0.238559	2.06255	0.650453	5.61148	0.745018	6.45237	0.820199	7.07711			0.599646	5.16828	0.71027	6.14858	0.897309	7.76698
0.434995	3.7189	0.240643	2.06394	0.654935	5.60509	0.749295	6.43746	0.823771	7.05125			0.603183	5.15735	0.714079	6.1321	0.900116	7.72895
0.436421	3.7016	0.242726	2.06531	0.659408	5.59872	0.753584	6.4229	0.827362	7.02595			0.606691	5.14635	0.717905	6.11602	0.902937	7.69164
0.437842	3.68454	0.24481	2.06665	0.663871	5.59238	0.757884	6.40865	0.830972	7.00122			0.610171	5.13528	0.721747	6.10033	0.905772	7.65503
0.43926	3.66771	0.246893	2.06798	0.668324	5.58605	0.762194	6.39472	0.834603	6.97704			0.613621	5.12414	0.725605	6.08502	0.90862	7.61911
0.440674	3.65111	0.248977	2.06928	0.672766	5.57973	0.766514	6.38108	0.838253	6.9534			0.617043	5.11293	0.729478	6.07008	0.911482	7.58385
0.442085	3.63474	0.25106	2.07056	0.677198	5.57342	0.770843	6.36773	0.841923	6.93028			0.620435	5.10166	0.733367	6.05549	0.914358	7.54926
0.443493	3.6186	0.253143	2.07182	0.681619	5.56711	0.775181	6.35466	0.845614	6.90768			0.623799	5.09032	0.737272	6.04125	0.917247	7.5153
0.444898	3.60268	0.255226	2.07306	0.686028	5.56081	0.779527	6.34185	0.849324	6.88559			0.627133	5.07891	0.741191	6.02735	0.92015	7.48197
0.446302	3.58698	0.257308	2.07428	0.690426	5.55451	0.78388	6.32929	0.853055	6.86399			0.630438	5.06744	0.745125	6.01378	0.923066	7.44925
0.447703	3.5715	0.259391	2.07548	0.694811	5.5482	0.788241	6.31698	0.856807	6.84288			0.633714	5.05591	0.749074	6.00053	0.925996	7.41713
0.449103	3.55624	0.261474	2.07666	0.699184	5.54189	0.792608	6.3049	0.86058	6.82224			0.63696	5.04431	0.753036	5.98758	0.928939	7.38558
0.450501	3.54118	0.263556	2.07782	0.703544	5.53557	0.796981	6.29305	0.864373	6.80208			0.640177	5.03266	0.757012	5.97493	0.931895	7.35461
0.451898	3.52634	0.265638	2.07897	0.707891	5.52924	0.80136	6.28141	0.868188	6.78237			0.643366	5.02095	0.761002	5.96257	0.934865	7.32419
0.453293	3.5117	0.267721	2.0801	0.712225	5.5229	0.805743	6.26998	0.872024	6.76312			0.646525	5.00918	0.765004	5.9505	0.937848	7.29432
0.454688	3.49726	0.269803	2.08121	0.716545	5.51655	0.810131	6.25874	0.875882	6.7443			0.649655	4.99736	0.769019	5.93869	0.940845	7.26498
0.456082	3.48302	0.271885	2.0823	0.720852	5.51017	0.814522	6.2477	0.879762	6.72592			0.652756	4.98548	0.773047	5.92715	0.943854	7.23616
0.457476	3.46898	0.273967	2.08338	0.725144	5.50379	0.818917	6.23684	0.883663	6.70797			0.655829	4.97356	0.777086	5.91585	0.946877	7.20785
0.458869	3.45514	0.276048	2.08444	0.729421	5.49738	0.823314	6.22615	0.887587	6.69043			0.658874	4.96159	0.781137	5.90481	0.949912	7.18003
0.460263	3.44149	0.27813	2.08549	0.733684	5.49095	0.827714	6.21563	0.891533	6.67331			0.66189	4.94958	0.785198	5.894	0.952961	7.1527
0.461656	3.42802	0.280212	2.08652	0.737932	5.4845	0.832116	6.20527	0.895501	6.65659			0.664878	4.93752	0.789271	5.88343	0.956023	7.12585
0.463049	3.41474	0.282293	2.08754	0.742165	5.47803	0.836519	6.19506	0.899492	6.64027			0.667838	4.92543	0.793353	5.87307	0.959098	7.09947
0.464443	3.40165	0.284375	2.08854	0.746383	5.47153	0.840923	6.185	0.903505	6.62433			0.670771	4.91329	0.797446	5.86293	0.962186	7.07354
0.465837	3.38874	0.286456	2.08953	0.750584	5.46501	0.845328	6.17508	0.907541	6.60878			0.673676	4.90113	0.801547	5.85299	0.965286	7.04806
0.467232	3.376	0.288537	2.0905	0.75477	5.45846	0.849732	6.1653	0.911601	6.59361			0.676554	4.88893	0.805658	5.84325	0.9684	7.02302
0.468627	3.36344	0.290618	2.09146	0.75894	5.45188	0.854137	6.15564	0.915683	6.5788			0.679405	4.87669	0.809777	5.83371	0.971526	6.9984
0.470023	3.35105	0.292699	2.09241	0.763094	5.44527	0.85854	6.14611	0.919788	6.56435			0.682229	4.86444	0.813904	5.82435	0.974665	6.97421
0.47142	3.33883	0.29478	2.09335	0.767231	5.43863	0.862943	6.13669	0.923917	6.55026			0.685028	4.85215	0.818039	5.81517	0.977817	6.95043
0.472818	3.32678	0.296861	2.09427	0.771351	5.43197	0.867344	6.12739	0.928068	6.53652			0.6878	4.83985	0.822181	5.80615	0.980981	6.92704
0.474218	3.3149	0.298942	2.09517	0.775455	5.42527	0.871743	6.1182	0.932244	6.52312			0.690546	4.82753	0.82633	5.79731	0.984159	6.90406
0.475618	3.30318	0.301023	2.09607	0.779541	5.41854	0.87614	6.10911	0.936442	6.51006			0.693267	4.81518	0.830485	5.78862	0.987348	6.88146
0.47702	3.29161	0.303103	2.09695	0.78361	5.41177	0.880535	6.10013	0.940663	6.49732			0.695962	4.80283	0.834645	5.78008	0.990551	6.85923
0.478423	3.28021	0.305184	2.09783	0.787662	5.40498	0.884927	6.09124	0.944908	6.48491			0.698633	4.79046	0.838812	5.7717	0.993765	6.83738
0.479828	3.26896	0.307264	2.09869	0.791696	5.39815	0.889316	6.08244	0.949176	6.47281			0.70128	4.77808	0.842983	5.76345	0.996993	6.8159
0.481234	3.25786	0.309345	2.09953	0.795713	5.39129	0.893702	6.07374	0.953467	6.46102			0.703902	4.76569	0.847158	5.75533	1.00023	6.79476
0.482642	3.24691	0.311425	2.10037	0.799712	5.38439	0.898084	6.06512	0.957781	6.44953			0.7065	4.7533	0.851338	5.74735		
0.484052	3.23611	0.313505	2.1012	0.803692	5.37746	0.902463	6.05658	0.962118	6.43834			0.709075	4.7409	0.855521	5.73949		
0.485464	3.22546	0.315586	2.10202	0.807655	5.37049	0.906839	6.04813	0.966477	6.42744			0.711626	4.72851	0.859708	5.73175		
0.486877	3.21495	0.317666	2.10282	0.811599	5.36349	0.91121	6.03975	0.970859	6.41682			0.714155	4.71611	0.863897	5.72413		
0.488292	3.20458	0.319746	2.10362	0.815525	5.35646	0.915578	6.03146	0.975263	6.40648			0.716661	4.70372	0.868088	5.71661		
0.48971	3.19435	0.321826	2.1044	0.819433	5.34939	0.919942	6.02324	0.979689	6.39641			0.719145	4.69134	0.872282	5.7092		
0.491129	3.18425	0.323906	2.10518	0.823322	5.34228	0.924301	6.01509	0.984137	6.3866			0.721607	4.67896	0.876477	5.70188		
0.49255	3.17429	0.325986	2.10594	0.827192	5.33514	0.928657	6.00701	0.988607	6.37705			0.724047	4.66659	0.880674	5.69467		
0.493974	3.16447	0.328066	2.1067	0.831044	5.32797	0.933008	5.999	0.993098	6.36775			0.726466	4.65423	0.884871	5.68754		
0.495399	3.15477	0.330145	2.10744	0.834876	5.32076	0.937356	5.99106	0.99761	6.35869			0.728864	4.64189	0.889068	5.6805		
0.496827	3.1452	0.332225	2.10818	0.83869	5.31351	0.941699	5.98319	1.00214	6.34987			0.731242	4.62956	0.893266	5.67355		
0.498257	3.13576	0.334305	2.10891	0.842485	5.30623	0.946038	5.97539					0.7336	4.61725	0.897463	5.66667		
0.49969	3.12644	0.336384	2.10963	0.846261	5.29892	0.950372	5.96765					0.735937	4.60496	0.901659	5.65987		
0.501125	3.11725	0.338464	2.11034	0.850017	5.29157	0.954703	5.95998					0.738255	4.59269	0.905854	5.65314		
0.502562	3.10817	0.340543	2.11104	0.853755	5.28419	0.95903	5.95237					0.740554	4.58044	0.910048	5.64648		
0.504001	3.09922	0.342622	2.11174	0.857473	5.27677	0.963353	5.94482					0.742834	4.56822	0.914239	5.63989		
0.505443	3.09038	0.344702	2.11242	0.861173	5.26933	0.967672	5.93733					0.745095	4.55602	0.918429	5.63335		
0.506888	3.08166	0.346781	2.1131	0.864853	5.26185	0.971987	5.92991					0.747338	4.54385	0.922615	5.62688		
0.508335	3.07305	0.34886	2.11377	0.868514	5.25434	0.976298	5.92255					0.749563	4.53171	0.926799	5.62046		
0.509784	3.06455	0.35094	2.11443	0.872155	5.24679	0.980606	5.91525					0.751771	4.5196	0.930979	5.61409		
0.511236	3.05616	0.353019	2.11508	0.875777	5.23922	0.98491	5.90801					0.753961	4.50752	0.935156	5.60777		
0.51269	3.04788	0.355098	2.11573	0.87938	5.23161	0.98921	5.90083					0.756134	4.49547	0.939329	5.60149		
0.514148	3.0397	0.357177	2.11637	0.882964	5.22398	0.993508	5.89371					0.758291	4.48345	0.943497	5.59526		
0.515607	3.03164	0.359256	2.117	0.886529	5.21631	0.997802	5.88664					0.760431	4.47147	0.947661	5.58908		
0.517069	3.02367	0.361335	2.11762	0.890074	5.20862	1.00209	5.87964					0.762555	4.45953	0.95182	5.58293		
0.518534	3.0158	0.363414	2.11824	0.8936	5.2009							0.764663	4.44763	0.955974	5.57681		
0.520002	3.00804	0.365492	2.11885	0.897107	5.19315							0.766756	4.43576	0.960122	5.57073		
0.521472	3.00037	0.367571	2.11946	0.900595	5.18537							0.768834	4.42394	0.964264	5.56468		
0.522945	2.9928	0.36965	2.12005	0.904064	5.17757							0.770896	4.41215	0.9684	5.55867		
0.52442	2.98533	0.371729	2.12064	0.907514	5.16974							0.772945	4.40041	0.972529	5.55267		
0.525899	2.97795	0.373807	2.12123	0.910944	5.16189							0.774978	4.38871	0.976652	5.54671		
0.52738	2.97066	0.375886	2.1218	0.914356	5.15401							0.776998	4.37706	0.980768	5.54076		
0.528863	2.96347	0.377964	2.12238	0.917749	5.14611							0.779004	4.36545	0.984876	5.53484		
0.530349	2.95636	0.380043	2.12294	0.921123	5.13819							0.780997	4.35388	0.988977	5.52894		
0.531839	2.94935	0.382122	2.1235	0.924478	5.13024							0.782976	4.34236	0.99307	5.52305		
0.53333	2.94241	0.3842	2.12405	0.927814	5.12227							0.784943	4.33089	0.997155	5.51718		
0.534825	2.93557	0.386278	2.1246	0.931132	5.11428							0.786897	4.31946	1.00123	5.51133		
0.536322	2.92881	0.388357	2.12514	0.934432	5.10627							0.788838	4.30809				
0.537822	2.92213	0.390435	2.12568	0.937712	5.09824							0.790768	4.29676				
0.539324	2.91554	0.392513	2.1262	0.940975	5.0902							0.792685	4.28548				
0.54083	2.90903	0.394592	2.12673	0.944219	5.08213							0.794591	4.27426				
0.542338	2.90259	0.39667	2.12725	0.947444	5.07405							0.796485	4.26308				
0.543849	2.89623	0.398748	2.12776	0.950652	5.06595							0.798368	4.25196				
0.545362	2.88996	0.400826	2.12827	0.953841	5.05783							0.80024	4.24089				
0.546878	2.88375	0.402904	2.12877	0.957013	5.0497							0.802102	4.22987				
0.548397	2.87762	0.404982	2.12927	0.960166	5.04156							0.803953	4.2189				
0.549919	2.87157	0.40706	2.12976	0.963302	5.0334							0.805794	4.20799				
0.551443	2.86559	0.409138	2.13025	0.96642	5.02523							0.807625	4.19713				
0.552971	2.85968	0.411216	2.13073	0.969521	5.01704							0.809446	4.18632				
0.5545	2.85384	0.413294	2.13121	0.972604	5.00885							0.811258	4.17557				
0.556033	2.84807	0.415372	2.13169	0.975669	5.00064							0.81306	4.16487				
0.557568	2.84237	0.41745	2.13215	0.978717	4.99242							0.814853	4.15423				
0.559106	2.83674	0.419528	2.13262	0.981748	4.98419							0.816637	4.14365				
0.560647	2.83117	0.421606	2.13308	0.984762	4.97596							0.818413	4.13312				
0.56219	2.82567	0.423683	2.13353	0.987759	4.96771							0.82018	4.12264				
0.563736	2.82023	0.425761	2.13398	0.990738	4.95946							0.821938	4.11222				
0.565284	2.81486	0.427839	2.13443	0.993701	4.9512							0.823689	4.10186				
0.566836	2.80955	0.429916	2.13487	0.996648	4.94294							0.825432	4.09156				
0.56839	2.8043	0.431994	2.13531	0.999577	4.93466							0.827166	4.08131				
0.569946	2.79911	0.434072	2.13574	1.00249	4.92639							0.828894	4.07111				
0.571505	2.79399	0.436149	2.13617									0.830614	4.06098				
0.573067	2.78892	0.438227	2.1366									0.832326	4.0509				
0.574632	2.78391	0.440304	2.13702									0.834032	4.04088				
0.576199	2.77896	0.442382	2.13744									0.835731	4.03091				
0.577768	2.77406	0.444459	2.13785									0.837423	4.021				
0.57934	2.76922	0.446537	2.13826									0.839108	4.01115				
0.580915	2.76444	0.448614	2.13867									0.840788	4.00136				
0.582493	2.75971	0.450691	2.13907									0.842461	3.99162				
0.584073	2.75503	0.452769	2.13947									0.844128	3.98194				
0.585655	2.75041	0.454846	2.13986									0.845789	3.97232				
0.58724	2.74584	0.456923	2.14026									0.847444	3.96275				
0.588828	2.74132	0.459001	2.14064									0.849094	3.95324				
0.590418	2.73685	0.461078	2.14103									0.850738	3.94379				
0.59201	2.73243	0.463155	2.14141									0.852377	3.9344				
0.593605	2.72806	0.465232	2.14179									0.854011	3.92506				
0.595203	2.72374	0.46731	2.14216									0.855639	3.91578				
0.596803	2.71947	0.469387	2.14253									0.857263	3.90655				
0.598405	2.71525	0.471464	2.1429									0.858882	3.89738				
0.60001	2.71107	0.473541	2.14327									0.860496	3.88827				
0.601617	2.70693	0.475618	2.14363									0.862106	3.87921				
0.603227	2.70285	0.477695	2.14399									0.863712	3.87021				
0.604839	2.6988	0.479772	2.14434									0.865313	3.86126				
0.606454	2.6948	0.481849	2.14469									0.86691	3.85237				
0.608071	2.69085	0.483926	2.14504									0.868503	3.84354				
0.60969	2.68694	0.486003	2.14539									0.870092	3.83476				
0.611312	2.68307	0.48808	2.14573									0.871677	3.82604				
0.612936	2.67924	0.490157	2.14607									0.873259	3.81737				
0.614562	2.67545	0.492234	2.14641									0.874837	3.80875				
0.616191	2.67171	0.49431	2.14674									0.876411	3.80019				
0.617822	2.668	0.496387	2.14708									0.877982	3.79169				
0.619456	2.66433	0.498464	2.14741									0.87955	3.78324				
0.621091	2.66071	0.500541	2.14773									0.881115	3.77484				
0.622729	2.65712	0.502618	2.14806									0.882676	3.76649				
0.624369	2.65357	0.504694	2.14838									0.884235	3.7582				
0.626012	2.65005	0.506771	2.14869									0.885791	3.74997				
0.627656	2.64658	0.508848	2.14901									0.887343	3.74178				
0.629303	2.64314	0.510925	2.14932									0.888894	3.73365				
0.630953	2.63974	0.513001	2.14963									0.890441	3.72557				
0.632604	2.63637	0.515078	2.14994									0.891986	3.71754				
0.634257	2.63304	0.517155	2.15025									0.893528	3.70957				
0.635913	2.62974	0.519231	2.15055									0.895068	3.70164				
0.637571	2.62647	0.521308	2.15085									0.896606	3.69377				
0.639231	2.62324	0.523384	2.15115									0.898142	3.68595				
0.640893	2.62005	0.525461	2.15145									0.899675	3.67817				
0.642557	2.61688	0.527537	2.15174									0.901206	3.67045				
0.644224	2.61375	0.529614	2.15203									0.902736	3.66278				
0.645892	2.61065	0.53169	2.15232									0.904263	3.65516				
0.647563	2.60759	0.533767	2.15261									0.905789	3.64759				
0.649236	2.60455	0.535843	2.15289									0.907312	3.64007				
0.650911	2.60155	0.53792	2.15318									0.908834	3.6326				
0.652588	2.59857	0.539996	2.15346									0.910355	3.62518				
0.654266	2.59563	0.542072	2.15373									0.911874	3.6178				
0.655947	2.59271	0.544149	2.15401									0.913391	3.61048				
0.65763	2.58983	0.546225	2.15428									0.914907	3.6032				
0.659315	2.58697	0.548302	2.15456									0.916421	3.59597				
0.661002	2.58414	0.550378	2.15483									0.917934	3.58879				
0.662691	2.58134	0.552454	2.15509									0.919446	3.58165				
0.664382	2.57857	0.554531	2.15536									0.920957	3.57456				
0.666075	2.57583	0.556607	2.15562									0.922466	3.56752				
0.66777	2.57311	0.558683	2.15589									0.923975	3.56052				
0.669467	2.57042	0.560759	2.15615									0.925482	3.55357				
0.671165	2.56776	0.562835	2.1564									0.926988	3.54667				
0.672866	2.56512	0.564912	2.15666									0.928493	3.53981				
0.674568	2.56251	0.566988	2.15691									0.929998	3.533				
0.676273	2.55993	0.569064	2.15717									0.931501	3.52623				
0.677979	2.55736	0.57114	2.15742									0.933004	3.5195				
0.679687	2.55483	0.573216	2.15767									0.934506	3.51282				
0.681397	2.55232	0.575292	2.15791									0.936007	3.50619				
0.683109	2.54983	0.577369	2.15816									0.937508	3.49959				
0.684823	2.54737	0.579445	2.1584									0.939008	3.49304				
0.686538	2.54493	0.581521	2.15864									0.940508	3.48654				
0.688256	2.54252	0.583597	2.15888									0.942006	3.48007				
0.689975	2.54012	0.585673	2.15912									0.943505	3.47365				
0.691696	2.53776	0.587749	2.15936									0.945003	3.46728				
0.693419	2.53541	0.589825	2.15959									0.9465	3.46094				
0.695143	2.53309	0.591901	2.15983									0.947997	3.45464				
0.696869	2.53078	0.593977	2.16006									0.949494	3.44839				
0.698597	2.5285	0.596053	2.16029									0.950991	3.44218				
0.700327	2.52624	0.598129	2.16052									0.952487	3.43601				
0.702058	2.52401	0.600205	2.16074									0.953983	3.42988				
0.703792	2.52179	0.602281	2.16097									0.955479	3.42379				
0.705526	2.5196	0.604356	2.16119									0.956975	3.41773				
0.707263	2.51742	0.606432	2.16141									0.95847	3.41172				
0.709001	2.51527	0.608508	2.16163									0.959966	3.40575				
0.710741	2.51313	0.610584	2.16185									0.961461	3.39982				
0.712483	2.51102	0.61266	2.16207									0.962956	3.39392				
0.714226	2.50892	0.614736	2.16229									0.964452	3.38807				
0.715971	2.50685	0.616812	2.1625									0.965947	3.38225				
0.717717	2.50479	0.618887	2.16272									0.967442	3.37647				
0.719465	2.50276	0.620963	2.16293									0.968938	3.37073				
0.721215	2.50074	0.623039	2.16314									0.970434	3.36503				
0.722966	2.49874	0.625115	2.16335									0.971929	3.35936				
0.724719	2.49676	0.627191	2.16355									0.973425	3.35373				
0.726474	2.49479	0.629266	2.16376									0.974922	3.34814				
0.72823	2.49285	0.631342	2.16396									0.976418	3.34258				
0.729987	2.49092	0.633418	2.16417									0.977914	3.33706				
0.731747	2.48901	0.635493	2.16437									0.979411	3.33158				
0.733507	2.48712	0.637569	2.16457									0.980909	3.32613				
0.735269	2.48524	0.639645	2.16477									0.982406	3.32072				
0.737033	2.48338	0.64172	2.16497									0.983904	3.31534				
0.738798	2.48154	0.643796	2.16517									0.985402	3.31				
0.740565	2.47971	0.645872	2.16536									0.986901	3.30469				
0.742333	2.4779	0.647947	2.16556									0.988399	3.29941				
0.744103	2.47611	0.650023	2.16575									0.989899	3.29417				
0.745874	2.47433	0.652098	2.16594									0.991399	3.28897				
0.747647	2.47257	0.654174	2.16613									0.992899	3.28379				
0.749421	2.47083	0.65625	2.16632									0.9944	3.27866				
0.751197	2.4691	0.658325	2.16651									0.995901	3.27355				
0.752974	2.46738	0.660401	2.1667									0.997403	3.26848				
0.754752	2.46568	0.662476	2.16688									0.998905	3.26344				
0.756532	2.46399	0.664552	2.16707									1.00041	3.25843				
0.758313	2.46232	0.666627	2.16725														
0.760096	2.46067	0.668703	2.16743														
0.76188	2.45903	0.670778	2.16761														
0.763666	2.4574	0.672854	2.16779														
0.765452	2.45579	0.674929	2.16797														
0.76724	2.45419	0.677004	2.16815														
0.76903	2.4526	0.67908	2.16833														
0.770821	2.45103	0.681155	2.1685														
0.772613	2.44947	0.683231	2.16868														
0.774407	2.44793	0.685306	2.16885														
0.776202	2.4464	0.687381	2.16902														
0.777998	2.44488	0.689457	2.1692														
0.779795	2.44337	0.691532	2.16937														
0.781594	2.44188	0.693608	2.16954														
0.783394	2.4404	0.695683	2.1697														
0.785196	2.43894	0.697758	2.16987														
0.786998	2.43748	0.699833	2.17004														
0.788802	2.43604	0.701909	2.1702														
0.790607	2.43461	0.703984	2.17037														
0.792414	2.43319	0.706059	2.17053														
0.794221	2.43178	0.708135	2.17069														
0.79603	2.43039	0.71021	2.17085														
0.79784	2.42901	0.712285	2.17101														
0.799652	2.42763	0.71436	2.17117														
0.801464	2.42627	0.716435	2.17133														
0.803278	2.42493	0.718511	2.17149														
0.805093	2.42359	0.720586	2.17165														
0.806909	2.42226	0.722661	2.1718														
0.808727	2.42095	0.724736	2.17196														
0.810545	2.41964	0.726811	2.17211														
0.812365	2.41835	0.728887	2.17227														
0.814186	2.41706	0.730962	2.17242														
0.816008	2.41579	0.733037	2.17257														
0.817831	2.41453	0.735112	2.17272														
0.819655	2.41328	0.737187	2.17287														
0.82148	2.41203	0.739262	2.17302														
0.823307	2.4108	0.741337	2.17317														
0.825135	2.40958	0.743412	2.17331														
0.826963	2.40837	0.745487	2.17346														
0.828793	2.40717	0.747562	2.17361														
0.830624	2.40597	0.749637	2.17375														
0.832456	2.40479	0.751712	2.17389														
0.834289	2.40362	0.753787	2.17404														
0.836124	2.40245	0.755862	2.17418														
0.837959	2.4013	0.757937	2.17432														
0.839795	2.40015	0.760012	2.17446														
0.841633	2.39901	0.762087	2.1746														
0.843471	2.39789	0.764162	2.17474														
0.845311	2.39677	0.766237	2.17488														
0.847151	2.39566	0.768312	2.17502														
0.848993	2.39456	0.770387	2.17515														
0.850835	2.39346	0.772462	2.17529														
0.852679	2.39238	0.774537	2.17543														
0.854524	2.3913	0.776612	2.17556														
0.856369	2.39024	0.778687	2.17569														
0.858216	2.38918	0.780762	2.17583														
0.860064	2.38813	0.782837	2.17596														
0.861912	2.38709	0.784911	2.17609														
0.863762	2.38605	0.786986	2.17622														
0.865613	2.38502	0.789061	2.17635														
0.867464	2.38401	0.791136	2.17648														
0.869317	2.383	0.793211	2.17661														
0.87117	2.38199	0.795286	2.17674														
0.873025	2.381	0.79736	2.17687														
0.87488	2.38001	0.799435	2.17699														
0.876736	2.37903	0.80151	2.17712														
0.878594	2.37806	0.803585	2.17725														
0.880452	2.37709	0.80566	2.17737														
0.882311	2.37614	0.807734	2.1775														
0.884171	2.37519	0.809809	2.17762														
0.886032	2.37424	0.811884	2.17774														
0.887894	2.37331	0.813958	2.17786														
0.889757	2.37238	0.816033	2.17799														
0.89162	2.37146	0.818108	2.17811														
0.893485	2.37054	0.820183	2.17823														
0.89535	2.36963	0.822257	2.17835														
0.897217	2.36873	0.824332	2.17847														
0.899084	2.36784	0.826407	2.17859														
0.900952	2.36695	0.828481	2.1787														
0.902821	2.36607	0.830556	2.17882														
0.904691	2.36519	0.832631	2.17894														
0.906562	2.36432	0.834705	2.17905														
0.908433	2.36346	0.83678	2.17917														
0.910305	2.36261	0.838854	2.17928														
0.912179	2.36176	0.840929	2.1794														
0.914053	2.36091	0.843004	2.17951														
0.915928	2.36008	0.845078	2.17963														
0.917803	2.35925	0.847153	2.17974														
0.91968	2.35842	0.849227	2.17985														
0.921557	2.3576	0.851302	2.17996														
0.923435	2.35679	0.853376	2.18007														
0.925314	2.35598	0.855451	2.18018														
0.927194	2.35518	0.857525	2.18029														
0.929075	2.35439	0.8596	2.1804														
0.930956	2.3536	0.861674	2.18051														
0.932838	2.35282	0.863749	2.18062														
0.934721	2.35204	0.865823	2.18073														
0.936605	2.35126	0.867898	2.18084														
0.938489	2.3505	0.869972	2.18094														
0.940375	2.34974	0.872047	2.18105														
0.942261	2.34898	0.874121	2.18116														
0.944148	2.34823	0.876196	2.18126														
0.946035	2.34749	0.87827	2.18137														
0.947923	2.34675	0.880345	2.18147														
0.949813	2.34601	0.882419	2.18157														
0.951702	2.34528	0.884493	2.18168														
0.953593	2.34456	0.886568	2.18178														
0.955484	2.34384	0.888642	2.18188														
0.957376	2.34312	0.890717	2.18198														
0.959269	2.34242	0.892791	2.18208														
0.961162	2.34171	0.894865	2.18218														
0.963057	2.34101	0.89694	2.18229														
0.964952	2.34032	0.899014	2.18239														
0.966847	2.33963	0.901088	2.18248														
0.968744	2.33895	0.903163	2.18258														
0.970641	2.33827	0.905237	2.18268														
0.972538	2.33759	0.907311	2.18278														
0.974437	2.33692	0.909386	2.18288														
0.976336	2.33625	0.91146	2.18297														
0.978236	2.33559	0.913534	2.18307														
0.980136	2.33494	0.915608	2.18317														
0.982037	2.33429	0.917683	2.18326														
0.983939	2.33364	0.919757	2.18336														
0.985842	2.33299	0.921831	2.18345														
0.987745	2.33236	0.923905	2.18355														
0.989649	2.33172	0.92598	2.18364														
0.991553	2.33109	0.928054	2.18373														
0.993459	2.33047	0.930128	2.18383														
0.995364	2.32985	0.932202	2.18392														
0.997271	2.32923	0.934277	2.18401														
0.999178	2.32862	0.936351	2.1841														
1.00109	2.32801	0.938425	2.1842														
		0.940499	2.18429														
		0.942573	2.18438														
		0.944647	2.18447														
		0.946722	2.18456														
		0.948796	2.18465														
		0.95087	2.18474														
		0.952944	2.18482														
		0.955018	2.18491														
		0.957092	2.185														
		0.959166	2.18509														
		0.96124	2.18517														
		0.963314	2.18526														
		0.965388	2.18535														
		0.967463	2.18543														
		0.969537	2.18552														
		0.971611	2.1856														
		0.973685	2.18569														
		0.975759	2.18577														
		0.977833	2.18586														
		0.979907	2.18594														
		0.981981	2.18602														
		0.984055	2.18611														
		0.986129	2.18619														
		0.988203	2.18627														
		0.990277	2.18635														
		0.992351	2.18643														
		0.994425	2.18651														
		0.996499	2.18659														
		0.998572	2.18668														
		1.00065	2.18676														
