Sym0		Asym0		Sym1		Sym2		Sym3		Sym4		Asym1		Asym2		Asym3		Asym4	
468  Points		497  Points		226  Points		191  Points		177  Points		124  Points		336  Points		203  Points		166  Points		99  Points	
Freq (MHz)	Vph (m/ms)	Freq (MHz)	Vph (m/ms)	Freq (MHz)	Vph (m/ms)	Freq (MHz)	Vph (m/ms)	Freq (MHz)	Vph (m/ms)	Freq (MHz)	Vph (m/ms)	Freq (MHz)	Vph (m/ms)	Freq (MHz)	Vph (m/ms)	Freq (MHz)	Vph (m/ms)	Freq (MHz)	Vph (m/ms)
0.000230619	5.38902	4.96498e-005	0.0623117	0.279524	440.25	0.470951	3314.38	0.559026	939.322	0.838528	2018.18	0.139817	189.646	0.419265	1533.54	0.698773	2240.17	0.941902	2419.87
0.00525143	5.38891	0.000233082	0.134847	0.279605	178.477	0.470965	438.602	0.559075	366.167	0.838552	622.449	0.140076	83.9309	0.419306	347.945	0.698798	561.904	0.94191	713.065
0.0102719	5.38874	0.000550157	0.206811	0.279755	111.978	0.471002	234.857	0.559168	227.44	0.838603	367.989	0.140535	54.0385	0.419398	196.275	0.698852	321.264	0.941928	418.147
0.0152919	5.38851	0.000998315	0.277936	0.279973	81.6245	0.471061	160.379	0.559304	164.975	0.838679	261.224	0.141189	39.9705	0.419542	136.726	0.698937	224.954	0.941956	295.811
0.0203111	5.38817	0.0015738	0.347909	0.280259	64.2544	0.471143	121.778	0.559483	129.452	0.83878	202.493	0.142036	31.8179	0.419738	104.93	0.699051	173.088	0.941993	228.86
0.0253293	5.38776	0.00227222	0.416518	0.280612	53.0118	0.471248	98.165	0.559705	106.537	0.838908	165.336	0.143071	26.5155	0.419985	85.1573	0.699195	140.672	0.942039	186.627
0.0303462	5.38725	0.00308824	0.483523	0.281033	45.1453	0.471375	82.2319	0.55997	90.5323	0.839061	139.712	0.144287	22.8034	0.420283	71.677	0.699368	118.495	0.942095	157.557
0.0353614	5.38663	0.00401608	0.548746	0.281522	39.3363	0.471525	70.7574	0.560278	78.7239	0.83924	120.974	0.145678	20.0683	0.420632	61.9008	0.699571	102.369	0.942161	136.326
0.0403748	5.38593	0.00504951	0.612035	0.282076	34.8738	0.471697	62.101	0.560629	69.6546	0.839445	106.677	0.147238	17.976	0.421033	54.4888	0.699804	90.1172	0.942236	120.14
0.0453861	5.38513	0.00618206	0.673276	0.282697	31.3405	0.471894	55.3389	0.561022	62.4719	0.839676	95.4096	0.148959	16.3287	0.421484	48.6777	0.700066	80.4934	0.942321	107.393
0.050395	5.38423	0.00740707	0.732376	0.283383	28.4753	0.472113	49.9113	0.561459	56.6438	0.839932	86.3023	0.150834	15.002	0.421985	44.0011	0.700358	72.7352	0.942416	97.0943
0.0554012	5.38323	0.00871793	0.789279	0.284134	26.1067	0.472357	45.4594	0.561937	51.8211	0.840214	78.7887	0.152854	13.9137	0.422538	40.1574	0.70068	66.3486	0.942521	88.6004
0.0604044	5.38213	0.0101081	0.84395	0.284948	24.117	0.472624	41.7423	0.562457	47.7651	0.840521	72.4848	0.155013	13.0071	0.42314	36.9434	0.701031	61.0002	0.942636	81.4754
0.0654043	5.38093	0.0115712	0.896377	0.285826	22.4231	0.472916	38.5924	0.56302	44.3072	0.840854	67.1205	0.157304	12.2422	0.423792	34.217	0.701411	56.4563	0.942761	75.4132
0.0704006	5.37963	0.0131012	0.946581	0.286766	20.9645	0.473232	35.8895	0.563624	41.3248	0.841213	62.5009	0.159718	11.5897	0.424494	31.8758	0.701821	52.5485	0.942896	70.1927
0.0753931	5.37822	0.0146923	0.994589	0.287768	19.6962	0.473574	33.5451	0.564269	38.7267	0.841597	58.4811	0.162249	11.0278	0.425246	29.8443	0.702259	49.1525	0.943042	65.6502
0.0803812	5.3767	0.0163389	1.04043	0.28883	18.5838	0.47394	31.4927	0.564956	36.4435	0.842006	54.9519	0.164544	10.599	0.426046	28.0653	0.702727	46.1742	0.943199	61.6617
0.0853647	5.37507	0.018036	1.08418	0.289952	17.6009	0.474333	29.6812	0.565684	34.4216	0.842441	51.8288	0.166564	10.2712	0.426895	26.4951	0.703225	43.5413	0.943366	58.1318
0.0903433	5.37332	0.0197788	1.12589	0.291133	16.7265	0.474752	28.0709	0.566452	32.6191	0.842902	49.0458	0.168276	10.023	0.427793	25.0994	0.703751	41.1973	0.943544	54.9859
0.0953166	5.37146	0.0215628	1.16562	0.292371	15.9442	0.475197	26.6302	0.567261	31.0024	0.843387	46.5505	0.169656	9.83992	0.428738	23.8511	0.704306	39.0974	0.943734	52.1646
0.100284	5.36949	0.023384	1.20345	0.293665	15.2404	0.47567	25.3339	0.56811	29.5444	0.843898	44.3005	0.170684	9.71214	0.429732	22.7283	0.70489	37.2056	0.943934	49.6203
0.105246	5.36738	0.0252386	1.23947	0.295015	14.6043	0.47617	24.1616	0.568999	28.2231	0.844434	42.2617	0.171348	9.63321	0.430772	21.7134	0.705503	35.4925	0.944146	47.3141
0.110201	5.36516	0.0271232	1.27374	0.296419	14.0269	0.476698	23.0965	0.569927	27.0205	0.844996	40.4057	0.172312	9.52346	0.431859	20.7918	0.706145	33.9342	0.944369	45.2143
0.115149	5.3628	0.0290348	1.30636	0.297877	13.5006	0.477255	22.1248	0.570895	25.9213	0.845582	38.7092	0.173369	9.40888	0.432993	19.9514	0.706815	32.5108	0.944604	43.2943
0.12009	5.36031	0.0309703	1.33738	0.299386	13.0193	0.477842	21.2348	0.571901	24.9131	0.846194	37.1526	0.174826	9.26048	0.434173	19.1823	0.707514	31.2057	0.944851	41.5321
0.125022	5.35768	0.0329274	1.36689	0.300947	12.5776	0.478457	20.4168	0.572946	23.9852	0.84683	35.7194	0.176696	9.08414	0.435399	18.4759	0.708241	30.0047	0.94511	39.909
0.129947	5.35491	0.0349036	1.39498	0.302557	12.1709	0.479104	19.6627	0.57403	23.1284	0.847492	34.3956	0.178998	8.88631	0.436669	17.8251	0.708997	28.8962	0.945381	38.4093
0.134862	5.35199	0.0368968	1.4217	0.304217	11.7956	0.479781	18.9653	0.575151	22.3352	0.848178	33.1692	0.181753	8.67347	0.437985	17.2237	0.70978	27.8698	0.945664	37.0195
0.139769	5.34892	0.0389052	1.44714	0.305923	11.4482	0.480489	18.3186	0.57631	21.5987	0.848889	32.03	0.184983	8.45182	0.439344	16.6665	0.710592	26.917	0.94596	35.728
0.144665	5.34569	0.040927	1.47135	0.307676	11.1259	0.48123	17.7175	0.577506	20.9133	0.849624	30.969	0.188282	8.2513	0.440747	16.149	0.711431	26.0301	0.946268	34.5248
0.14955	5.3423	0.0429607	1.49441	0.309475	10.8262	0.482004	17.1575	0.578739	20.2739	0.850385	29.9787	0.191646	8.06926	0.442194	15.6672	0.712299	25.2027	0.94659	33.4011
0.154425	5.33873	0.0447416	1.51361	0.311078	10.5817	0.482811	16.6345	0.580009	19.6762	0.85117	29.0521	0.195071	7.90344	0.443683	15.2176	0.713194	24.4291	0.946924	32.3494
0.159287	5.33499	0.0462654	1.52935	0.312471	10.3846	0.483651	16.1452	0.581315	19.1163	0.851979	28.1835	0.198554	7.75194	0.445214	14.7972	0.714116	23.7042	0.947271	31.363
0.164137	5.33106	0.0475291	1.54195	0.31364	10.2289	0.484527	15.6866	0.582656	18.5908	0.852813	27.3676	0.202092	7.61312	0.446787	14.4035	0.715066	23.0237	0.947632	30.4361
0.168973	5.32694	0.0485304	1.55165	0.314576	10.1102	0.485438	15.2559	0.584034	18.0968	0.853671	26.5998	0.205681	7.48559	0.448401	14.034	0.716044	22.3837	0.948007	29.5634
0.173795	5.32262	0.0492677	1.55865	0.315271	10.0253	0.486385	14.8508	0.585446	17.6315	0.854553	25.8761	0.209318	7.36813	0.450056	13.6867	0.717048	21.7807	0.948395	28.7405
0.178602	5.31809	0.0497401	1.56306	0.315718	9.97203	0.487369	14.4692	0.586893	17.1927	0.85546	25.1928	0.213001	7.25969	0.451751	13.3597	0.718079	21.2117	0.948797	27.9631
0.183393	5.31335	0.0504198	1.56932	0.316365	9.89676	0.48839	14.1093	0.588375	16.7782	0.85639	24.5467	0.216728	7.15935	0.453485	13.0514	0.719137	20.674	0.949212	27.2277
0.188167	5.30837	0.0511594	1.57602	0.317072	9.81671	0.489449	13.7693	0.589891	16.3861	0.857344	23.9349	0.220495	7.06631	0.455259	12.7603	0.720222	20.1651	0.949642	26.531
0.192923	5.30316	0.0521666	1.58495	0.318043	9.71072	0.490547	13.4477	0.59144	16.0146	0.858322	23.3547	0.2243	6.97986	0.457071	12.485	0.721334	19.6827	0.950087	25.8701
0.19766	5.2977	0.0534423	1.59596	0.319285	9.58119	0.491685	13.1432	0.593023	15.6624	0.859324	22.8039	0.228142	6.89938	0.458921	12.2245	0.722471	19.225	0.950546	25.2422
0.202377	5.29197	0.0549877	1.60886	0.320805	9.43095	0.492862	12.8545	0.594639	15.3279	0.86035	22.2802	0.232018	6.82432	0.460808	11.9775	0.723635	18.7902	0.951019	24.645
0.207073	5.28598	0.056804	1.62344	0.322617	9.26311	0.494081	12.5806	0.596288	15.0099	0.861399	21.7818	0.235927	6.7542	0.462733	11.7431	0.724825	18.3765	0.951507	24.0763
0.211746	5.2797	0.0588923	1.63946	0.324731	9.08088	0.495341	12.3204	0.597969	14.7073	0.862472	21.307	0.239867	6.68857	0.464693	11.5205	0.726041	17.9825	0.95201	23.5343
0.216395	5.27312	0.0609843	1.65478	0.326882	8.90893	0.496643	12.073	0.599682	14.419	0.863568	20.8541	0.243835	6.62706	0.46669	11.3088	0.727283	17.607	0.952529	23.0169
0.221018	5.26622	0.0630795	1.66943	0.32907	8.74646	0.497988	11.8376	0.601426	14.1441	0.864687	20.4216	0.247831	6.56931	0.468721	11.1072	0.72855	17.2486	0.953062	22.5228
0.225615	5.259	0.0651775	1.68344	0.331294	8.59279	0.499376	11.6134	0.603202	13.8817	0.865829	20.0083	0.251852	6.51501	0.470787	10.9152	0.729843	16.9063	0.953611	22.0502
0.230183	5.25144	0.0672777	1.69686	0.333554	8.44726	0.500808	11.3997	0.605009	13.631	0.866995	19.613	0.255898	6.46388	0.472616	10.7551	0.731161	16.579	0.954176	21.598
0.234721	5.24351	0.06938	1.7097	0.335848	8.30931	0.502285	11.1959	0.606847	13.3913	0.868183	19.2345	0.259967	6.41568	0.474195	10.6237	0.732503	16.2658	0.954756	21.1648
0.239227	5.23521	0.0714838	1.72201	0.338178	8.17842	0.503807	11.0013	0.608714	13.1619	0.869394	18.8718	0.264058	6.37016	0.475514	10.5184	0.733871	15.9659	0.955352	20.7494
0.2437	5.22652	0.073589	1.73381	0.340542	8.05412	0.50517	10.8389	0.610612	12.9422	0.870628	18.5239	0.268169	6.32713	0.476567	10.4372	0.735264	15.6784	0.955964	20.3509
0.248136	5.21741	0.0756953	1.74513	0.342941	7.93598	0.50636	10.7055	0.612539	12.7316	0.871884	18.19	0.2723	6.2864	0.477345	10.3786	0.73668	15.4026	0.956592	19.9682
0.252535	5.20788	0.0778024	1.75599	0.345374	7.82361	0.507364	10.5985	0.614496	12.5297	0.873163	17.8694	0.276449	6.24779	0.477846	10.3416	0.738122	15.1378	0.957237	19.6005
0.256894	5.1979	0.0799102	1.76641	0.347842	7.71665	0.50817	10.5159	0.616482	12.3358	0.874464	17.5612	0.280615	6.21116	0.478568	10.2891	0.739587	14.8835	0.957898	19.2468
0.26121	5.18745	0.0820184	1.77643	0.350345	7.61479	0.50877	10.4563	0.618496	12.1496	0.875788	17.2647	0.284797	6.17635	0.479357	10.2329	0.741076	14.639	0.958575	18.9065
0.265483	5.17652	0.0841271	1.78606	0.352883	7.51772	0.509157	10.4186	0.620538	11.9706	0.877133	16.9794	0.288994	6.14325	0.480437	10.1578	0.742589	14.4038	0.959269	18.5788
0.269709	5.16508	0.0862359	1.79532	0.355457	7.42517	0.509717	10.3652	0.622609	11.7985	0.878501	16.7046	0.293205	6.11172	0.481813	10.0651	0.744126	14.1774	0.959981	18.263
0.273886	5.15313	0.0883448	1.80423	0.358067	7.33691	0.510333	10.308	0.624707	11.6329	0.87989	16.4397	0.297429	6.08167	0.483494	9.95625	0.745686	13.9593	0.960709	17.9586
0.278011	5.14064	0.0904536	1.8128	0.360715	7.25271	0.511179	10.2315	0.626833	11.4734	0.881301	16.1844	0.301666	6.05298	0.485486	9.83289	0.747269	13.7491	0.961454	17.6648
0.282083	5.12759	0.0925623	1.82106	0.363401	7.17235	0.512265	10.1371	0.628986	11.3198	0.882734	15.938	0.305914	6.02558	0.487802	9.69681	0.748876	13.5465	0.962217	17.3813
0.286099	5.11398	0.0946709	1.82902	0.366126	7.09566	0.513604	10.0263	0.631165	11.1717	0.884188	15.7001	0.310173	5.99937	0.490148	9.56626	0.750505	13.3509	0.962997	17.1075
0.290057	5.09979	0.0967791	1.83669	0.368892	7.02245	0.515208	9.9007	0.633086	11.0469	0.885663	15.4704	0.314442	5.97428	0.492523	9.44095	0.752156	13.1622	0.963795	16.8429
0.293953	5.085	0.0988871	1.84409	0.371698	6.95256	0.517094	9.76216	0.634739	10.9436	0.88716	15.2484	0.31872	5.95023	0.494927	9.32058	0.753831	12.9798	0.96461	16.5871
0.297787	5.06962	0.100995	1.85123	0.374548	6.88586	0.519029	9.62931	0.636117	10.8602	0.888678	15.0337	0.323007	5.92716	0.49736	9.20489	0.755527	12.8037	0.965443	16.3396
0.301556	5.05362	0.103102	1.85812	0.377441	6.8222	0.521013	9.50188	0.637214	10.7955	0.890217	14.8261	0.327301	5.905	0.499822	9.09364	0.757246	12.6333	0.966295	16.1002
0.305258	5.03702	0.105209	1.86478	0.38038	6.76145	0.523046	9.37959	0.638024	10.7487	0.891777	14.6251	0.331602	5.8837	0.50231	8.98658	0.758986	12.4685	0.967164	15.8683
0.308892	5.01981	0.107315	1.87121	0.383365	6.7035	0.525129	9.26219	0.638544	10.719	0.893358	14.4306	0.33591	5.8632	0.504826	8.88352	0.760748	12.3091	0.968052	15.6437
0.312456	5.00198	0.109421	1.87743	0.386399	6.64824	0.527261	9.14944	0.639294	10.6767	0.894959	14.2421	0.340223	5.84346	0.507369	8.78425	0.762532	12.1547	0.968958	15.4261
0.315948	4.98356	0.111526	1.88344	0.389482	6.59556	0.529443	9.04113	0.640113	10.6313	0.89658	14.0594	0.344541	5.82442	0.509938	8.68857	0.764337	12.0052	0.969883	15.2152
0.319368	4.96454	0.113631	1.88926	0.392616	6.54536	0.531675	8.93705	0.641231	10.5704	0.898222	13.8824	0.348863	5.80605	0.512533	8.59632	0.766163	11.8603	0.970827	15.0106
0.322715	4.94495	0.115735	1.89489	0.395802	6.49755	0.533956	8.837	0.642654	10.4948	0.899884	13.7106	0.35319	5.78829	0.515153	8.50733	0.76801	11.7199	0.971789	14.8121
0.325988	4.9248	0.117839	1.90035	0.399041	6.45203	0.536286	8.74079	0.644387	10.4055	0.901566	13.544	0.357519	5.77112	0.517799	8.42144	0.769878	11.5837	0.972771	14.6194
0.329188	4.90411	0.119942	1.90563	0.402333	6.40872	0.538666	8.64825	0.646437	10.3036	0.903269	13.3822	0.361851	5.75451	0.520468	8.33851	0.771766	11.4516	0.973772	14.4324
0.332314	4.8829	0.122045	1.91076	0.40568	6.36754	0.541095	8.55922	0.648813	10.1901	0.90499	13.2252	0.366185	5.73841	0.523162	8.2584	0.773428	11.3396	0.974792	14.2507
0.334978	4.86403	0.124147	1.91572	0.409082	6.32839	0.543573	8.47353	0.651214	10.0803	0.906732	13.0727	0.37052	5.72279	0.52588	8.18098	0.774857	11.2464	0.975831	14.0742
0.337206	4.84766	0.126248	1.92054	0.412539	6.2912	0.546099	8.39104	0.653638	9.97399	0.908493	12.9244	0.374856	5.70763	0.528621	8.10613	0.776047	11.1709	0.976891	13.9027
0.339018	4.83394	0.12835	1.92521	0.416052	6.25588	0.548674	8.31162	0.656086	9.87101	0.910274	12.7804	0.379193	5.6929	0.531385	8.03374	0.776993	11.1122	0.977969	13.7359
0.340432	4.82298	0.13045	1.92975	0.419619	6.22235	0.551297	8.23512	0.658558	9.77123	0.912074	12.6403	0.383529	5.67856	0.534172	7.96369	0.777692	11.0695	0.979068	13.5737
0.341461	4.81487	0.13255	1.93416	0.423241	6.19053	0.553967	8.16142	0.661053	9.67451	0.913892	12.5041	0.387864	5.66461	0.536981	7.89589	0.778141	11.0424	0.980187	13.4159
0.342115	4.80964	0.134649	1.93844	0.426917	6.16034	0.556684	8.0904	0.663571	9.58073	0.91573	12.3715	0.392198	5.65101	0.539812	7.83025	0.778787	11.0038	0.981326	13.2624
0.343049	4.8021	0.136748	1.9426	0.430646	6.13171	0.559448	8.02194	0.666112	9.48976	0.917587	12.2425	0.39653	5.63775	0.542664	7.76666	0.779493	10.9622	0.982485	13.1129
0.344055	4.79386	0.138847	1.94665	0.434426	6.10455	0.562258	7.95594	0.668676	9.40149	0.919463	12.1169	0.40086	5.6248	0.545538	7.70505	0.780456	10.9063	0.983665	12.9674
0.34541	4.78258	0.140944	1.95058	0.438257	6.0788	0.565113	7.89229	0.671262	9.31581	0.921357	11.9946	0.405186	5.61214	0.548433	7.64533	0.781681	10.8368	0.984865	12.8257
0.3471	4.76819	0.143042	1.95441	0.442136	6.05437	0.568013	7.8309	0.67387	9.23263	0.923269	11.8754	0.409509	5.59975	0.551348	7.58742	0.783171	10.7542	0.986087	12.6877
0.34911	4.75064	0.145139	1.95813	0.446062	6.03119	0.570957	7.77166	0.676499	9.15184	0.9252	11.7593	0.413828	5.58762	0.554284	7.53126	0.784934	10.6596	0.987329	12.5532
0.351422	4.72985	0.147235	1.96175	0.450034	6.00919	0.573945	7.7145	0.679151	9.07334	0.926898	11.6606	0.418143	5.57573	0.55724	7.47677	0.786974	10.5538	0.988591	12.4221
0.354016	4.70574	0.149331	1.96528	0.45405	5.98831	0.576975	7.65931	0.681824	8.99706	0.928355	11.5781	0.422452	5.56407	0.560216	7.42389	0.789034	10.4508	0.989876	12.2943
0.356547	4.68142	0.151427	1.96872	0.458106	5.96847	0.580048	7.60603	0.684518	8.92291	0.929568	11.5111	0.426756	5.55261	0.563211	7.37256	0.791112	10.3506	0.991181	12.1697
0.359019	4.6569	0.153522	1.97207	0.462202	5.94961	0.583162	7.55457	0.687233	8.85082	0.930532	11.4588	0.431053	5.54135	0.566226	7.32271	0.793208	10.2531	0.992508	12.0482
0.361433	4.63223	0.155617	1.97534	0.466336	5.93168	0.586317	7.50487	0.689969	8.78069	0.931244	11.4208	0.435344	5.53027	0.56926	7.2743	0.795324	10.1581	0.993856	11.9296
0.363792	4.60745	0.157711	1.97852	0.470504	5.91461	0.589513	7.45684	0.692726	8.71247	0.9317	11.3966	0.439627	5.51936	0.572312	7.22727	0.797457	10.0655	0.995049	11.8286
0.366097	4.58257	0.159805	1.98163	0.474706	5.89835	0.592747	7.41042	0.695503	8.64608	0.932358	11.3621	0.443902	5.5086	0.575384	7.18156	0.799609	9.97538	0.996079	11.7443
0.368352	4.55764	0.161898	1.98466	0.47894	5.88285	0.59602	7.36554	0.698301	8.58147	0.933075	11.3249	0.448169	5.49799	0.578474	7.13713	0.801778	9.88752	0.99694	11.6756
0.370558	4.53268	0.163991	1.98761	0.483202	5.86805	0.599331	7.32215	0.701118	8.51856	0.934054	11.2749	0.452428	5.4875	0.581582	7.09393	0.803965	9.80187	0.997626	11.6221
0.372717	4.50772	0.166084	1.9905	0.487492	5.85391	0.602679	7.28018	0.703956	8.4573	0.935298	11.2124	0.456677	5.47714	0.584709	7.05193	0.80617	9.71836	0.998134	11.5831
0.374832	4.48279	0.168176	1.99332	0.491807	5.84038	0.606063	7.23958	0.706813	8.39762	0.936812	11.1382	0.460915	5.46689	0.587854	7.01108	0.808392	9.63691	0.998461	11.5583
0.376905	4.4579	0.170268	1.99607	0.496146	5.82743	0.609482	7.20029	0.70969	8.33949	0.938599	11.0527	0.465144	5.45674	0.591016	6.97133	0.810632	9.55746	0.998932	11.5229
0.378937	4.43309	0.172359	1.99876	0.500506	5.81501	0.612936	7.16227	0.712586	8.28284	0.940666	10.9568	0.469361	5.44668	0.594197	6.93266	0.812889	9.47993	0.999448	11.4848
0.380931	4.40837	0.174451	2.00138	0.504886	5.80309	0.616424	7.12545	0.715501	8.22763	0.942751	10.8632	0.473566	5.4367	0.597395	6.89502	0.815162	9.40427	1.00015	11.4334
0.382889	4.38376	0.176541	2.00395	0.509285	5.79163	0.619945	7.0898	0.718436	8.1738	0.944852	10.7718	0.477759	5.4268	0.600611	6.85838	0.817453	9.3304		
0.384812	4.35928	0.178632	2.00646	0.513701	5.7806	0.623499	7.05526	0.72139	8.12132	0.94697	10.6825	0.48194	5.41696	0.603844	6.82272	0.81976	9.25828		
0.386703	4.33494	0.180722	2.00892	0.518132	5.76997	0.627084	7.0218	0.724363	8.07014	0.949106	10.5952	0.486107	5.40717	0.607095	6.78799	0.822084	9.18784		
0.388562	4.31076	0.182812	2.01132	0.522577	5.75971	0.6307	6.98938	0.727354	8.02022	0.951257	10.5099	0.49026	5.39743	0.610362	6.75417	0.824424	9.11904		
0.390392	4.28676	0.184902	2.01367	0.527035	5.7498	0.634346	6.95794	0.730364	7.97152	0.953425	10.4265	0.494399	5.38773	0.613648	6.72122	0.82678	9.05182		
0.392194	4.26293	0.186991	2.01596	0.531504	5.74021	0.638022	6.92746	0.733393	7.92399	0.95561	10.345	0.498523	5.37807	0.61695	6.68914	0.829153	8.98614		
0.39397	4.2393	0.18908	2.01821	0.535983	5.73091	0.641726	6.8979	0.73644	7.87761	0.95781	10.2653	0.502631	5.36843	0.62027	6.65787	0.831541	8.92193		
0.395721	4.21588	0.191169	2.02042	0.540471	5.7219	0.645458	6.86922	0.739505	7.83235	0.960027	10.1874	0.506723	5.3588	0.623607	6.62741	0.833946	8.85917		
0.397449	4.19266	0.193257	2.02257	0.544967	5.71314	0.649218	6.8414	0.742589	7.78815	0.96226	10.1111	0.510798	5.34919	0.626961	6.59773	0.836366	8.7978		
0.399154	4.16967	0.195345	2.02468	0.549469	5.70462	0.653003	6.81439	0.745691	7.745	0.964508	10.0364	0.514856	5.33959	0.630332	6.5688	0.838801	8.73779		
0.400838	4.1469	0.197433	2.02675	0.553977	5.69632	0.656815	6.78816	0.74881	7.70287	0.966772	9.96341	0.518896	5.32999	0.633721	6.54061	0.841253	8.67909		
0.402502	4.12436	0.199521	2.02878	0.55849	5.68823	0.660652	6.7627	0.751948	7.66172	0.969052	9.89192	0.522917	5.32038	0.637126	6.51313	0.843719	8.62166		
0.404147	4.10206	0.201608	2.03077	0.563006	5.68033	0.664513	6.73796	0.755104	7.62152	0.971347	9.82194	0.52692	5.31076	0.640549	6.48634	0.846201	8.56547		
0.405775	4.08	0.203696	2.03271	0.567525	5.6726	0.668398	6.71393	0.758278	7.58225	0.973658	9.75342	0.530903	5.30113	0.643988	6.46022	0.848698	8.51049		
0.407386	4.05818	0.205783	2.03462	0.572047	5.66504	0.672306	6.69057	0.76147	7.54388	0.975983	9.68631	0.534866	5.29147	0.647445	6.43475	0.85121	8.45667		
0.408981	4.0366	0.207869	2.0365	0.576569	5.65762	0.676236	6.66786	0.764679	7.50639	0.978324	9.62058	0.538808	5.28179	0.650919	6.40993	0.853737	8.40399		
0.410561	4.01528	0.209956	2.03833	0.581092	5.65035	0.680189	6.64578	0.767906	7.46975	0.980679	9.55619	0.542729	5.27207	0.65441	6.38572	0.856279	8.3524		
0.412128	3.9942	0.212042	2.04013	0.585615	5.6432	0.684162	6.6243	0.771151	7.43395	0.983049	9.4931	0.546629	5.26233	0.657919	6.36211	0.858836	8.30189		
0.413681	3.97338	0.214128	2.0419	0.590137	5.63618	0.688156	6.6034	0.774414	7.39894	0.985434	9.43127	0.550506	5.25254	0.661444	6.33909	0.861407	8.25243		
0.415222	3.9528	0.216214	2.04363	0.594657	5.62926	0.69217	6.58306	0.777694	7.36473	0.987834	9.37068	0.554361	5.24272	0.664987	6.31664	0.863993	8.20397		
0.416751	3.93248	0.2183	2.04534	0.599175	5.62244	0.696204	6.56327	0.780993	7.33128	0.990248	9.31129	0.558193	5.23284	0.668547	6.29474	0.866593	8.1565		
0.418269	3.91241	0.220385	2.04701	0.60369	5.61571	0.700256	6.54399	0.784309	7.29857	0.992676	9.25305	0.562001	5.22292	0.672123	6.27339	0.869208	8.11		
0.419777	3.8926	0.222471	2.04865	0.608202	5.60906	0.704326	6.52521	0.787642	7.26659	0.995118	9.19596	0.565784	5.21295	0.675717	6.25256	0.871837	8.06442		
0.421276	3.87303	0.224556	2.05026	0.61271	5.60249	0.708414	6.50692	0.790994	7.23532	0.997575	9.13996	0.569544	5.20293	0.679328	6.23224	0.87448	8.01976		
0.422766	3.85372	0.226641	2.05184	0.617212	5.59599	0.712519	6.48909	0.794363	7.20474	1.00005	9.08504	0.573278	5.19284	0.682956	6.21243	0.877137	7.97597		
0.424247	3.83465	0.228725	2.05339	0.62171	5.58956	0.71664	6.47171	0.79775	7.17483			0.576987	5.1827	0.686601	6.1931	0.879809	7.93306		
0.42572	3.81583	0.23081	2.05492	0.626202	5.58318	0.720777	6.45476	0.801155	7.14558			0.580671	5.1725	0.690263	6.17424	0.882494	7.89098		
0.427186	3.79726	0.232894	2.05642	0.630688	5.57685	0.724929	6.43823	0.804578	7.11697			0.584328	5.16224	0.693942	6.15585	0.885194	7.84972		
0.428645	3.77894	0.234979	2.05789	0.635168	5.57056	0.729096	6.4221	0.808019	7.08898			0.58796	5.15191	0.697638	6.1379	0.887907	7.80926		
0.430098	3.76085	0.237063	2.05934	0.63964	5.56432	0.733278	6.40635	0.811478	7.06161			0.591564	5.14152	0.70135	6.12039	0.890634	7.76958		
0.431545	3.74301	0.239147	2.06077	0.644105	5.55811	0.737472	6.39098	0.814956	7.03483			0.595141	5.13106	0.705079	6.10331	0.893375	7.73066		
0.432987	3.72541	0.241231	2.06217	0.648562	5.55193	0.74168	6.37596	0.818451	7.00864			0.598692	5.12054	0.708825	6.08664	0.896129	7.69247		
0.434423	3.70805	0.243314	2.06354	0.65301	5.54578	0.745901	6.36129	0.821965	6.98301			0.602214	5.10995	0.712587	6.07038	0.898897	7.65501		
0.435855	3.69091	0.245398	2.0649	0.65745	5.53965	0.750133	6.34696	0.825497	6.95795			0.605709	5.09929	0.716365	6.05451	0.901679	7.61825		
0.437282	3.67402	0.247481	2.06623	0.66188	5.53354	0.754377	6.33294	0.829048	6.93343			0.609177	5.08857	0.720158	6.03902	0.904474	7.58219		
0.438706	3.65735	0.249564	2.06754	0.666301	5.52745	0.758632	6.31923	0.832618	6.90945			0.612616	5.07778	0.723968	6.0239	0.907283	7.54679		
0.440126	3.6409	0.251648	2.06883	0.670712	5.52136	0.762897	6.30582	0.836206	6.88599			0.616027	5.06692	0.727793	6.00915	0.910105	7.51205		
0.441542	3.62469	0.253731	2.0701	0.675113	5.51529	0.767172	6.2927	0.839814	6.86304			0.619409	5.056	0.731634	5.99474	0.912941	7.47794		
0.442956	3.60869	0.255813	2.07135	0.679503	5.50922	0.771457	6.27985	0.84344	6.84059			0.622763	5.04501	0.73549	5.98068	0.915789	7.44446		
0.444367	3.59292	0.257896	2.07257	0.683882	5.50315	0.77575	6.26727	0.847086	6.81863			0.626089	5.03396	0.739361	5.96695	0.918652	7.4116		
0.445776	3.57736	0.259979	2.07378	0.688249	5.49709	0.780051	6.25494	0.850751	6.79716			0.629386	5.02284	0.743246	5.95354	0.921527	7.37933		
0.447182	3.56201	0.262061	2.07497	0.692606	5.49102	0.784361	6.24285	0.854436	6.77616			0.632655	5.01166	0.747145	5.94044	0.924415	7.34764		
0.448587	3.54688	0.264143	2.07615	0.69695	5.48495	0.788677	6.231	0.85814	6.75562			0.635895	5.00043	0.751059	5.92765	0.927317	7.31652		
0.44999	3.53195	0.266226	2.0773	0.701282	5.47886	0.793001	6.21938	0.861864	6.73553			0.639107	4.98913	0.754987	5.91515	0.930232	7.28596		
0.451392	3.51723	0.268308	2.07844	0.705601	5.47277	0.797331	6.20797	0.865608	6.71589			0.642291	4.97777	0.758927	5.90293	0.93316	7.25594		
0.452792	3.50271	0.27039	2.07956	0.709907	5.46667	0.801666	6.19678	0.869372	6.69669			0.645446	4.96637	0.762881	5.891	0.936101	7.22646		
0.454191	3.4884	0.272472	2.08066	0.714201	5.46055	0.806007	6.18578	0.873157	6.67792			0.648572	4.9549	0.766848	5.87933	0.939055	7.19749		
0.45559	3.47428	0.274554	2.08174	0.71848	5.45442	0.810352	6.17498	0.876962	6.65956			0.651671	4.94339	0.770826	5.86792	0.942022	7.16904		
0.456988	3.46035	0.276635	2.08281	0.722747	5.44827	0.814702	6.16436	0.880788	6.64162			0.654741	4.93182	0.774817	5.85676	0.945002	7.14108		
0.458385	3.44662	0.278717	2.08387	0.726999	5.44211	0.819056	6.15392	0.884634	6.62409			0.657784	4.92021	0.77882	5.84584	0.947994	7.11361		
0.459783	3.43308	0.280798	2.08491	0.731237	5.43592	0.823413	6.14365	0.888502	6.60696			0.660799	4.90856	0.782833	5.83516	0.951	7.08662		
0.46118	3.41972	0.28288	2.08593	0.735461	5.42971	0.827773	6.13355	0.89239	6.59022			0.663786	4.89686	0.786858	5.82471	0.954018	7.0601		
0.462577	3.40654	0.284961	2.08694	0.73967	5.42348	0.832136	6.1236	0.8963	6.57386			0.666746	4.88512	0.790893	5.81447	0.957049	7.03403		
0.463975	3.39355	0.287042	2.08794	0.743864	5.41722	0.8365	6.1138	0.900232	6.55788			0.669679	4.87334	0.794937	5.80445	0.960093	7.00841		
0.465372	3.38074	0.289123	2.08892	0.748042	5.41094	0.840866	6.10414	0.904184	6.54227			0.672585	4.86153	0.798992	5.79463	0.96315	6.98323		
0.466771	3.3681	0.291204	2.08989	0.752206	5.40463	0.845234	6.09462	0.908159	6.52703			0.675465	4.84968	0.803055	5.78502	0.966219	6.95848		
0.46817	3.35563	0.293285	2.09084	0.756354	5.3983	0.849602	6.08524	0.912155	6.51214			0.678318	4.8378	0.807128	5.77559	0.969301	6.93414		
0.469569	3.34334	0.295366	2.09178	0.760486	5.39194	0.85397	6.07598	0.916173	6.49761			0.681144	4.82589	0.811208	5.76634	0.972395	6.91022		
0.47097	3.33121	0.297447	2.09271	0.764602	5.38554	0.858339	6.06684	0.920213	6.48342			0.683945	4.81396	0.815297	5.75728	0.975502	6.88671		
0.472371	3.31925	0.299528	2.09362	0.768702	5.37912	0.862706	6.05782	0.924276	6.46958			0.68672	4.802	0.819393	5.74838	0.978622	6.86358		
0.473774	3.30745	0.301608	2.09453	0.772785	5.37267	0.867074	6.04892	0.92836	6.45606			0.68947	4.79002	0.823495	5.73965	0.981754	6.84085		
0.475178	3.29582	0.303689	2.09542	0.776852	5.36618	0.87144	6.04012	0.932466	6.44287			0.692195	4.77803	0.827605	5.73107	0.984898	6.81849		
0.476583	3.28434	0.305769	2.0963	0.780903	5.35967	0.875805	6.03142	0.936595	6.43001			0.694895	4.76601	0.831721	5.72265	0.988055	6.79651		
0.477989	3.27301	0.30785	2.09716	0.784936	5.35312	0.880168	6.02282	0.940746	6.41745			0.69757	4.75398	0.835842	5.71438	0.991224	6.77489		
0.479397	3.26184	0.30993	2.09802	0.788952	5.34654	0.884529	6.01432	0.944919	6.40521			0.700221	4.74194	0.839969	5.70624	0.994406	6.75363		
0.480806	3.25082	0.31201	2.09886	0.792952	5.33992	0.888888	6.00591	0.949114	6.39327			0.702849	4.72989	0.8441	5.69825	0.997599	6.73271		
0.482217	3.23995	0.31409	2.0997	0.796933	5.33328	0.893244	5.99759	0.953331	6.38163			0.705452	4.71783	0.848237	5.69038	1.0008	6.71214		
0.483629	3.22923	0.31617	2.10052	0.800898	5.32659	0.897598	5.98936	0.95757	6.37027			0.708033	4.70577	0.852377	5.68263				
0.485043	3.21865	0.31825	2.10133	0.804844	5.31988	0.901948	5.9812	0.961831	6.3592			0.710591	4.6937	0.856521	5.67501				
0.486459	3.20821	0.32033	2.10213	0.808773	5.31313	0.906296	5.97313	0.966114	6.34842			0.713126	4.68164	0.860668	5.6675				
0.487877	3.19791	0.32241	2.10292	0.812684	5.30634	0.91064	5.96513	0.970419	6.3379			0.715638	4.66957	0.864817	5.6601				
0.489297	3.18775	0.32449	2.1037	0.816578	5.29952	0.914981	5.95721	0.974745	6.32765			0.718129	4.65751	0.86897	5.65281				
0.490719	3.17772	0.32657	2.10448	0.820453	5.29267	0.919319	5.94936	0.979092	6.31766			0.720598	4.64545	0.873124	5.64561				
0.492143	3.16783	0.328649	2.10524	0.82431	5.28578	0.923653	5.94158	0.983461	6.30793			0.723045	4.6334	0.87728	5.63852				
0.493568	3.15807	0.330729	2.10599	0.828148	5.27886	0.927983	5.93387	0.98785	6.29844			0.725472	4.62136	0.881437	5.63151				
0.494997	3.14844	0.332809	2.10673	0.831969	5.2719	0.932309	5.92623	0.99226	6.2892			0.727878	4.60933	0.885595	5.6246				
0.496427	3.13893	0.334888	2.10747	0.83577	5.26491	0.936632	5.91866	0.996691	6.2802			0.730264	4.59731	0.889753	5.61776				
0.497859	3.12955	0.336968	2.10819	0.839554	5.25788	0.94095	5.91114	1.00114	6.27142			0.732629	4.58531	0.893911	5.61101				
0.499294	3.1203	0.339047	2.10891	0.843319	5.25082	0.945265	5.9037					0.734975	4.57332	0.89807	5.60434				
0.500731	3.11116	0.341126	2.10962	0.847065	5.24373	0.949576	5.89631					0.737302	4.56135	0.902227	5.59774				
0.50217	3.10215	0.343206	2.11032	0.850793	5.2366	0.953883	5.88898					0.739609	4.5494	0.906383	5.5912				
0.503612	3.09325	0.345285	2.11101	0.854502	5.22944	0.958186	5.88172					0.741898	4.53748	0.910538	5.58474				
0.505056	3.08447	0.347364	2.11169	0.858192	5.22225	0.962485	5.87451					0.744168	4.52557	0.914692	5.57833				
0.506502	3.0758	0.349443	2.11237	0.861863	5.21503	0.96678	5.86736					0.74642	4.5137	0.918843	5.57199				
0.507951	3.06724	0.351522	2.11303	0.865516	5.20777	0.971072	5.86027					0.748654	4.50184	0.922991	5.5657				
0.509402	3.0588	0.353601	2.11369	0.86915	5.20048	0.975359	5.85323					0.750871	4.49002	0.927137	5.55947				
0.510856	3.05046	0.35568	2.11434	0.872765	5.19316	0.979643	5.84625					0.75307	4.47822	0.93128	5.55328				
0.512313	3.04223	0.357759	2.11499	0.876361	5.18581	0.983924	5.83933					0.755253	4.46645	0.935419	5.54715				
0.513771	3.03411	0.359838	2.11562	0.879939	5.17843	0.988201	5.83246					0.757419	4.45472	0.939555	5.54106				
0.515233	3.02609	0.361916	2.11625	0.883498	5.17102	0.992474	5.82565					0.759568	4.44301	0.943686	5.53501				
0.516697	3.01817	0.363995	2.11688	0.887038	5.16358	0.996744	5.81889					0.761702	4.43134	0.947813	5.529				
0.518164	3.01036	0.366074	2.11749	0.890559	5.15611	1.00101	5.81219					0.76382	4.41971	0.951936	5.52303				
0.519633	3.00264	0.368153	2.1181	0.894061	5.14862							0.765923	4.40811	0.956053	5.5171				
0.521105	2.99502	0.370231	2.1187	0.897545	5.1411							0.76801	4.39655	0.960165	5.51119				
0.522579	2.9875	0.37231	2.1193	0.90101	5.13355							0.770083	4.38503	0.964271	5.50532				
0.524056	2.98007	0.374388	2.11989	0.904457	5.12598							0.772141	4.37355	0.968372	5.49948				
0.525536	2.97274	0.376467	2.12047	0.907884	5.11838							0.774185	4.3621	0.972466	5.49366				
0.527018	2.96549	0.378545	2.12104	0.911294	5.11075							0.776215	4.3507	0.976554	5.48787				
0.528504	2.95834	0.380623	2.12161	0.914684	5.1031							0.778231	4.33934	0.980635	5.4821				
0.529991	2.95128	0.382702	2.12218	0.918057	5.09543							0.780234	4.32802	0.984709	5.47635				
0.531482	2.9443	0.38478	2.12274	0.921411	5.08774							0.782224	4.31675	0.988776	5.47063				
0.532975	2.93741	0.386858	2.12329	0.924746	5.08002							0.7842	4.30552	0.992835	5.46491				
0.534471	2.93061	0.388936	2.12383	0.928063	5.07228							0.786164	4.29434	0.996886	5.45922				
0.53597	2.92389	0.391015	2.12437	0.931363	5.06452							0.788116	4.2832	1.00093	5.45353				
0.537471	2.91725	0.393093	2.12491	0.934643	5.05675							0.790055	4.27211						
0.538975	2.91069	0.395171	2.12544	0.937906	5.04895							0.791983	4.26106						
0.540481	2.90422	0.397249	2.12596	0.941151	5.04113							0.793899	4.25007						
0.541991	2.89782	0.399327	2.12648	0.944378	5.0333							0.795803	4.23912						
0.543503	2.8915	0.401405	2.12699	0.947587	5.02545							0.797697	4.22822						
0.545018	2.88526	0.403483	2.1275	0.950779	5.01758							0.799579	4.21737						
0.546535	2.87909	0.405561	2.128	0.953953	5.0097							0.801451	4.20657						
0.548055	2.873	0.407639	2.1285	0.957109	5.0018							0.803312	4.19582						
0.549578	2.86698	0.409716	2.12899	0.960247	4.99389							0.805163	4.18512						
0.551104	2.86103	0.411794	2.12948	0.963369	4.98596							0.807004	4.17448						
0.552632	2.85516	0.413872	2.12996	0.966473	4.97802							0.808835	4.16388						
0.554163	2.84935	0.41595	2.13044	0.969559	4.97007							0.810657	4.15334						
0.555697	2.84361	0.418027	2.13091	0.972629	4.9621							0.812469	4.14285						
0.557233	2.83794	0.420105	2.13138	0.975682	4.95413							0.814273	4.13241						
0.558772	2.83234	0.422183	2.13184	0.978717	4.94614							0.816067	4.12203						
0.560314	2.82681	0.42426	2.1323	0.981736	4.93815							0.817852	4.11169						
0.561858	2.82134	0.426338	2.13275	0.984738	4.93015							0.819629	4.10142						
0.563405	2.81593	0.428415	2.13321	0.987724	4.92213							0.821397	4.09119						
0.564955	2.81059	0.430493	2.13365	0.990692	4.91411							0.823158	4.08102						
0.566507	2.80531	0.43257	2.13409	0.993645	4.90608							0.82491	4.0709						
0.568062	2.80009	0.434648	2.13453	0.996581	4.89805							0.826655	4.06084						
0.569619	2.79493	0.436725	2.13496	0.999501	4.89001							0.828392	4.05084						
0.57118	2.78983	0.438802	2.13539	1.0024	4.88196							0.830121	4.04088						
0.572742	2.78479	0.44088	2.13582									0.831843	4.03098						
0.574308	2.77981	0.442957	2.13624									0.833559	4.02114						
0.575876	2.77489	0.445034	2.13666									0.835267	4.01135						
0.577446	2.77002	0.447112	2.13707									0.836968	4.00162						
0.579019	2.76521	0.449189	2.13748									0.838663	3.99194						
0.580595	2.76045	0.451266	2.13789									0.840352	3.98232						
0.582173	2.75574	0.453343	2.13829									0.842034	3.97275						
0.583754	2.75109	0.45542	2.13869									0.84371	3.96324						
0.585337	2.7465	0.457497	2.13908									0.845381	3.95378						
0.586923	2.74195	0.459574	2.13947									0.847045	3.94438						
0.588512	2.73746	0.461652	2.13986									0.848704	3.93503						
0.590102	2.73301	0.463729	2.14025									0.850357	3.92573						
0.591696	2.72862	0.465806	2.14063									0.852005	3.9165						
0.593292	2.72427	0.467883	2.14101									0.853648	3.90731						
0.59489	2.71997	0.46996	2.14138									0.855285	3.89818						
0.596491	2.71572	0.472036	2.14175									0.856918	3.88911						
0.598094	2.71152	0.474113	2.14212									0.858546	3.88009						
0.599699	2.70736	0.47619	2.14248									0.860169	3.87113						
0.601307	2.70325	0.478267	2.14285									0.861787	3.86222						
0.602918	2.69919	0.480344	2.1432									0.863401	3.85336						
0.604531	2.69517	0.482421	2.14356									0.865011	3.84456						
0.606146	2.69119	0.484497	2.14391									0.866617	3.83581						
0.607764	2.68726	0.486574	2.14426									0.868218	3.82712						
0.609384	2.68337	0.488651	2.14461									0.869815	3.81847						
0.611006	2.67952	0.490728	2.14495									0.871409	3.80989						
0.612631	2.67571	0.492804	2.14529									0.872999	3.80135						
0.614258	2.67194	0.494881	2.14563									0.874585	3.79287						
0.615887	2.66822	0.496958	2.14597									0.876167	3.78444						
0.617519	2.66453	0.499034	2.1463									0.877747	3.77607						
0.619153	2.66088	0.501111	2.14663									0.879322	3.76775						
0.620789	2.65727	0.503187	2.14695									0.880895	3.75948						
0.622428	2.65371	0.505264	2.14728									0.882465	3.75126						
0.624069	2.65017	0.50734	2.1476									0.884031	3.74309						
0.625712	2.64668	0.509417	2.14792									0.885594	3.73498						
0.627357	2.64322	0.511493	2.14823									0.887155	3.72692						
0.629004	2.6398	0.51357	2.14855									0.888713	3.7189						
0.630654	2.63642	0.515646	2.14886									0.890268	3.71094						
0.632306	2.63307	0.517723	2.14917									0.89182	3.70303						
0.63396	2.62975	0.519799	2.14947									0.89337	3.69517						
0.635616	2.62647	0.521876	2.14978									0.894918	3.68736						
0.637275	2.62322	0.523952	2.15008									0.896463	3.67961						
0.638935	2.62001	0.526028	2.15038									0.898006	3.6719						
0.640598	2.61683	0.528105	2.15067									0.899547	3.66424						
0.642263	2.61368	0.530181	2.15097									0.901085	3.65663						
0.64393	2.61057	0.532257	2.15126									0.902622	3.64907						
0.645599	2.60749	0.534333	2.15155									0.904156	3.64155						
0.64727	2.60444	0.53641	2.15184									0.905689	3.63409						
0.648943	2.60142	0.538486	2.15212									0.90722	3.62667						
0.650618	2.59843	0.540562	2.15241									0.908749	3.61931						
0.652296	2.59547	0.542638	2.15269									0.910276	3.61199						
0.653975	2.59254	0.544714	2.15296									0.911802	3.60471						
0.655656	2.58964	0.546791	2.15324									0.913326	3.59749						
0.65734	2.58677	0.548867	2.15352									0.914849	3.59031						
0.659025	2.58393	0.550943	2.15379									0.91637	3.58318						
0.660713	2.58112	0.553019	2.15406									0.91789	3.57609						
0.662402	2.57833	0.555095	2.15433									0.919408	3.56905						
0.664093	2.57557	0.557171	2.15459									0.920925	3.56206						
0.665787	2.57285	0.559247	2.15486									0.922441	3.55511						
0.667482	2.57014	0.561323	2.15512									0.923956	3.54821						
0.669179	2.56747	0.563399	2.15538									0.92547	3.54135						
0.670878	2.56482	0.565475	2.15564									0.926983	3.53454						
0.672579	2.56219	0.567551	2.1559									0.928494	3.52777						
0.674282	2.5596	0.569627	2.15615									0.930005	3.52105						
0.675987	2.55702	0.571703	2.1564									0.931515	3.51437						
0.677694	2.55448	0.573779	2.15666									0.933024	3.50773						
0.679402	2.55196	0.575855	2.1569									0.934532	3.50114						
0.681113	2.54946	0.577931	2.15715									0.936039	3.49459						
0.682825	2.54698	0.580007	2.1574									0.937546	3.48808						
0.684539	2.54454	0.582082	2.15764									0.939052	3.48161						
0.686255	2.54211	0.584158	2.15788									0.940558	3.47519						
0.687972	2.53971	0.586234	2.15812									0.942063	3.46881						
0.689692	2.53733	0.58831	2.15836									0.943567	3.46247						
0.691413	2.53497	0.590386	2.1586									0.945071	3.45617						
0.693136	2.53264	0.592461	2.15884									0.946574	3.44991						
0.694861	2.53033	0.594537	2.15907									0.948077	3.4437						
0.696588	2.52804	0.596613	2.1593									0.94958	3.43752						
0.698316	2.52577	0.598689	2.15953									0.951082	3.43139						
0.700046	2.52352	0.600764	2.15976									0.952584	3.42529						
0.701778	2.5213	0.60284	2.15999									0.954086	3.41924						
0.703511	2.51909	0.604916	2.16021									0.955587	3.41322						
0.705246	2.51691	0.606991	2.16044									0.957088	3.40725						
0.706983	2.51474	0.609067	2.16066									0.958589	3.40131						
0.708722	2.5126	0.611143	2.16088									0.96009	3.39541						
0.710462	2.51048	0.613218	2.1611									0.961591	3.38955						
0.712204	2.50838	0.615294	2.16132									0.963092	3.38373						
0.713947	2.50629	0.617369	2.16154									0.964593	3.37794						
0.715692	2.50423	0.619445	2.16175									0.966093	3.37219						
0.717439	2.50218	0.621521	2.16197									0.967594	3.36648						
0.719188	2.50016	0.623596	2.16218									0.969095	3.36081						
0.720937	2.49815	0.625672	2.16239									0.970596	3.35518						
0.722689	2.49616	0.627747	2.1626									0.972097	3.34958						
0.724442	2.49419	0.629823	2.16281									0.973598	3.34401						
0.726197	2.49224	0.631898	2.16301									0.975099	3.33849						
0.727953	2.4903	0.633974	2.16322									0.976601	3.333						
0.729711	2.48838	0.636049	2.16342									0.978102	3.32754						
0.731471	2.48648	0.638125	2.16363									0.979604	3.32212						
0.733231	2.4846	0.6402	2.16383									0.981107	3.31673						
0.734994	2.48273	0.642275	2.16403									0.982609	3.31138						
0.736758	2.48088	0.644351	2.16423									0.984112	3.30607						
0.738523	2.47905	0.646426	2.16442									0.985615	3.30078						
0.74029	2.47723	0.648502	2.16462									0.987118	3.29554						
0.742059	2.47544	0.650577	2.16482									0.988622	3.29032						
0.743829	2.47365	0.652652	2.16501									0.990126	3.28514						
0.7456	2.47188	0.654728	2.1652									0.991631	3.28						
0.747373	2.47013	0.656803	2.16539									0.993136	3.27488						
0.749147	2.46839	0.658878	2.16558									0.994641	3.2698						
0.750923	2.46667	0.660954	2.16577									0.996147	3.26475						
0.7527	2.46497	0.663029	2.16596									0.997654	3.25973						
0.754479	2.46328	0.665104	2.16615									0.999161	3.25475						
0.756259	2.4616	0.667179	2.16633									1.00067	3.2498						
0.758041	2.45994	0.669255	2.16652																
0.759823	2.45829	0.67133	2.1667																
0.761608	2.45666	0.673405	2.16688																
0.763393	2.45504	0.67548	2.16706																
0.76518	2.45344	0.677556	2.16724																
0.766969	2.45185	0.679631	2.16742																
0.768758	2.45027	0.681706	2.1676																
0.770549	2.44871	0.683781	2.16777																
0.772342	2.44716	0.685856	2.16795																
0.774136	2.44562	0.687931	2.16812																
0.775931	2.4441	0.690006	2.1683																
0.777727	2.44259	0.692082	2.16847																
0.779525	2.44109	0.694157	2.16864																
0.781324	2.43961	0.696232	2.16881																
0.783124	2.43813	0.698307	2.16898																
0.784925	2.43667	0.700382	2.16915																
0.786728	2.43523	0.702457	2.16931																
0.788532	2.43379	0.704532	2.16948																
0.790338	2.43237	0.706607	2.16964																
0.792144	2.43096	0.708682	2.16981																
0.793952	2.42956	0.710757	2.16997																
0.795761	2.42817	0.712832	2.17013																
0.797571	2.4268	0.714907	2.17029																
0.799383	2.42543	0.716982	2.17045																
0.801195	2.42408	0.719057	2.17061																
0.803009	2.42274	0.721132	2.17077																
0.804824	2.42141	0.723207	2.17093																
0.806641	2.42009	0.725282	2.17109																
0.808458	2.41878	0.727357	2.17124																
0.810277	2.41748	0.729432	2.1714																
0.812096	2.4162	0.731506	2.17155																
0.813917	2.41492	0.733581	2.1717																
0.81574	2.41365	0.735656	2.17185																
0.817563	2.4124	0.737731	2.17201																
0.819387	2.41115	0.739806	2.17216																
0.821213	2.40992	0.741881	2.17231																
0.823039	2.40869	0.743956	2.17245																
0.824867	2.40748	0.74603	2.1726																
0.826696	2.40627	0.748105	2.17275																
0.828526	2.40508	0.75018	2.1729																
0.830357	2.40389	0.752255	2.17304																
0.832189	2.40271	0.754329	2.17318																
0.834022	2.40155	0.756404	2.17333																
0.835857	2.40039	0.758479	2.17347																
0.837692	2.39924	0.760554	2.17361																
0.839528	2.3981	0.762628	2.17375																
0.841366	2.39697	0.764703	2.1739																
0.843204	2.39585	0.766778	2.17403																
0.845044	2.39474	0.768852	2.17417																
0.846885	2.39363	0.770927	2.17431																
0.848726	2.39254	0.773002	2.17445																
0.850569	2.39145	0.775076	2.17459																
0.852413	2.39037	0.777151	2.17472																
0.854257	2.3893	0.779226	2.17486																
0.856103	2.38824	0.7813	2.17499																
0.85795	2.38719	0.783375	2.17513																
0.859798	2.38614	0.78545	2.17526																
0.861646	2.38511	0.787524	2.17539																
0.863496	2.38408	0.789599	2.17552																
0.865347	2.38306	0.791673	2.17565																
0.867198	2.38205	0.793748	2.17578																
0.869051	2.38104	0.795822	2.17591																
0.870904	2.38004	0.797897	2.17604																
0.872759	2.37905	0.799972	2.17617																
0.874614	2.37807	0.802046	2.1763																
0.876471	2.3771	0.804121	2.17643																
0.878328	2.37613	0.806195	2.17655																
0.880186	2.37517	0.80827	2.17668																
0.882045	2.37422	0.810344	2.1768																
0.883905	2.37327	0.812419	2.17693																
0.885766	2.37234	0.814493	2.17705																
0.887628	2.37141	0.816567	2.17717																
0.889491	2.37048	0.818642	2.17729																
0.891355	2.36957	0.820716	2.17742																
0.893219	2.36866	0.822791	2.17754																
0.895085	2.36775	0.824865	2.17766																
0.896951	2.36686	0.82694	2.17778																
0.898819	2.36597	0.829014	2.1779																
0.900687	2.36508	0.831088	2.17802																
0.902556	2.36421	0.833163	2.17813																
0.904425	2.36334	0.835237	2.17825																
0.906296	2.36247	0.837311	2.17837																
0.908168	2.36162	0.839386	2.17848																
0.91004	2.36077	0.84146	2.1786																
0.911913	2.35992	0.843534	2.17871																
0.913787	2.35908	0.845609	2.17883																
0.915662	2.35825	0.847683	2.17894																
0.917538	2.35743	0.849757	2.17906																
0.919415	2.35661	0.851832	2.17917																
0.921292	2.35579	0.853906	2.17928																
0.92317	2.35498	0.85598	2.17939																
0.925049	2.35418	0.858054	2.1795																
0.926929	2.35339	0.860129	2.17961																
0.928809	2.3526	0.862203	2.17972																
0.930691	2.35181	0.864277	2.17983																
0.932573	2.35103	0.866351	2.17994																
0.934456	2.35026	0.868425	2.18005																
0.93634	2.34949	0.8705	2.18016																
0.938224	2.34873	0.872574	2.18027																
0.940109	2.34797	0.874648	2.18037																
0.941995	2.34722	0.876722	2.18048																
0.943882	2.34647	0.878796	2.18058																
0.94577	2.34573	0.880871	2.18069																
0.947658	2.345	0.882945	2.18079																
0.949547	2.34427	0.885019	2.1809																
0.951437	2.34354	0.887093	2.181																
0.953327	2.34282	0.889167	2.18111																
0.955219	2.34211	0.891241	2.18121																
0.957111	2.3414	0.893315	2.18131																
0.959003	2.34069	0.895389	2.18141																
0.960897	2.33999	0.897463	2.18151																
0.962791	2.3393	0.899537	2.18161																
0.964686	2.33861	0.901612	2.18171																
0.966582	2.33792	0.903686	2.18181																
0.968478	2.33724	0.90576	2.18191																
0.970375	2.33657	0.907834	2.18201																
0.972273	2.3359	0.909908	2.18211																
0.974171	2.33523	0.911982	2.18221																
0.97607	2.33457	0.914056	2.18231																
0.97797	2.33391	0.91613	2.1824																
0.97987	2.33326	0.918204	2.1825																
0.981771	2.33261	0.920278	2.1826																
0.983673	2.33197	0.922352	2.18269																
0.985576	2.33133	0.924426	2.18279																
0.987479	2.33069	0.9265	2.18288																
0.989383	2.33006	0.928573	2.18298																
0.991287	2.32944	0.930647	2.18307																
0.993192	2.32882	0.932721	2.18316																
0.995098	2.3282	0.934795	2.18326																
0.997005	2.32758	0.936869	2.18335																
0.998912	2.32698	0.938943	2.18344																
1.00082	2.32637	0.941017	2.18353																
		0.943091	2.18363																
		0.945165	2.18372																
		0.947239	2.18381																
		0.949312	2.1839																
		0.951386	2.18399																
		0.95346	2.18408																
		0.955534	2.18417																
		0.957608	2.18425																
		0.959682	2.18434																
		0.961755	2.18443																
		0.963829	2.18452																
		0.965903	2.18461																
		0.967977	2.18469																
		0.97005	2.18478																
		0.972124	2.18486																
		0.974198	2.18495																
		0.976272	2.18503																
		0.978345	2.18512																
		0.980419	2.1852																
		0.982493	2.18529																
		0.984567	2.18537																
		0.98664	2.18545																
		0.988714	2.18554																
		0.990788	2.18562																
		0.992861	2.1857																
		0.994935	2.18578																
		0.997009	2.18587																
		0.999082	2.18595																
		1.00116	2.18603																
