Sym0		Asym0		Sym1		Sym2		Sym3		Sym4		Asym1		Asym2		Asym3		Asym4	
469  Points		495  Points		230  Points		195  Points		182  Points		127  Points		338  Points		208  Points		170  Points		105  Points	
Freq (MHz)	Vph (m/ms)	Freq (MHz)	Vph (m/ms)	Freq (MHz)	Vph (m/ms)	Freq (MHz)	Vph (m/ms)	Freq (MHz)	Vph (m/ms)	Freq (MHz)	Vph (m/ms)	Freq (MHz)	Vph (m/ms)	Freq (MHz)	Vph (m/ms)	Freq (MHz)	Vph (m/ms)	Freq (MHz)	Vph (m/ms)
4.96639e-005	5.26464	0.000487551	0.192548	0.279522	461.227	0.469059	522.501	0.559024	1014.5	0.838528	1913.45	0.139803	210.298	0.419264	2157.07	0.698773	2226.04	0.938099	3724.78
0.00495728	5.26738	0.000908413	0.26226	0.279597	181.824	0.469091	256.416	0.559069	377.054	0.838552	612.117	0.140038	87.7164	0.419299	372.358	0.698797	561.01	0.938106	792.621
0.00986466	5.26727	0.0014546	0.33093	0.279737	113.28	0.469143	169.911	0.559156	231.59	0.838601	364.353	0.140463	55.5592	0.419383	203.806	0.698849	320.971	0.938122	443.506
0.0147715	5.26705	0.00212204	0.398343	0.279942	82.3087	0.469218	127.063	0.559284	167.144	0.838674	259.385	0.141078	40.7756	0.419516	140.332	0.698929	224.809	0.938148	307.899
0.0196777	5.26675	0.00290577	0.464264	0.280212	64.672	0.469314	101.484	0.559453	130.78	0.838772	201.385	0.141878	32.307	0.419699	107.035	0.699038	173	0.938183	235.805
0.024583	5.26639	0.00380033	0.528515	0.280547	53.2901	0.469432	84.488	0.559663	107.431	0.838894	164.595	0.142859	26.8368	0.419931	86.5329	0.699175	140.612	0.938228	191.072
0.0294871	5.26593	0.00479998	0.590966	0.280945	45.3414	0.469571	72.3766	0.559915	91.1734	0.839041	139.181	0.144016	23.0243	0.420211	72.6439	0.699341	118.45	0.938282	160.609
0.0343898	5.26538	0.00589847	0.65148	0.281408	39.4797	0.469733	63.3099	0.560207	79.2048	0.839213	120.575	0.145342	20.2239	0.420541	62.6156	0.699535	102.334	0.938345	138.527
0.0392909	5.26476	0.00708954	0.709972	0.281933	34.981	0.469917	56.2688	0.560541	70.0274	0.839409	106.365	0.146832	18.0864	0.420919	55.037	0.699757	90.0881	0.938418	121.787
0.0441901	5.26405	0.00836681	0.766377	0.282522	31.4217	0.470123	50.6436	0.560915	62.7682	0.83963	95.1585	0.148477	16.4063	0.421346	49.1101	0.700007	80.4683	0.9385	108.659
0.0490871	5.26325	0.00972396	0.820653	0.283172	28.537	0.470352	46.0467	0.56133	56.8839	0.839875	86.0953	0.150272	15.0547	0.421821	44.3494	0.700285	72.7127	0.938592	98.0888
0.0539817	5.26236	0.0111549	0.872789	0.283885	26.1532	0.470604	42.2204	0.561785	52.0187	0.840145	78.6147	0.152209	13.947	0.422345	40.4428	0.700592	66.3279	0.938694	89.3952
0.0588738	5.26139	0.0126537	0.922788	0.284658	24.1515	0.470879	38.9863	0.562281	47.9296	0.840439	72.3359	0.154281	13.0249	0.422916	37.1804	0.700927	60.9807	0.938806	82.1195
0.0637628	5.26032	0.0142146	0.970669	0.285492	22.4478	0.471177	36.2172	0.562816	44.4455	0.840758	66.9912	0.156481	12.2473	0.423535	34.4159	0.70129	56.4375	0.938927	75.9411
0.0686487	5.25916	0.0158324	1.01647	0.286385	20.981	0.4715	33.82	0.563392	41.4418	0.841101	62.3871	0.158802	11.5842	0.424202	32.0441	0.70168	52.5303	0.939059	70.6294
0.0735311	5.25791	0.0175018	1.06023	0.287338	19.7057	0.471846	31.7247	0.564007	38.8262	0.841468	58.3799	0.161237	11.0133	0.424916	29.9875	0.702099	49.1345	0.939201	66.0141
0.0784098	5.25656	0.0192183	1.10202	0.288348	18.5873	0.472217	29.878	0.564662	36.5284	0.84186	54.8609	0.163447	10.5776	0.425677	28.1878	0.702546	46.1563	0.939353	61.9668
0.0832843	5.25511	0.0209775	1.14189	0.289415	17.5991	0.472613	28.2384	0.565356	34.4943	0.842276	51.7463	0.165392	10.2447	0.426485	26.6002	0.70302	43.5233	0.939515	58.3888
0.0881545	5.25356	0.0227751	1.1799	0.290538	16.7201	0.473034	26.7731	0.56609	32.6812	0.842717	48.9703	0.167042	9.99262	0.427339	25.1897	0.703522	41.1792	0.939688	55.2031
0.09302	5.25191	0.0246076	1.21613	0.291716	15.9336	0.473481	25.456	0.566862	31.0554	0.843181	46.4808	0.168372	9.80669	0.42824	23.9286	0.704052	39.079	0.939871	52.3487
0.0978804	5.25015	0.0264713	1.25065	0.292948	15.2261	0.473953	24.266	0.567672	29.5895	0.84367	44.2358	0.169364	9.6769	0.429186	22.7948	0.704609	37.1869	0.940065	49.7764
0.102735	5.24829	0.0283634	1.28354	0.294234	14.5865	0.474453	23.1855	0.568521	28.2612	0.844183	42.2011	0.170004	9.59674	0.430177	21.7701	0.705194	35.4734	0.94027	47.4466
0.107585	5.24631	0.0302807	1.31487	0.295572	14.0059	0.474979	22.2005	0.569407	27.0524	0.84472	40.3486	0.170933	9.48527	0.431213	20.84	0.705807	33.9147	0.940486	45.3265
0.112428	5.24423	0.0322208	1.34471	0.296961	13.4768	0.475533	21.2989	0.570331	25.9477	0.845281	38.6552	0.171954	9.36891	0.432294	19.992	0.706446	32.4909	0.940713	43.3892
0.117265	5.24202	0.0341811	1.37313	0.2984	12.9927	0.476116	20.4707	0.571293	24.9345	0.845866	37.1011	0.173359	9.21818	0.43342	19.2161	0.707113	31.1853	0.940952	41.6119
0.122094	5.23969	0.0361597	1.40021	0.299888	12.5484	0.476726	19.7075	0.572292	24.0021	0.846474	35.6702	0.175164	9.03908	0.434589	18.5036	0.707807	29.9838	0.941201	39.9759
0.126917	5.23723	0.0381546	1.42601	0.301424	12.1395	0.477366	19.0021	0.573327	23.1413	0.847107	34.3483	0.177387	8.83813	0.435801	17.8472	0.708528	28.8747	0.941463	38.4648
0.131731	5.23465	0.0401639	1.45059	0.303007	11.7619	0.478035	18.3482	0.574399	22.3443	0.847763	33.1235	0.180048	8.62194	0.437056	17.2408	0.709276	27.8479	0.941736	37.0651
0.136537	5.23193	0.042186	1.47403	0.304636	11.4124	0.478735	17.7407	0.575507	21.6044	0.848443	31.9857	0.183169	8.39677	0.438354	16.679	0.710051	26.8945	0.94202	35.7648
0.141334	5.22907	0.0442196	1.49637	0.30631	11.0881	0.479465	17.1748	0.576651	20.9158	0.849147	30.926	0.186359	8.19305	0.439694	16.1572	0.710852	26.007	0.942317	34.5538
0.146123	5.22607	0.046	1.51499	0.308027	10.7864	0.480227	16.6465	0.577831	20.2734	0.849874	29.9367	0.189612	8.00807	0.441076	15.6714	0.71168	25.1791	0.942626	33.4233
0.150901	5.22292	0.0475233	1.53028	0.309559	10.5404	0.481021	16.1523	0.579045	19.673	0.850625	29.011	0.192927	7.83956	0.442499	15.2182	0.712535	24.4048	0.942947	32.3654
0.155668	5.21962	0.0487864	1.54252	0.31089	10.342	0.481847	15.6892	0.580295	19.1105	0.851399	28.1431	0.196298	7.68559	0.443962	14.7945	0.713415	23.6794	0.943281	31.3736
0.160425	5.21615	0.0497871	1.55196	0.312007	10.1853	0.482706	15.2544	0.581579	18.5826	0.852197	27.3279	0.199723	7.54448	0.445466	14.3976	0.714323	22.9983	0.943627	30.4418
0.165169	5.21252	0.0505241	1.55877	0.312902	10.0658	0.483599	14.8456	0.582897	18.0863	0.853018	26.5606	0.203199	7.41484	0.447009	14.0251	0.715256	22.3577	0.943986	29.5647
0.169902	5.20871	0.0509962	1.56306	0.313566	9.98028	0.484527	14.4605	0.58425	17.6189	0.853862	25.8374	0.206724	7.29541	0.448592	13.675	0.716215	21.7541	0.944358	28.7378
0.174621	5.20472	0.0516755	1.56916	0.313993	9.9266	0.48549	14.0972	0.585635	17.1781	0.854729	25.1544	0.210293	7.18514	0.450213	13.3454	0.7172	21.1845	0.944743	27.9569
0.179326	5.20054	0.0524147	1.57568	0.314611	9.85081	0.486488	13.7541	0.587054	16.7616	0.855619	24.5086	0.213906	7.08309	0.451873	13.0346	0.718211	20.6462	0.945141	27.2182
0.184016	5.19616	0.0534212	1.58439	0.315288	9.7702	0.487522	13.4296	0.588506	16.3676	0.856532	23.897	0.217559	6.98845	0.453571	12.7412	0.719247	20.1366	0.945552	26.5185
0.18869	5.19157	0.054696	1.59512	0.316216	9.66345	0.488594	13.1223	0.58999	15.9945	0.857468	23.317	0.221251	6.90052	0.455305	12.4637	0.720309	19.6537	0.945977	25.8549
0.193348	5.18677	0.0562404	1.60771	0.317403	9.53299	0.489702	12.831	0.591507	15.6405	0.858427	22.7663	0.224978	6.81864	0.457077	12.201	0.721396	19.1954	0.946415	25.2245
0.197989	5.18174	0.0580554	1.62195	0.318858	9.38166	0.49085	12.5546	0.593056	15.3045	0.859408	22.2427	0.228741	6.74228	0.458885	11.952	0.722508	18.7599	0.946867	24.6251
0.20261	5.17647	0.0601421	1.63762	0.32059	9.21256	0.492035	12.292	0.594636	14.9849	0.860412	21.7444	0.232535	6.67093	0.460728	11.7158	0.723645	18.3456	0.947333	24.0543
0.207212	5.17096	0.0622326	1.65262	0.322612	9.02894	0.493261	12.0423	0.596247	14.6809	0.861439	21.2695	0.236361	6.60416	0.462607	11.4913	0.724807	17.9511	0.947813	23.5103
0.211793	5.16519	0.0643263	1.66697	0.324671	8.85563	0.494526	11.8047	0.597889	14.3912	0.862488	20.8165	0.240215	6.54156	0.464521	11.2778	0.725993	17.5749	0.948307	22.9913
0.216352	5.15915	0.0664227	1.68072	0.326764	8.69185	0.495832	11.5784	0.599562	14.1149	0.863559	20.384	0.244097	6.4828	0.466469	11.0746	0.727204	17.2159	0.948816	22.4954
0.220888	5.15282	0.0685215	1.69389	0.328892	8.53689	0.497179	11.3626	0.601265	13.8512	0.864652	19.9706	0.248005	6.42755	0.46845	10.881	0.72844	16.873	0.949339	22.0214
0.225399	5.14619	0.0706223	1.70652	0.331055	8.39011	0.498568	11.1568	0.602998	13.5992	0.865768	19.5752	0.251938	6.37552	0.470204	10.7195	0.7297	16.5451	0.949876	21.5677
0.229883	5.13926	0.0727248	1.71863	0.33325	8.25093	0.499999	10.9603	0.604761	13.3583	0.866905	19.1965	0.255894	6.32648	0.471719	10.587	0.730983	16.2314	0.950428	21.1332
0.23434	5.13199	0.0748287	1.73026	0.335479	8.11884	0.501281	10.7963	0.606553	13.1277	0.868064	18.8336	0.259872	6.28017	0.472985	10.4808	0.732291	15.9308	0.950995	20.7166
0.238767	5.12439	0.0769337	1.74141	0.337741	7.99335	0.5024	10.6614	0.608374	12.9068	0.869246	18.4856	0.263871	6.23639	0.473995	10.3989	0.733622	15.6427	0.951577	20.317
0.243163	5.11642	0.0790397	1.75213	0.340036	7.87403	0.503343	10.5533	0.610223	12.6951	0.870448	18.1515	0.26789	6.19496	0.474742	10.3398	0.734977	15.3663	0.952175	19.9332
0.247526	5.10809	0.0811463	1.76243	0.342363	7.76049	0.504101	10.4698	0.612101	12.4921	0.871673	17.8306	0.271927	6.15569	0.475222	10.3025	0.736356	15.101	0.952787	19.5644
0.251854	5.09936	0.0832535	1.77233	0.344723	7.65238	0.504664	10.4096	0.614007	12.2971	0.872919	17.5221	0.275982	6.11844	0.475916	10.2495	0.737757	14.8461	0.953415	19.2098
0.256145	5.09023	0.0853612	1.78186	0.347116	7.54936	0.505028	10.3715	0.615941	12.1099	0.874186	17.2254	0.280054	6.08305	0.476673	10.1928	0.739182	14.601	0.954059	18.8686
0.260398	5.08067	0.0874691	1.79103	0.349542	7.45113	0.505555	10.3175	0.617902	11.9299	0.875475	16.9398	0.284141	6.0494	0.47771	10.117	0.740629	14.3652	0.954718	18.54
0.264609	5.07067	0.0895771	1.79986	0.352001	7.35743	0.506133	10.2596	0.61989	11.7568	0.876784	16.6647	0.288242	6.01737	0.479032	10.0235	0.742099	14.1382	0.955393	18.2234
0.268778	5.0602	0.0916851	1.80836	0.354494	7.26799	0.506929	10.1823	0.621905	11.5902	0.878115	16.3996	0.292358	5.98684	0.480645	9.91372	0.743592	13.9196	0.956084	17.9181
0.272901	5.04927	0.0937932	1.81656	0.357021	7.18261	0.50795	10.0869	0.623947	11.4298	0.879467	16.144	0.296486	5.95771	0.482559	9.78927	0.745107	13.7089	0.956791	17.6237
0.276977	5.03784	0.0959011	1.82446	0.359584	7.10106	0.509208	9.97479	0.626015	11.2753	0.880839	15.8973	0.300627	5.92989	0.484784	9.65197	0.746644	13.5056	0.957514	17.3394
0.281004	5.0259	0.0980088	1.83208	0.362182	7.02315	0.510716	9.8477	0.628109	11.1263	0.882232	15.6591	0.304778	5.9033	0.487038	9.52025	0.748203	13.3095	0.958254	17.0649
0.284978	5.01343	0.100116	1.83944	0.364817	6.94871	0.512488	9.70748	0.629954	11.0008	0.883646	15.429	0.308941	5.87785	0.48932	9.39379	0.749784	13.1202	0.95901	16.7996
0.288898	5.00043	0.102223	1.84655	0.36749	6.87757	0.514307	9.57299	0.631543	10.8968	0.88508	15.2067	0.313113	5.85347	0.491632	9.27231	0.751387	12.9373	0.959783	16.5432
0.292761	4.98688	0.10433	1.85341	0.370202	6.80959	0.516172	9.44393	0.632867	10.8129	0.886535	14.9917	0.317294	5.83009	0.493971	9.15555	0.753011	12.7606	0.960573	16.2951
0.296566	4.97277	0.106436	1.86004	0.372955	6.74463	0.518084	9.32003	0.633921	10.7478	0.888009	14.7837	0.321484	5.80765	0.496338	9.04326	0.754657	12.5897	0.961379	16.055
0.30031	4.95809	0.108542	1.86646	0.375748	6.68256	0.520042	9.20105	0.634699	10.7006	0.889504	14.5824	0.325682	5.78609	0.498732	8.9352	0.756323	12.4244	0.962203	15.8226
0.303991	4.94283	0.110648	1.87266	0.378585	6.62326	0.522048	9.08674	0.635199	10.6707	0.891019	14.3875	0.329886	5.76536	0.501153	8.83116	0.758011	12.2644	0.963044	15.5974
0.307608	4.927	0.112753	1.87866	0.381466	6.56663	0.5241	8.97688	0.63592	10.6282	0.892554	14.1987	0.334098	5.74541	0.503599	8.73093	0.759719	12.1095	0.963902	15.3793
0.311158	4.9106	0.114858	1.88447	0.384393	6.51256	0.526199	8.87127	0.636707	10.5825	0.894108	14.0157	0.338315	5.72618	0.506072	8.63433	0.761448	11.9594	0.964777	15.1678
0.314642	4.89361	0.116962	1.8901	0.387366	6.46095	0.528346	8.76971	0.637781	10.5212	0.895682	13.8382	0.342537	5.70764	0.50857	8.54117	0.763197	11.814	0.96567	14.9626
0.318056	4.87606	0.119065	1.89556	0.390388	6.41171	0.530539	8.67201	0.639149	10.4451	0.897276	13.6661	0.346764	5.68974	0.511093	8.4513	0.764967	11.6731	0.966581	14.7636
0.321401	4.85796	0.121168	1.90084	0.393459	6.36476	0.53278	8.57799	0.640815	10.3552	0.898889	13.4991	0.350995	5.67245	0.51364	8.36456	0.766757	11.5364	0.96751	14.5704
0.324259	4.84173	0.123271	1.90597	0.396581	6.32001	0.535067	8.48751	0.642786	10.2526	0.900521	13.337	0.35523	5.65573	0.516212	8.28079	0.768566	11.4037	0.968456	14.3829
0.326653	4.82758	0.125373	1.91094	0.399755	6.27738	0.537402	8.40038	0.645071	10.1384	0.902172	13.1796	0.359467	5.63954	0.518807	8.19987	0.770159	11.2914	0.969421	14.2007
0.328603	4.81567	0.127474	1.91576	0.402981	6.23679	0.539782	8.31648	0.647379	10.0278	0.903843	13.0267	0.363707	5.62385	0.521425	8.12166	0.771529	11.1978	0.970404	14.0237
0.330125	4.80611	0.129575	1.92045	0.40626	6.19817	0.542209	8.23565	0.64971	9.92073	0.905532	12.8782	0.367949	5.60865	0.524067	8.04604	0.772669	11.122	0.971406	13.8517
0.331235	4.79901	0.131675	1.925	0.409593	6.16143	0.544682	8.15777	0.652065	9.81702	0.90724	12.7337	0.372192	5.59388	0.526731	7.97289	0.773576	11.063	0.972426	13.6844
0.33194	4.79443	0.133775	1.92942	0.412979	6.12651	0.547201	8.0827	0.654442	9.71652	0.908966	12.5933	0.376437	5.57954	0.529417	7.90211	0.774246	11.0201	0.973464	13.5218
0.332947	4.78781	0.135875	1.93371	0.41642	6.09333	0.549765	8.01034	0.656842	9.61909	0.910711	12.4567	0.380681	5.56559	0.532125	7.8336	0.774676	10.9929	0.974521	13.3635
0.334033	4.78056	0.137974	1.93789	0.419914	6.06182	0.552374	7.94056	0.659265	9.52461	0.912475	12.3237	0.384926	5.55202	0.534855	7.76725	0.775296	10.9541	0.975598	13.2095
0.335496	4.77059	0.140072	1.94195	0.423462	6.0319	0.555028	7.87325	0.661709	9.43296	0.914257	12.1943	0.389169	5.5388	0.537606	7.70298	0.775972	10.9124	0.976693	13.0596
0.337322	4.75784	0.14217	1.9459	0.427061	6.0035	0.557725	7.80832	0.664176	9.34401	0.916056	12.0684	0.393412	5.5259	0.540378	7.64069	0.776895	10.8563	0.977808	12.9136
0.339496	4.74221	0.144267	1.94974	0.430713	5.97656	0.560466	7.74566	0.666664	9.25767	0.917874	11.9457	0.397653	5.51332	0.54317	7.58031	0.77807	10.7864	0.978942	12.7714
0.341997	4.72358	0.146364	1.95348	0.434415	5.95099	0.56325	7.68518	0.669173	9.17382	0.91971	11.8262	0.401891	5.50103	0.545983	7.52176	0.779499	10.7035	0.980095	12.6329
0.344805	4.70185	0.148461	1.95713	0.438166	5.92673	0.566077	7.62679	0.671704	9.09238	0.921563	11.7097	0.406127	5.48901	0.548815	7.46497	0.781189	10.6085	0.981268	12.498
0.347546	4.67977	0.150557	1.96068	0.441964	5.90371	0.568945	7.57041	0.674255	9.01325	0.923193	11.6107	0.41036	5.47725	0.551668	7.40987	0.783146	10.5022	0.98246	12.3664
0.350222	4.65738	0.152652	1.96413	0.445809	5.88186	0.571855	7.51595	0.676828	8.93634	0.924592	11.5279	0.414589	5.46573	0.55454	7.35638	0.785121	10.3987	0.983673	12.2381
0.352835	4.63471	0.154747	1.9675	0.449698	5.86112	0.574805	7.46334	0.679421	8.86157	0.925757	11.4607	0.418814	5.45443	0.557431	7.30445	0.787114	10.298	0.984905	12.1131
0.355387	4.61179	0.156842	1.97079	0.453629	5.84143	0.577796	7.41249	0.682034	8.78885	0.926682	11.4082	0.423035	5.44335	0.560341	7.25402	0.789125	10.2	0.986158	11.9911
0.35788	4.58866	0.158936	1.974	0.457601	5.82272	0.580825	7.36335	0.684668	8.71812	0.927365	11.37	0.42725	5.43246	0.563269	7.20503	0.791155	10.1046	0.987431	11.8721
0.360315	4.56535	0.16103	1.97712	0.461612	5.80494	0.583894	7.31584	0.687321	8.64929	0.927804	11.3458	0.43146	5.42176	0.566217	7.15743	0.793201	10.0116	0.988556	11.7707
0.362695	4.54189	0.163124	1.98017	0.46566	5.78802	0.587	7.2699	0.689995	8.58231	0.928435	11.3112	0.435663	5.41122	0.569182	7.11117	0.795266	9.92096	0.989528	11.686
0.365022	4.51831	0.165217	1.98315	0.469742	5.77192	0.590144	7.22546	0.692688	8.51711	0.929124	11.2739	0.43986	5.40085	0.572166	7.06619	0.797348	9.83265	0.99034	11.617
0.367299	4.49465	0.167309	1.98606	0.473857	5.75658	0.593324	7.18246	0.6954	8.45362	0.930064	11.2236	0.44405	5.39063	0.575167	7.02245	0.799447	9.74655	0.990988	11.5632
0.369526	4.47093	0.169402	1.9889	0.478003	5.74195	0.596541	7.14086	0.698132	8.39178	0.931259	11.161	0.448233	5.38055	0.578186	6.97992	0.801563	9.66259	0.991468	11.5241
0.371706	4.44718	0.171494	1.99168	0.482177	5.72799	0.599792	7.10059	0.700883	8.33153	0.932713	11.0864	0.452407	5.37059	0.581223	6.93854	0.803696	9.5807	0.991776	11.4992
0.373842	4.42343	0.173585	1.99439	0.486379	5.71466	0.603078	7.0616	0.703652	8.27283	0.934429	11.0007	0.456572	5.36075	0.584277	6.89827	0.805846	9.50081	0.992221	11.4637
0.375936	4.39969	0.175676	1.99704	0.490606	5.7019	0.606398	7.02385	0.706441	8.21563	0.936415	10.9044	0.460729	5.35101	0.587349	6.85908	0.808012	9.42285	0.992707	11.4254
0.377989	4.376	0.177767	1.99963	0.494856	5.68969	0.609751	6.98728	0.709248	8.15986	0.938417	10.8105	0.464876	5.34138	0.590437	6.82094	0.810195	9.34675	0.993372	11.3738
0.380003	4.35238	0.179858	2.00216	0.499128	5.67799	0.613136	6.95185	0.712073	8.10548	0.940436	10.7187	0.469012	5.33183	0.593543	6.7838	0.812394	9.27246	0.994221	11.3094
0.381981	4.32883	0.181948	2.00464	0.50342	5.66675	0.616553	6.91751	0.714917	8.05245	0.942472	10.629	0.473138	5.32236	0.596666	6.74763	0.81461	9.19991	0.995258	11.2328
0.383923	4.30539	0.184038	2.00706	0.507731	5.65596	0.620001	6.88423	0.717779	8.00073	0.944523	10.5414	0.477253	5.31297	0.599805	6.71241	0.816841	9.12905	0.996489	11.1445
0.385833	4.28207	0.186127	2.00943	0.512059	5.64557	0.623478	6.85197	0.720659	7.95026	0.946591	10.4557	0.481356	5.30363	0.602961	6.6781	0.819089	9.05983	0.997922	11.0455
0.387711	4.25888	0.188217	2.01175	0.516402	5.63557	0.626986	6.82068	0.723557	7.90102	0.948675	10.372	0.485447	5.29436	0.606134	6.64468	0.821352	8.9922	0.999376	10.9487
0.38956	4.23583	0.190306	2.01402	0.520759	5.62592	0.630523	6.79033	0.726473	7.85297	0.950774	10.2902	0.489525	5.28514	0.609323	6.6121	0.823631	8.9261	1.00085	10.854
0.39138	4.21295	0.192394	2.01625	0.52513	5.6166	0.634087	6.76088	0.729406	7.80606	0.95289	10.2101	0.49359	5.27595	0.612529	6.58036	0.825925	8.86149		
0.393174	4.19023	0.194483	2.01843	0.529511	5.60758	0.637679	6.7323	0.732357	7.76026	0.955021	10.1318	0.497642	5.2668	0.615751	6.54943	0.828235	8.79832		
0.394942	4.16769	0.196571	2.02056	0.533904	5.59886	0.641298	6.70456	0.735325	7.71554	0.957167	10.0552	0.501679	5.25768	0.61899	6.51927	0.83056	8.73655		
0.396687	4.14534	0.198659	2.02265	0.538305	5.59039	0.644944	6.67763	0.73831	7.67186	0.959329	9.9802	0.505701	5.24859	0.622245	6.48987	0.8329	8.67614		
0.398409	4.12319	0.200747	2.0247	0.542715	5.58218	0.648614	6.65147	0.741313	7.6292	0.961507	9.90682	0.509707	5.23951	0.625517	6.46121	0.835255	8.61704		
0.400109	4.10125	0.202834	2.02671	0.547132	5.57419	0.65231	6.62606	0.744333	7.58753	0.963699	9.835	0.513698	5.23043	0.628805	6.43326	0.837626	8.55922		
0.401789	4.07951	0.204921	2.02868	0.551555	5.56642	0.65603	6.60137	0.74737	7.54681	0.965906	9.76468	0.517672	5.22137	0.632109	6.406	0.840011	8.50264		
0.40345	4.05799	0.207008	2.03061	0.555984	5.55884	0.659774	6.57738	0.750424	7.50702	0.968129	9.69582	0.52163	5.2123	0.63543	6.37942	0.84241	8.44727		
0.405093	4.03669	0.209095	2.0325	0.560416	5.55145	0.663541	6.55406	0.753494	7.46814	0.970366	9.62839	0.52557	5.20323	0.638767	6.3535	0.844825	8.39306		
0.40672	4.01561	0.211181	2.03436	0.564853	5.54422	0.66733	6.53138	0.756582	7.43012	0.972618	9.56233	0.529492	5.19415	0.642121	6.32821	0.847253	8.34		
0.40833	3.99476	0.213268	2.03618	0.569291	5.53716	0.671142	6.50932	0.759686	7.39297	0.974884	9.49761	0.533395	5.18505	0.645491	6.30354	0.849696	8.28804		
0.409925	3.97414	0.215354	2.03797	0.573732	5.53023	0.674974	6.48787	0.762807	7.35664	0.977165	9.4342	0.53728	5.17593	0.648877	6.27947	0.852154	8.23715		
0.411506	3.95375	0.217439	2.03972	0.578174	5.52345	0.678827	6.46699	0.765945	7.32111	0.97946	9.37205	0.541145	5.16679	0.65228	6.256	0.854625	8.1873		
0.413073	3.9336	0.219525	2.04145	0.582617	5.51678	0.682701	6.44667	0.769099	7.28637	0.981769	9.31114	0.54499	5.15762	0.655699	6.23309	0.857111	8.13848		
0.414628	3.91368	0.22161	2.04314	0.587059	5.51023	0.686594	6.42689	0.77227	7.2524	0.984092	9.25143	0.548814	5.14842	0.659134	6.21074	0.859611	8.09064		
0.416171	3.894	0.223696	2.0448	0.5915	5.50379	0.690506	6.40763	0.775457	7.21917	0.986429	9.19288	0.552618	5.13919	0.662586	6.18894	0.862125	8.04376		
0.417702	3.87455	0.225781	2.04643	0.59594	5.49744	0.694437	6.38887	0.778661	7.18666	0.988781	9.13547	0.5564	5.12991	0.666054	6.16766	0.864652	7.99782		
0.419224	3.85535	0.227866	2.04803	0.600378	5.49118	0.698386	6.3706	0.781881	7.15485	0.991146	9.07917	0.56016	5.12059	0.669539	6.14689	0.867194	7.95279		
0.420735	3.83638	0.22995	2.0496	0.604813	5.485	0.702353	6.35279	0.785118	7.12374	0.993524	9.02394	0.563898	5.11123	0.67304	6.12663	0.869749	7.90864		
0.422238	3.81764	0.232035	2.05115	0.609244	5.4789	0.706336	6.33543	0.788371	7.09329	0.995916	8.96976	0.567613	5.10182	0.676558	6.10686	0.872317	7.86537		
0.423731	3.79914	0.234119	2.05267	0.613672	5.47287	0.710336	6.3185	0.791641	7.0635	0.998321	8.9166	0.571306	5.09236	0.680092	6.08756	0.874899	7.82293		
0.425217	3.78088	0.236203	2.05416	0.618096	5.46689	0.714352	6.302	0.794927	7.03434	1.00074	8.86444	0.574974	5.08285	0.683642	6.06873	0.877495	7.78132		
0.426695	3.76285	0.238287	2.05563	0.622515	5.46098	0.718384	6.2859	0.79823	7.00581			0.578619	5.07329	0.687209	6.05035	0.880104	7.7405		
0.428166	3.74505	0.240371	2.05707	0.626928	5.45511	0.72243	6.27019	0.801549	6.97788			0.582239	5.06367	0.690792	6.03242	0.882727	7.70047		
0.429631	3.72749	0.242455	2.05849	0.631336	5.44928	0.726491	6.25485	0.804885	6.95055			0.585835	5.05399	0.694391	6.01491	0.885363	7.66119		
0.431089	3.71015	0.244538	2.05989	0.635738	5.4435	0.730566	6.23989	0.808238	6.92379			0.589406	5.04425	0.698007	5.99782	0.888012	7.62266		
0.432542	3.69304	0.246622	2.06126	0.640133	5.43775	0.734655	6.22527	0.811607	6.8976			0.592952	5.03445	0.701638	5.98114	0.890674	7.58485		
0.433989	3.67616	0.248705	2.06261	0.64452	5.43203	0.738757	6.21099	0.814992	6.87196			0.596472	5.02459	0.705286	5.96486	0.893349	7.54775		
0.435432	3.6595	0.250788	2.06394	0.648901	5.42634	0.742871	6.19704	0.818395	6.84686			0.599967	5.01467	0.708949	5.94896	0.896038	7.51134		
0.436871	3.64306	0.252871	2.06524	0.653273	5.42067	0.746998	6.18341	0.821814	6.82229			0.603435	5.00469	0.712628	5.93345	0.898739	7.4756		
0.438305	3.62684	0.254954	2.06653	0.657638	5.41502	0.751137	6.17008	0.82525	6.79823			0.606877	4.99465	0.716323	5.9183	0.901454	7.44051		
0.439735	3.61084	0.257036	2.06779	0.661993	5.40939	0.755287	6.15705	0.828703	6.77468			0.610293	4.98454	0.720033	5.90351	0.904181	7.40607		
0.441162	3.59505	0.259119	2.06904	0.66634	5.40377	0.759447	6.1443	0.832174	6.75163			0.613683	4.97437	0.723758	5.88907	0.906921	7.37226		
0.442586	3.57948	0.261201	2.07027	0.670677	5.39815	0.763618	6.13182	0.835661	6.72905			0.617046	4.96414	0.727499	5.87497	0.909674	7.33905		
0.444007	3.56412	0.263284	2.07147	0.675005	5.39255	0.767799	6.11961	0.839165	6.70696			0.620381	4.95384	0.731255	5.8612	0.91244	7.30645		
0.445426	3.54896	0.265366	2.07266	0.679322	5.38694	0.77199	6.10766	0.842687	6.68532			0.62369	4.94349	0.735025	5.84775	0.915219	7.27443		
0.446842	3.53401	0.267448	2.07383	0.683629	5.38134	0.77619	6.09595	0.846226	6.66414			0.626973	4.93307	0.738809	5.83461	0.918011	7.24298		
0.448256	3.51926	0.26953	2.07499	0.687926	5.37573	0.780398	6.08448	0.849783	6.6434			0.630228	4.9226	0.742608	5.82177	0.920815	7.21209		
0.449669	3.50472	0.271612	2.07612	0.692211	5.37012	0.784615	6.07324	0.853357	6.62311			0.633455	4.91206	0.746421	5.80923	0.923632	7.18174		
0.451079	3.49037	0.273693	2.07724	0.696485	5.36451	0.788839	6.06222	0.856949	6.60324			0.636656	4.90147	0.750248	5.79698	0.926461	7.15193		
0.452489	3.47621	0.275775	2.07834	0.700748	5.35888	0.79307	6.05141	0.860559	6.58378			0.63983	4.89082	0.754088	5.78501	0.929304	7.12264		
0.453897	3.46225	0.277856	2.07943	0.704999	5.35325	0.797309	6.04081	0.864186	6.56475			0.642977	4.88012	0.757941	5.7733	0.932158	7.09387		
0.455305	3.44848	0.279938	2.0805	0.709237	5.3476	0.801554	6.0304	0.867832	6.54611			0.646097	4.86937	0.761808	5.76186	0.935025	7.06559		
0.456712	3.43489	0.282019	2.08155	0.713463	5.34194	0.805805	6.02018	0.871497	6.52787			0.64919	4.85856	0.765686	5.75067	0.937905	7.0378		
0.458118	3.4215	0.2841	2.08259	0.717676	5.33626	0.810062	6.01015	0.875179	6.51002			0.652256	4.84771	0.769577	5.73973	0.940797	7.01049		
0.459524	3.40828	0.286181	2.08362	0.721877	5.33056	0.814324	6.0003	0.87888	6.49256			0.655296	4.83681	0.77348	5.72903	0.943702	6.98365		
0.460929	3.39524	0.288262	2.08463	0.726064	5.32484	0.818591	5.99061	0.8826	6.47547			0.658309	4.82586	0.777394	5.71856	0.946619	6.95727		
0.462335	3.38238	0.290343	2.08562	0.730238	5.31911	0.822862	5.98109	0.886338	6.45874			0.661295	4.81487	0.781319	5.70831	0.949549	6.93134		
0.46374	3.3697	0.292424	2.08661	0.734398	5.31335	0.827138	5.97172	0.890095	6.44238			0.664256	4.80384	0.785255	5.69828	0.95249	6.90584		
0.465146	3.35718	0.294505	2.08757	0.738544	5.30757	0.831417	5.96251	0.893871	6.42638			0.66719	4.79276	0.789202	5.68846	0.955444	6.88078		
0.466553	3.34484	0.296585	2.08853	0.742675	5.30177	0.835699	5.95344	0.897667	6.41073			0.670098	4.78165	0.793158	5.67884	0.958411	6.85614		
0.467959	3.33267	0.298666	2.08947	0.746793	5.29594	0.839984	5.94451	0.901481	6.39541			0.672981	4.77051	0.797124	5.66941	0.96139	6.83192		
0.469367	3.32066	0.300746	2.0904	0.750896	5.29008	0.844271	5.93571	0.905315	6.38044			0.675838	4.75933	0.8011	5.66018	0.964381	6.80809		
0.470775	3.30881	0.302827	2.09132	0.754984	5.2842	0.848561	5.92705	0.909169	6.3658			0.67867	4.74812	0.805084	5.65113	0.967384	6.78467		
0.472184	3.29712	0.304907	2.09222	0.759057	5.27828	0.852852	5.91851	0.913042	6.35148			0.681477	4.73688	0.809077	5.64226	0.970399	6.76163		
0.473594	3.28559	0.306987	2.09311	0.763115	5.27234	0.857145	5.91008	0.916935	6.33749			0.684259	4.72561	0.813077	5.63356	0.973426	6.73898		
0.475005	3.27422	0.309067	2.09399	0.767158	5.26637	0.861439	5.90178	0.920847	6.32381			0.687016	4.71432	0.817086	5.62502	0.976466	6.7167		
0.476417	3.263	0.311147	2.09486	0.771185	5.26037	0.865733	5.89358	0.92478	6.31044			0.68975	4.70301	0.821102	5.61664	0.979517	6.69478		
0.47783	3.25192	0.313227	2.09572	0.775196	5.25434	0.870028	5.88549	0.928732	6.29737			0.692459	4.69167	0.825124	5.60841	0.982581	6.67323		
0.479245	3.241	0.315307	2.09657	0.779191	5.24828	0.874323	5.87749	0.932704	6.2846			0.695144	4.68032	0.829153	5.60033	0.985656	6.65202		
0.480661	3.23023	0.317387	2.0974	0.783171	5.24219	0.878617	5.8696	0.936697	6.27213			0.697806	4.66896	0.833189	5.59239	0.988744	6.63117		
0.482079	3.2196	0.319467	2.09823	0.787134	5.23606	0.882911	5.8618	0.940709	6.25994			0.700445	4.65758	0.837229	5.58459	0.991843	6.61065		
0.483498	3.20911	0.321546	2.09904	0.791081	5.2299	0.887204	5.85409	0.944742	6.24804			0.70306	4.64619	0.841275	5.57692	0.994955	6.59046		
0.484919	3.19876	0.323626	2.09985	0.795011	5.22371	0.891496	5.84647	0.948794	6.23641			0.705653	4.63479	0.845326	5.56938	0.998078	6.5706		
0.486342	3.18854	0.325706	2.10064	0.798925	5.21748	0.895787	5.83893	0.952867	6.22506			0.708224	4.62338	0.849382	5.56195	1.00121	6.55105		
0.487766	3.17847	0.327785	2.10143	0.802822	5.21123	0.900076	5.83148	0.95696	6.21398			0.710773	4.61196	0.853441	5.55465				
0.489193	3.16852	0.329864	2.1022	0.806702	5.20493	0.904363	5.8241	0.961073	6.20315			0.7133	4.60055	0.857505	5.54746				
0.490621	3.15871	0.331944	2.10296	0.810565	5.19861	0.908648	5.81679	0.965206	6.19259			0.715805	4.58913	0.861571	5.54037				
0.492051	3.14903	0.334023	2.10372	0.814411	5.19225	0.912931	5.80956	0.969359	6.18228			0.718289	4.57771	0.865641	5.53339				
0.493483	3.13948	0.336102	2.10447	0.81824	5.18586	0.917212	5.8024	0.973531	6.17222			0.720752	4.5663	0.869713	5.5265				
0.494917	3.13005	0.338181	2.1052	0.822051	5.17943	0.92149	5.7953	0.977724	6.1624			0.723195	4.55489	0.873787	5.51971				
0.496353	3.12074	0.34026	2.10593	0.825846	5.17297	0.925765	5.78827	0.981936	6.15281			0.725618	4.54348	0.877863	5.51301				
0.497792	3.11156	0.342339	2.10665	0.829623	5.16647	0.930038	5.78131	0.986168	6.14346			0.72802	4.53209	0.88194	5.5064				
0.499232	3.1025	0.344418	2.10736	0.833382	5.15995	0.934307	5.7744	0.990419	6.13434			0.730403	4.5207	0.886019	5.49987				
0.500675	3.09355	0.346497	2.10806	0.837124	5.15339	0.938573	5.76756	0.994689	6.12544			0.732766	4.50933	0.890098	5.49342				
0.50212	3.08472	0.348576	2.10876	0.840848	5.14679	0.942836	5.76078	0.998978	6.11676			0.735111	4.49796	0.894177	5.48705				
0.503567	3.07601	0.350655	2.10944	0.844554	5.14016	0.947096	5.75405	1.00329	6.10829			0.737437	4.48662	0.898257	5.48075				
0.505017	3.0674	0.352734	2.11012	0.848243	5.13351	0.951353	5.74738					0.739744	4.47529	0.902336	5.47451				
0.506469	3.05891	0.354812	2.11079	0.851914	5.12681	0.955606	5.74076					0.742033	4.46397	0.906414	5.46835				
0.507924	3.05053	0.356891	2.11146	0.855567	5.12009	0.959856	5.73419					0.744304	4.45268	0.910492	5.46224				
0.50938	3.04226	0.35897	2.11211	0.859202	5.11333	0.964102	5.72768					0.746558	4.44141	0.914568	5.4562				
0.51084	3.03409	0.361048	2.11276	0.862819	5.10655	0.968344	5.72122					0.748794	4.43015	0.918642	5.45021				
0.512301	3.02602	0.363127	2.1134	0.866418	5.09973	0.972583	5.7148					0.751013	4.41893	0.922714	5.44428				
0.513765	3.01806	0.365205	2.11403	0.87	5.09288	0.976819	5.70844					0.753216	4.40772	0.926784	5.4384				
0.515232	3.0102	0.367283	2.11466	0.873564	5.086	0.981051	5.70212					0.755402	4.39655	0.930852	5.43256				
0.516701	3.00244	0.369362	2.11528	0.877109	5.07909	0.98528	5.69586					0.757572	4.3854	0.934916	5.42677				
0.518173	2.99478	0.37144	2.11589	0.880637	5.07216	0.989505	5.68964					0.759727	4.37428	0.938977	5.42103				
0.519647	2.98722	0.373518	2.11649	0.884147	5.06519	0.993726	5.68346					0.761866	4.36319	0.943034	5.41532				
0.521124	2.97975	0.375596	2.11709	0.887639	5.0582	0.997944	5.67733					0.763989	4.35212	0.947088	5.40966				
0.522603	2.97237	0.377674	2.11769	0.891113	5.05118	1.00216	5.67125					0.766098	4.3411	0.951137	5.40403				
0.524085	2.96509	0.379752	2.11827	0.894569	5.04413							0.768191	4.3301	0.955182	5.39843				
0.52557	2.9579	0.381831	2.11885	0.898008	5.03706							0.770271	4.31914	0.959222	5.39287				
0.527057	2.95079	0.383908	2.11943	0.901429	5.02996							0.772336	4.30821	0.963257	5.38734				
0.528547	2.94378	0.385986	2.11999	0.904832	5.02283							0.774387	4.29732	0.967287	5.38183				
0.530039	2.93685	0.388064	2.12055	0.908217	5.01568							0.776425	4.28647	0.971311	5.37635				
0.531534	2.93001	0.390142	2.12111	0.911584	5.00851							0.778449	4.27565	0.97533	5.37089				
0.533032	2.92325	0.39222	2.12166	0.914934	5.00132							0.78046	4.26487	0.979342	5.36546				
0.534533	2.91658	0.394298	2.1222	0.918267	4.9941							0.782459	4.25413	0.983348	5.36005				
0.536036	2.90999	0.396376	2.12274	0.921582	4.98686							0.784444	4.24343	0.987347	5.35465				
0.537541	2.90347	0.398453	2.12327	0.924879	4.97959							0.786418	4.23277	0.991339	5.34928				
0.53905	2.89704	0.400531	2.1238	0.928159	4.97231							0.788379	4.22215	0.995325	5.34391				
0.54056	2.89069	0.402608	2.12432	0.931422	4.96501							0.790328	4.21158	0.999303	5.33857				
0.542074	2.88441	0.404686	2.12484	0.934667	4.95769							0.792266	4.20105	1.00327	5.33323				
0.54359	2.87821	0.406764	2.12535	0.937895	4.95034							0.794192	4.19056						
0.545109	2.87208	0.408841	2.12586	0.941106	4.94299							0.796107	4.18011						
0.546631	2.86603	0.410919	2.12636	0.9443	4.93561							0.798011	4.16971						
0.548155	2.86005	0.412996	2.12685	0.947477	4.92822							0.799904	4.15936						
0.549682	2.85415	0.415073	2.12734	0.950638	4.92081							0.801787	4.14905						
0.551212	2.84831	0.417151	2.12783	0.953781	4.91338							0.80366	4.13878						
0.552744	2.84254	0.419228	2.12831	0.956908	4.90594							0.805522	4.12856						
0.554279	2.83684	0.421305	2.12879	0.960017	4.89849							0.807375	4.11839						
0.555816	2.83121	0.423383	2.12926	0.963111	4.89102							0.809218	4.10827						
0.557356	2.82564	0.42546	2.12973	0.966188	4.88354							0.811052	4.09819						
0.558899	2.82015	0.427537	2.13019	0.969248	4.87604							0.812876	4.08817						
0.560445	2.81471	0.429614	2.13065	0.972292	4.86854							0.814691	4.07819						
0.561993	2.80934	0.431691	2.1311	0.97532	4.86102							0.816498	4.06826						
0.563543	2.80403	0.433768	2.13155	0.978332	4.85349							0.818296	4.05838						
0.565096	2.79879	0.435845	2.132	0.981327	4.84596							0.820085	4.04854						
0.566652	2.7936	0.437922	2.13244	0.984307	4.83841							0.821867	4.03876						
0.568211	2.78848	0.439999	2.13288	0.987271	4.83085							0.82364	4.02903						
0.569772	2.78341	0.442076	2.13331	0.990219	4.82329							0.825405	4.01934						
0.571335	2.7784	0.444153	2.13374	0.993151	4.81572							0.827163	4.00971						
0.572902	2.77345	0.44623	2.13416	0.996068	4.80814							0.828913	4.00013						
0.57447	2.76856	0.448307	2.13459	0.998969	4.80056							0.830655	3.99059						
0.576042	2.76372	0.450384	2.135	1.00186	4.79296							0.832391	3.98111						
0.577616	2.75894	0.45246	2.13542									0.834119	3.97168						
0.579192	2.75421	0.454537	2.13583									0.835841	3.9623						
0.580771	2.74954	0.456614	2.13623									0.837556	3.95297						
0.582352	2.74492	0.458691	2.13663									0.839264	3.94369						
0.583936	2.74035	0.460767	2.13703									0.840966	3.93447						
0.585523	2.73584	0.462844	2.13743									0.842662	3.92529						
0.587112	2.73137	0.464921	2.13782									0.844352	3.91617						
0.588703	2.72695	0.466997	2.13821									0.846036	3.90709						
0.590297	2.72259	0.469074	2.13859									0.847714	3.89807						
0.591894	2.71827	0.47115	2.13897									0.849387	3.8891						
0.593492	2.714	0.473227	2.13935									0.851054	3.88018						
0.595094	2.70978	0.475303	2.13973									0.852715	3.87131						
0.596697	2.7056	0.47738	2.1401									0.854372	3.86249						
0.598303	2.70147	0.479456	2.14047									0.856023	3.85373						
0.599912	2.69738	0.481533	2.14083									0.857669	3.84501						
0.601523	2.69335	0.483609	2.14119									0.859311	3.83635						
0.603136	2.68935	0.485685	2.14155									0.860948	3.82773						
0.604752	2.6854	0.487762	2.14191									0.86258	3.81917						
0.60637	2.68149	0.489838	2.14226									0.864208	3.81066						
0.60799	2.67762	0.491914	2.14261									0.865832	3.8022						
0.609613	2.6738	0.493991	2.14296									0.867451	3.79378						
0.611238	2.67001	0.496067	2.1433									0.869066	3.78542						
0.612866	2.66627	0.498143	2.14365									0.870677	3.77711						
0.614495	2.66257	0.500219	2.14398									0.872285	3.76885						
0.616127	2.65891	0.502295	2.14432									0.873888	3.76064						
0.617761	2.65528	0.504371	2.14465									0.875488	3.75248						
0.619398	2.6517	0.506447	2.14498									0.877085	3.74437						
0.621037	2.64815	0.508524	2.14531									0.878677	3.73631						
0.622678	2.64464	0.5106	2.14563									0.880267	3.7283						
0.624321	2.64117	0.512676	2.14596									0.881853	3.72034						
0.625967	2.63774	0.514752	2.14628									0.883436	3.71242						
0.627614	2.63434	0.516828	2.14659									0.885016	3.70456						
0.629264	2.63097	0.518904	2.14691									0.886593	3.69674						
0.630916	2.62764	0.52098	2.14722									0.888167	3.68898						
0.632571	2.62435	0.523056	2.14753									0.889739	3.68126						
0.634227	2.62109	0.525132	2.14784									0.891307	3.67359						
0.635886	2.61787	0.527207	2.14814									0.892873	3.66596						
0.637546	2.61467	0.529283	2.14844									0.894437	3.65839						
0.639209	2.61151	0.531359	2.14874									0.895997	3.65086						
0.640874	2.60839	0.533435	2.14904									0.897556	3.64338						
0.642541	2.60529	0.535511	2.14934									0.899112	3.63594						
0.64421	2.60223	0.537587	2.14963									0.900666	3.62856						
0.645882	2.5992	0.539662	2.14992									0.902218	3.62122						
0.647555	2.5962	0.541738	2.15021									0.903768	3.61392						
0.64923	2.59323	0.543814	2.15049									0.905316	3.60667						
0.650908	2.59029	0.54589	2.15078									0.906861	3.59947						
0.652587	2.58738	0.547965	2.15106									0.908405	3.59231						
0.654269	2.5845	0.550041	2.15134									0.909947	3.5852						
0.655952	2.58165	0.552117	2.15162									0.911488	3.57814						
0.657637	2.57883	0.554192	2.15189									0.913026	3.57112						
0.659325	2.57603	0.556268	2.15217									0.914563	3.56414						
0.661014	2.57326	0.558343	2.15244									0.916099	3.55721						
0.662706	2.57053	0.560419	2.15271									0.917633	3.55032						
0.664399	2.56781	0.562495	2.15298									0.919165	3.54348						
0.666094	2.56513	0.56457	2.15324									0.920697	3.53668						
0.667791	2.56247	0.566646	2.1535									0.922227	3.52992						
0.669491	2.55984	0.568721	2.15377									0.923755	3.52321						
0.671192	2.55723	0.570797	2.15403									0.925283	3.51654						
0.672894	2.55465	0.572872	2.15428									0.926809	3.50991						
0.674599	2.5521	0.574948	2.15454									0.928334	3.50332						
0.676306	2.54957	0.577023	2.15479									0.929858	3.49678						
0.678014	2.54706	0.579098	2.15505									0.931382	3.49028						
0.679725	2.54458	0.581174	2.1553									0.932904	3.48382						
0.681437	2.54212	0.583249	2.15555									0.934425	3.4774						
0.683151	2.53969	0.585325	2.15579									0.935946	3.47103						
0.684867	2.53728	0.5874	2.15604									0.937465	3.46469						
0.686584	2.5349	0.589475	2.15628									0.938984	3.4584						
0.688304	2.53253	0.591551	2.15652									0.940502	3.45214						
0.690025	2.53019	0.593626	2.15676									0.94202	3.44593						
0.691748	2.52787	0.595701	2.157									0.943537	3.43975						
0.693473	2.52558	0.597776	2.15724									0.945053	3.43362						
0.695199	2.5233	0.599852	2.15747									0.946569	3.42752						
0.696927	2.52105	0.601927	2.15771									0.948084	3.42147						
0.698657	2.51882	0.604002	2.15794									0.949599	3.41545						
0.700389	2.51661	0.606077	2.15817									0.951113	3.40947						
0.702122	2.51442	0.608152	2.1584									0.952627	3.40353						
0.703857	2.51225	0.610228	2.15862									0.954141	3.39763						
0.705594	2.5101	0.612303	2.15885									0.955654	3.39176						
0.707332	2.50797	0.614378	2.15907									0.957167	3.38594						
0.709073	2.50586	0.616453	2.1593									0.95868	3.38015						
0.710814	2.50378	0.618528	2.15952									0.960193	3.3744						
0.712558	2.50171	0.620603	2.15974									0.961705	3.36868						
0.714303	2.49966	0.622678	2.15996									0.963217	3.363						
0.716049	2.49763	0.624753	2.16017									0.964729	3.35736						
0.717797	2.49561	0.626828	2.16039									0.966241	3.35176						
0.719547	2.49362	0.628903	2.1606									0.967753	3.34619						
0.721299	2.49164	0.630978	2.16081									0.969265	3.34065						
0.723052	2.48969	0.633053	2.16102									0.970777	3.33515						
0.724806	2.48775	0.635128	2.16123									0.972289	3.32969						
0.726562	2.48583	0.637203	2.16144									0.973801	3.32426						
0.72832	2.48392	0.639278	2.16165									0.975313	3.31887						
0.730079	2.48203	0.641353	2.16185									0.976826	3.31351						
0.73184	2.48016	0.643428	2.16206									0.978338	3.30818						
0.733602	2.47831	0.645503	2.16226									0.979851	3.30289						
0.735366	2.47648	0.647578	2.16246									0.981363	3.29764						
0.737131	2.47466	0.649653	2.16266									0.982876	3.29241						
0.738898	2.47285	0.651728	2.16286									0.984389	3.28722						
0.740666	2.47107	0.653803	2.16306									0.985903	3.28206						
0.742436	2.46929	0.655877	2.16325									0.987416	3.27694						
0.744207	2.46754	0.657952	2.16345									0.98893	3.27185						
0.74598	2.4658	0.660027	2.16364									0.990445	3.26679						
0.747754	2.46407	0.662102	2.16384									0.991959	3.26176						
0.74953	2.46237	0.664177	2.16403									0.993475	3.25676						
0.751307	2.46067	0.666251	2.16422									0.99499	3.2518						
0.753085	2.45899	0.668326	2.16441									0.996506	3.24687						
0.754865	2.45733	0.670401	2.16459									0.998022	3.24197						
0.756646	2.45568	0.672476	2.16478									0.999539	3.2371						
0.758429	2.45404	0.67455	2.16497									1.00106	3.23226						
0.760213	2.45242	0.676625	2.16515																
0.761998	2.45082	0.6787	2.16533																
0.763785	2.44922	0.680774	2.16552																
0.765573	2.44765	0.682849	2.1657																
0.767363	2.44608	0.684924	2.16588																
0.769154	2.44453	0.686998	2.16606																
0.770946	2.44299	0.689073	2.16623																
0.772739	2.44147	0.691147	2.16641																
0.774534	2.43995	0.693222	2.16659																
0.77633	2.43846	0.695297	2.16676																
0.778127	2.43697	0.697371	2.16693																
0.779926	2.4355	0.699446	2.16711																
0.781726	2.43404	0.70152	2.16728																
0.783527	2.43259	0.703595	2.16745																
0.78533	2.43115	0.705669	2.16762																
0.787134	2.42973	0.707744	2.16779																
0.788939	2.42831	0.709818	2.16795																
0.790745	2.42691	0.711893	2.16812																
0.792553	2.42553	0.713967	2.16828																
0.794361	2.42415	0.716042	2.16845																
0.796171	2.42278	0.718116	2.16861																
0.797983	2.42143	0.720191	2.16877																
0.799795	2.42009	0.722265	2.16894																
0.801609	2.41876	0.724339	2.1691																
0.803423	2.41744	0.726414	2.16926																
0.805239	2.41613	0.728488	2.16941																
0.807057	2.41483	0.730562	2.16957																
0.808875	2.41354	0.732637	2.16973																
0.810694	2.41227	0.734711	2.16989																
0.812515	2.411	0.736785	2.17004																
0.814337	2.40974	0.73886	2.17019																
0.81616	2.4085	0.740934	2.17035																
0.817984	2.40726	0.743008	2.1705																
0.819809	2.40604	0.745083	2.17065																
0.821635	2.40482	0.747157	2.1708																
0.823463	2.40361	0.749231	2.17095																
0.825291	2.40242	0.751305	2.1711																
0.827121	2.40123	0.75338	2.17125																
0.828952	2.40005	0.755454	2.1714																
0.830784	2.39889	0.757528	2.17154																
0.832617	2.39773	0.759602	2.17169																
0.834451	2.39658	0.761676	2.17183																
0.836286	2.39544	0.763751	2.17198																
0.838122	2.39431	0.765825	2.17212																
0.839959	2.39319	0.767899	2.17226																
0.841797	2.39208	0.769973	2.17241																
0.843636	2.39097	0.772047	2.17255																
0.845477	2.38988	0.774121	2.17269																
0.847318	2.38879	0.776195	2.17283																
0.84916	2.38771	0.77827	2.17297																
0.851004	2.38664	0.780344	2.1731																
0.852848	2.38558	0.782418	2.17324																
0.854694	2.38453	0.784492	2.17338																
0.85654	2.38349	0.786566	2.17351																
0.858387	2.38245	0.78864	2.17365																
0.860236	2.38142	0.790714	2.17378																
0.862085	2.3804	0.792788	2.17392																
0.863935	2.37939	0.794862	2.17405																
0.865787	2.37839	0.796936	2.17418																
0.867639	2.37739	0.79901	2.17431																
0.869492	2.3764	0.801084	2.17444																
0.871346	2.37542	0.803158	2.17457																
0.873201	2.37445	0.805232	2.1747																
0.875057	2.37348	0.807306	2.17483																
0.876914	2.37252	0.80938	2.17496																
0.878772	2.37157	0.811453	2.17509																
0.880631	2.37063	0.813527	2.17521																
0.882491	2.36969	0.815601	2.17534																
0.884351	2.36876	0.817675	2.17546																
0.886213	2.36784	0.819749	2.17559																
0.888075	2.36692	0.821823	2.17571																
0.889939	2.36601	0.823897	2.17584																
0.891803	2.36511	0.825971	2.17596																
0.893668	2.36421	0.828044	2.17608																
0.895534	2.36332	0.830118	2.1762																
0.897401	2.36244	0.832192	2.17632																
0.899269	2.36157	0.834266	2.17644																
0.901137	2.3607	0.83634	2.17656																
0.903007	2.35984	0.838413	2.17668																
0.904877	2.35898	0.840487	2.1768																
0.906748	2.35813	0.842561	2.17692																
0.90862	2.35729	0.844635	2.17704																
0.910493	2.35645	0.846708	2.17715																
0.912367	2.35562	0.848782	2.17727																
0.914242	2.3548	0.850856	2.17739																
0.916117	2.35398	0.85293	2.1775																
0.917993	2.35316	0.855003	2.17762																
0.91987	2.35236	0.857077	2.17773																
0.921748	2.35156	0.859151	2.17784																
0.923626	2.35076	0.861224	2.17796																
0.925506	2.34997	0.863298	2.17807																
0.927386	2.34919	0.865372	2.17818																
0.929267	2.34841	0.867445	2.17829																
0.931149	2.34764	0.869519	2.1784																
0.933031	2.34687	0.871592	2.17851																
0.934915	2.34611	0.873666	2.17862																
0.936799	2.34536	0.87574	2.17873																
0.938684	2.34461	0.877813	2.17884																
0.940569	2.34386	0.879887	2.17895																
0.942456	2.34312	0.88196	2.17905																
0.944343	2.34239	0.884034	2.17916																
0.946231	2.34166	0.886107	2.17927																
0.94812	2.34094	0.888181	2.17937																
0.950009	2.34022	0.890254	2.17948																
0.951899	2.3395	0.892328	2.17958																
0.95379	2.3388	0.894401	2.17969																
0.955682	2.33809	0.896475	2.17979																
0.957574	2.3374	0.898548	2.17989																
0.959467	2.3367	0.900622	2.18																
0.961361	2.33601	0.902695	2.1801																
0.963255	2.33533	0.904769	2.1802																
0.965151	2.33465	0.906842	2.1803																
0.967046	2.33398	0.908916	2.1804																
0.968943	2.33331	0.910989	2.1805																
0.97084	2.33264	0.913063	2.1806																
0.972738	2.33198	0.915136	2.1807																
0.974637	2.33133	0.917209	2.1808																
0.976536	2.33068	0.919283	2.1809																
0.978437	2.33003	0.921356	2.181																
0.980337	2.32939	0.923429	2.1811																
0.982239	2.32875	0.925503	2.18119																
0.984141	2.32812	0.927576	2.18129																
0.986044	2.32749	0.929649	2.18139																
0.987947	2.32686	0.931723	2.18148																
0.989851	2.32624	0.933796	2.18158																
0.991756	2.32563	0.935869	2.18167																
0.993661	2.32502	0.937943	2.18177																
0.995567	2.32441	0.940016	2.18186																
0.997474	2.32381	0.942089	2.18195																
0.999381	2.32321	0.944163	2.18205																
1.00129	2.32261	0.946236	2.18214																
		0.948309	2.18223																
		0.950382	2.18232																
		0.952456	2.18242																
		0.954529	2.18251																
		0.956602	2.1826																
		0.958675	2.18269																
		0.960748	2.18278																
		0.962822	2.18287																
		0.964895	2.18296																
		0.966968	2.18305																
		0.969041	2.18313																
		0.971114	2.18322																
		0.973187	2.18331																
		0.97526	2.1834																
		0.977334	2.18348																
		0.979407	2.18357																
		0.98148	2.18366																
		0.983553	2.18374																
		0.985626	2.18383																
		0.987699	2.18391																
		0.989772	2.184																
		0.991845	2.18408																
		0.993918	2.18417																
		0.995991	2.18425																
		0.998064	2.18433																
		1.00014	2.18441																
