Sym0		Asym0		Sym1		Sym2		Sym3		Sym4		Asym1		Asym2		Asym3	
468  Points		495  Points		225  Points		190  Points		176  Points		124  Points		336  Points		202  Points		165  Points	
Freq (MHz)	Vph (m/ms)	Freq (MHz)	Vph (m/ms)	Freq (MHz)	Vph (m/ms)	Freq (MHz)	Vph (m/ms)	Freq (MHz)	Vph (m/ms)	Freq (MHz)	Vph (m/ms)	Freq (MHz)	Vph (m/ms)	Freq (MHz)	Vph (m/ms)	Freq (MHz)	Vph (m/ms)
0.00220424	5.41743	0.000480042	0.193759	0.279525	430.898	0.471407	2404.84	0.559027	904.381	0.838527	2349.64	0.139821	185.35	0.419265	1697.95	0.698773	2151.13
0.00725152	5.41734	0.000904938	0.265439	0.279608	176.923	0.471423	418.033	0.559078	360.736	0.83855	650.76	0.140086	83.0851	0.419304	355.759	0.698799	556.131
0.0122985	5.41718	0.00145865	0.336025	0.279761	111.365	0.471462	228.93	0.559172	225.334	0.8386	377.702	0.140552	53.692	0.419396	198.737	0.698854	319.37
0.0173447	5.41689	0.00213667	0.40524	0.279982	81.3005	0.471523	157.642	0.559311	163.866	0.838675	266.08	0.141217	39.7855	0.419541	137.916	0.69894	224.025
0.0223901	5.41653	0.00293391	0.472882	0.280272	64.0551	0.471607	120.222	0.559493	128.77	0.838776	205.398	0.142075	31.705	0.419737	105.629	0.699056	172.537
0.0274342	5.41605	0.00384456	0.538756	0.280631	52.8776	0.471714	97.1704	0.559718	106.075	0.838903	167.267	0.143122	26.4412	0.419985	85.6168	0.699201	140.308
0.0324769	5.41548	0.00486238	0.602697	0.281058	45.0495	0.471843	81.5464	0.559987	90.1997	0.839057	141.088	0.144352	22.7522	0.420285	72.0024	0.699377	118.238
0.037518	5.41483	0.00598081	0.664579	0.281553	39.2651	0.471996	70.2596	0.5603	78.4734	0.839236	122.004	0.145759	20.0323	0.420636	62.1435	0.699583	102.178
0.0425569	5.41406	0.0071932	0.724312	0.282115	34.8193	0.472172	61.7252	0.560655	69.4595	0.839441	107.477	0.147336	17.9505	0.421039	54.677	0.699819	89.9695
0.0475936	5.4132	0.00849295	0.781839	0.282744	31.2979	0.472372	55.0468	0.561054	62.3159	0.839673	96.049	0.149075	16.3108	0.421494	48.8282	0.700084	80.3762
0.0526277	5.41224	0.00987322	0.837106	0.283439	28.4416	0.472595	49.679	0.561496	56.5165	0.83993	86.825	0.150968	14.9899	0.421999	44.1243	0.70038	72.64
0.0576589	5.41117	0.0113277	0.890115	0.284199	26.0797	0.472842	45.2711	0.56198	51.7154	0.840213	79.2241	0.153009	13.9061	0.422556	40.2604	0.700705	66.27
0.0626869	5.41	0.0128503	0.940869	0.285024	24.0953	0.473114	41.5874	0.562507	47.6763	0.840522	72.8531	0.155189	13.0032	0.423163	37.031	0.701061	60.9343
0.0677114	5.40873	0.0144349	0.9894	0.285913	22.4057	0.47341	38.4634	0.563076	44.2317	0.840857	67.4363	0.157501	12.2412	0.423821	34.2926	0.701445	56.4005
0.072732	5.40734	0.016076	1.03574	0.286865	20.9506	0.473731	35.7809	0.563688	41.26	0.841218	62.7746	0.159937	11.5912	0.424529	31.9419	0.70186	52.5007
0.0777486	5.40585	0.0177684	1.07995	0.287879	19.6852	0.474077	33.453	0.564341	38.6706	0.841604	58.7208	0.162491	11.0314	0.425287	29.9027	0.702304	49.1113
0.0827607	5.40425	0.0195073	1.1221	0.288954	18.5753	0.474449	31.4139	0.565036	36.3946	0.842017	55.1636	0.164807	10.6042	0.426094	28.1175	0.702778	46.1384
0.0877678	5.40253	0.021288	1.16224	0.290089	17.5945	0.474848	29.6135	0.565772	34.3789	0.842455	52.0172	0.166844	10.2776	0.426951	26.5422	0.703281	43.51
0.0927698	5.40069	0.0231064	1.20046	0.291284	16.722	0.475272	28.0123	0.56655	32.5816	0.842918	49.2146	0.168571	10.0303	0.427856	25.1422	0.703813	41.1699
0.0977661	5.39873	0.0249589	1.23683	0.292536	15.9412	0.475724	26.5794	0.567368	30.9693	0.843407	46.7027	0.169962	9.84792	0.42881	23.8903	0.704375	39.0732
0.102756	5.39665	0.0268417	1.27143	0.293846	15.2389	0.476204	25.2897	0.568227	29.5151	0.843922	44.4385	0.170999	9.7206	0.429812	22.7645	0.704966	37.1842
0.10774	5.39444	0.0287518	1.30434	0.295211	14.6041	0.476711	24.1231	0.569125	28.1972	0.844462	42.3874	0.171669	9.64196	0.430862	21.747	0.705586	35.4736
0.112717	5.3921	0.0306863	1.33565	0.296632	14.0278	0.477247	23.0628	0.570064	26.9975	0.845028	40.5208	0.17264	9.53261	0.43196	20.8231	0.706235	33.9175
0.117687	5.38962	0.0326425	1.36542	0.298106	13.5026	0.477812	22.0953	0.571043	25.901	0.845619	38.815	0.173707	9.41846	0.433104	19.9809	0.706913	32.496
0.122649	5.38701	0.0346182	1.39375	0.299633	13.0222	0.478406	21.209	0.572061	24.8951	0.846236	37.2503	0.175175	9.2706	0.434295	19.2101	0.70762	31.1926
0.127603	5.38425	0.036611	1.42069	0.301211	12.5813	0.479031	20.3943	0.573117	23.9693	0.846877	35.8099	0.177061	9.09491	0.435531	18.5023	0.708355	29.9932
0.132548	5.38134	0.0386191	1.44632	0.302839	12.1755	0.479686	19.6431	0.574213	23.1144	0.847544	34.4797	0.179382	8.8978	0.436814	17.8503	0.709119	28.886
0.137483	5.37828	0.0406409	1.47072	0.304517	11.8009	0.480373	18.9483	0.575346	22.3228	0.848236	33.2477	0.182159	8.68575	0.438141	17.2478	0.709911	27.8609
0.142409	5.37506	0.0426746	1.49395	0.306242	11.4542	0.481091	18.3039	0.576518	21.5879	0.848953	32.1034	0.185414	8.46493	0.439513	16.6897	0.710732	26.9091
0.147324	5.37167	0.0444556	1.51329	0.308014	11.1326	0.481843	17.7049	0.577727	20.9039	0.849695	31.0379	0.188739	8.26516	0.440929	16.1713	0.711581	26.0233
0.152227	5.36811	0.0459795	1.52913	0.309832	10.8335	0.482627	17.1467	0.578973	20.2658	0.850461	30.0434	0.192129	8.0838	0.442389	15.6888	0.712458	25.1969
0.157119	5.36437	0.0472433	1.54182	0.311453	10.5895	0.483446	16.6255	0.580257	19.6693	0.851253	29.1132	0.195581	7.91861	0.443892	15.2386	0.713364	24.4241
0.161999	5.36045	0.0482447	1.55158	0.312861	10.3928	0.484299	16.1378	0.581576	19.1104	0.852069	28.2412	0.199091	7.76768	0.445437	14.8177	0.714296	23.7
0.166865	5.35634	0.0489822	1.55862	0.314043	10.2374	0.485187	15.6805	0.582932	18.586	0.85291	27.4223	0.202655	7.6294	0.447024	14.4235	0.715257	23.0202
0.171717	5.35202	0.0494546	1.56306	0.314989	10.119	0.486111	15.2512	0.584324	18.0929	0.853776	26.6517	0.20627	7.50237	0.448653	14.0535	0.716245	22.3809
0.176554	5.34749	0.0501344	1.56936	0.315691	10.0343	0.487072	14.8473	0.585751	17.6285	0.854666	25.9255	0.209934	7.38536	0.450323	13.7059	0.717261	21.7786
0.181375	5.34274	0.0508741	1.5761	0.316142	9.98109	0.48807	14.4669	0.587214	17.1905	0.85558	25.2399	0.213644	7.27735	0.452034	13.3785	0.718303	21.2102
0.186179	5.33776	0.0518814	1.58509	0.316796	9.90598	0.489106	14.108	0.588711	16.7768	0.856518	24.5917	0.217397	7.1774	0.453784	13.0699	0.719373	20.6731
0.190965	5.33255	0.0531573	1.59616	0.317511	9.8261	0.490181	13.769	0.590242	16.3854	0.857481	23.9779	0.221191	7.08473	0.455573	12.7786	0.72047	20.1647
0.195733	5.32708	0.054703	1.60913	0.318492	9.72034	0.491295	13.4483	0.591807	16.0146	0.858468	23.396	0.225023	6.99863	0.457402	12.5031	0.721594	19.6829
0.20048	5.32135	0.0565196	1.62378	0.319747	9.59109	0.492449	13.1447	0.593407	15.663	0.859479	22.8435	0.228892	6.91847	0.459269	12.2424	0.722744	19.2257
0.205206	5.31535	0.0586082	1.63989	0.321283	9.44118	0.493644	12.8568	0.595039	15.3291	0.860514	22.3183	0.232795	6.84372	0.461173	11.9952	0.72392	18.7912
0.20991	5.30906	0.0607005	1.65529	0.323114	9.27371	0.49488	12.5837	0.596704	15.0117	0.861572	21.8185	0.236731	6.77388	0.463115	11.7607	0.725123	18.378
0.21459	5.30247	0.0627961	1.67	0.32525	9.09189	0.496159	12.3242	0.598402	14.7096	0.862654	21.3424	0.240697	6.70852	0.465093	11.538	0.726352	17.9845
0.219244	5.29556	0.0648944	1.68408	0.327423	8.92033	0.49748	12.0775	0.600133	14.4219	0.86376	20.8883	0.244692	6.64725	0.467107	11.3261	0.727608	17.6093
0.223872	5.28833	0.066995	1.69755	0.329634	8.75825	0.498845	11.8428	0.601895	14.1474	0.864889	20.4547	0.248714	6.58974	0.469157	11.1245	0.728888	17.2513
0.228471	5.28075	0.0690976	1.71044	0.331881	8.60494	0.500254	11.6192	0.603688	13.8855	0.866042	20.0404	0.252762	6.53566	0.471241	10.9324	0.730195	16.9094
0.23304	5.27281	0.0712017	1.72279	0.334164	8.45977	0.501708	11.4062	0.605513	13.6353	0.867218	19.6441	0.256835	6.48474	0.473086	10.7723	0.731527	16.5825
0.237577	5.26449	0.0733072	1.73463	0.336482	8.32217	0.503207	11.2029	0.607369	13.396	0.868417	19.2647	0.26093	6.43673	0.474679	10.6409	0.732884	16.2696
0.242081	5.25578	0.0754137	1.74599	0.338836	8.19161	0.504752	11.009	0.609255	13.167	0.869639	18.9011	0.265047	6.39139	0.47601	10.5356	0.734266	15.97
0.246549	5.24665	0.0775211	1.75688	0.341225	8.06765	0.506136	10.8471	0.611171	12.9478	0.870884	18.5525	0.269185	6.34853	0.477071	10.4543	0.735674	15.6828
0.250979	5.23709	0.0796292	1.76734	0.343649	7.94983	0.507344	10.7141	0.613118	12.7376	0.872152	18.2179	0.273342	6.30796	0.477857	10.3958	0.737105	15.4073
0.255369	5.22708	0.0817377	1.77738	0.346107	7.83778	0.508362	10.6074	0.615093	12.536	0.873442	17.8966	0.277517	6.2695	0.478362	10.3588	0.738562	15.1428
0.259718	5.21661	0.0838465	1.78703	0.348601	7.73114	0.50918	10.525	0.617098	12.3425	0.874755	17.5877	0.281709	6.23301	0.479091	10.3062	0.740043	14.8888
0.264022	5.20565	0.0859555	1.79631	0.351131	7.62959	0.509789	10.4656	0.619132	12.1566	0.876091	17.2907	0.285916	6.19834	0.479887	10.25	0.741548	14.6446
0.26828	5.19418	0.0880645	1.80524	0.353696	7.53283	0.510182	10.4281	0.621194	11.978	0.877448	17.0048	0.290139	6.16535	0.480976	10.1749	0.743077	14.4096
0.272489	5.18218	0.0901736	1.81383	0.356298	7.4406	0.510751	10.3748	0.623285	11.8062	0.878828	16.7295	0.294376	6.13394	0.482364	10.0822	0.744629	14.1835
0.276646	5.16965	0.0922825	1.8221	0.358937	7.35265	0.511375	10.3178	0.625403	11.6409	0.88023	16.4641	0.298626	6.104	0.484059	9.97333	0.746206	13.9657
0.28075	5.15656	0.0943911	1.83007	0.361614	7.26876	0.512234	10.2416	0.627549	11.4817	0.881654	16.2083	0.302888	6.07541	0.486069	9.84998	0.747805	13.7557
0.284798	5.1429	0.0964995	1.83775	0.36433	7.18873	0.513337	10.1475	0.629722	11.3284	0.8831	15.9615	0.307161	6.0481	0.488405	9.7139	0.749428	13.5533
0.288787	5.12865	0.0986076	1.84516	0.367086	7.11235	0.514696	10.0371	0.631923	11.1805	0.884567	15.7232	0.311445	6.02198	0.490771	9.58337	0.751074	13.358
0.292715	5.1138	0.100715	1.85231	0.369883	7.03947	0.516323	9.91187	0.633862	11.056	0.886056	15.4931	0.315739	5.99697	0.493166	9.45808	0.752743	13.1695
0.296581	5.09834	0.102823	1.8592	0.372722	6.96991	0.518238	9.7738	0.635531	10.9529	0.887567	15.2708	0.320042	5.97299	0.495591	9.33774	0.754435	12.9874
0.300381	5.08227	0.104929	1.86587	0.375604	6.90354	0.520201	9.64143	0.636922	10.8697	0.889098	15.0558	0.324353	5.94999	0.498045	9.22208	0.756149	12.8114
0.304114	5.06559	0.107036	1.8723	0.378532	6.84021	0.522215	9.51445	0.638028	10.8051	0.890651	14.8478	0.328671	5.92789	0.500527	9.11086	0.757885	12.6412
0.307779	5.04828	0.109142	1.87852	0.381506	6.77981	0.524279	9.39261	0.638846	10.7583	0.892225	14.6466	0.332996	5.90664	0.503037	9.00385	0.759643	12.4767
0.311373	5.03035	0.111247	1.88454	0.384528	6.72221	0.526392	9.27565	0.639371	10.7287	0.89382	14.4517	0.337328	5.88619	0.505574	8.90083	0.761423	12.3174
0.314895	5.01182	0.113352	1.89036	0.387598	6.66729	0.528556	9.16334	0.640128	10.6865	0.895436	14.263	0.341664	5.86649	0.508138	8.8016	0.763225	12.1633
0.318344	4.99268	0.115456	1.896	0.390719	6.61497	0.53077	9.05545	0.640954	10.6412	0.897072	14.0801	0.346006	5.84749	0.510729	8.70597	0.765048	12.0139
0.32172	4.97296	0.11756	1.90145	0.393892	6.56512	0.533034	8.95179	0.642083	10.5804	0.898729	13.9028	0.350351	5.82915	0.513345	8.61377	0.766893	11.8692
0.325021	4.95267	0.119663	1.90674	0.397118	6.51767	0.535348	8.85214	0.643519	10.505	0.900406	13.7308	0.354701	5.81143	0.515987	8.52483	0.768758	11.729
0.328249	4.93182	0.121766	1.91186	0.400397	6.47251	0.537713	8.75634	0.645268	10.4159	0.902104	13.564	0.359053	5.79429	0.518654	8.43899	0.770645	11.593
0.331401	4.91046	0.123868	1.91682	0.40373	6.42956	0.540127	8.6642	0.647338	10.3141	0.903821	13.4021	0.363407	5.77769	0.521346	8.35612	0.772552	11.461
0.334481	4.88859	0.12597	1.92164	0.407119	6.38873	0.542591	8.57556	0.649736	10.2009	0.905559	13.2449	0.367763	5.7616	0.524062	8.27606	0.774231	11.3492
0.337104	4.86916	0.128071	1.92631	0.410563	6.34994	0.545104	8.49026	0.652159	10.0913	0.907316	13.0921	0.372121	5.74599	0.526802	8.1987	0.775674	11.2562
0.339297	4.85232	0.130171	1.93085	0.414062	6.31309	0.547666	8.40815	0.654606	9.98525	0.909093	12.9438	0.376479	5.73084	0.529566	8.12391	0.776876	11.1808
0.34108	4.83823	0.132271	1.93525	0.417617	6.27811	0.550277	8.32909	0.657076	9.88249	0.91089	12.7996	0.380837	5.7161	0.532352	8.05158	0.777832	11.1221
0.342472	4.82698	0.13437	1.93953	0.421227	6.24492	0.552936	8.25296	0.659571	9.78292	0.912706	12.6593	0.385194	5.70177	0.535161	7.98159	0.778538	11.0795
0.343484	4.81865	0.136469	1.94368	0.424892	6.21342	0.555643	8.17962	0.662089	9.68641	0.914541	12.523	0.38955	5.68781	0.537993	7.91386	0.778991	11.0524
0.344128	4.8133	0.138568	1.94772	0.42861	6.18355	0.558398	8.10895	0.66463	9.59283	0.916395	12.3903	0.393905	5.6742	0.540847	7.84827	0.779644	11.0138
0.345046	4.80557	0.140666	1.95165	0.432381	6.15522	0.561199	8.04084	0.667194	9.50206	0.918269	12.2612	0.398257	5.66092	0.543722	7.78475	0.780356	10.9723
0.346036	4.79712	0.142763	1.95548	0.436204	6.12835	0.564047	7.97517	0.669781	9.41399	0.920161	12.1355	0.402606	5.64794	0.546619	7.7232	0.781329	10.9165
0.347368	4.78557	0.14486	1.9592	0.440076	6.10287	0.56694	7.91186	0.67239	9.3285	0.922072	12.0131	0.406952	5.63526	0.549537	7.66354	0.782565	10.8471
0.349031	4.77085	0.146956	1.96282	0.443997	6.0787	0.569879	7.85079	0.675022	9.2455	0.924002	11.8938	0.411295	5.62285	0.552475	7.6057	0.784071	10.7647
0.351008	4.75291	0.149052	1.96634	0.447964	6.05576	0.572862	7.79187	0.677676	9.1649	0.92595	11.7776	0.415633	5.61068	0.555435	7.54961	0.785851	10.6702
0.353282	4.73168	0.151148	1.96977	0.451975	6.034	0.575888	7.73502	0.680351	9.08659	0.927663	11.6788	0.419965	5.59876	0.558414	7.49518	0.787911	10.5645
0.355832	4.70711	0.153243	1.97312	0.45603	6.01333	0.578958	7.68014	0.683048	9.01049	0.929133	11.5963	0.424293	5.58705	0.561413	7.44237	0.789991	10.4617
0.358322	4.68233	0.155338	1.97638	0.460125	5.99369	0.58207	7.62716	0.685767	8.93651	0.930357	11.5292	0.428614	5.57555	0.564432	7.3911	0.792089	10.3616
0.360753	4.6574	0.157432	1.97956	0.464259	5.97502	0.585224	7.57599	0.688507	8.86459	0.93133	11.4769	0.432929	5.56424	0.567471	7.34133	0.794207	10.2642
0.363128	4.63234	0.159526	1.98266	0.468429	5.95726	0.588419	7.52657	0.691267	8.79464	0.932047	11.4388	0.437236	5.55311	0.570528	7.29298	0.796342	10.1694
0.365449	4.60719	0.161619	1.98568	0.472633	5.94035	0.591654	7.47882	0.694049	8.72658	0.932508	11.4147	0.441536	5.54214	0.573605	7.24601	0.798496	10.077
0.367718	4.58198	0.163712	1.98864	0.476871	5.92423	0.594929	7.43268	0.696851	8.66036	0.933172	11.3801	0.445828	5.53132	0.576701	7.20037	0.800669	9.987
0.369938	4.55674	0.165805	1.99152	0.481138	5.90885	0.598242	7.38807	0.699673	8.59591	0.933895	11.3429	0.450111	5.52064	0.579815	7.15601	0.802859	9.89928
0.37211	4.53149	0.167897	1.99433	0.485434	5.89417	0.601592	7.34494	0.702516	8.53316	0.934883	11.2929	0.454384	5.51009	0.582948	7.11289	0.805068	9.81377
0.374237	4.50626	0.169989	1.99708	0.489756	5.88013	0.60498	7.30323	0.705379	8.47206	0.936138	11.2304	0.458648	5.49966	0.586099	7.07095	0.807294	9.73039
0.376321	4.48109	0.17208	1.99976	0.494103	5.86669	0.608405	7.26288	0.708262	8.41254	0.937665	11.1561	0.462901	5.48933	0.589268	7.03016	0.809537	9.64908
0.378364	4.45598	0.174172	2.00238	0.498473	5.85382	0.611864	7.22383	0.711165	8.35457	0.939468	11.0706	0.467143	5.4791	0.592456	6.99049	0.811798	9.56975
0.380369	4.43096	0.176262	2.00494	0.502863	5.84147	0.615358	7.18604	0.714087	8.29807	0.941554	10.9747	0.471374	5.46896	0.595661	6.95189	0.814076	9.49236
0.382336	4.40606	0.178353	2.00745	0.507273	5.8296	0.618887	7.14946	0.717029	8.24301	0.943656	10.881	0.475592	5.45889	0.598884	6.91432	0.816372	9.41682
0.384268	4.38128	0.180443	2.0099	0.511701	5.81818	0.622448	7.11403	0.71999	8.18934	0.945776	10.7896	0.479798	5.44889	0.602125	6.87775	0.818684	9.34308
0.386166	4.35665	0.182533	2.01229	0.516144	5.80719	0.626042	7.07971	0.72297	8.137	0.947913	10.7002	0.48399	5.43895	0.605383	6.84216	0.821013	9.27108
0.388033	4.33217	0.184623	2.01463	0.520603	5.79659	0.629667	7.04647	0.725969	8.08597	0.950067	10.6129	0.488168	5.42906	0.60866	6.8075	0.823359	9.20077
0.38987	4.30787	0.186712	2.01693	0.525074	5.78635	0.633323	7.01425	0.728988	8.0362	0.952238	10.5276	0.492332	5.41922	0.611953	6.77375	0.825721	9.13209
0.391679	4.28376	0.188801	2.01917	0.529558	5.77645	0.637009	6.98302	0.732025	7.98764	0.954425	10.4442	0.496481	5.40941	0.615264	6.74088	0.8281	9.06499
0.393461	4.25984	0.19089	2.02137	0.534052	5.76686	0.640725	6.95273	0.735081	7.94026	0.956628	10.3626	0.500614	5.39963	0.618593	6.70887	0.830495	8.99942
0.395217	4.23613	0.192978	2.02352	0.538555	5.75756	0.644469	6.92337	0.738155	7.89402	0.958848	10.2829	0.504731	5.38988	0.621939	6.67768	0.832906	8.93534
0.39695	4.21263	0.195066	2.02563	0.543067	5.74854	0.64824	6.89487	0.741248	7.8489	0.961084	10.2049	0.508832	5.38013	0.625302	6.6473	0.835333	8.87269
0.398659	4.18935	0.197154	2.02769	0.547585	5.73976	0.652039	6.86723	0.74436	7.80485	0.963336	10.1286	0.512915	5.3704	0.628682	6.61769	0.837776	8.81143
0.400348	4.1663	0.199242	2.02971	0.55211	5.73122	0.655864	6.84039	0.74749	7.76184	0.965604	10.054	0.51698	5.36067	0.63208	6.58884	0.840234	8.75153
0.402016	4.14348	0.201329	2.03169	0.55664	5.7229	0.659715	6.81434	0.750638	7.71984	0.967888	9.98094	0.521026	5.35093	0.635496	6.56072	0.842708	8.69295
0.403665	4.1209	0.203417	2.03364	0.561174	5.71477	0.663591	6.78904	0.753805	7.67883	0.970187	9.90944	0.525054	5.34119	0.638928	6.53331	0.845198	8.63563
0.405295	4.09857	0.205504	2.03554	0.565712	5.70683	0.667491	6.76446	0.756989	7.63877	0.972502	9.83945	0.529062	5.33143	0.642378	6.5066	0.847703	8.57955
0.406909	4.07648	0.20759	2.03741	0.570251	5.69906	0.671415	6.74058	0.760192	7.59964	0.974832	9.77092	0.53305	5.32165	0.645845	6.48056	0.850223	8.52468
0.408507	4.05464	0.209677	2.03924	0.574792	5.69145	0.675361	6.71737	0.763413	7.56142	0.977178	9.70381	0.537017	5.31185	0.649329	6.45518	0.852758	8.47097
0.41009	4.03305	0.211763	2.04104	0.579334	5.68398	0.67933	6.6948	0.766652	7.52407	0.979539	9.63808	0.540963	5.30202	0.652831	6.43043	0.855309	8.41839
0.411658	4.01172	0.213849	2.0428	0.583876	5.67665	0.683321	6.67286	0.76991	7.48757	0.981914	9.57369	0.544887	5.29215	0.65635	6.4063	0.857874	8.36691
0.413213	3.99064	0.215935	2.04453	0.588417	5.66945	0.687332	6.65152	0.773185	7.4519	0.984305	9.5106	0.548788	5.28225	0.659886	6.38277	0.860455	8.31651
0.414755	3.96982	0.218021	2.04622	0.592956	5.66236	0.691364	6.63075	0.776478	7.41704	0.98671	9.44879	0.552667	5.2723	0.66344	6.35983	0.86305	8.26714
0.416286	3.94925	0.220106	2.04789	0.597494	5.65537	0.695415	6.61053	0.779789	7.38296	0.98913	9.3882	0.556523	5.26231	0.667011	6.33746	0.865659	8.21879
0.417805	3.92894	0.222192	2.04953	0.602029	5.64848	0.699486	6.59086	0.783119	7.34965	0.991565	9.32881	0.560355	5.25227	0.670599	6.31565	0.868283	8.17142
0.419314	3.90888	0.224277	2.05113	0.60656	5.64168	0.703575	6.57169	0.786466	7.31708	0.994013	9.27059	0.564162	5.24218	0.674205	6.29437	0.870922	8.12501
0.420814	3.88908	0.226362	2.05271	0.611087	5.63496	0.707682	6.55302	0.789832	7.28524	0.996476	9.2135	0.567945	5.23204	0.677828	6.27362	0.873575	8.07954
0.422304	3.86953	0.228447	2.05426	0.61561	5.62831	0.711806	6.53484	0.793215	7.25411	0.998954	9.15751	0.571703	5.22184	0.681468	6.25339	0.876243	8.03497
0.423785	3.85023	0.230531	2.05578	0.620128	5.62173	0.715947	6.51711	0.796617	7.22367	1.00144	9.10261	0.575436	5.21158	0.685125	6.23366	0.878925	7.99129
0.425259	3.83119	0.232616	2.05728	0.624641	5.61521	0.720103	6.49982	0.800037	7.19391			0.579142	5.20126	0.688799	6.21441	0.881621	7.94847
0.426725	3.8124	0.2347	2.05875	0.629147	5.60874	0.724276	6.48296	0.803475	7.1648			0.582822	5.19087	0.692491	6.19563	0.88433	7.90649
0.428184	3.79385	0.236784	2.06019	0.633646	5.60232	0.728463	6.46651	0.806932	7.13634			0.586476	5.18043	0.696199	6.17732	0.887055	7.86532
0.429636	3.77556	0.238868	2.06161	0.638139	5.59594	0.732664	6.45046	0.810407	7.1085			0.590102	5.16991	0.699924	6.15945	0.889793	7.82496
0.431083	3.7575	0.240952	2.06301	0.642624	5.58961	0.73688	6.43479	0.813901	7.08127			0.593702	5.15933	0.703666	6.14202	0.892545	7.78537
0.432524	3.73969	0.243036	2.06438	0.647101	5.5833	0.741108	6.41948	0.817413	7.05464			0.597274	5.14869	0.707425	6.12502	0.89531	7.74654
0.43396	3.72212	0.245119	2.06573	0.65157	5.57703	0.745349	6.40453	0.820944	7.0286			0.600818	5.13797	0.7112	6.10843	0.89809	7.70845
0.435391	3.70479	0.247203	2.06706	0.65603	5.57078	0.749603	6.38992	0.824494	7.00313			0.604334	5.12719	0.714992	6.09224	0.900883	7.67108
0.436817	3.6877	0.249286	2.06836	0.660481	5.56455	0.753867	6.37564	0.828063	6.97822			0.607822	5.11634	0.718799	6.07645	0.90369	7.63442
0.43824	3.67083	0.251369	2.06965	0.664922	5.55833	0.758143	6.36168	0.831651	6.95386			0.611281	5.10542	0.722623	6.06103	0.906511	7.59844
0.439659	3.6542	0.253452	2.07091	0.669353	5.55213	0.762429	6.34801	0.835258	6.93003			0.614712	5.09444	0.726462	6.04599	0.909345	7.56313
0.441075	3.6378	0.255535	2.07216	0.673774	5.54595	0.766725	6.33464	0.838884	6.90673			0.618115	5.08338	0.730318	6.03131	0.912193	7.52848
0.442487	3.62162	0.257618	2.07338	0.678185	5.53976	0.77103	6.32155	0.84253	6.88394			0.621489	5.07226	0.734188	6.01697	0.915054	7.49446
0.443897	3.60566	0.2597	2.07459	0.682584	5.53358	0.775345	6.30873	0.846196	6.86166			0.624834	5.06108	0.738073	6.00298	0.917929	7.46107
0.445304	3.58992	0.261783	2.07577	0.686972	5.52741	0.779667	6.29617	0.849881	6.83987			0.62815	5.04983	0.741973	5.98932	0.920817	7.42829
0.446709	3.5744	0.263865	2.07694	0.691348	5.52123	0.783997	6.28386	0.853586	6.81856			0.631437	5.03852	0.745888	5.97597	0.923718	7.39611
0.448112	3.5591	0.265947	2.07809	0.695712	5.51505	0.788334	6.27178	0.857312	6.79773			0.634696	5.02715	0.749817	5.96294	0.926633	7.36451
0.449514	3.544	0.26803	2.07922	0.700064	5.50886	0.792678	6.25994	0.861058	6.77736			0.637925	5.01571	0.75376	5.95021	0.929561	7.33347
0.450914	3.52912	0.270112	2.08034	0.704403	5.50266	0.797028	6.24832	0.864824	6.75745			0.641126	5.00422	0.757716	5.93777	0.932502	7.303
0.452313	3.51444	0.272194	2.08144	0.70873	5.49645	0.801384	6.23691	0.868611	6.73798			0.644298	4.99267	0.761686	5.92561	0.935456	7.27306
0.45371	3.49996	0.274276	2.08252	0.713043	5.49023	0.805745	6.22571	0.872418	6.71896			0.647442	4.98107	0.765668	5.91373	0.938423	7.24366
0.455107	3.48568	0.276357	2.08359	0.717342	5.484	0.81011	6.2147	0.876247	6.70037			0.650557	4.96941	0.769664	5.90211	0.941404	7.21478
0.456503	3.4716	0.278439	2.08464	0.721628	5.47775	0.81448	6.20388	0.880097	6.6822			0.653643	4.95771	0.773671	5.89075	0.944397	7.18641
0.457899	3.45772	0.28052	2.08567	0.7259	5.47148	0.818853	6.19324	0.883968	6.66445			0.656701	4.94595	0.777689	5.87964	0.947404	7.15854
0.459294	3.44403	0.282602	2.08669	0.730158	5.46519	0.823229	6.18277	0.88786	6.6471			0.659732	4.93415	0.78172	5.86878	0.950423	7.13115
0.46069	3.43052	0.284683	2.0877	0.7344	5.45888	0.827608	6.17247	0.891775	6.63016			0.662734	4.92231	0.785761	5.85814	0.953456	7.10424
0.462085	3.4172	0.286764	2.08869	0.738629	5.45254	0.831989	6.16232	0.895711	6.61361			0.665709	4.91042	0.789813	5.84773	0.956501	7.0778
0.463481	3.40407	0.288846	2.08967	0.742842	5.44619	0.836372	6.15233	0.899669	6.59745			0.668656	4.8985	0.793874	5.83753	0.959559	7.05181
0.464876	3.39112	0.290927	2.09063	0.74704	5.43981	0.840756	6.14248	0.903649	6.58167			0.671576	4.88653	0.797946	5.82755	0.96263	7.02627
0.466273	3.37834	0.293008	2.09158	0.751222	5.4334	0.845141	6.13277	0.907651	6.56626			0.674469	4.87454	0.802027	5.81776	0.965714	7.00117
0.46767	3.36574	0.295089	2.09252	0.755389	5.42696	0.849526	6.1232	0.911675	6.55122			0.677335	4.86251	0.806117	5.80818	0.968811	6.97649
0.469067	3.35332	0.297169	2.09345	0.759539	5.4205	0.853912	6.11375	0.915722	6.53654			0.680175	4.85045	0.810215	5.79878	0.97192	6.95224
0.470466	3.34106	0.29925	2.09436	0.763674	5.41401	0.858297	6.10442	0.919792	6.52221			0.682988	4.83837	0.814321	5.78956	0.975042	6.92839
0.471865	3.32897	0.301331	2.09526	0.767792	5.40749	0.862682	6.09522	0.923884	6.50823			0.685775	4.82626	0.818434	5.78051	0.978176	6.90495
0.473265	3.31705	0.303411	2.09615	0.771894	5.40094	0.867065	6.08612	0.927998	6.49459			0.688537	4.81413	0.822555	5.77164	0.981323	6.88191
0.474667	3.30529	0.305492	2.09702	0.775979	5.39435	0.871447	6.07714	0.932136	6.48128			0.691273	4.80198	0.826683	5.76293	0.984483	6.85925
0.47607	3.29369	0.307572	2.09788	0.780047	5.38774	0.875827	6.06826	0.936296	6.4683			0.693984	4.78981	0.830816	5.75437	0.987655	6.83697
0.477474	3.28224	0.309653	2.09874	0.784098	5.38109	0.880205	6.05948	0.940478	6.45565			0.69667	4.77763	0.834956	5.74596	0.990839	6.81506
0.478879	3.27096	0.311733	2.09958	0.788132	5.37441	0.884581	6.05079	0.944684	6.44331			0.699332	4.76543	0.839101	5.7377	0.994036	6.79351
0.480286	3.25982	0.313813	2.10041	0.792149	5.3677	0.888955	6.0422	0.948912	6.43127			0.70197	4.75323	0.843251	5.72957	0.997245	6.77232
0.481695	3.24884	0.315893	2.10123	0.796148	5.36095	0.893325	6.0337	0.953162	6.41954			0.704583	4.74102	0.847405	5.72158	1.00047	6.75148
0.483105	3.238	0.317973	2.10204	0.800129	5.35417	0.897693	6.02528	0.957435	6.40811			0.707173	4.7288	0.851563	5.71371		
0.484517	3.22731	0.320053	2.10284	0.804093	5.34736	0.902057	6.01695	0.96173	6.39697			0.70974	4.71658	0.855726	5.70597		
0.485931	3.21677	0.322133	2.10362	0.808039	5.34051	0.906418	6.0087	0.966048	6.38611			0.712284	4.70436	0.859891	5.69834		
0.487347	3.20636	0.324213	2.1044	0.811967	5.33362	0.910776	6.00052	0.970387	6.37553			0.714805	4.69214	0.864059	5.69083		
0.488764	3.1961	0.326293	2.10517	0.815876	5.3267	0.91513	5.99242	0.974749	6.36522			0.717304	4.67992	0.86823	5.68342		
0.490184	3.18597	0.328373	2.10593	0.819768	5.31975	0.91948	5.9844	0.979132	6.35518			0.719781	4.66771	0.872403	5.67612		
0.491606	3.17598	0.330453	2.10668	0.823641	5.31276	0.923826	5.97644	0.983537	6.3454			0.722237	4.6555	0.876577	5.66891		
0.493029	3.16612	0.332532	2.10742	0.827495	5.30574	0.928169	5.96856	0.987963	6.33587			0.724671	4.64331	0.880752	5.6618		
0.494455	3.15639	0.334612	2.10815	0.831331	5.29868	0.932507	5.96075	0.99241	6.32659			0.727084	4.63112	0.884929	5.65478		
0.495883	3.14679	0.336691	2.10887	0.835149	5.29159	0.936841	5.953	0.996877	6.31754			0.729477	4.61895	0.889105	5.64784		
0.497313	3.13732	0.338771	2.10959	0.838947	5.28446	0.941172	5.94532	1.00137	6.30874			0.731849	4.6068	0.893282	5.64099		
0.498746	3.12797	0.34085	2.11029	0.842727	5.2773	0.945498	5.9377					0.734202	4.59466	0.897459	5.63422		
0.50018	3.11874	0.342929	2.11099	0.846488	5.27011	0.94982	5.93015					0.736534	4.58254	0.901635	5.62752		
0.501617	3.10964	0.345009	2.11168	0.850231	5.26288	0.954139	5.92266					0.738848	4.57044	0.905809	5.62089		
0.503057	3.10065	0.347088	2.11236	0.853954	5.25562	0.958453	5.91523					0.741142	4.55836	0.909983	5.61432		
0.504499	3.09178	0.349167	2.11303	0.857659	5.24832	0.962764	5.90786					0.743418	4.5463	0.914154	5.60782		
0.505943	3.08303	0.351246	2.11369	0.861344	5.24099	0.96707	5.90055					0.745675	4.53427	0.918323	5.60139		
0.507389	3.07439	0.353325	2.11435	0.865011	5.23363	0.971373	5.89331					0.747915	4.52227	0.92249	5.59501		
0.508839	3.06586	0.355404	2.115	0.868659	5.22624	0.975672	5.88612					0.750136	4.51029	0.926654	5.58868		
0.51029	3.05745	0.357483	2.11564	0.872287	5.21882	0.979967	5.87898					0.75234	4.49834	0.930815	5.58241		
0.511744	3.04914	0.359562	2.11628	0.875897	5.21137	0.984259	5.87191					0.754527	4.48643	0.934972	5.57618		
0.513201	3.04094	0.361641	2.1169	0.879487	5.20388	0.988547	5.86489					0.756698	4.47454	0.939126	5.57		
0.51466	3.03284	0.36372	2.11752	0.883059	5.19637	0.992832	5.85794					0.758851	4.46269	0.943275	5.56386		
0.516122	3.02485	0.365798	2.11814	0.886612	5.18883	0.997113	5.85103					0.760989	4.45088	0.94742	5.55777		
0.517587	3.01696	0.367877	2.11874	0.890145	5.18125	1.00139	5.84418					0.763111	4.4391	0.951559	5.55171		
0.519054	3.00917	0.369956	2.11934	0.89366	5.17365							0.765217	4.42735	0.955694	5.54569		
0.520524	3.00147	0.372034	2.11994	0.897155	5.16603							0.767308	4.41565	0.959824	5.5397		
0.521996	2.99388	0.374113	2.12052	0.900632	5.15837							0.769383	4.40398	0.963947	5.53375		
0.523471	2.98638	0.376192	2.1211	0.90409	5.15069							0.771445	4.39235	0.968065	5.52782		
0.524949	2.97898	0.37827	2.12168	0.907529	5.14299							0.773491	4.38077	0.972176	5.52192		
0.526429	2.97167	0.380348	2.12224	0.91095	5.13526							0.775524	4.36922	0.976281	5.51604		
0.527912	2.96445	0.382427	2.1228	0.914351	5.1275							0.777542	4.35772	0.980379	5.51019		
0.529398	2.95732	0.384505	2.12336	0.917734	5.11972							0.779547	4.34626	0.98447	5.50436		
0.530886	2.95028	0.386584	2.12391	0.921099	5.11192							0.781539	4.33485	0.988554	5.49855		
0.532377	2.94332	0.388662	2.12445	0.924445	5.1041							0.783518	4.32348	0.992629	5.49275		
0.533871	2.93646	0.39074	2.12499	0.927772	5.09626							0.785483	4.31216	0.996697	5.48697		
0.535367	2.92967	0.392818	2.12552	0.931081	5.08839							0.787437	4.30089	1.00076	5.48121		
0.536867	2.92298	0.394896	2.12605	0.934371	5.0805							0.789378	4.28966				
0.538369	2.91636	0.396975	2.12657	0.937644	5.0726							0.791307	4.27848				
0.539873	2.90982	0.399053	2.12709	0.940898	5.06468							0.793224	4.26735				
0.541381	2.90337	0.401131	2.1276	0.944134	5.05673							0.79513	4.25627				
0.542891	2.89699	0.403209	2.1281	0.947352	5.04878							0.797024	4.24524				
0.544403	2.89069	0.405287	2.1286	0.950552	5.0408							0.798907	4.23425				
0.545919	2.88447	0.407365	2.1291	0.953734	5.03281							0.80078	4.22332				
0.547437	2.87832	0.409443	2.12959	0.956898	5.0248							0.802642	4.21244				
0.548958	2.87225	0.41152	2.13007	0.960045	5.01678							0.804494	4.20162				
0.550482	2.86625	0.413598	2.13055	0.963174	5.00875							0.806335	4.19084				
0.552008	2.86032	0.415676	2.13103	0.966285	5.0007							0.808167	4.18012				
0.553537	2.85446	0.417754	2.1315	0.969379	4.99264							0.809988	4.16945				
0.555069	2.84867	0.419832	2.13197	0.972456	4.98457							0.811801	4.15884				
0.556603	2.84296	0.421909	2.13243	0.975516	4.97648							0.813604	4.14827				
0.55814	2.8373	0.423987	2.13288	0.978558	4.96839							0.815398	4.13776				
0.55968	2.83172	0.426065	2.13334	0.981584	4.96029							0.817183	4.12731				
0.561223	2.8262	0.428142	2.13379	0.984592	4.95217							0.81896	4.11691				
0.562768	2.82075	0.43022	2.13423	0.987584	4.94405							0.820728	4.10657				
0.564316	2.81536	0.432297	2.13467	0.990559	4.93592							0.822488	4.09628				
0.565866	2.81003	0.434375	2.13511	0.993517	4.92779							0.82424	4.08604				
0.567419	2.80477	0.436452	2.13554	0.996459	4.91964							0.825984	4.07586				
0.568975	2.79956	0.43853	2.13597	0.999385	4.91149							0.827721	4.06574				
0.570533	2.79442	0.440607	2.13639	1.00229	4.90334							0.829449	4.05567				
0.572094	2.78934	0.442685	2.13681									0.831171	4.04566				
0.573658	2.78431	0.444762	2.13722									0.832885	4.0357				
0.575224	2.77935	0.446839	2.13764									0.834593	4.0258				
0.576793	2.77444	0.448917	2.13804									0.836293	4.01595				
0.578364	2.76958	0.450994	2.13845									0.837987	4.00616				
0.579938	2.76479	0.453071	2.13885									0.839675	3.99643				
0.581514	2.76004	0.455148	2.13925									0.841356	3.98675				
0.583093	2.75535	0.457225	2.13964									0.843031	3.97713				
0.584675	2.75072	0.459303	2.14003									0.8447	3.96757				
0.586259	2.74613	0.46138	2.14042									0.846363	3.95806				
0.587846	2.7416	0.463457	2.1408									0.84802	3.9486				
0.589435	2.73712	0.465534	2.14118									0.849672	3.9392				
0.591027	2.73269	0.467611	2.14155									0.851319	3.92986				
0.592621	2.7283	0.469688	2.14193									0.85296	3.92058				
0.594218	2.72397	0.471765	2.1423									0.854596	3.91135				
0.595817	2.71968	0.473842	2.14266									0.856227	3.90217				
0.597418	2.71545	0.475919	2.14303									0.857853	3.89305				
0.599022	2.71126	0.477996	2.14339									0.859474	3.88399				
0.600629	2.70711	0.480073	2.14374									0.861091	3.87498				
0.602238	2.70301	0.48215	2.1441									0.862703	3.86603				
0.603849	2.69896	0.484227	2.14445									0.864311	3.85713				
0.605463	2.69495	0.486304	2.1448									0.865915	3.84828				
0.607079	2.69098	0.48838	2.14514									0.867515	3.83949				
0.608697	2.68706	0.490457	2.14548									0.86911	3.83076				
0.610318	2.68318	0.492534	2.14582									0.870702	3.82208				
0.611941	2.67934	0.494611	2.14616									0.87229	3.81345				
0.613567	2.67554	0.496687	2.14649									0.873874	3.80488				
0.615195	2.67179	0.498764	2.14682									0.875454	3.79636				
0.616825	2.66807	0.500841	2.14715									0.877032	3.7879				
0.618458	2.66439	0.502918	2.14748									0.878605	3.77949				
0.620092	2.66076	0.504994	2.1478									0.880176	3.77113				
0.621729	2.65716	0.507071	2.14812									0.881743	3.76282				
0.623369	2.6536	0.509147	2.14844									0.883307	3.75457				
0.62501	2.65008	0.511224	2.14875									0.884869	3.74637				
0.626654	2.64659	0.513301	2.14906									0.886427	3.73822				
0.6283	2.64314	0.515377	2.14937									0.887983	3.73012				
0.629949	2.63973	0.517454	2.14968									0.889535	3.72208				
0.631599	2.63635	0.51953	2.14998									0.891086	3.71409				
0.633252	2.63301	0.521607	2.15029									0.892633	3.70615				
0.634907	2.62971	0.523683	2.15059									0.894179	3.69826				
0.636564	2.62643	0.525759	2.15088									0.895721	3.69042				
0.638223	2.6232	0.527836	2.15118									0.897262	3.68263				
0.639884	2.61999	0.529912	2.15147									0.8988	3.67489				
0.641548	2.61682	0.531989	2.15176									0.900337	3.6672				
0.643213	2.61368	0.534065	2.15205									0.901871	3.65956				
0.644881	2.61057	0.536141	2.15234									0.903403	3.65197				
0.646551	2.6075	0.538218	2.15262									0.904933	3.64443				
0.648223	2.60446	0.540294	2.1529									0.906462	3.63694				
0.649897	2.60144	0.54237	2.15318									0.907988	3.6295				
0.651573	2.59846	0.544447	2.15346									0.909513	3.6221				
0.653251	2.59551	0.546523	2.15374									0.911036	3.61476				
0.654931	2.59259	0.548599	2.15401									0.912558	3.60746				
0.656613	2.5897	0.550675	2.15428									0.914078	3.60021				
0.658297	2.58683	0.552751	2.15455									0.915597	3.59301				
0.659984	2.584	0.554828	2.15482									0.917114	3.58585				
0.661672	2.58119	0.556904	2.15508									0.91863	3.57874				
0.663362	2.57841	0.55898	2.15535									0.920145	3.57168				
0.665054	2.57566	0.561056	2.15561									0.921659	3.56466				
0.666748	2.57294	0.563132	2.15587									0.923171	3.55769				
0.668444	2.57024	0.565208	2.15612									0.924682	3.55077				
0.670142	2.56757	0.567284	2.15638									0.926192	3.54389				
0.671842	2.56493	0.56936	2.15663									0.927702	3.53705				
0.673543	2.56231	0.571436	2.15688									0.92921	3.53026				
0.675247	2.55972	0.573512	2.15713									0.930717	3.52351				
0.676953	2.55716	0.575588	2.15738									0.932224	3.51681				
0.67866	2.55461	0.577664	2.15763									0.933729	3.51016				
0.680369	2.5521	0.57974	2.15787									0.935234	3.50354				
0.682081	2.54961	0.581816	2.15812									0.936738	3.49697				
0.683793	2.54714	0.583892	2.15836									0.938242	3.49044				
0.685508	2.54469	0.585968	2.1586									0.939745	3.48396				
0.687225	2.54227	0.588044	2.15883									0.941247	3.47752				
0.688943	2.53988	0.59012	2.15907									0.942749	3.47112				
0.690663	2.5375	0.592196	2.15931									0.94425	3.46476				
0.692385	2.53515	0.594272	2.15954									0.945751	3.45844				
0.694109	2.53282	0.596348	2.15977									0.947251	3.45217				
0.695835	2.53052	0.598423	2.16									0.948751	3.44593				
0.697562	2.52823	0.600499	2.16023									0.950251	3.43974				
0.699291	2.52597	0.602575	2.16045									0.951751	3.43359				
0.701022	2.52373	0.604651	2.16068									0.95325	3.42748				
0.702754	2.52151	0.606727	2.1609									0.954749	3.4214				
0.704488	2.51931	0.608802	2.16112									0.956247	3.41537				
0.706224	2.51713	0.610878	2.16134									0.957746	3.40938				
0.707962	2.51497	0.612954	2.16156									0.959244	3.40342				
0.709701	2.51283	0.61503	2.16178									0.960742	3.39751				
0.711442	2.51071	0.617105	2.16199									0.962241	3.39163				
0.713184	2.50861	0.619181	2.16221									0.963739	3.3858				
0.714928	2.50653	0.621257	2.16242									0.965237	3.37999				
0.716674	2.50447	0.623332	2.16263									0.966735	3.37423				
0.718421	2.50243	0.625408	2.16284									0.968234	3.36851				
0.720171	2.50041	0.627484	2.16305									0.969732	3.36282				
0.721921	2.49841	0.629559	2.16326									0.97123	3.35717				
0.723673	2.49642	0.631635	2.16346									0.972729	3.35156				
0.725427	2.49445	0.63371	2.16367									0.974228	3.34598				
0.727183	2.4925	0.635786	2.16387									0.975727	3.34044				
0.72894	2.49057	0.637862	2.16407									0.977226	3.33493				
0.730698	2.48866	0.639937	2.16428									0.978725	3.32946				
0.732458	2.48676	0.642013	2.16447									0.980225	3.32403				
0.73422	2.48488	0.644088	2.16467									0.981725	3.31863				
0.735983	2.48302	0.646164	2.16487									0.983225	3.31327				
0.737747	2.48117	0.648239	2.16506									0.984726	3.30794				
0.739513	2.47934	0.650315	2.16526									0.986226	3.30264				
0.741281	2.47753	0.65239	2.16545									0.987728	3.29738				
0.74305	2.47573	0.654465	2.16564									0.989229	3.29216				
0.744821	2.47395	0.656541	2.16583									0.990732	3.28696				
0.746593	2.47219	0.658616	2.16602									0.992234	3.2818				
0.748366	2.47044	0.660692	2.16621									0.993737	3.27668				
0.750141	2.46871	0.662767	2.1664									0.995241	3.27159				
0.751917	2.46699	0.664843	2.16658									0.996745	3.26653				
0.753695	2.46529	0.666918	2.16677									0.998249	3.2615				
0.755475	2.4636	0.668993	2.16695									0.999754	3.2565				
0.757255	2.46192	0.671069	2.16713									1.00126	3.25154				
0.759037	2.46027	0.673144	2.16731														
0.760821	2.45862	0.675219	2.16749														
0.762606	2.45699	0.677295	2.16767														
0.764392	2.45538	0.67937	2.16785														
0.766179	2.45377	0.681445	2.16803														
0.767968	2.45219	0.68352	2.1682														
0.769758	2.45061	0.685596	2.16838														
0.77155	2.44905	0.687671	2.16855														
0.773343	2.44751	0.689746	2.16872														
0.775137	2.44597	0.691821	2.16889														
0.776933	2.44445	0.693897	2.16906														
0.77873	2.44294	0.695972	2.16923														
0.780528	2.44145	0.698047	2.1694														
0.782328	2.43997	0.700122	2.16957														
0.784128	2.4385	0.702197	2.16973														
0.78593	2.43704	0.704272	2.1699														
0.787734	2.4356	0.706348	2.17006														
0.789538	2.43416	0.708423	2.17023														
0.791344	2.43274	0.710498	2.17039														
0.793151	2.43133	0.712573	2.17055														
0.79496	2.42994	0.714648	2.17071														
0.796769	2.42855	0.716723	2.17087														
0.79858	2.42718	0.718798	2.17103														
0.800392	2.42582	0.720873	2.17119														
0.802205	2.42447	0.722948	2.17134														
0.80402	2.42313	0.725023	2.1715														
0.805835	2.4218	0.727098	2.17165														
0.807652	2.42048	0.729173	2.17181														
0.80947	2.41917	0.731248	2.17196														
0.811289	2.41788	0.733323	2.17211														
0.81311	2.41659	0.735398	2.17227														
0.814931	2.41532	0.737473	2.17242														
0.816754	2.41405	0.739548	2.17257														
0.818577	2.4128	0.741623	2.17271														
0.820402	2.41156	0.743698	2.17286														
0.822228	2.41032	0.745773	2.17301														
0.824055	2.4091	0.747848	2.17316														
0.825884	2.40789	0.749923	2.1733														
0.827713	2.40668	0.751998	2.17345														
0.829543	2.40549	0.754073	2.17359														
0.831375	2.4043	0.756148	2.17373														
0.833208	2.40313	0.758223	2.17387														
0.835041	2.40196	0.760297	2.17402														
0.836876	2.40081	0.762372	2.17416														
0.838712	2.39966	0.764447	2.1743														
0.840549	2.39852	0.766522	2.17444														
0.842387	2.39739	0.768597	2.17457														
0.844226	2.39627	0.770671	2.17471														
0.846066	2.39516	0.772746	2.17485														
0.847907	2.39406	0.774821	2.17498														
0.849749	2.39296	0.776896	2.17512														
0.851592	2.39188	0.778971	2.17525														
0.853436	2.3908	0.781045	2.17539														
0.855282	2.38973	0.78312	2.17552														
0.857128	2.38867	0.785195	2.17565														
0.858975	2.38762	0.787269	2.17579														
0.860823	2.38658	0.789344	2.17592														
0.862672	2.38554	0.791419	2.17605														
0.864522	2.38452	0.793494	2.17618														
0.866373	2.3835	0.795568	2.17631														
0.868226	2.38249	0.797643	2.17643														
0.870079	2.38148	0.799718	2.17656														
0.871933	2.38049	0.801792	2.17669														
0.873787	2.3795	0.803867	2.17681														
0.875643	2.37852	0.805941	2.17694														
0.8775	2.37754	0.808016	2.17707														
0.879358	2.37658	0.810091	2.17719														
0.881217	2.37562	0.812165	2.17731														
0.883076	2.37467	0.81424	2.17744														
0.884937	2.37372	0.816314	2.17756														
0.886798	2.37279	0.818389	2.17768														
0.888661	2.37186	0.820464	2.1778														
0.890524	2.37093	0.822538	2.17792														
0.892388	2.37002	0.824613	2.17804														
0.894253	2.36911	0.826687	2.17816														
0.896119	2.36821	0.828762	2.17828														
0.897986	2.36731	0.830836	2.1784														
0.899853	2.36642	0.832911	2.17852														
0.901722	2.36554	0.834985	2.17863														
0.903591	2.36466	0.83706	2.17875														
0.905461	2.3638	0.839134	2.17886														
0.907333	2.36293	0.841209	2.17898														
0.909204	2.36208	0.843283	2.17909														
0.911077	2.36123	0.845357	2.17921														
0.912951	2.36038	0.847432	2.17932														
0.914825	2.35955	0.849506	2.17943														
0.916701	2.35871	0.851581	2.17955														
0.918577	2.35789	0.853655	2.17966														
0.920454	2.35707	0.85573	2.17977														
0.922332	2.35626	0.857804	2.17988														
0.92421	2.35545	0.859878	2.17999														
0.926089	2.35465	0.861953	2.1801														
0.92797	2.35385	0.864027	2.18021														
0.929851	2.35306	0.866101	2.18032														
0.931732	2.35228	0.868176	2.18042														
0.933615	2.3515	0.87025	2.18053														
0.935498	2.35073	0.872324	2.18064														
0.937382	2.34996	0.874399	2.18074														
0.939267	2.3492	0.876473	2.18085														
0.941153	2.34844	0.878547	2.18095														
0.943039	2.34769	0.880622	2.18106														
0.944926	2.34695	0.882696	2.18116														
0.946814	2.34621	0.88477	2.18127														
0.948703	2.34547	0.886844	2.18137														
0.950592	2.34474	0.888919	2.18147														
0.952483	2.34402	0.890993	2.18158														
0.954374	2.3433	0.893067	2.18168														
0.956265	2.34258	0.895141	2.18178														
0.958158	2.34187	0.897215	2.18188														
0.960051	2.34117	0.89929	2.18198														
0.961944	2.34047	0.901364	2.18208														
0.963839	2.33978	0.903438	2.18218														
0.965734	2.33909	0.905512	2.18228														
0.96763	2.3384	0.907586	2.18238														
0.969527	2.33772	0.909661	2.18247														
0.971424	2.33705	0.911735	2.18257														
0.973322	2.33638	0.913809	2.18267														
0.975221	2.33571	0.915883	2.18277														
0.97712	2.33505	0.917957	2.18286														
0.979021	2.33439	0.920031	2.18296														
0.980921	2.33374	0.922105	2.18305														
0.982823	2.33309	0.924179	2.18315														
0.984725	2.33245	0.926253	2.18324														
0.986628	2.33181	0.928328	2.18334														
0.988531	2.33117	0.930402	2.18343														
0.990436	2.33054	0.932476	2.18352														
0.99234	2.32992	0.93455	2.18362														
0.994246	2.3293	0.936624	2.18371														
0.996152	2.32868	0.938698	2.1838														
0.998059	2.32807	0.940772	2.18389														
0.999966	2.32746	0.942846	2.18398														
1.00187	2.32685	0.94492	2.18407														
		0.946994	2.18416														
		0.949068	2.18425														
		0.951142	2.18434														
		0.953216	2.18443														
		0.95529	2.18452														
		0.957364	2.18461														
		0.959438	2.1847														
		0.961512	2.18478														
		0.963585	2.18487														
		0.965659	2.18496														
		0.967733	2.18504														
		0.969807	2.18513														
		0.971881	2.18521														
		0.973955	2.1853														
		0.976029	2.18538														
		0.978103	2.18547														
		0.980177	2.18555														
		0.98225	2.18564														
		0.984324	2.18572														
		0.986398	2.1858														
		0.988472	2.18589														
		0.990546	2.18597														
		0.99262	2.18605														
		0.994693	2.18613														
		0.996767	2.18621														
		0.998841	2.18629														
		1.00091	2.18637														
