Sym0		Asym0		Sym1		Sym2		Sym3		Sym4		Asym1		Asym2		Asym3		Asym4	
468  Points		498  Points		227  Points		192  Points		178  Points		125  Points		336  Points		204  Points		167  Points		101  Points	
Freq (MHz)	Vph (m/ms)	Freq (MHz)	Vph (m/ms)	Freq (MHz)	Vph (m/ms)	Freq (MHz)	Vph (m/ms)	Freq (MHz)	Vph (m/ms)	Freq (MHz)	Vph (m/ms)	Freq (MHz)	Vph (m/ms)	Freq (MHz)	Vph (m/ms)	Freq (MHz)	Vph (m/ms)	Freq (MHz)	Vph (m/ms)
0.00335383	5.36338	8.66716e-008	0.00283747	0.279524	449.018	0.470545	4973.29	0.559025	973.096	0.838528	2062.09	0.139814	193.659	0.419265	1631.32	0.698773	2328.31	0.941091	2366.94
0.00835071	5.36328	7.20214e-005	0.0748476	0.279603	179.9	0.470558	458.496	0.559073	371.187	0.838552	626.563	0.140068	84.7021	0.419304	352.741	0.698797	567.291	0.9411	707.97
0.0133471	5.36307	0.000278339	0.146963	0.27975	112.534	0.470594	240.344	0.559164	229.366	0.838601	369.423	0.140519	54.3522	0.419395	197.791	0.698851	323.017	0.941118	416.242
0.0183429	5.3628	0.000617353	0.218483	0.279965	81.9183	0.470652	162.872	0.559297	165.985	0.838676	261.945	0.141165	40.1375	0.419537	137.459	0.698934	225.812	0.941145	294.782
0.0233377	5.36241	0.00108624	0.289098	0.280247	64.4348	0.470732	123.183	0.559474	130.072	0.838777	202.926	0.142002	31.9197	0.41973	105.359	0.699046	173.594	0.941182	228.2
0.0283314	5.36194	0.00168124	0.358549	0.280596	53.1331	0.470834	99.0585	0.559693	106.955	0.838903	165.624	0.143025	26.5825	0.419973	85.4388	0.699188	141.005	0.941228	186.158
0.0333236	5.36139	0.00239776	0.426593	0.281012	45.2319	0.470959	82.8455	0.559955	90.8332	0.839055	139.917	0.144229	22.8495	0.420268	71.8753	0.69936	118.731	0.941284	157.201
0.0383141	5.36073	0.00323049	0.493023	0.281494	39.4007	0.471106	71.2019	0.560259	78.9504	0.839232	121.127	0.145606	20.1007	0.420613	62.0476	0.699561	102.545	0.94135	136.044
0.0433026	5.35998	0.00417366	0.557669	0.282042	34.9231	0.471276	62.4358	0.560606	69.8309	0.839434	106.796	0.147151	17.999	0.421008	54.6015	0.699791	90.2527	0.941425	119.909
0.0482889	5.35914	0.00522099	0.620379	0.282655	31.379	0.47147	55.5987	0.560995	62.6128	0.839662	95.5041	0.148856	16.3449	0.421454	48.7667	0.70005	80.601	0.94151	107.199
0.0532727	5.3582	0.00636597	0.681035	0.283333	28.5059	0.471686	50.1177	0.561426	56.7588	0.839916	86.3792	0.150714	15.013	0.42195	44.0727	0.700339	72.8225	0.941605	96.9273
0.0582536	5.35717	0.00760214	0.739566	0.284076	26.1311	0.471926	45.6264	0.561898	51.9165	0.840195	78.8524	0.152717	13.9205	0.422497	40.2161	0.700657	66.4207	0.941709	88.4546
0.0632315	5.35604	0.00892293	0.795916	0.284881	24.1366	0.47219	41.8795	0.562413	47.8453	0.840499	72.5382	0.154857	13.0107	0.423092	36.9922	0.701004	61.0606	0.941824	81.3464
0.068206	5.3548	0.0103218	0.850051	0.285749	22.4389	0.472478	38.7066	0.562969	44.3754	0.840829	67.1659	0.157129	12.2431	0.423738	34.2579	0.70138	56.5075	0.941949	75.2979
0.0731767	5.35346	0.0117925	0.901965	0.286679	20.9772	0.47279	35.9855	0.563567	41.3833	0.841184	62.5398	0.159523	11.5884	0.424432	31.9104	0.701785	52.5924	0.942084	70.0886
0.0781434	5.35201	0.0133292	0.951678	0.28767	19.7062	0.473127	33.6265	0.564205	38.7773	0.841564	58.5148	0.162034	11.0247	0.425176	29.8737	0.70222	49.1904	0.94223	65.5554
0.0831058	5.35046	0.0149259	0.999215	0.288721	18.5916	0.473489	31.5623	0.564885	36.4875	0.841969	54.9812	0.164311	10.5944	0.425968	28.0905	0.702683	46.2071	0.942386	61.5749
0.0880635	5.34881	0.0165775	1.04462	0.28983	17.6067	0.473877	29.741	0.565605	34.4602	0.8424	51.8545	0.166315	10.2655	0.426808	26.5167	0.703175	43.5701	0.942552	58.0518
0.0930161	5.34703	0.0182788	1.08795	0.290998	16.7307	0.47429	28.1225	0.566365	32.653	0.842856	49.0684	0.168014	10.0165	0.427696	25.118	0.703696	41.2226	0.94273	54.9117
0.0979633	5.34515	0.020025	1.12927	0.292223	15.9469	0.47473	26.675	0.567166	31.0322	0.843336	46.5704	0.169383	9.83283	0.428632	23.867	0.704245	39.1197	0.942919	52.0955
0.102905	5.34314	0.0218119	1.16863	0.293504	15.2419	0.475197	25.3729	0.568006	29.5707	0.843842	44.3182	0.170404	9.70462	0.429616	22.7419	0.704823	37.2252	0.943118	49.5556
0.10784	5.34101	0.0236355	1.20613	0.29484	14.6046	0.475691	24.1956	0.568886	28.2465	0.844373	42.2773	0.171063	9.62543	0.430646	21.725	0.70543	35.5099	0.943329	47.2534
0.112769	5.33876	0.0254921	1.24183	0.29623	14.0262	0.476212	23.1262	0.569805	27.0412	0.844929	40.4196	0.172019	9.51532	0.431722	20.8016	0.706065	33.9497	0.943551	45.157
0.11769	5.33638	0.0273783	1.27581	0.297673	13.499	0.476763	22.1507	0.570763	25.9397	0.84551	38.7216	0.173069	9.40037	0.432845	19.9597	0.706728	32.5245	0.943785	43.2402
0.122604	5.33387	0.0292911	1.30815	0.299167	13.0168	0.477341	21.2574	0.571759	24.9294	0.846115	37.1636	0.174514	9.25148	0.434013	19.1891	0.70742	31.2178	0.94403	41.4808
0.12751	5.33122	0.0312276	1.33892	0.300712	12.5743	0.47795	20.4366	0.572794	23.9996	0.846745	35.7291	0.176371	9.07457	0.435227	18.4815	0.70814	30.0155	0.944288	39.8602
0.132408	5.32842	0.0331854	1.36821	0.302306	12.1669	0.478588	19.6798	0.573867	23.1411	0.8474	34.4042	0.178656	8.87607	0.436485	17.8295	0.708887	28.9056	0.944557	38.3628
0.137297	5.32548	0.0351621	1.39608	0.303949	11.7909	0.479257	18.9802	0.574977	22.3464	0.84808	33.1768	0.181391	8.66253	0.437788	17.2271	0.709663	27.8781	0.944839	36.9751
0.142176	5.32239	0.0371557	1.42261	0.305639	11.4429	0.479956	18.3315	0.576125	21.6085	0.848784	32.0367	0.184598	8.44015	0.439134	16.6689	0.710466	26.9243	0.945133	35.6855
0.147045	5.31915	0.0391643	1.44786	0.307375	11.12	0.480688	17.7286	0.57731	20.9218	0.849513	30.9749	0.187874	8.23896	0.440524	16.1505	0.711298	26.0365	0.945439	34.484
0.151903	5.31573	0.0411862	1.47191	0.309156	10.8197	0.481452	17.1668	0.578531	20.2813	0.850266	29.9838	0.191215	8.0563	0.441957	15.6679	0.712156	25.2082	0.945759	33.3619
0.15675	5.31215	0.0432199	1.49482	0.310744	10.5748	0.482248	16.6424	0.579789	19.6825	0.851043	29.0566	0.194617	7.88991	0.443432	15.2175	0.713042	24.4338	0.946091	32.3117
0.161585	5.30839	0.0450007	1.5139	0.312123	10.3773	0.483079	16.1517	0.581082	19.1216	0.851844	28.1873	0.198076	7.73789	0.444949	14.7965	0.713956	23.7081	0.946436	31.3267
0.166407	5.30445	0.0465244	1.52955	0.313282	10.2214	0.483943	15.6918	0.582411	18.5953	0.85267	27.3708	0.20159	7.5986	0.446507	14.4021	0.714896	23.027	0.946794	30.401
0.171216	5.30031	0.0477879	1.54207	0.314209	10.1024	0.484843	15.2599	0.583775	18.1004	0.85352	26.6024	0.205155	7.47062	0.448106	14.032	0.715864	22.3863	0.947166	29.5295
0.17601	5.29598	0.0487891	1.55172	0.314897	10.0174	0.485778	14.8538	0.585175	17.6343	0.854394	25.8782	0.208769	7.35275	0.449746	13.6841	0.716858	21.7828	0.947551	28.7076
0.180789	5.29143	0.0495264	1.55867	0.31534	9.96398	0.486749	14.4712	0.586608	17.1948	0.855292	25.1944	0.212428	7.24393	0.451425	13.3566	0.717879	21.2132	0.94795	27.9313
0.185552	5.28667	0.0499987	1.56306	0.31598	9.88856	0.487757	14.1103	0.588076	16.7796	0.856213	24.5478	0.216131	7.14323	0.453144	13.0477	0.718927	20.675	0.948362	27.1968
0.190298	5.28168	0.0506784	1.56929	0.316681	9.80837	0.488803	13.7695	0.589578	16.3868	0.857158	23.9356	0.219874	7.04986	0.454901	12.7561	0.720001	20.1655	0.948789	26.501
0.195025	5.27645	0.0514178	1.57595	0.317643	9.70217	0.489887	13.4471	0.591113	16.0147	0.858127	23.355	0.223655	6.9631	0.456697	12.4804	0.721102	19.6828	0.949229	25.8408
0.199734	5.27098	0.0524249	1.58483	0.318873	9.57239	0.491009	13.1418	0.592682	15.6619	0.85912	22.8038	0.227473	6.88233	0.45853	12.2194	0.722229	19.2246	0.949684	25.2137
0.204422	5.26524	0.0537004	1.59578	0.320379	9.42186	0.492172	12.8524	0.594283	15.3269	0.860136	22.2798	0.231325	6.807	0.460401	11.972	0.723381	18.7893	0.950154	24.6172
0.209089	5.25923	0.0552456	1.60862	0.322174	9.25368	0.493374	12.5778	0.595917	15.0084	0.861175	21.781	0.23521	6.73662	0.462308	11.7372	0.72456	18.3752	0.950638	24.0493
0.213733	5.25294	0.0570616	1.62312	0.324268	9.07109	0.494618	12.3169	0.597583	14.7053	0.862237	21.3058	0.239125	6.67075	0.464252	11.5142	0.725764	17.9809	0.951137	23.5078
0.218352	5.24634	0.0591496	1.63908	0.326399	8.89878	0.495903	12.0689	0.59928	14.4165	0.863323	20.8526	0.24307	6.60901	0.46623	11.3021	0.726994	17.605	0.95165	22.9911
0.222946	5.23943	0.0612413	1.65433	0.328567	8.73597	0.49723	11.8329	0.601009	14.1411	0.864432	20.4198	0.247042	6.55105	0.468244	11.1002	0.728249	17.2463	0.952179	22.4974
0.227513	5.2322	0.0633362	1.66892	0.330771	8.58197	0.4986	11.6081	0.602769	13.8783	0.865563	20.0063	0.25104	6.49656	0.470293	10.9079	0.729529	16.9036	0.952723	22.0254
0.232051	5.22462	0.0654339	1.68287	0.333009	8.43612	0.500013	11.3939	0.60456	13.6272	0.866718	19.6106	0.255062	6.44524	0.472106	10.7475	0.730834	16.576	0.953282	21.5737
0.236559	5.21668	0.0675339	1.69624	0.335283	8.29787	0.50147	11.1895	0.606381	13.3871	0.867895	19.2319	0.259107	6.39686	0.473671	10.6159	0.732164	16.2625	0.953857	21.1409
0.241035	5.20837	0.0696357	1.70904	0.337591	8.16668	0.502972	10.9945	0.608233	13.1574	0.869095	18.8689	0.263174	6.35118	0.474979	10.5104	0.733519	15.9623	0.954448	20.726
0.245477	5.19966	0.0717393	1.7213	0.339933	8.04208	0.504318	10.8317	0.610114	12.9373	0.870317	18.5208	0.267262	6.308	0.476022	10.4291	0.734898	15.6745	0.955054	20.3279
0.249882	5.19055	0.0738442	1.73307	0.342309	7.92365	0.505492	10.6979	0.612024	12.7264	0.871562	18.1867	0.271369	6.26712	0.476794	10.3704	0.736301	15.3985	0.955676	19.9456
0.25425	5.181	0.0759503	1.74435	0.34472	7.81099	0.506482	10.5905	0.613964	12.5241	0.872829	17.8658	0.275494	6.22838	0.477291	10.3333	0.737729	15.1334	0.956314	19.5783
0.258577	5.17101	0.0780572	1.75518	0.347165	7.70375	0.507278	10.5077	0.615932	12.3299	0.874118	17.5573	0.279637	6.19162	0.478007	10.2807	0.73918	14.8788	0.956969	19.2249
0.262862	5.16055	0.0801647	1.76558	0.349644	7.6016	0.50787	10.448	0.617929	12.1434	0.875429	17.2607	0.283796	6.15669	0.478789	10.2243	0.740656	14.6341	0.957639	18.885
0.267103	5.14961	0.0822728	1.77558	0.352158	7.50426	0.508251	10.4102	0.619954	11.9641	0.876762	16.9751	0.28797	6.12347	0.47986	10.1491	0.742155	14.3986	0.958327	18.5575
0.271297	5.13817	0.0843812	1.78519	0.354707	7.41144	0.508805	10.3566	0.622007	11.7917	0.878117	16.7001	0.292158	6.09185	0.481225	10.0562	0.743677	14.172	0.959031	18.2421
0.275441	5.12622	0.0864898	1.79442	0.357293	7.3229	0.509412	10.2992	0.624088	11.6258	0.879494	16.4351	0.29636	6.06169	0.482891	9.9472	0.745222	13.9537	0.959752	17.9379
0.279535	5.11372	0.0885985	1.80332	0.359914	7.23841	0.510247	10.2226	0.626195	11.4661	0.880892	16.1795	0.300574	6.03292	0.484867	9.82361	0.746791	13.7433	0.960489	17.6444
0.283574	5.10068	0.0907072	1.81188	0.362574	7.15777	0.511319	10.1279	0.628329	11.3122	0.882312	15.9329	0.3048	6.00543	0.487164	9.68727	0.748382	13.5404	0.961244	17.3611
0.287557	5.08707	0.0928158	1.82012	0.365271	7.08079	0.51264	10.0168	0.630491	11.1638	0.883753	15.6949	0.309036	5.97915	0.48949	9.55648	0.749996	13.3447	0.962016	17.0875
0.291482	5.07289	0.0949242	1.82807	0.368009	7.0073	0.514222	9.89079	0.632395	11.0389	0.885215	15.465	0.313283	5.95398	0.491846	9.43093	0.751633	13.1557	0.962806	16.8232
0.295345	5.05811	0.0970324	1.83573	0.370787	6.93712	0.516084	9.75183	0.634035	10.9354	0.886698	15.2428	0.317539	5.92987	0.49423	9.31033	0.753292	12.9732	0.963613	16.5675
0.299146	5.04275	0.0991403	1.84312	0.373606	6.87012	0.517993	9.61857	0.635401	10.8518	0.888203	15.0279	0.321803	5.90673	0.496644	9.19441	0.754972	12.7968	0.964437	16.3203
0.302882	5.02678	0.101248	1.85025	0.376469	6.80616	0.519951	9.49073	0.636488	10.787	0.889728	14.8201	0.326076	5.88452	0.499085	9.08294	0.756675	12.6263	0.96528	16.081
0.306552	5.0102	0.103355	1.85714	0.379377	6.74511	0.521958	9.36805	0.637292	10.7401	0.891273	14.619	0.330355	5.86317	0.501554	8.97568	0.7584	12.4613	0.96614	15.8493
0.310153	4.99303	0.105462	1.86379	0.38233	6.68685	0.524013	9.25026	0.637807	10.7103	0.89284	14.4243	0.334641	5.84262	0.50405	8.87241	0.760146	12.3017	0.967018	15.6249
0.313684	4.97525	0.107568	1.87022	0.385331	6.63128	0.526118	9.13713	0.638551	10.668	0.894426	14.2356	0.338933	5.82284	0.506572	8.77294	0.761913	12.1471	0.967915	15.4075
0.317144	4.95688	0.109674	1.87644	0.388381	6.57828	0.528271	9.02844	0.639363	10.6225	0.896034	14.0528	0.34323	5.80376	0.509121	8.67707	0.763702	11.9974	0.96883	15.1967
0.320533	4.93793	0.111779	1.88245	0.39148	6.52777	0.530474	8.92399	0.640472	10.5615	0.897661	13.8756	0.347532	5.78536	0.511696	8.58463	0.765512	11.8524	0.969763	14.9922
0.323848	4.91842	0.113884	1.88827	0.394631	6.47964	0.532726	8.82357	0.641882	10.4858	0.899308	13.7037	0.351837	5.76758	0.514295	8.49546	0.767342	11.7118	0.970716	14.7938
0.327091	4.89835	0.115988	1.8939	0.397833	6.4338	0.535026	8.72701	0.643601	10.3963	0.900975	13.5369	0.356146	5.75038	0.51692	8.40939	0.769193	11.5754	0.971686	14.6013
0.33026	4.87776	0.118092	1.89935	0.401089	6.39018	0.537376	8.63411	0.645635	10.2942	0.902662	13.375	0.360458	5.73375	0.519569	8.32628	0.771064	11.4432	0.972676	14.4144
0.332963	4.85941	0.120195	1.90464	0.404399	6.34867	0.539774	8.54473	0.647991	10.1805	0.904369	13.2178	0.364772	5.71763	0.522242	8.246	0.772712	11.3311	0.973685	14.2328
0.335224	4.84347	0.122297	1.90976	0.407764	6.30921	0.542221	8.45871	0.650372	10.0705	0.906095	13.0652	0.369087	5.702	0.524939	8.16842	0.774128	11.2378	0.974713	14.0564
0.337063	4.83011	0.124399	1.91473	0.411183	6.2717	0.544716	8.37589	0.652776	9.96398	0.907841	12.9168	0.373404	5.68684	0.527659	8.09341	0.775307	11.1622	0.975761	13.8849
0.338498	4.81942	0.126501	1.91955	0.414658	6.23607	0.547258	8.29613	0.655204	9.8608	0.909606	12.7726	0.377721	5.6721	0.530402	8.02086	0.776245	11.1033	0.976828	13.7183
0.339543	4.8115	0.128602	1.92423	0.418187	6.20225	0.549848	8.21931	0.657656	9.76083	0.91139	12.6324	0.382038	5.65777	0.533168	7.95066	0.776938	11.0606	0.977914	13.5561
0.340206	4.8064	0.130702	1.92877	0.42177	6.17013	0.552486	8.14529	0.66013	9.66393	0.913193	12.496	0.386355	5.64382	0.535955	7.88271	0.777382	11.0335	0.979021	13.3984
0.341154	4.79904	0.132802	1.93318	0.425408	6.13966	0.55517	8.07396	0.662628	9.56996	0.915015	12.3633	0.39067	5.63023	0.538765	7.81692	0.778023	10.9948	0.980147	13.245
0.342176	4.79098	0.134902	1.93746	0.429098	6.11076	0.5579	8.0052	0.665148	9.47881	0.916856	12.2342	0.394984	5.61698	0.541596	7.75319	0.778722	10.9532	0.981293	13.0956
0.343551	4.77996	0.137001	1.94162	0.43284	6.08334	0.560676	7.93889	0.667691	9.39037	0.918715	12.1084	0.399295	5.60404	0.544448	7.69144	0.779677	10.8972	0.98246	12.9501
0.345268	4.76588	0.139099	1.94567	0.436634	6.05733	0.563497	7.87495	0.670256	9.30452	0.920593	11.986	0.403604	5.5914	0.547322	7.63158	0.780891	10.8276	0.983647	12.8085
0.347309	4.7487	0.141197	1.94961	0.440476	6.03266	0.566363	7.81327	0.672843	9.22117	0.922489	11.8667	0.40791	5.57904	0.550215	7.57354	0.782368	10.745	0.984854	12.6705
0.349657	4.72831	0.143294	1.95344	0.444366	6.00925	0.569272	7.75374	0.675451	9.14021	0.924403	11.7505	0.412212	5.56694	0.553129	7.51724	0.784115	10.6502	0.986082	12.536
0.352291	4.70466	0.145391	1.95717	0.448301	5.98704	0.572225	7.6963	0.678081	9.06155	0.926086	11.6517	0.416509	5.55508	0.556063	7.46263	0.786138	10.5442	0.98733	12.4049
0.354862	4.68075	0.147488	1.96079	0.452281	5.96596	0.575221	7.64084	0.680733	8.98511	0.927531	11.5691	0.420802	5.54345	0.559017	7.40962	0.788179	10.4411	0.9886	12.2772
0.357372	4.65663	0.149584	1.96433	0.456303	5.94594	0.578259	7.5873	0.683405	8.91081	0.928734	11.502	0.425089	5.53203	0.561991	7.35816	0.790239	10.3408	0.989891	12.1526
0.359824	4.63234	0.151679	1.96777	0.460365	5.92691	0.581338	7.53558	0.686098	8.83855	0.929689	11.4497	0.429371	5.52081	0.564983	7.3082	0.792318	10.2431	0.991202	12.0311
0.362218	4.6079	0.153774	1.97113	0.464465	5.90882	0.584458	7.48561	0.688813	8.76828	0.930395	11.4116	0.433646	5.50978	0.567995	7.25966	0.794414	10.148	0.992535	11.9125
0.364559	4.58334	0.155869	1.9744	0.468601	5.8916	0.587617	7.43733	0.691547	8.6999	0.930847	11.3874	0.437914	5.49891	0.571025	7.21251	0.796529	10.0553	0.993714	11.8116
0.366847	4.55871	0.157963	1.97759	0.472771	5.87521	0.590816	7.39067	0.694302	8.63337	0.931499	11.3529	0.442175	5.48821	0.574075	7.16668	0.798662	9.96504	0.994732	11.7272
0.369085	4.53403	0.160057	1.9807	0.476973	5.85959	0.594054	7.34555	0.697077	8.56861	0.932211	11.3156	0.446428	5.47765	0.577142	7.12214	0.800813	9.87706	0.995583	11.6586
0.371275	4.50932	0.16215	1.98373	0.481205	5.84468	0.597329	7.30192	0.699872	8.50555	0.933181	11.2655	0.450672	5.46723	0.580228	7.07883	0.802981	9.79129	0.996262	11.605
0.373419	4.48462	0.164244	1.98669	0.485465	5.83044	0.600641	7.25973	0.702687	8.44415	0.934415	11.203	0.454908	5.45693	0.583332	7.03672	0.805167	9.70765	0.996764	11.5661
0.37552	4.45995	0.166336	1.98958	0.489751	5.81683	0.603989	7.2189	0.705521	8.38434	0.935915	11.1287	0.459133	5.44674	0.586454	6.99575	0.80737	9.62609	0.997087	11.5413
0.37758	4.43533	0.168428	1.9924	0.494062	5.8038	0.607372	7.1794	0.708375	8.32607	0.937687	11.0431	0.463349	5.43666	0.589594	6.95589	0.809591	9.54651	0.997553	11.5059
0.3796	4.41079	0.17052	1.99516	0.498395	5.79132	0.610791	7.14116	0.711248	8.26928	0.939737	10.9472	0.467554	5.42668	0.592751	6.91711	0.811828	9.46887	0.998062	11.4678
0.381583	4.38634	0.172612	1.99785	0.502749	5.77934	0.614243	7.10413	0.714141	8.21393	0.941804	10.8534	0.471747	5.41678	0.595926	6.87937	0.814082	9.39309	0.998759	11.4164
0.38353	4.362	0.174703	2.00048	0.507122	5.76783	0.617728	7.06828	0.717052	8.15997	0.943888	10.7619	0.475929	5.40695	0.599119	6.84263	0.816353	9.31911	0.999649	11.3523
0.385443	4.33779	0.176794	2.00306	0.511512	5.75677	0.621246	7.03354	0.719982	8.10736	0.945989	10.6725	0.480099	5.39719	0.602329	6.80686	0.818641	9.24688	1.00073	11.276
0.387324	4.31373	0.178884	2.00557	0.515919	5.74611	0.624795	6.99989	0.722931	8.05605	0.948106	10.5851	0.484256	5.38749	0.605556	6.77202	0.820945	9.17633		
0.389174	4.28983	0.180975	2.00803	0.52034	5.73583	0.628375	6.96728	0.725898	8.00599	0.950239	10.4997	0.488399	5.37784	0.6088	6.7381	0.823265	9.10742		
0.390996	4.2661	0.183065	2.01044	0.524774	5.7259	0.631986	6.93566	0.728884	7.95716	0.95239	10.4162	0.492528	5.36824	0.612062	6.70505	0.825602	9.04009		
0.392791	4.24255	0.185154	2.01279	0.52922	5.7163	0.635626	6.905	0.731889	7.90951	0.954556	10.3346	0.496643	5.35867	0.61534	6.67286	0.827955	8.9743		
0.394559	4.2192	0.187244	2.01509	0.533677	5.70701	0.639294	6.87527	0.734911	7.863	0.956738	10.2548	0.500743	5.34913	0.618636	6.6415	0.830323	8.90999		
0.396304	4.19604	0.189333	2.01735	0.538143	5.698	0.642991	6.84643	0.737952	7.81761	0.958937	10.1767	0.504827	5.33962	0.621949	6.61094	0.832707	8.84712		
0.398025	4.1731	0.191421	2.01955	0.542618	5.68925	0.646715	6.81843	0.741011	7.77329	0.961151	10.1004	0.508895	5.33011	0.625278	6.58116	0.835107	8.78565		
0.399724	4.15037	0.19351	2.02171	0.547099	5.68075	0.650465	6.79127	0.744088	7.73001	0.963381	10.0256	0.512946	5.32062	0.628625	6.55213	0.837522	8.72554		
0.401403	4.12787	0.195598	2.02383	0.551587	5.67247	0.654242	6.76489	0.747183	7.68776	0.965627	9.95251	0.516979	5.31114	0.631989	6.52384	0.839953	8.66674		
0.403062	4.1056	0.197686	2.0259	0.55608	5.66441	0.658043	6.73927	0.750295	7.64648	0.967888	9.88093	0.520995	5.30165	0.635369	6.49626	0.842399	8.60921		
0.404703	4.08356	0.199774	2.02794	0.560578	5.65654	0.66187	6.71439	0.753425	7.60616	0.970164	9.81085	0.524992	5.29215	0.638767	6.46937	0.84486	8.55293		
0.406327	4.06176	0.201861	2.02993	0.565079	5.64884	0.66572	6.69022	0.756573	7.56677	0.972456	9.74224	0.528971	5.28264	0.642182	6.44315	0.847337	8.49784		
0.407934	4.0402	0.203948	2.03188	0.569582	5.64132	0.669593	6.66672	0.759739	7.52828	0.974762	9.67504	0.53293	5.27311	0.645613	6.41759	0.849828	8.44393		
0.409526	4.01888	0.206035	2.03379	0.574087	5.63395	0.673489	6.64388	0.762922	7.49066	0.977084	9.60922	0.536868	5.26356	0.649062	6.39266	0.852334	8.39115		
0.411103	3.9978	0.208122	2.03567	0.578593	5.62672	0.677407	6.62167	0.766123	7.4539	0.97942	9.54474	0.540787	5.25398	0.652527	6.36836	0.854855	8.33947		
0.412667	3.97697	0.210208	2.03751	0.583099	5.61963	0.681347	6.60007	0.769341	7.41797	0.981772	9.48157	0.544684	5.24437	0.65601	6.34465	0.85739	8.28887		
0.414217	3.9564	0.212295	2.03932	0.587605	5.61265	0.685307	6.57906	0.772577	7.38285	0.984137	9.41966	0.548559	5.23473	0.659509	6.32154	0.85994	8.23931		
0.415756	3.93607	0.214381	2.04109	0.592109	5.60579	0.689287	6.5586	0.77583	7.34851	0.986518	9.35898	0.552413	5.22505	0.663025	6.29899	0.862505	8.19076		
0.417283	3.91598	0.216467	2.04283	0.596612	5.59903	0.693287	6.5387	0.7791	7.31493	0.988912	9.2995	0.556244	5.21532	0.666559	6.277	0.865084	8.1432		
0.4188	3.89615	0.218552	2.04453	0.601112	5.59237	0.697306	6.51931	0.782389	7.2821	0.991321	9.24119	0.560051	5.20555	0.670109	6.25555	0.867677	8.0966		
0.420307	3.87657	0.220638	2.04621	0.605609	5.58579	0.701343	6.50044	0.785694	7.25	0.993744	9.18401	0.563836	5.19573	0.673677	6.23462	0.870284	8.05094		
0.421804	3.85723	0.222723	2.04785	0.610103	5.57929	0.705398	6.48205	0.789017	7.21861	0.996181	9.12793	0.567596	5.18586	0.677261	6.21421	0.872906	8.00618		
0.423293	3.83814	0.224808	2.04947	0.614592	5.57286	0.709471	6.46412	0.792358	7.1879	0.998632	9.07293	0.571332	5.17593	0.680863	6.1943	0.875541	7.96232		
0.424773	3.8193	0.226893	2.05105	0.619076	5.5665	0.71356	6.44665	0.795716	7.15786	1.0011	9.01898	0.575043	5.16595	0.684481	6.17488	0.878191	7.91931		
0.426246	3.8007	0.228978	2.05261	0.623556	5.56019	0.717665	6.42962	0.799092	7.12849			0.578729	5.15591	0.688116	6.15593	0.880854	7.87715		
0.427711	3.78235	0.231062	2.05414	0.628029	5.55394	0.721785	6.41301	0.802485	7.09975			0.58239	5.14581	0.691768	6.13745	0.883532	7.8358		
0.42917	3.76423	0.233147	2.05565	0.632496	5.54774	0.725921	6.3968	0.805896	7.07163			0.586025	5.13564	0.695436	6.11941	0.886223	7.79526		
0.430623	3.74636	0.235231	2.05712	0.636957	5.54157	0.730071	6.38099	0.809324	7.04413			0.589633	5.12542	0.699121	6.10181	0.888928	7.75549		
0.43207	3.72872	0.237315	2.05858	0.64141	5.53545	0.734236	6.36555	0.812771	7.01722			0.593215	5.11513	0.702823	6.08464	0.891646	7.71649		
0.433511	3.71132	0.239399	2.06	0.645856	5.52936	0.738413	6.35047	0.816235	6.9909			0.59677	5.10478	0.706541	6.06789	0.894378	7.67822		
0.434948	3.69416	0.241483	2.06141	0.650294	5.52329	0.742604	6.33574	0.819718	6.96514			0.600299	5.09436	0.710275	6.05154	0.897124	7.64068		
0.43638	3.67722	0.243567	2.06279	0.654723	5.51725	0.746807	6.32135	0.823218	6.93995			0.6038	5.08387	0.714026	6.03558	0.899883	7.60384		
0.437808	3.66052	0.24565	2.06415	0.659144	5.51124	0.751022	6.30729	0.826737	6.91529			0.607273	5.07332	0.717792	6.02001	0.902655	7.56769		
0.439232	3.64404	0.247733	2.06548	0.663555	5.50523	0.755248	6.29353	0.830273	6.89117			0.610719	5.0627	0.721575	6.00481	0.905441	7.53221		
0.440653	3.62778	0.249817	2.0668	0.667957	5.49924	0.759485	6.28008	0.833828	6.86757			0.614137	5.05202	0.725373	5.98997	0.90824	7.49739		
0.44207	3.61175	0.2519	2.06809	0.672348	5.49326	0.763732	6.26692	0.837402	6.84448			0.617527	5.04127	0.729186	5.97549	0.911053	7.4632		
0.443485	3.59594	0.253983	2.06936	0.67673	5.48729	0.767989	6.25404	0.840994	6.82189			0.62089	5.03045	0.733015	5.96135	0.913879	7.42965		
0.444897	3.58034	0.256065	2.07061	0.681101	5.48132	0.772256	6.24143	0.844605	6.79979			0.624224	5.01957	0.736858	5.94754	0.916718	7.3967		
0.446307	3.56495	0.258148	2.07184	0.685461	5.47536	0.776531	6.22908	0.848235	6.77817			0.62753	5.00863	0.740716	5.93405	0.91957	7.36435		
0.447715	3.54978	0.260231	2.07306	0.689809	5.46939	0.780814	6.21698	0.851884	6.75702			0.630807	4.99763	0.744589	5.92089	0.922435	7.33259		
0.44912	3.53481	0.262313	2.07425	0.694146	5.46341	0.785106	6.20511	0.855552	6.73634			0.634057	4.98657	0.748476	5.90802	0.925313	7.30139		
0.450525	3.52005	0.264395	2.07543	0.698471	5.45744	0.789404	6.19348	0.859239	6.7161			0.637278	4.97545	0.752376	5.89545	0.928205	7.27075		
0.451928	3.5055	0.266478	2.07658	0.702784	5.45145	0.79371	6.18207	0.862946	6.69631			0.640471	4.96427	0.756291	5.88318	0.931109	7.24066		
0.453329	3.49114	0.26856	2.07772	0.707084	5.44545	0.798022	6.17088	0.866672	6.67695			0.643636	4.95303	0.760218	5.87117	0.934026	7.2111		
0.45473	3.47698	0.270642	2.07885	0.711371	5.43944	0.80234	6.15988	0.870418	6.65802			0.646774	4.94174	0.764158	5.85944	0.936957	7.18206		
0.45613	3.46301	0.272724	2.07995	0.715646	5.43341	0.806663	6.14909	0.874184	6.63951			0.649883	4.9304	0.768111	5.84797	0.9399	7.15353		
0.45753	3.44924	0.274805	2.08104	0.719907	5.42737	0.810991	6.13849	0.87797	6.62141			0.652964	4.919	0.772076	5.83676	0.942856	7.1255		
0.458929	3.43566	0.276887	2.08212	0.724154	5.42131	0.815324	6.12806	0.881777	6.60371			0.656017	4.90756	0.776053	5.82579	0.945824	7.09796		
0.460328	3.42226	0.278968	2.08317	0.728387	5.41523	0.81966	6.11782	0.885603	6.58642			0.659044	4.89607	0.780041	5.81506	0.948806	7.0709		
0.461727	3.40905	0.28105	2.08422	0.732607	5.40914	0.824	6.10774	0.88945	6.56951			0.662042	4.88454	0.78404	5.80455	0.9518	7.0443		
0.463126	3.39602	0.283131	2.08524	0.736812	5.40301	0.828343	6.09782	0.893318	6.55298			0.665014	4.87297	0.78805	5.79427	0.954807	7.01816		
0.464525	3.38316	0.285213	2.08626	0.741002	5.39687	0.832689	6.08806	0.897207	6.53683			0.667958	4.86136	0.79207	5.78421	0.957827	6.99247		
0.465925	3.37049	0.287294	2.08726	0.745177	5.3907	0.837037	6.07844	0.901117	6.52105			0.670876	4.84971	0.7961	5.77435	0.960859	6.96722		
0.467325	3.35798	0.289375	2.08824	0.749338	5.38451	0.841387	6.06897	0.905048	6.50563			0.673767	4.83802	0.80014	5.76469	0.963904	6.94239		
0.468726	3.34565	0.291456	2.08921	0.753483	5.37828	0.845738	6.05963	0.909	6.49057			0.676632	4.8263	0.804188	5.75523	0.966961	6.91799		
0.470128	3.33349	0.293537	2.09017	0.757612	5.37203	0.850091	6.05042	0.912973	6.47586			0.67947	4.81455	0.808245	5.74595	0.970031	6.894		
0.47153	3.32149	0.295618	2.09111	0.761726	5.36576	0.854443	6.04134	0.916968	6.46149			0.682283	4.80278	0.812311	5.73685	0.973114	6.87042		
0.472933	3.30965	0.297698	2.09204	0.765824	5.35945	0.858797	6.03238	0.920984	6.44747			0.68507	4.79098	0.816384	5.72793	0.976209	6.84723		
0.474338	3.29798	0.299779	2.09296	0.769906	5.35311	0.863149	6.02354	0.925022	6.43377			0.687832	4.77915	0.820464	5.71917	0.979316	6.82442		
0.475744	3.28646	0.301859	2.09386	0.773972	5.34674	0.867502	6.0148	0.929081	6.4204			0.690569	4.76731	0.824551	5.71057	0.982435	6.802		
0.477151	3.2751	0.30394	2.09476	0.778021	5.34035	0.871853	6.00617	0.933162	6.40735			0.693281	4.75544	0.828645	5.70213	0.985567	6.77995		
0.478559	3.2639	0.30602	2.09564	0.782054	5.33391	0.876204	5.99765	0.937265	6.39461			0.695969	4.74356	0.832745	5.69384	0.988712	6.75826		
0.479969	3.25284	0.308101	2.09651	0.78607	5.32745	0.880553	5.98922	0.94139	6.38218			0.698632	4.73167	0.83685	5.68569	0.991868	6.73693		
0.48138	3.24194	0.310181	2.09737	0.790069	5.32095	0.8849	5.98089	0.945536	6.37006			0.701272	4.71977	0.840961	5.67768	0.995037	6.71596		
0.482793	3.23118	0.312261	2.09822	0.79405	5.31442	0.889246	5.97265	0.949704	6.35823			0.703888	4.70785	0.845077	5.6698	0.998218	6.69532		
0.484208	3.22056	0.314341	2.09905	0.798015	5.30786	0.893589	5.96449	0.953894	6.34669			0.706481	4.69593	0.849197	5.66205	1.00141	6.67502		
0.485624	3.21009	0.316421	2.09988	0.801962	5.30126	0.897929	5.95642	0.958105	6.33543			0.709051	4.684	0.853321	5.65442				
0.487042	3.19976	0.318501	2.10069	0.805892	5.29463	0.902267	5.94844	0.962338	6.32446			0.711598	4.67207	0.857448	5.64691				
0.488462	3.18957	0.320581	2.1015	0.809804	5.28797	0.906602	5.94053	0.966592	6.31376			0.714123	4.66014	0.861579	5.63951				
0.489884	3.17951	0.322661	2.10229	0.813699	5.28127	0.910934	5.93269	0.970867	6.30332			0.716625	4.64822	0.865712	5.63222				
0.491308	3.16958	0.324741	2.10307	0.817576	5.27453	0.915263	5.92494	0.975164	6.29315			0.719106	4.63629	0.869848	5.62503				
0.492734	3.15979	0.32682	2.10385	0.821434	5.26776	0.919589	5.91725	0.979482	6.28324			0.721566	4.62437	0.873986	5.61794				
0.494162	3.15013	0.3289	2.10461	0.825275	5.26096	0.923911	5.90963	0.98382	6.27357			0.724005	4.61246	0.878125	5.61094				
0.495592	3.14059	0.330979	2.10537	0.829098	5.25412	0.928229	5.90208	0.988179	6.26415			0.726423	4.60056	0.882266	5.60404				
0.497025	3.13118	0.333059	2.10611	0.832902	5.24725	0.932544	5.8946	0.992559	6.25497			0.72882	4.58867	0.886407	5.59722				
0.498459	3.12189	0.335138	2.10685	0.836689	5.24035	0.936855	5.88718	0.996958	6.24603			0.731198	4.57679	0.890549	5.59048				
0.499896	3.11273	0.337218	2.10758	0.840456	5.23341	0.941163	5.87982	1.00138	6.23731			0.733556	4.56492	0.894691	5.58382				
0.501335	3.10368	0.339297	2.1083	0.844206	5.22643	0.945467	5.87252					0.735894	4.55307	0.898832	5.57724				
0.502777	3.09476	0.341376	2.10901	0.847937	5.21943	0.949766	5.86529					0.738213	4.54124	0.902973	5.57073				
0.504221	3.08595	0.343456	2.10971	0.85165	5.21239	0.954062	5.85811					0.740513	4.52943	0.907113	5.56429				
0.505667	3.07725	0.345535	2.1104	0.855344	5.20531	0.958355	5.851					0.742795	4.51765	0.911252	5.55791				
0.507115	3.06867	0.347614	2.11109	0.85902	5.19821	0.962643	5.84394					0.745058	4.50588	0.915388	5.55159				
0.508566	3.0602	0.349693	2.11176	0.862677	5.19107	0.966928	5.83693					0.747304	4.49414	0.919523	5.54533				
0.51002	3.05183	0.351772	2.11243	0.866315	5.1839	0.971209	5.82999					0.749532	4.48242	0.923655	5.53913				
0.511476	3.04358	0.353851	2.1131	0.869935	5.1767	0.975486	5.82309					0.751743	4.47073	0.927785	5.53298				
0.512934	3.03543	0.35593	2.11375	0.873536	5.16947	0.979759	5.81626					0.753936	4.45907	0.931911	5.52688				
0.514396	3.02738	0.358008	2.1144	0.877119	5.16221	0.984029	5.80947					0.756113	4.44744	0.936034	5.52083				
0.515859	3.01944	0.360087	2.11503	0.880683	5.15492	0.988295	5.80274					0.758274	4.43584	0.940153	5.51482				
0.517325	3.0116	0.362166	2.11567	0.884229	5.1476	0.992558	5.79606					0.760419	4.42427	0.944269	5.50885				
0.518794	3.00386	0.364245	2.11629	0.887755	5.14025	0.996818	5.78944					0.762548	4.41274	0.94838	5.50292				
0.520265	2.99621	0.366323	2.11691	0.891264	5.13288	1.00107	5.78286					0.764661	4.40124	0.952486	5.49703				
0.521739	2.98866	0.368402	2.11752	0.894753	5.12547							0.766759	4.38977	0.956587	5.49117				
0.523216	2.98121	0.37048	2.11812	0.898225	5.11804							0.768842	4.37835	0.960683	5.48535				
0.524695	2.97385	0.372559	2.11872	0.901677	5.11058							0.770911	4.36695	0.964774	5.47956				
0.526177	2.96659	0.374637	2.11931	0.905112	5.1031							0.772965	4.3556	0.968858	5.47379				
0.527662	2.95941	0.376716	2.1199	0.908527	5.09559							0.775005	4.34429	0.972937	5.46805				
0.529149	2.95233	0.378794	2.12047	0.911925	5.08806							0.777031	4.33302	0.977009	5.46233				
0.530639	2.94533	0.380872	2.12105	0.915304	5.0805							0.779044	4.32179	0.981075	5.45664				
0.532132	2.93842	0.38295	2.12161	0.918665	5.07292							0.781044	4.3106	0.985133	5.45097				
0.533627	2.93159	0.385029	2.12217	0.922008	5.06532							0.78303	4.29946	0.989185	5.44531				
0.535125	2.92485	0.387107	2.12272	0.925333	5.0577							0.785004	4.28836	0.993229	5.43967				
0.536625	2.91819	0.389185	2.12327	0.928639	5.05005							0.786965	4.2773	0.997265	5.43405				
0.538129	2.91161	0.391263	2.12381	0.931928	5.04239							0.788914	4.26629	1.00129	5.42844				
0.539635	2.90512	0.393341	2.12435	0.935198	5.03471							0.790851	4.25532						
0.541143	2.8987	0.395419	2.12488	0.938451	5.027							0.792776	4.24441						
0.542655	2.89236	0.397497	2.12541	0.941686	5.01928							0.79469	4.23353						
0.544169	2.8861	0.399575	2.12593	0.944903	5.01154							0.796592	4.22271						
0.545686	2.87991	0.401653	2.12644	0.948103	5.00378							0.798484	4.21193						
0.547205	2.8738	0.403731	2.12695	0.951285	4.99601							0.800364	4.20121						
0.548727	2.86776	0.405809	2.12745	0.954449	4.98822							0.802234	4.19053						
0.550252	2.8618	0.407887	2.12795	0.957596	4.98042							0.804094	4.1799						
0.55178	2.8559	0.409964	2.12845	0.960726	4.9726							0.805944	4.16932						
0.55331	2.85008	0.412042	2.12894	0.963839	4.96477							0.807783	4.15879						
0.554843	2.84433	0.41412	2.12942	0.966934	4.95693							0.809613	4.14832						
0.556378	2.83864	0.416197	2.1299	0.970013	4.94907							0.811434	4.13789						
0.557917	2.83302	0.418275	2.13037	0.973074	4.9412							0.813245	4.12752						
0.559458	2.82747	0.420352	2.13084	0.976119	4.93332							0.815048	4.1172						
0.561001	2.82198	0.42243	2.13131	0.979147	4.92543							0.816841	4.10693						
0.562547	2.81656	0.424507	2.13177	0.982158	4.91753							0.818626	4.09671						
0.564096	2.8112	0.426585	2.13223	0.985153	4.90962							0.820402	4.08654						
0.565648	2.8059	0.428662	2.13268	0.988131	4.90171							0.82217	4.07643						
0.567202	2.80067	0.43074	2.13313	0.991093	4.89378							0.82393	4.06637						
0.568759	2.7955	0.432817	2.13357	0.994038	4.88585							0.825682	4.05637						
0.570318	2.79038	0.434895	2.13401	0.996968	4.87791							0.827426	4.04642						
0.57188	2.78533	0.436972	2.13444	0.999881	4.86996							0.829163	4.03652						
0.573445	2.78033	0.439049	2.13488	1.00278	4.86201							0.830893	4.02668						
0.575012	2.77539	0.441126	2.1353									0.832615	4.01688						
0.576581	2.77051	0.443204	2.13573									0.83433	4.00715						
0.578154	2.76568	0.445281	2.13614									0.836039	3.99747						
0.579729	2.76091	0.447358	2.13656									0.83774	3.98784						
0.581306	2.7562	0.449435	2.13697									0.839436	3.97826						
0.582886	2.75153	0.451512	2.13738									0.841125	3.96874						
0.584469	2.74692	0.453589	2.13778									0.842807	3.95928						
0.586054	2.74236	0.455666	2.13818									0.844484	3.94987						
0.587641	2.73785	0.457743	2.13858									0.846155	3.94051						
0.589231	2.7334	0.45982	2.13897									0.84782	3.93121						
0.590824	2.72899	0.461897	2.13936									0.84948	3.92196						
0.592419	2.72463	0.463974	2.13975									0.851134	3.91277						
0.594016	2.72032	0.466051	2.14013									0.852782	3.90362						
0.595616	2.71606	0.468128	2.14051									0.854426	3.89454						
0.597219	2.71185	0.470205	2.14089									0.856064	3.88551						
0.598823	2.70768	0.472282	2.14126									0.857698	3.87653						
0.600431	2.70356	0.474359	2.14163									0.859327	3.8676						
0.60204	2.69948	0.476435	2.14199									0.860951	3.85873						
0.603652	2.69545	0.478512	2.14236									0.862571	3.84992						
0.605267	2.69146	0.480589	2.14272									0.864186	3.84115						
0.606884	2.68751	0.482666	2.14307									0.865797	3.83244						
0.608503	2.68361	0.484742	2.14343									0.867404	3.82378						
0.610125	2.67975	0.486819	2.14378									0.869006	3.81518						
0.611749	2.67594	0.488896	2.14413									0.870605	3.80663						
0.613375	2.67216	0.490972	2.14447									0.8722	3.79813						
0.615003	2.66842	0.493049	2.14481									0.873791	3.78968						
0.616634	2.66473	0.495125	2.14515									0.875379	3.78129						
0.618267	2.66107	0.497202	2.14549									0.876963	3.77295						
0.619903	2.65745	0.499279	2.14582									0.878544	3.76466						
0.621541	2.65387	0.501355	2.14615									0.880121	3.75642						
0.623181	2.65033	0.503432	2.14648									0.881695	3.74823						
0.624823	2.64683	0.505508	2.14681									0.883266	3.7401						
0.626467	2.64336	0.507584	2.14713									0.884834	3.73201						
0.628114	2.63993	0.509661	2.14745									0.8864	3.72398						
0.629763	2.63654	0.511737	2.14777									0.887962	3.716						
0.631414	2.63318	0.513814	2.14808									0.889521	3.70807						
0.633068	2.62986	0.51589	2.14839									0.891078	3.70019						
0.634723	2.62657	0.517966	2.1487									0.892632	3.69236						
0.636381	2.62331	0.520043	2.14901									0.894184	3.68458						
0.63804	2.62009	0.522119	2.14931									0.895734	3.67684						
0.639702	2.61691	0.524195	2.14962									0.897281	3.66916						
0.641367	2.61375	0.526271	2.14992									0.898825	3.66153						
0.643033	2.61063	0.528348	2.15022									0.900368	3.65394						
0.644701	2.60754	0.530424	2.15051									0.901909	3.64641						
0.646371	2.60448	0.5325	2.1508									0.903447	3.63892						
0.648044	2.60145	0.534576	2.15109									0.904984	3.63148						
0.649718	2.59846	0.536652	2.15138									0.906518	3.62409						
0.651395	2.59549	0.538729	2.15167									0.908051	3.61675						
0.653074	2.59256	0.540805	2.15195									0.909582	3.60945						
0.654754	2.58965	0.542881	2.15224									0.911112	3.6022						
0.656437	2.58677	0.544957	2.15252									0.912639	3.595						
0.658122	2.58392	0.547033	2.15279									0.914166	3.58784						
0.659808	2.5811	0.549109	2.15307									0.91569	3.58074						
0.661497	2.57831	0.551185	2.15334									0.917214	3.57367						
0.663188	2.57555	0.553261	2.15361									0.918736	3.56665						
0.66488	2.57281	0.555337	2.15388									0.920256	3.55968						
0.666575	2.5701	0.557413	2.15415									0.921775	3.55276						
0.668271	2.56742	0.559489	2.15442									0.923294	3.54587						
0.66997	2.56477	0.561565	2.15468									0.924811	3.53904						
0.67167	2.56214	0.563641	2.15494									0.926327	3.53224						
0.673372	2.55953	0.565717	2.1552									0.927841	3.5255						
0.675076	2.55696	0.567792	2.15546									0.929355	3.51879						
0.676782	2.5544	0.569868	2.15571									0.930868	3.51213						
0.67849	2.55188	0.571944	2.15597									0.93238	3.50551						
0.6802	2.54937	0.57402	2.15622									0.933891	3.49894						
0.681911	2.54689	0.576096	2.15647									0.935402	3.4924						
0.683625	2.54444	0.578172	2.15672									0.936912	3.48592						
0.68534	2.54201	0.580247	2.15697									0.938421	3.47947						
0.687057	2.5396	0.582323	2.15721									0.939929	3.47306						
0.688776	2.53722	0.584399	2.15745									0.941437	3.4667						
0.690496	2.53485	0.586475	2.1577									0.942944	3.46038						
0.692219	2.53252	0.58855	2.15794									0.94445	3.4541						
0.693943	2.5302	0.590626	2.15817									0.945956	3.44786						
0.695669	2.5279	0.592702	2.15841									0.947462	3.44166						
0.697396	2.52563	0.594777	2.15864									0.948967	3.4355						
0.699126	2.52338	0.596853	2.15888									0.950472	3.42938						
0.700857	2.52115	0.598929	2.15911									0.951977	3.4233						
0.70259	2.51894	0.601004	2.15934									0.953481	3.41726						
0.704324	2.51675	0.60308	2.15957									0.954985	3.41126						
0.70606	2.51459	0.605155	2.15979									0.956489	3.4053						
0.707798	2.51244	0.607231	2.16002									0.957992	3.39937						
0.709538	2.51031	0.609307	2.16024									0.959496	3.39349						
0.711279	2.5082	0.611382	2.16046									0.960999	3.38764						
0.713022	2.50612	0.613458	2.16069									0.962502	3.38183						
0.714766	2.50405	0.615533	2.1609									0.964005	3.37606						
0.716512	2.502	0.617609	2.16112									0.965508	3.37033						
0.71826	2.49997	0.619684	2.16134									0.967011	3.36464						
0.72001	2.49796	0.621759	2.16155									0.968514	3.35898						
0.721761	2.49596	0.623835	2.16177									0.970018	3.35335						
0.723513	2.49399	0.62591	2.16198									0.971521	3.34777						
0.725267	2.49203	0.627986	2.16219									0.973024	3.34222						
0.727023	2.49009	0.630061	2.1624									0.974527	3.3367						
0.72878	2.48817	0.632137	2.16261									0.976031	3.33122						
0.730539	2.48627	0.634212	2.16281									0.977535	3.32578						
0.732299	2.48438	0.636287	2.16302									0.979039	3.32037						
0.734061	2.48251	0.638363	2.16322									0.980543	3.315						
0.735824	2.48066	0.640438	2.16342									0.982048	3.30966						
0.737589	2.47882	0.642513	2.16362									0.983552	3.30436						
0.739356	2.477	0.644589	2.16382									0.985057	3.29909						
0.741124	2.4752	0.646664	2.16402									0.986563	3.29385						
0.742893	2.47341	0.648739	2.16422									0.988069	3.28865						
0.744664	2.47164	0.650814	2.16441									0.989575	3.28348						
0.746436	2.46988	0.65289	2.16461									0.991081	3.27834						
0.74821	2.46814	0.654965	2.1648									0.992588	3.27324						
0.749985	2.46642	0.65704	2.16499									0.994095	3.26817						
0.751762	2.46471	0.659115	2.16518									0.995603	3.26313						
0.75354	2.46302	0.661191	2.16537									0.997111	3.25813						
0.755319	2.46134	0.663266	2.16556									0.99862	3.25315						
0.7571	2.45967	0.665341	2.16575									1.00013	3.24821						
0.758883	2.45802	0.667416	2.16594																
0.760666	2.45639	0.669491	2.16612																
0.762451	2.45477	0.671566	2.1663																
0.764238	2.45316	0.673641	2.16649																
0.766026	2.45157	0.675717	2.16667																
0.767815	2.44999	0.677792	2.16685																
0.769605	2.44842	0.679867	2.16703																
0.771397	2.44687	0.681942	2.16721																
0.77319	2.44533	0.684017	2.16738																
0.774985	2.44381	0.686092	2.16756																
0.776781	2.44229	0.688167	2.16773																
0.778578	2.44079	0.690242	2.16791																
0.780376	2.43931	0.692317	2.16808																
0.782176	2.43783	0.694392	2.16825																
0.783977	2.43637	0.696467	2.16842																
0.785779	2.43492	0.698542	2.16859																
0.787583	2.43348	0.700617	2.16876																
0.789387	2.43206	0.702692	2.16893																
0.791194	2.43065	0.704767	2.1691																
0.793001	2.42925	0.706842	2.16926																
0.794809	2.42786	0.708917	2.16943																
0.796619	2.42648	0.710991	2.16959																
0.79843	2.42511	0.713066	2.16975																
0.800242	2.42376	0.715141	2.16992																
0.802056	2.42242	0.717216	2.17008																
0.80387	2.42108	0.719291	2.17024																
0.805686	2.41976	0.721366	2.17039																
0.807503	2.41845	0.723441	2.17055																
0.809321	2.41715	0.725515	2.17071																
0.81114	2.41586	0.72759	2.17087																
0.812961	2.41458	0.729665	2.17102																
0.814783	2.41332	0.73174	2.17118																
0.816605	2.41206	0.733814	2.17133																
0.818429	2.41081	0.735889	2.17148																
0.820254	2.40958	0.737964	2.17163																
0.82208	2.40835	0.740039	2.17178																
0.823908	2.40713	0.742113	2.17193																
0.825736	2.40592	0.744188	2.17208																
0.827566	2.40473	0.746263	2.17223																
0.829396	2.40354	0.748338	2.17238																
0.831228	2.40236	0.750412	2.17253																
0.833061	2.40119	0.752487	2.17267																
0.834894	2.40003	0.754562	2.17282																
0.836729	2.39888	0.756636	2.17296																
0.838565	2.39774	0.758711	2.17311																
0.840402	2.39661	0.760785	2.17325																
0.84224	2.39549	0.76286	2.17339																
0.84408	2.39437	0.764935	2.17353																
0.84592	2.39327	0.767009	2.17367																
0.847761	2.39217	0.769084	2.17381																
0.849603	2.39108	0.771158	2.17395																
0.851446	2.39	0.773233	2.17409																
0.853291	2.38893	0.775307	2.17423																
0.855136	2.38787	0.777382	2.17436																
0.856982	2.38682	0.779456	2.1745																
0.85883	2.38577	0.781531	2.17463																
0.860678	2.38473	0.783606	2.17477																
0.862527	2.3837	0.78568	2.1749																
0.864377	2.38268	0.787755	2.17503																
0.866228	2.38167	0.789829	2.17517																
0.868081	2.38066	0.791903	2.1753																
0.869934	2.37966	0.793978	2.17543																
0.871788	2.37867	0.796052	2.17556																
0.873643	2.37769	0.798127	2.17569																
0.875499	2.37671	0.800201	2.17582																
0.877356	2.37575	0.802276	2.17594																
0.879214	2.37478	0.80435	2.17607																
0.881072	2.37383	0.806424	2.1762																
0.882932	2.37289	0.808499	2.17632																
0.884793	2.37195	0.810573	2.17645																
0.886654	2.37101	0.812647	2.17657																
0.888516	2.37009	0.814722	2.1767																
0.89038	2.36917	0.816796	2.17682																
0.892244	2.36826	0.81887	2.17694																
0.894109	2.36736	0.820945	2.17707																
0.895975	2.36646	0.823019	2.17719																
0.897842	2.36557	0.825093	2.17731																
0.89971	2.36469	0.827168	2.17743																
0.901578	2.36381	0.829242	2.17755																
0.903448	2.36294	0.831316	2.17767																
0.905318	2.36207	0.83339	2.17779																
0.907189	2.36122	0.835465	2.1779																
0.909061	2.36036	0.837539	2.17802																
0.910934	2.35952	0.839613	2.17814																
0.912808	2.35868	0.841687	2.17825																
0.914682	2.35785	0.843762	2.17837																
0.916558	2.35702	0.845836	2.17849																
0.918434	2.3562	0.84791	2.1786																
0.920311	2.35539	0.849984	2.17871																
0.922189	2.35458	0.852058	2.17883																
0.924067	2.35377	0.854132	2.17894																
0.925947	2.35298	0.856207	2.17905																
0.927827	2.35219	0.858281	2.17916																
0.929708	2.3514	0.860355	2.17927																
0.93159	2.35062	0.862429	2.17938																
0.933472	2.34985	0.864503	2.17949																
0.935355	2.34908	0.866577	2.1796																
0.93724	2.34832	0.868651	2.17971																
0.939125	2.34756	0.870725	2.17982																
0.94101	2.34681	0.872799	2.17993																
0.942897	2.34606	0.874874	2.18004																
0.944784	2.34532	0.876948	2.18014																
0.946672	2.34458	0.879022	2.18025																
0.94856	2.34385	0.881096	2.18035																
0.95045	2.34313	0.88317	2.18046																
0.95234	2.34241	0.885244	2.18056																
0.954231	2.34169	0.887318	2.18067																
0.956123	2.34098	0.889392	2.18077																
0.958015	2.34028	0.891466	2.18087																
0.959908	2.33958	0.89354	2.18098																
0.961802	2.33888	0.895614	2.18108																
0.963697	2.33819	0.897688	2.18118																
0.965592	2.3375	0.899761	2.18128																
0.967488	2.33682	0.901835	2.18138																
0.969384	2.33615	0.903909	2.18148																
0.971282	2.33548	0.905983	2.18158																
0.97318	2.33481	0.908057	2.18168																
0.975079	2.33415	0.910131	2.18178																
0.976978	2.33349	0.912205	2.18188																
0.978878	2.33284	0.914279	2.18198																
0.980779	2.33219	0.916353	2.18208																
0.98268	2.33154	0.918427	2.18217																
0.984583	2.3309	0.9205	2.18227																
0.986485	2.33027	0.922574	2.18237																
0.988389	2.32964	0.924648	2.18246																
0.990293	2.32901	0.926722	2.18256																
0.992198	2.32839	0.928796	2.18265																
0.994103	2.32777	0.93087	2.18275																
0.996009	2.32716	0.932943	2.18284																
0.997916	2.32655	0.935017	2.18293																
0.999824	2.32594	0.937091	2.18303																
1.00173	2.32534	0.939165	2.18312																
		0.941239	2.18321																
		0.943312	2.1833																
		0.945386	2.18339																
		0.94746	2.18348																
		0.949533	2.18358																
		0.951607	2.18367																
		0.953681	2.18376																
		0.955755	2.18384																
		0.957828	2.18393																
		0.959902	2.18402																
		0.961976	2.18411																
		0.964049	2.1842																
		0.966123	2.18429																
		0.968197	2.18437																
		0.97027	2.18446																
		0.972344	2.18455																
		0.974418	2.18463																
		0.976491	2.18472																
		0.978565	2.1848																
		0.980638	2.18489																
		0.982712	2.18497																
		0.984785	2.18505																
		0.986859	2.18514																
		0.988933	2.18522																
		0.991006	2.1853																
		0.99308	2.18539																
		0.995153	2.18547																
		0.997227	2.18555																
		0.9993	2.18563																
		1.00137	2.18571																
