Sym0		Asym0		Sym1		Sym2		Sym3		Sym4		Asym1		Asym2		Asym3	
467  Points		495  Points		222  Points		188  Points		174  Points		122  Points		335  Points		200  Points		163  Points	
Freq (MHz)	Vph (m/ms)	Freq (MHz)	Vph (m/ms)	Freq (MHz)	Vph (m/ms)	Freq (MHz)	Vph (m/ms)	Freq (MHz)	Vph (m/ms)	Freq (MHz)	Vph (m/ms)	Freq (MHz)	Vph (m/ms)	Freq (MHz)	Vph (m/ms)	Freq (MHz)	Vph (m/ms)
0.00137687	5.48589	0.000332819	0.162467	0.279528	410.212	0.472517	1658.35	0.559027	906.115	0.838528	2219.48	0.13983	175.771	0.419265	1448.31	0.698773	2381.44
0.00648782	5.4857	0.000701694	0.23545	0.279615	173.338	0.472536	388.398	0.559079	361.012	0.838552	640.361	0.14011	81.119	0.419309	343.363	0.698798	570.392
0.0115985	5.48555	0.00120259	0.307416	0.279774	109.939	0.472578	219.975	0.559176	225.443	0.838603	374.177	0.140596	52.8771	0.419405	194.812	0.698854	324.021
0.0167085	5.48527	0.00183139	0.378103	0.280004	80.5419	0.472643	153.454	0.559318	163.925	0.838681	264.327	0.141283	39.348	0.419556	136.018	0.698941	226.304
0.0218176	5.48488	0.00258306	0.447259	0.280305	63.5872	0.472731	117.838	0.559504	128.807	0.838785	204.353	0.142169	31.4373	0.419759	104.515	0.699059	173.886
0.0269254	5.48439	0.00345192	0.514673	0.280677	52.5622	0.472842	95.6511	0.559736	106.103	0.838916	166.575	0.143247	26.2646	0.420016	84.8867	0.699207	141.2
0.0320318	5.48382	0.00443177	0.580173	0.281118	44.824	0.472977	80.5053	0.560012	90.2209	0.839074	140.596	0.144512	22.6306	0.420326	71.4882	0.699387	118.871
0.0371364	5.48313	0.00551597	0.643608	0.281629	39.0973	0.473136	69.5093	0.560332	78.4909	0.839258	121.638	0.145957	19.9466	0.420689	61.7629	0.699597	102.651
0.0422389	5.48233	0.00669777	0.704873	0.282209	34.6908	0.473318	61.1642	0.560696	69.4747	0.83947	107.193	0.147575	17.8898	0.421105	54.3849	0.699838	90.3368
0.047339	5.48144	0.00797022	0.763886	0.282858	31.1975	0.473525	54.6153	0.561105	62.3298	0.839707	95.8236	0.149357	16.2684	0.421573	48.5978	0.700109	80.67
0.0524363	5.48042	0.00932654	0.820602	0.283574	28.362	0.473756	49.3399	0.561558	56.5295	0.839972	86.6419	0.151296	14.9614	0.422094	43.9386	0.700412	72.8808
0.0575307	5.47931	0.0107601	0.875005	0.284358	26.0161	0.474012	45.0001	0.562054	51.7279	0.840263	79.0728	0.153385	13.8883	0.422667	40.1083	0.700745	66.4713
0.0626217	5.47808	0.0122643	0.927087	0.285208	24.0443	0.474293	41.3678	0.562595	47.6885	0.84058	72.7262	0.155615	12.9941	0.423292	36.9048	0.701108	61.1053
0.0677091	5.47674	0.0138332	0.976882	0.286123	22.3648	0.474598	38.2834	0.563178	44.2438	0.840924	67.3287	0.157979	12.2393	0.423968	34.1868	0.701502	56.5478
0.0727924	5.47529	0.0154608	1.02442	0.287103	20.918	0.47493	35.6322	0.563805	41.2721	0.841295	62.6825	0.160469	11.5952	0.424697	31.8525	0.701926	52.6294
0.0778714	5.47372	0.0171418	1.06976	0.288146	19.6595	0.475288	33.3293	0.564474	38.6828	0.841692	58.6413	0.163078	11.0404	0.425476	29.8267	0.702381	49.2248
0.0829455	5.47203	0.018871	1.11296	0.289253	18.5555	0.475672	31.3106	0.565187	36.4071	0.842115	55.0945	0.165443	10.617	0.426306	28.0527	0.702866	46.2395
0.0880146	5.47021	0.0206437	1.1541	0.290421	17.5797	0.476083	29.5268	0.565941	34.3917	0.842565	51.9569	0.167522	10.2933	0.427186	26.4867	0.703381	43.601
0.0930782	5.46827	0.0224556	1.19324	0.291649	16.7116	0.476522	27.9396	0.566738	32.5946	0.843041	49.1617	0.169285	10.0482	0.428116	25.0948	0.703927	41.2523
0.0981359	5.46621	0.0243026	1.23046	0.292937	15.9347	0.476988	26.5183	0.567576	30.9827	0.843543	46.6561	0.170704	9.86739	0.429097	23.8497	0.704502	39.1485
0.103187	5.46401	0.026181	1.26586	0.294283	15.2357	0.477482	25.2385	0.568456	29.5289	0.844072	44.3975	0.171762	9.74119	0.430126	22.7299	0.705107	37.2534
0.108232	5.46168	0.0280877	1.29951	0.295687	14.604	0.478006	24.0803	0.569377	28.2114	0.844626	42.3512	0.172446	9.66324	0.431204	21.7176	0.705743	35.5376
0.113269	5.4592	0.0300196	1.33149	0.297146	14.0304	0.478559	23.0273	0.570339	27.0121	0.845207	40.4888	0.173437	9.55486	0.432331	20.7983	0.706407	33.9771
0.118299	5.45658	0.0319738	1.36189	0.29866	13.5077	0.479142	22.0661	0.571341	25.9159	0.845813	38.7867	0.174525	9.44171	0.433505	19.9602	0.707102	32.5517
0.12332	5.45382	0.033948	1.39078	0.300228	13.0296	0.479755	21.1854	0.572384	24.9105	0.846446	37.2253	0.176022	9.29516	0.434727	19.1931	0.707826	31.2449
0.128333	5.4509	0.0359399	1.41825	0.301849	12.5908	0.4804	20.3755	0.573466	23.985	0.847104	35.7878	0.177944	9.12101	0.435996	18.4886	0.70858	30.0426
0.133336	5.44782	0.0379475	1.44437	0.303521	12.1869	0.481077	19.6286	0.574588	23.1306	0.847788	34.4603	0.180311	8.92564	0.437312	17.8396	0.709362	28.9329
0.138329	5.44458	0.039969	1.46921	0.305242	11.8141	0.481786	18.9376	0.575749	22.3395	0.848498	33.2307	0.183141	8.71548	0.438673	17.2399	0.710174	27.9056
0.143312	5.44116	0.0420027	1.49285	0.307013	11.469	0.482528	18.2967	0.576949	21.605	0.849234	32.0886	0.186458	8.49662	0.440081	16.6843	0.711015	26.9519
0.148283	5.43757	0.0437839	1.51251	0.308831	11.1489	0.483304	17.7008	0.578187	20.9214	0.849995	31.0252	0.189845	8.29864	0.441533	16.1682	0.711885	26.0644
0.153243	5.4338	0.0453081	1.52861	0.310696	10.8513	0.484114	17.1454	0.579463	20.2838	0.850782	30.0325	0.193298	8.11891	0.44303	15.6878	0.712784	25.2364
0.15819	5.42984	0.0465722	1.5415	0.312359	10.6085	0.484959	16.6267	0.580777	19.6877	0.851594	29.104	0.196813	7.95522	0.44457	15.2396	0.713711	24.4623
0.163124	5.42567	0.0475739	1.55141	0.313802	10.4128	0.48584	16.1413	0.582128	19.1293	0.852431	28.2336	0.200386	7.80568	0.446154	14.8206	0.714667	23.7371
0.168044	5.4213	0.0483115	1.55855	0.315015	10.2582	0.486758	15.6863	0.583516	18.6053	0.853293	27.4162	0.204013	7.66868	0.447781	14.4281	0.715652	23.0563
0.172948	5.41672	0.0487841	1.56306	0.315985	10.1403	0.487713	15.2589	0.584941	18.1127	0.854181	26.647	0.207693	7.54282	0.449451	14.0598	0.716664	22.416
0.177837	5.41191	0.0494641	1.56946	0.316704	10.056	0.488706	14.8569	0.586402	17.6487	0.855094	25.922	0.211421	7.42691	0.451162	13.7136	0.717705	21.8129
0.182709	5.40686	0.0502041	1.57629	0.317168	10.0031	0.489738	14.4782	0.587899	17.2112	0.856031	25.2377	0.215195	7.31991	0.452914	13.3877	0.718773	21.2438
0.187563	5.40157	0.0512117	1.5854	0.317837	9.92839	0.490809	14.1209	0.589431	16.7978	0.856994	24.5906	0.219012	7.22091	0.454707	13.0805	0.719869	20.706
0.192397	5.39603	0.052488	1.59663	0.318571	9.84892	0.49192	13.7834	0.590998	16.4069	0.857981	23.9779	0.22287	7.12912	0.45654	12.7904	0.720993	20.1971
0.197212	5.39021	0.0540342	1.60977	0.319577	9.7437	0.493072	13.4642	0.5926	16.0366	0.858993	23.3969	0.226767	7.04384	0.458412	12.5162	0.722144	19.7148
0.202005	5.38412	0.0558515	1.62461	0.320862	9.61512	0.494266	13.1619	0.594236	15.6854	0.86003	22.8454	0.2307	6.96445	0.460323	12.2566	0.723322	19.2572
0.206776	5.37772	0.057941	1.64092	0.322438	9.466	0.495502	12.8754	0.595906	15.3519	0.861091	22.3212	0.234667	6.89042	0.462273	12.0105	0.724528	18.8224
0.211523	5.37103	0.0600342	1.65649	0.324314	9.29941	0.496781	12.6035	0.59761	15.0349	0.862176	21.8223	0.238667	6.82125	0.464261	11.7771	0.72576	18.4088
0.216244	5.36401	0.0621305	1.67137	0.326503	9.11858	0.498103	12.3452	0.599347	14.7333	0.863285	21.3469	0.242697	6.75652	0.466285	11.5553	0.72702	18.015
0.220938	5.35665	0.0642296	1.68559	0.32873	8.94796	0.49947	12.0997	0.601117	14.4459	0.864419	20.8936	0.246756	6.69584	0.468347	11.3445	0.728305	17.6396
0.225604	5.34895	0.066331	1.69919	0.330996	8.78679	0.500883	11.8661	0.60292	14.1719	0.865576	20.4608	0.250842	6.63888	0.470444	11.1438	0.729617	17.2814
0.230239	5.34087	0.0684343	1.7122	0.333298	8.63436	0.502341	11.6436	0.604754	13.9104	0.866758	20.0472	0.254954	6.58532	0.472577	10.9526	0.730956	16.9393
0.234842	5.3324	0.0705391	1.72466	0.335638	8.49004	0.503845	11.4316	0.60662	13.6606	0.867963	19.6516	0.25909	6.53489	0.474464	10.7932	0.73232	16.6123
0.239412	5.32353	0.0726453	1.7366	0.338014	8.35328	0.505396	11.2295	0.608518	13.4217	0.869192	19.2729	0.263249	6.48734	0.476093	10.6624	0.73371	16.2993
0.243945	5.31424	0.0747525	1.74804	0.340426	8.22354	0.506995	11.0365	0.610447	13.1931	0.870445	18.91	0.267429	6.44243	0.477455	10.5576	0.735126	15.9996
0.248441	5.30451	0.0768605	1.75901	0.342874	8.10037	0.508428	10.8755	0.612407	12.9742	0.87172	18.562	0.27163	6.39997	0.47854	10.4768	0.736567	15.7124
0.252896	5.29431	0.078969	1.76954	0.345358	7.98334	0.509678	10.7432	0.614397	12.7645	0.87302	18.2281	0.275849	6.35978	0.479343	10.4184	0.738034	15.4369
0.257309	5.28364	0.0810781	1.77964	0.347879	7.87206	0.510732	10.6371	0.616417	12.5632	0.874342	17.9073	0.280086	6.32168	0.47986	10.3816	0.739525	15.1724
0.261677	5.27247	0.0831874	1.78935	0.350436	7.76619	0.511579	10.5552	0.618466	12.3701	0.875687	17.5991	0.28434	6.28551	0.480605	10.3293	0.741042	14.9183
0.265998	5.26078	0.0852968	1.79867	0.35303	7.6654	0.512209	10.4962	0.620545	12.1846	0.877056	17.3026	0.28861	6.25115	0.481419	10.2734	0.742583	14.6741
0.27027	5.24855	0.0874063	1.80764	0.355661	7.56941	0.512616	10.4589	0.622654	12.0064	0.878447	17.0172	0.292894	6.21845	0.482532	10.1986	0.744149	14.4392
0.27449	5.23576	0.0895157	1.81627	0.358331	7.47794	0.513205	10.4059	0.624791	11.835	0.87986	16.7424	0.297192	6.18731	0.483952	10.1064	0.745739	14.2131
0.278655	5.22241	0.091625	1.82457	0.361039	7.39076	0.513851	10.3492	0.626956	11.67	0.881297	16.4776	0.301502	6.15761	0.485685	9.99806	0.747353	13.9954
0.282764	5.20846	0.093734	1.83257	0.363787	7.30763	0.51474	10.2734	0.629149	11.5112	0.882755	16.2223	0.305825	6.12926	0.487739	9.87531	0.748991	13.7855
0.286813	5.19392	0.0958427	1.84028	0.366576	7.22837	0.515882	10.1799	0.63137	11.3582	0.884236	15.976	0.310158	6.10216	0.490127	9.7399	0.750652	13.5832
0.290801	5.17875	0.097951	1.84771	0.369406	7.15278	0.517288	10.0701	0.633619	11.2108	0.885739	15.7382	0.314501	6.07624	0.492545	9.61003	0.752337	13.3879
0.294725	5.16297	0.100059	1.85487	0.37228	7.08068	0.518973	9.94575	0.6356	11.0866	0.887265	15.5086	0.318854	6.05141	0.494993	9.48536	0.754046	13.1995
0.298582	5.14655	0.102166	1.86178	0.375198	7.01193	0.520954	9.80858	0.637306	10.9837	0.888812	15.2867	0.323216	6.0276	0.49747	9.36563	0.755778	13.0175
0.302372	5.12949	0.104273	1.86845	0.378162	6.94637	0.522986	9.67709	0.638727	10.9007	0.89038	15.0721	0.327585	6.00474	0.499977	9.25056	0.757532	12.8417
0.306091	5.11179	0.10638	1.8749	0.381173	6.88387	0.52507	9.55099	0.639858	10.8363	0.891971	14.8646	0.331961	5.98278	0.502513	9.13992	0.759309	12.6716
0.309739	5.09346	0.108486	1.88113	0.384233	6.8243	0.527205	9.43001	0.640693	10.7897	0.893582	14.6638	0.336343	5.96166	0.505076	9.03346	0.761109	12.5072
0.313314	5.07449	0.110592	1.88715	0.387342	6.76754	0.529392	9.31391	0.64123	10.7601	0.895216	14.4694	0.340731	5.94132	0.507667	8.93099	0.762931	12.3481
0.316814	5.05491	0.112697	1.89297	0.390503	6.71347	0.53163	9.20245	0.642004	10.718	0.89687	14.2811	0.345124	5.92172	0.510286	8.83228	0.764775	12.1941
0.320239	5.03471	0.114801	1.89861	0.393716	6.662	0.53392	9.0954	0.642848	10.6728	0.898545	14.0986	0.349521	5.9028	0.512931	8.73717	0.766641	12.0449
0.323589	5.01393	0.116905	1.90406	0.396982	6.61302	0.536262	8.99257	0.644001	10.6123	0.900241	13.9217	0.353922	5.88453	0.515602	8.64546	0.768528	11.9003
0.326862	4.99257	0.119008	1.90935	0.400303	6.56643	0.538655	8.89374	0.645468	10.5371	0.901959	13.7501	0.358326	5.86687	0.518299	8.55701	0.770437	11.7602
0.330059	4.97068	0.121111	1.91446	0.40368	6.52214	0.541099	8.79875	0.647255	10.4482	0.903696	13.5837	0.362732	5.84977	0.521022	8.47164	0.772368	11.6244
0.333181	4.94826	0.123213	1.91943	0.407112	6.48004	0.543595	8.70741	0.64937	10.3467	0.905454	13.4221	0.36714	5.83321	0.523769	8.38923	0.774319	11.4926
0.336228	4.92536	0.125314	1.92424	0.4106	6.44006	0.546141	8.61956	0.651819	10.2338	0.907233	13.2653	0.371549	5.81715	0.526541	8.30962	0.776037	11.3809
0.339201	4.90201	0.127416	1.9289	0.414145	6.40211	0.548738	8.53504	0.654294	10.1246	0.909031	13.1129	0.375958	5.80156	0.529337	8.23269	0.777513	11.288
0.341732	4.88131	0.129516	1.93343	0.417746	6.36608	0.551385	8.45371	0.656794	10.0188	0.91085	12.9649	0.380367	5.7864	0.532157	8.15833	0.778743	11.2127
0.343847	4.86344	0.131616	1.93783	0.421403	6.33191	0.554082	8.37541	0.659318	9.91637	0.912689	12.8211	0.384776	5.77167	0.535	8.08641	0.779721	11.1541
0.345567	4.84851	0.133715	1.9421	0.425115	6.29949	0.556828	8.30003	0.661866	9.81713	0.914547	12.6812	0.389183	5.75731	0.537866	8.01684	0.780443	11.1115
0.346908	4.83661	0.135814	1.94624	0.428881	6.26876	0.559623	8.22743	0.664437	9.72094	0.916425	12.5452	0.393589	5.74332	0.540754	7.9495	0.780906	11.0845
0.347883	4.82782	0.137913	1.95027	0.432701	6.23961	0.562466	8.15749	0.667033	9.62767	0.918323	12.4128	0.397992	5.72968	0.543665	7.8843	0.781574	11.046
0.348503	4.82217	0.14001	1.95419	0.436572	6.21198	0.565356	8.09009	0.669652	9.53722	0.92024	12.284	0.402391	5.71634	0.546598	7.82116	0.782303	11.0046
0.349388	4.81402	0.142108	1.95801	0.440494	6.18578	0.568294	8.02514	0.672294	9.44946	0.922176	12.1587	0.406788	5.70331	0.549553	7.75998	0.783298	10.9489
0.350342	4.80514	0.144205	1.96171	0.444465	6.16093	0.571278	7.96252	0.674959	9.36429	0.924131	12.0366	0.41118	5.69056	0.552528	7.70069	0.784563	10.8795
0.351625	4.79299	0.146301	1.96532	0.448482	6.13736	0.574308	7.90213	0.677646	9.2816	0.926105	11.9177	0.415568	5.67807	0.555525	7.64321	0.786103	10.7972
0.353227	4.77755	0.148397	1.96884	0.452545	6.11499	0.577383	7.84388	0.680356	9.20129	0.928098	11.8018	0.41995	5.66581	0.558542	7.58746	0.787924	10.7029
0.355131	4.75876	0.150493	1.97226	0.45665	6.09374	0.580502	7.78769	0.683088	9.12329	0.92985	11.7033	0.424326	5.65379	0.56158	7.53338	0.790031	10.5974
0.357321	4.73658	0.152588	1.97559	0.460796	6.07356	0.583665	7.73346	0.685842	9.04749	0.931354	11.621	0.428696	5.64197	0.564639	7.48091	0.792158	10.4948
0.359779	4.71097	0.154682	1.97884	0.464982	6.05438	0.586871	7.68111	0.688618	8.97381	0.932606	11.5541	0.433059	5.63036	0.567717	7.42997	0.794304	10.3949
0.362178	4.68523	0.156776	1.98201	0.469203	6.03612	0.590118	7.63056	0.691416	8.90219	0.9336	11.5019	0.437414	5.61892	0.570814	7.38052	0.796469	10.2977
0.364522	4.65939	0.15887	1.9851	0.47346	6.01874	0.593407	7.58175	0.694235	8.83253	0.934335	11.464	0.441761	5.60764	0.573932	7.33249	0.798653	10.203
0.366813	4.63349	0.160963	1.98811	0.477749	6.00217	0.596736	7.5346	0.697075	8.76477	0.934806	11.4399	0.4461	5.59653	0.577068	7.28584	0.800856	10.1108
0.369052	4.60756	0.163056	1.99105	0.482068	5.98636	0.600105	7.48904	0.699937	8.69884	0.935484	11.4054	0.450429	5.58555	0.580224	7.24051	0.803078	10.021
0.371243	4.58162	0.165149	1.99392	0.486415	5.97126	0.603513	7.445	0.702819	8.63468	0.936224	11.3683	0.454748	5.5747	0.583399	7.19646	0.805317	9.93344
0.373388	4.5557	0.167241	1.99672	0.490789	5.95683	0.606959	7.40243	0.705722	8.57222	0.937234	11.3184	0.459057	5.56398	0.586592	7.15364	0.807575	9.84811
0.375488	4.52983	0.169333	1.99945	0.495188	5.943	0.610442	7.36126	0.708645	8.5114	0.938518	11.2561	0.463355	5.55336	0.589804	7.112	0.809851	9.76492
0.377546	4.50403	0.171425	2.00212	0.499608	5.92976	0.613961	7.32144	0.711589	8.45218	0.940079	11.182	0.467641	5.54283	0.593035	7.07151	0.812145	9.68379
0.379564	4.47833	0.173516	2.00473	0.50405	5.91704	0.617516	7.28291	0.714553	8.39448	0.941923	11.0968	0.471915	5.53239	0.596284	7.03213	0.814456	9.60465
0.381544	4.45274	0.175607	2.00728	0.508511	5.90483	0.621105	7.24563	0.717537	8.33827	0.944056	11.0012	0.476176	5.52203	0.599551	6.99381	0.816785	9.52743
0.383488	4.42729	0.177697	2.00977	0.512989	5.89307	0.624728	7.20954	0.720541	8.2835	0.946206	10.9078	0.480423	5.51174	0.602837	6.95653	0.819132	9.45208
0.385397	4.40199	0.179787	2.01221	0.517483	5.88174	0.628385	7.17459	0.723564	8.23011	0.948373	10.8166	0.484657	5.5015	0.60614	6.92025	0.821495	9.37853
0.387274	4.37685	0.181877	2.01459	0.521991	5.87082	0.632073	7.14074	0.726608	8.17806	0.950558	10.7275	0.488876	5.49132	0.609462	6.88494	0.823876	9.30671
0.38912	4.35189	0.183967	2.01692	0.526513	5.86026	0.635793	7.10795	0.729671	8.12731	0.95276	10.6405	0.49308	5.48117	0.612801	6.85056	0.826274	9.23659
0.390937	4.32712	0.186056	2.0192	0.531046	5.85005	0.639544	7.07618	0.732753	8.07781	0.954979	10.5554	0.497267	5.47107	0.616158	6.81709	0.828688	9.16809
0.392727	4.30255	0.188145	2.02143	0.535589	5.84015	0.643324	7.04538	0.735855	8.02953	0.957214	10.4723	0.501439	5.46098	0.619534	6.7845	0.831119	9.10117
0.39449	4.2782	0.190234	2.02362	0.540141	5.83056	0.647134	7.01552	0.738976	7.98244	0.959466	10.391	0.505594	5.45092	0.622927	6.75276	0.833567	9.03579
0.396228	4.25407	0.192322	2.02576	0.544701	5.82124	0.650972	6.98656	0.742116	7.93649	0.961735	10.3115	0.50973	5.44087	0.626338	6.72184	0.836031	8.97189
0.397943	4.23017	0.19441	2.02785	0.549268	5.81217	0.654837	6.95846	0.745276	7.89164	0.96402	10.2338	0.513849	5.43082	0.629766	6.69173	0.838511	8.90942
0.399636	4.20651	0.196498	2.0299	0.55384	5.80334	0.658729	6.9312	0.748454	7.84787	0.966322	10.1578	0.517949	5.42077	0.633213	6.66239	0.841007	8.84835
0.401309	4.18308	0.198586	2.03191	0.558418	5.79473	0.662647	6.90473	0.751652	7.80515	0.96864	10.0834	0.52203	5.41072	0.636677	6.63381	0.84352	8.78863
0.402961	4.15991	0.200674	2.03388	0.562998	5.78632	0.666591	6.87904	0.754868	7.76344	0.970973	10.0106	0.52609	5.40065	0.640158	6.60596	0.846048	8.73023
0.404595	4.13699	0.202761	2.03581	0.567582	5.7781	0.670559	6.85409	0.758103	7.72271	0.973323	9.93934	0.53013	5.39057	0.643658	6.57882	0.848592	8.67309
0.406211	4.11432	0.204848	2.0377	0.572168	5.77005	0.67455	6.82985	0.761357	7.68294	0.975688	9.86959	0.534149	5.38046	0.647175	6.55237	0.851151	8.6172
0.407811	4.09191	0.206935	2.03956	0.576754	5.76217	0.678565	6.80629	0.76463	7.6441	0.978069	9.8013	0.538146	5.37032	0.65071	6.5266	0.853727	8.5625
0.409395	4.06976	0.209021	2.04138	0.581341	5.75443	0.682603	6.78339	0.767922	7.60616	0.980465	9.73443	0.542121	5.36015	0.654263	6.50147	0.856317	8.50897
0.410965	4.04787	0.211107	2.04316	0.585927	5.74682	0.686662	6.76113	0.771232	7.5691	0.982877	9.66893	0.546073	5.34995	0.657834	6.47699	0.858923	8.45657
0.412521	4.02625	0.213194	2.04491	0.590512	5.73935	0.690742	6.73948	0.774562	7.53289	0.985303	9.60477	0.550002	5.3397	0.661422	6.45312	0.861544	8.40528
0.414064	4.00489	0.215279	2.04663	0.595095	5.73199	0.694842	6.71841	0.77791	7.49752	0.987745	9.54192	0.553907	5.3294	0.665028	6.42985	0.86418	8.35505
0.415595	3.98379	0.217365	2.04832	0.599676	5.72473	0.698962	6.69791	0.781277	7.46296	0.990202	9.48032	0.557788	5.31906	0.668651	6.40717	0.866831	8.30587
0.417114	3.96296	0.219451	2.04997	0.604253	5.71757	0.703101	6.67795	0.784662	7.42918	0.992674	9.41996	0.561643	5.30866	0.672293	6.38506	0.869497	8.25769
0.418622	3.9424	0.221536	2.0516	0.608826	5.71051	0.707259	6.65852	0.788067	7.39617	0.99516	9.36079	0.565474	5.29821	0.675952	6.3635	0.872178	8.2105
0.420121	3.9221	0.223621	2.05319	0.613395	5.70352	0.711434	6.63959	0.791491	7.36391	0.997661	9.30279	0.569279	5.2877	0.679628	6.34249	0.874874	8.16427
0.42161	3.90206	0.225706	2.05476	0.617959	5.6966	0.715626	6.62114	0.794933	7.33238	1.00018	9.24591	0.573058	5.27713	0.683323	6.32199	0.877584	8.11897
0.42309	3.88228	0.227791	2.0563	0.622518	5.68976	0.719835	6.60316	0.798395	7.30156			0.57681	5.2665	0.687034	6.30201	0.880309	8.07458
0.424562	3.86276	0.229876	2.05781	0.62707	5.68297	0.724059	6.58562	0.801876	7.27144			0.580535	5.2558	0.690764	6.28253	0.883049	8.03108
0.426026	3.8435	0.23196	2.05929	0.631615	5.67624	0.728299	6.56852	0.805376	7.24199			0.584233	5.24504	0.69451	6.26353	0.885803	7.98843
0.427483	3.8245	0.234045	2.06075	0.636154	5.66955	0.732553	6.55184	0.808895	7.21321			0.587903	5.23421	0.698274	6.245	0.888571	7.94663
0.428933	3.80575	0.236129	2.06219	0.640685	5.66291	0.736821	6.53555	0.812434	7.18507			0.591545	5.22331	0.702055	6.22692	0.891353	7.90564
0.430378	3.78726	0.238213	2.0636	0.645208	5.65631	0.741103	6.51965	0.815992	7.15756			0.595159	5.21234	0.705853	6.2093	0.89415	7.86545
0.431816	3.76902	0.240297	2.06498	0.649722	5.64974	0.745397	6.50411	0.81957	7.13067			0.598745	5.2013	0.709668	6.19211	0.896961	7.82604
0.433249	3.75102	0.242381	2.06634	0.654228	5.6432	0.749703	6.48893	0.823168	7.10439			0.602302	5.19019	0.7135	6.17534	0.899786	7.78738
0.434677	3.73327	0.244464	2.06768	0.658724	5.63668	0.75402	6.47409	0.826786	7.07869			0.605829	5.17901	0.717348	6.15898	0.902625	7.74946
0.436101	3.71576	0.246548	2.069	0.66321	5.63018	0.758349	6.45958	0.830424	7.05357			0.609328	5.16776	0.721212	6.14302	0.905478	7.71227
0.43752	3.6985	0.248631	2.0703	0.667686	5.6237	0.762687	6.44539	0.834082	7.02902			0.612797	5.15643	0.725093	6.12745	0.908345	7.67577
0.438936	3.68147	0.250714	2.07157	0.672152	5.61724	0.767036	6.4315	0.837761	7.00501			0.616237	5.14504	0.72899	6.11225	0.911226	7.63997
0.440348	3.66468	0.252797	2.07283	0.676607	5.61078	0.771393	6.4179	0.84146	6.98156			0.619648	5.13358	0.732902	6.09742	0.91412	7.60483
0.441757	3.64812	0.25488	2.07406	0.681051	5.60433	0.775759	6.40457	0.845179	6.95863			0.623028	5.12206	0.736829	6.08295	0.917029	7.57035
0.443163	3.63178	0.256963	2.07528	0.685483	5.59788	0.780133	6.39152	0.84892	6.93622			0.626379	5.11046	0.740772	6.06882	0.919951	7.5365
0.444567	3.61568	0.259046	2.07647	0.689903	5.59143	0.784514	6.37872	0.852682	6.91432			0.629701	5.0988	0.74473	6.05502	0.922886	7.50328
0.445968	3.5998	0.261128	2.07765	0.694311	5.58499	0.788902	6.36617	0.856465	6.89292			0.632993	5.08708	0.748702	6.04155	0.925836	7.47067
0.447367	3.58414	0.263211	2.07881	0.698706	5.57853	0.793296	6.35386	0.86027	6.87201			0.636255	5.07529	0.752688	6.02839	0.928799	7.43866
0.448765	3.5687	0.265293	2.07995	0.703088	5.57207	0.797695	6.34177	0.864096	6.85159			0.639487	5.06345	0.756688	6.01554	0.931775	7.40722
0.45016	3.55347	0.267376	2.08108	0.707457	5.5656	0.8021	6.3299	0.867945	6.83163			0.64269	5.05154	0.760701	6.00299	0.934765	7.37636
0.451555	3.53845	0.269458	2.08218	0.711813	5.55912	0.806509	6.31824	0.871815	6.81214			0.645864	5.03958	0.764728	5.99072	0.937768	7.34605
0.452948	3.52365	0.27154	2.08327	0.716155	5.55263	0.810922	6.30678	0.875708	6.7931			0.649008	5.02756	0.768768	5.97872	0.940785	7.31628
0.454341	3.50905	0.273622	2.08435	0.720483	5.54612	0.815338	6.29551	0.879623	6.77451			0.652123	5.01549	0.772819	5.967	0.943815	7.28705
0.455733	3.49465	0.275704	2.0854	0.724796	5.53959	0.819757	6.28442	0.88356	6.75635			0.655209	5.00338	0.776883	5.95553	0.946858	7.25833
0.457124	3.48045	0.277785	2.08645	0.729095	5.53305	0.824179	6.27351	0.887521	6.73863			0.658266	4.99121	0.780958	5.94432	0.949915	7.23012
0.458515	3.46645	0.279867	2.08747	0.733379	5.52648	0.828603	6.26277	0.891504	6.72133			0.661294	4.979	0.785044	5.93334	0.952985	7.20241
0.459906	3.45265	0.281948	2.08849	0.737648	5.5199	0.833027	6.25218	0.895511	6.70444			0.664294	4.96674	0.789141	5.9226	0.956068	7.17519
0.461297	3.43904	0.28403	2.08948	0.741901	5.51329	0.837453	6.24175	0.899541	6.68796			0.667266	4.95445	0.793249	5.91209	0.959164	7.14844
0.462688	3.42561	0.286111	2.09047	0.746139	5.50665	0.841879	6.23147	0.903594	6.67188			0.670209	4.94212	0.797366	5.90179	0.962273	7.12216
0.464079	3.41237	0.288193	2.09144	0.750361	5.49999	0.846305	6.22133	0.907671	6.65619			0.673125	4.92975	0.801492	5.8917	0.965395	7.09633
0.465471	3.39932	0.290274	2.09239	0.754567	5.49331	0.850731	6.21132	0.911771	6.64089			0.676013	4.91735	0.805628	5.88182	0.96853	7.07095
0.466863	3.38644	0.292355	2.09334	0.758756	5.48659	0.855156	6.20144	0.915896	6.62596			0.678874	4.90492	0.809771	5.87213	0.971678	7.04601
0.468256	3.37375	0.294436	2.09426	0.762929	5.47985	0.859579	6.19169	0.920044	6.61141			0.681708	4.89246	0.813923	5.86263	0.974839	7.02149
0.46965	3.36123	0.296517	2.09518	0.767085	5.47308	0.864001	6.18205	0.924216	6.59722			0.684515	4.87997	0.818083	5.85331	0.978013	6.9974
0.471044	3.34888	0.298598	2.09609	0.771225	5.46627	0.868421	6.17252	0.928412	6.58339			0.687296	4.86747	0.822249	5.84416	0.9812	6.97371
0.47244	3.3367	0.300679	2.09698	0.775347	5.45944	0.872839	6.16311	0.932631	6.56991			0.690051	4.85494	0.826423	5.83518	0.984399	6.95042
0.473837	3.32469	0.302759	2.09786	0.779452	5.45257	0.877253	6.1538	0.936875	6.55677			0.69278	4.8424	0.830602	5.82636	0.987611	6.92753
0.475235	3.31284	0.30484	2.09872	0.783539	5.44567	0.881666	6.14459	0.941143	6.54396			0.695483	4.82984	0.834788	5.8177	0.990836	6.90502
0.476635	3.30115	0.306921	2.09958	0.787609	5.43874	0.886075	6.13548	0.945434	6.53149			0.698161	4.81727	0.838978	5.80919	0.994074	6.8829
0.478035	3.28963	0.309001	2.10043	0.791661	5.43178	0.89048	6.12646	0.949749	6.51934			0.700815	4.80469	0.843174	5.80081	0.997323	6.86114
0.479438	3.27826	0.311081	2.10126	0.795695	5.42478	0.894882	6.11753	0.954088	6.5075			0.703444	4.79211	0.847374	5.79258	1.00059	6.83974
0.480842	3.26705	0.313162	2.10208	0.799712	5.41774	0.899281	6.10869	0.958451	6.49598			0.706048	4.77952	0.851578	5.78448		
0.482247	3.25599	0.315242	2.1029	0.803709	5.41067	0.903675	6.09994	0.962836	6.48475			0.708629	4.76692	0.855785	5.7765		
0.483654	3.24507	0.317322	2.1037	0.807689	5.40357	0.908066	6.09127	0.967245	6.47382			0.711187	4.75433	0.859996	5.76864		
0.485064	3.23431	0.319402	2.10449	0.81165	5.39643	0.912452	6.08268	0.971677	6.46318			0.713721	4.74173	0.86421	5.7609		
0.486475	3.22369	0.321482	2.10527	0.815592	5.38926	0.916834	6.07416	0.976131	6.45282			0.716232	4.72915	0.868425	5.75327		
0.487887	3.21321	0.323562	2.10604	0.819515	5.38205	0.921212	6.06572	0.980608	6.44273			0.718721	4.71656	0.872643	5.74575		
0.489302	3.20288	0.325642	2.1068	0.82342	5.37481	0.925586	6.05736	0.985107	6.43291			0.721187	4.70399	0.876862	5.73833		
0.490719	3.19268	0.327722	2.10756	0.827306	5.36753	0.929955	6.04907	0.989628	6.42335			0.723632	4.69143	0.881082	5.731		
0.492138	3.18262	0.329802	2.1083	0.831173	5.36022	0.93432	6.04085	0.99417	6.41405			0.726055	4.67887	0.885302	5.72376		
0.493559	3.1727	0.331882	2.10903	0.835021	5.35287	0.93868	6.03271	0.998734	6.40499			0.728458	4.66634	0.889523	5.71662		
0.494982	3.1629	0.333962	2.10976	0.838849	5.34548	0.943036	6.02463	1.00332	6.39618			0.730839	4.65382	0.893744	5.70956		
0.496408	3.15324	0.336041	2.11047	0.842658	5.33807	0.947389	6.01662					0.7332	4.64131	0.897964	5.70257		
0.497836	3.1437	0.338121	2.11118	0.846448	5.33061	0.951737	6.00868					0.735541	4.62883	0.902183	5.69567		
0.499266	3.13429	0.3402	2.11188	0.850219	5.32313	0.95608	6.00081					0.737862	4.61637	0.906401	5.68884		
0.500698	3.12501	0.34228	2.11257	0.85397	5.3156	0.96042	5.993					0.740163	4.60393	0.910617	5.68207		
0.502133	3.11585	0.344359	2.11325	0.857702	5.30805	0.964756	5.98526					0.742446	4.59152	0.914831	5.67537		
0.50357	3.1068	0.346439	2.11393	0.861414	5.30046	0.969088	5.97758					0.744709	4.57914	0.919043	5.66873		
0.50501	3.09788	0.348518	2.11459	0.865107	5.29284	0.973416	5.96997					0.746954	4.56678	0.923252	5.66215		
0.506452	3.08907	0.350597	2.11525	0.86878	5.28519	0.97774	5.96242					0.749181	4.55445	0.927457	5.65563		
0.507897	3.08037	0.352676	2.1159	0.872434	5.2775	0.982061	5.95494					0.75139	4.54215	0.931659	5.64916		
0.509344	3.07179	0.354756	2.11654	0.876069	5.26979	0.986379	5.94752					0.753582	4.52989	0.935858	5.64274		
0.510794	3.06332	0.356835	2.11718	0.879683	5.26204	0.990693	5.94016					0.755757	4.51766	0.940052	5.63636		
0.512246	3.05496	0.358914	2.11781	0.883279	5.25426	0.995004	5.93286					0.757914	4.50547	0.944241	5.63003		
0.513701	3.04671	0.360993	2.11843	0.886854	5.24646	0.999311	5.92563					0.760055	4.49331	0.948426	5.62374		
0.515158	3.03856	0.363072	2.11904	0.890411	5.23862	1.00362	5.91846					0.76218	4.48119	0.952606	5.61749		
0.516618	3.03052	0.365151	2.11965	0.893947	5.23076							0.764289	4.4691	0.95678	5.61128		
0.518081	3.02258	0.36723	2.12025	0.897465	5.22286							0.766383	4.45706	0.960948	5.6051		
0.519546	3.01474	0.369308	2.12085	0.900963	5.21495							0.768461	4.44506	0.96511	5.59895		
0.521014	3.00701	0.371387	2.12143	0.904441	5.207							0.770524	4.4331	0.969266	5.59282		
0.522485	2.99937	0.373466	2.12201	0.9079	5.19903							0.772572	4.42119	0.973415	5.58673		
0.523958	2.99182	0.375545	2.12259	0.91134	5.19103							0.774606	4.40932	0.977557	5.58066		
0.525434	2.98437	0.377623	2.12316	0.914761	5.18301							0.776625	4.39749	0.981692	5.57462		
0.526913	2.97702	0.379702	2.12372	0.918163	5.17497							0.778631	4.38571	0.985819	5.56859		
0.528394	2.96976	0.381781	2.12427	0.921545	5.1669							0.780623	4.37398	0.989939	5.56259		
0.529879	2.96258	0.383859	2.12482	0.924909	5.15881							0.782602	4.36229	0.99405	5.5566		
0.531366	2.9555	0.385938	2.12537	0.928253	5.1507							0.784568	4.35066	0.998153	5.55063		
0.532855	2.94851	0.388016	2.12591	0.931579	5.14256							0.786521	4.33907	1.00225	5.54467		
0.534348	2.9416	0.390094	2.12644	0.934886	5.13441							0.788461	4.32753				
0.535843	2.93478	0.392173	2.12697	0.938174	5.12624							0.790389	4.31604				
0.537341	2.92804	0.394251	2.12749	0.941443	5.11805							0.792305	4.30461				
0.538841	2.92139	0.396329	2.128	0.944694	5.10984							0.79421	4.29322				
0.540344	2.91481	0.398408	2.12852	0.947926	5.10161							0.796103	4.28189				
0.541851	2.90832	0.400486	2.12902	0.95114	5.09337							0.797985	4.27061				
0.543359	2.90191	0.402564	2.12952	0.954336	5.08511							0.799855	4.25938				
0.544871	2.89557	0.404642	2.13002	0.957513	5.07684							0.801715	4.24821				
0.546385	2.88931	0.40672	2.13051	0.960672	5.06855							0.803565	4.23709				
0.547902	2.88313	0.408799	2.13099	0.963813	5.06025							0.805404	4.22603				
0.549422	2.87702	0.410877	2.13147	0.966936	5.05193							0.807233	4.21502				
0.550944	2.87099	0.412955	2.13195	0.970042	5.0436							0.809052	4.20406				
0.55247	2.86503	0.415033	2.13242	0.973129	5.03526							0.810862	4.19317				
0.553998	2.85914	0.417111	2.13289	0.976199	5.02692							0.812662	4.18233				
0.555528	2.85331	0.419188	2.13335	0.979252	5.01856							0.814453	4.17154				
0.557061	2.84756	0.421266	2.1338	0.982286	5.01019							0.816235	4.16081				
0.558598	2.84188	0.423344	2.13426	0.985304	5.00181							0.818008	4.15014				
0.560136	2.83627	0.425422	2.13471	0.988304	4.99342							0.819772	4.13953				
0.561678	2.83072	0.4275	2.13515	0.991288	4.98503							0.821529	4.12897				
0.563222	2.82523	0.429578	2.13559	0.994254	4.97663							0.823277	4.11847				
0.564769	2.81981	0.431655	2.13603	0.997203	4.96822							0.825017	4.10803				
0.566318	2.81446	0.433733	2.13646	1.00014	4.95981							0.826749	4.09764				
0.56787	2.80916	0.435811	2.13688									0.828474	4.08732				
0.569425	2.80393	0.437888	2.13731									0.830191	4.07705				
0.570982	2.79876	0.439966	2.13773									0.831901	4.06684				
0.572543	2.79365	0.442044	2.13814									0.833604	4.05668				
0.574105	2.7886	0.444121	2.13855									0.8353	4.04659				
0.57567	2.7836	0.446199	2.13896									0.836989	4.03656				
0.577238	2.77867	0.448276	2.13937									0.838672	4.02658				
0.578809	2.77379	0.450354	2.13977									0.840348	4.01666				
0.580382	2.76896	0.452431	2.14016									0.842018	4.0068				
0.581958	2.76419	0.454509	2.14056									0.843682	3.997				
0.583536	2.75948	0.456586	2.14094									0.84534	3.98725				
0.585117	2.75481	0.458663	2.14133									0.846992	3.97756				
0.5867	2.7502	0.460741	2.14171									0.848639	3.96794				
0.588286	2.74565	0.462818	2.14209									0.85028	3.95837				
0.589875	2.74114	0.464895	2.14247									0.851916	3.94885				
0.591465	2.73669	0.466973	2.14284									0.853547	3.9394				
0.593059	2.73228	0.46905	2.14321									0.855172	3.93				
0.594655	2.72792	0.471127	2.14358									0.856793	3.92066				
0.596253	2.72362	0.473204	2.14394									0.858409	3.91138				
0.597854	2.71935	0.475281	2.1443									0.86002	3.90216				
0.599457	2.71514	0.477359	2.14465									0.861626	3.89299				
0.601063	2.71097	0.479436	2.14501									0.863229	3.88388				
0.602672	2.70685	0.481513	2.14536									0.864827	3.87483				
0.604282	2.70278	0.48359	2.1457									0.86642	3.86583				
0.605895	2.69875	0.485667	2.14605									0.86801	3.85689				
0.607511	2.69476	0.487744	2.14639									0.869596	3.848				
0.609129	2.69081	0.489821	2.14673									0.871178	3.83918				
0.610749	2.68691	0.491898	2.14706									0.872756	3.8304				
0.612372	2.68305	0.493975	2.1474									0.874331	3.82169				
0.613996	2.67924	0.496052	2.14773									0.875902	3.81303				
0.615624	2.67546	0.498129	2.14805									0.87747	3.80442				
0.617253	2.67172	0.500206	2.14838									0.879034	3.79587				
0.618885	2.66803	0.502283	2.1487									0.880595	3.78737				
0.62052	2.66437	0.50436	2.14902									0.882153	3.77893				
0.622156	2.66075	0.506436	2.14934									0.883708	3.77055				
0.623795	2.65718	0.508513	2.14965									0.885261	3.76221				
0.625436	2.65363	0.51059	2.14996									0.88681	3.75393				
0.627079	2.65013	0.512667	2.15027									0.888357	3.74571				
0.628725	2.64666	0.514744	2.15058									0.889901	3.73754				
0.630373	2.64323	0.51682	2.15088									0.891442	3.72942				
0.632023	2.63984	0.518897	2.15118									0.892981	3.72135				
0.633675	2.63648	0.520974	2.15148									0.894518	3.71334				
0.635329	2.63316	0.52305	2.15178									0.896052	3.70538				
0.636986	2.62987	0.525127	2.15207									0.897585	3.69747				
0.638645	2.62661	0.527204	2.15237									0.899115	3.68961				
0.640306	2.62339	0.52928	2.15266									0.900642	3.6818				
0.641969	2.6202	0.531357	2.15294									0.902168	3.67404				
0.643634	2.61705	0.533434	2.15323									0.903692	3.66634				
0.645301	2.61392	0.53551	2.15351									0.905214	3.65869				
0.64697	2.61083	0.537587	2.15379									0.906735	3.65108				
0.648642	2.60777	0.539663	2.15407									0.908253	3.64353				
0.650316	2.60474	0.54174	2.15435									0.90977	3.63602				
0.651991	2.60175	0.543816	2.15462									0.911286	3.62857				
0.653669	2.59878	0.545893	2.1549									0.9128	3.62116				
0.655349	2.59584	0.547969	2.15517									0.914312	3.61381				
0.65703	2.59294	0.550046	2.15544									0.915823	3.6065				
0.658714	2.59006	0.552122	2.1557									0.917333	3.59924				
0.6604	2.58721	0.554199	2.15597									0.918841	3.59202				
0.662088	2.58439	0.556275	2.15623									0.920349	3.58486				
0.663778	2.58159	0.558351	2.15649									0.921855	3.57774				
0.665469	2.57883	0.560428	2.15675									0.92336	3.57067				
0.667163	2.57609	0.562504	2.157									0.924864	3.56365				
0.668859	2.57338	0.56458	2.15726									0.926367	3.55667				
0.670556	2.5707	0.566657	2.15751									0.927869	3.54974				
0.672256	2.56804	0.568733	2.15776									0.92937	3.54285				
0.673957	2.56541	0.570809	2.15801									0.93087	3.53601				
0.675661	2.5628	0.572885	2.15826									0.932369	3.52922				
0.677366	2.56022	0.574962	2.1585									0.933868	3.52247				
0.679073	2.55767	0.577038	2.15875									0.935366	3.51576				
0.680782	2.55514	0.579114	2.15899									0.936863	3.5091				
0.682493	2.55263	0.58119	2.15923									0.93836	3.50249				
0.684205	2.55015	0.583267	2.15947									0.939856	3.49591				
0.68592	2.5477	0.585343	2.15971									0.941352	3.48938				
0.687636	2.54526	0.587419	2.15994									0.942847	3.4829				
0.689354	2.54285	0.589495	2.16018									0.944341	3.47645				
0.691074	2.54047	0.591571	2.16041									0.945836	3.47005				
0.692796	2.5381	0.593647	2.16064									0.94733	3.46369				
0.694519	2.53576	0.595723	2.16087									0.948823	3.45738				
0.696244	2.53344	0.597799	2.16109									0.950316	3.4511				
0.697972	2.53115	0.599876	2.16132									0.951809	3.44487				
0.6997	2.52887	0.601952	2.16154									0.953302	3.43868				
0.701431	2.52662	0.604028	2.16176									0.954795	3.43252				
0.703163	2.52438	0.606104	2.16199									0.956287	3.42641				
0.704897	2.52217	0.60818	2.1622									0.95778	3.42034				
0.706632	2.51998	0.610256	2.16242									0.959272	3.41431				
0.70837	2.51781	0.612332	2.16264									0.960764	3.40832				
0.710109	2.51566	0.614408	2.16285									0.962256	3.40237				
0.711849	2.51353	0.616483	2.16307									0.963749	3.39646				
0.713592	2.51142	0.618559	2.16328									0.965241	3.39058				
0.715336	2.50933	0.620635	2.16349									0.966733	3.38475				
0.717081	2.50726	0.622711	2.1637									0.968225	3.37895				
0.718828	2.50521	0.624787	2.16391									0.969718	3.37319				
0.720577	2.50318	0.626863	2.16411									0.971211	3.36747				
0.722328	2.50116	0.628939	2.16432									0.972704	3.36178				
0.72408	2.49916	0.631015	2.16452									0.974197	3.35614				
0.725833	2.49719	0.633091	2.16472									0.97569	3.35053				
0.727588	2.49523	0.635166	2.16493									0.977183	3.34495				
0.729345	2.49329	0.637242	2.16512									0.978677	3.33942				
0.731103	2.49136	0.639318	2.16532									0.980171	3.33392				
0.732863	2.48945	0.641394	2.16552									0.981666	3.32845				
0.734625	2.48757	0.64347	2.16572									0.98316	3.32302				
0.736388	2.48569	0.645545	2.16591									0.984656	3.31763				
0.738152	2.48384	0.647621	2.1661									0.986151	3.31227				
0.739918	2.482	0.649697	2.1663									0.987647	3.30695				
0.741685	2.48018	0.651773	2.16649									0.989144	3.30166				
0.743454	2.47837	0.653848	2.16668									0.99064	3.2964				
0.745225	2.47658	0.655924	2.16686									0.992138	3.29118				
0.746997	2.4748	0.658	2.16705									0.993636	3.28599				
0.74877	2.47305	0.660075	2.16724									0.995134	3.28084				
0.750545	2.4713	0.662151	2.16742									0.996633	3.27572				
0.752321	2.46958	0.664227	2.16761									0.998132	3.27063				
0.754099	2.46786	0.666302	2.16779									0.999632	3.26558				
0.755878	2.46617	0.668378	2.16797									1.00113	3.26055				
0.757658	2.46448	0.670453	2.16815														
0.75944	2.46282	0.672529	2.16833														
0.761224	2.46116	0.674605	2.16851														
0.763008	2.45952	0.67668	2.16868														
0.764794	2.4579	0.678756	2.16886														
0.766582	2.45629	0.680831	2.16903														
0.768371	2.45469	0.682907	2.16921														
0.770161	2.45311	0.684982	2.16938														
0.771952	2.45154	0.687058	2.16955														
0.773745	2.44999	0.689133	2.16972														
0.775539	2.44844	0.691209	2.16989														
0.777335	2.44692	0.693284	2.17006														
0.779132	2.4454	0.69536	2.17023														
0.78093	2.4439	0.697435	2.17039														
0.782729	2.44241	0.699511	2.17056														
0.78453	2.44093	0.701586	2.17072														
0.786332	2.43946	0.703662	2.17089														
0.788135	2.43801	0.705737	2.17105														
0.78994	2.43657	0.707812	2.17121														
0.791745	2.43514	0.709888	2.17137														
0.793552	2.43373	0.711963	2.17153														
0.795361	2.43232	0.714039	2.17169														
0.79717	2.43093	0.716114	2.17185														
0.798981	2.42955	0.718189	2.172														
0.800793	2.42818	0.720265	2.17216														
0.802606	2.42682	0.72234	2.17232														
0.80442	2.42547	0.724415	2.17247														
0.806236	2.42414	0.726491	2.17262														
0.808053	2.42281	0.728566	2.17277														
0.809871	2.4215	0.730641	2.17293														
0.81169	2.4202	0.732716	2.17308														
0.81351	2.4189	0.734792	2.17323														
0.815331	2.41762	0.736867	2.17338														
0.817154	2.41635	0.738942	2.17352														
0.818977	2.41509	0.741017	2.17367														
0.820802	2.41384	0.743093	2.17382														
0.822628	2.4126	0.745168	2.17396														
0.824455	2.41137	0.747243	2.17411														
0.826284	2.41015	0.749318	2.17425														
0.828113	2.40894	0.751393	2.17439														
0.829943	2.40774	0.753468	2.17454														
0.831775	2.40654	0.755544	2.17468														
0.833607	2.40536	0.757619	2.17482														
0.835441	2.40419	0.759694	2.17496														
0.837276	2.40303	0.761769	2.1751														
0.839112	2.40187	0.763844	2.17524														
0.840949	2.40073	0.765919	2.17537														
0.842787	2.39959	0.767994	2.17551														
0.844626	2.39847	0.770069	2.17565														
0.846466	2.39735	0.772144	2.17578														
0.848307	2.39624	0.774219	2.17592														
0.850149	2.39514	0.776295	2.17605														
0.851992	2.39405	0.77837	2.17618														
0.853836	2.39297	0.780445	2.17632														
0.855681	2.39189	0.78252	2.17645														
0.857527	2.39083	0.784595	2.17658														
0.859374	2.38977	0.78667	2.17671														
0.861223	2.38872	0.788745	2.17684														
0.863072	2.38768	0.79082	2.17697														
0.864922	2.38664	0.792895	2.1771														
0.866773	2.38562	0.79497	2.17722														
0.868625	2.3846	0.797044	2.17735														
0.870478	2.38359	0.799119	2.17748														
0.872332	2.38259	0.801194	2.1776														
0.874187	2.3816	0.803269	2.17773														
0.876043	2.38061	0.805344	2.17785														
0.8779	2.37963	0.807419	2.17797														
0.879758	2.37866	0.809494	2.1781														
0.881616	2.3777	0.811569	2.17822														
0.883476	2.37674	0.813644	2.17834														
0.885336	2.37579	0.815719	2.17846														
0.887198	2.37485	0.817794	2.17858														
0.88906	2.37391	0.819868	2.1787														
0.890923	2.37298	0.821943	2.17882														
0.892788	2.37206	0.824018	2.17894														
0.894653	2.37115	0.826093	2.17906														
0.896519	2.37024	0.828168	2.17918														
0.898385	2.36934	0.830242	2.17929														
0.900253	2.36844	0.832317	2.17941														
0.902122	2.36756	0.834392	2.17952														
0.903991	2.36668	0.836467	2.17964														
0.905861	2.3658	0.838542	2.17975														
0.907732	2.36493	0.840616	2.17987														
0.909604	2.36407	0.842691	2.17998														
0.911477	2.36322	0.844766	2.18009														
0.913351	2.36237	0.84684	2.1802														
0.915225	2.36153	0.848915	2.18032														
0.917101	2.36069	0.85099	2.18043														
0.918977	2.35986	0.853065	2.18054														
0.920854	2.35904	0.855139	2.18065														
0.922732	2.35822	0.857214	2.18076														
0.92461	2.35741	0.859289	2.18087														
0.92649	2.3566	0.861363	2.18097														
0.92837	2.3558	0.863438	2.18108														
0.930251	2.35501	0.865513	2.18119														
0.932133	2.35422	0.867587	2.1813														
0.934016	2.35343	0.869662	2.1814														
0.935899	2.35266	0.871737	2.18151														
0.937783	2.35188	0.873811	2.18161														
0.939668	2.35112	0.875886	2.18172														
0.941554	2.35036	0.87796	2.18182														
0.94344	2.3496	0.880035	2.18193														
0.945327	2.34885	0.882109	2.18203														
0.947215	2.34811	0.884184	2.18213														
0.949104	2.34737	0.886259	2.18223														
0.950994	2.34663	0.888333	2.18233														
0.952884	2.3459	0.890408	2.18244														
0.954775	2.34518	0.892482	2.18254														
0.956667	2.34446	0.894557	2.18264														
0.958559	2.34375	0.896631	2.18274														
0.960452	2.34304	0.898706	2.18284														
0.962346	2.34234	0.90078	2.18293														
0.964241	2.34164	0.902855	2.18303														
0.966136	2.34094	0.904929	2.18313														
0.968032	2.34025	0.907004	2.18323														
0.969929	2.33957	0.909078	2.18332														
0.971826	2.33889	0.911153	2.18342														
0.973724	2.33822	0.913227	2.18352														
0.975623	2.33755	0.915302	2.18361														
0.977523	2.33688	0.917376	2.18371														
0.979423	2.33622	0.91945	2.1838														
0.981324	2.33556	0.921525	2.1839														
0.983225	2.33491	0.923599	2.18399														
0.985128	2.33426	0.925674	2.18408														
0.98703	2.33362	0.927748	2.18418														
0.988934	2.33298	0.929822	2.18427														
0.990838	2.33235	0.931897	2.18436														
0.992743	2.33172	0.933971	2.18445														
0.994649	2.33109	0.936045	2.18454														
0.996555	2.33047	0.93812	2.18464														
0.998462	2.32985	0.940194	2.18473														
1.00037	2.32924	0.942268	2.18482														
		0.944343	2.18491														
		0.946417	2.185														
		0.948491	2.18508														
		0.950566	2.18517														
		0.95264	2.18526														
		0.954714	2.18535														
		0.956788	2.18544														
		0.958863	2.18552														
		0.960937	2.18561														
		0.963011	2.18569														
		0.965085	2.18578														
		0.96716	2.18587														
		0.969234	2.18595														
		0.971308	2.18603														
		0.973382	2.18612														
		0.975456	2.1862														
		0.977531	2.18629														
		0.979605	2.18637														
		0.981679	2.18645														
		0.983753	2.18653														
		0.985827	2.18662														
		0.987901	2.1867														
		0.989976	2.18678														
		0.99205	2.18686														
		0.994124	2.18694														
		0.996198	2.18702														
		0.998272	2.1871														
		1.00035	2.18718														
