Sym0		Asym0		Sym1		Sym2		Sym3		Sym4		Asym1		Asym2		Asym3		Asym4	
469  Points		498  Points		235  Points		201  Points		187  Points		131  Points		340  Points		213  Points		175  Points		111  Points	
Freq (MHz)	Vph (m/ms)	Freq (MHz)	Vph (m/ms)	Freq (MHz)	Vph (m/ms)	Freq (MHz)	Vph (m/ms)	Freq (MHz)	Vph (m/ms)	Freq (MHz)	Vph (m/ms)	Freq (MHz)	Vph (m/ms)	Freq (MHz)	Vph (m/ms)	Freq (MHz)	Vph (m/ms)	Freq (MHz)	Vph (m/ms)
0.00156581	5.12072	4.34218e-005	0.0567829	0.27952	497.256	0.466859	631.87	0.559022	1158.77	0.838528	1901.17	0.139792	233.596	0.419263	3022.89	0.698773	2365.65	0.933705	6518.23
0.00633683	5.12078	0.000213361	0.125773	0.279587	187.163	0.466885	279.48	0.559062	395.342	0.838551	610.852	0.140002	91.4969	0.419293	391.72	0.698794	569.479	0.933711	868.616
0.0111075	5.12064	0.000510554	0.194268	0.279716	115.322	0.466932	179.434	0.559141	238.357	0.838597	363.903	0.140395	57.0287	0.41937	209.467	0.698843	323.722	0.933726	465.319
0.0158777	5.12042	0.000932736	0.262021	0.279906	83.3745	0.466999	132.147	0.559259	170.635	0.838666	259.156	0.140968	41.5403	0.419493	142.987	0.698918	226.153	0.93375	317.783
0.0206473	5.12016	0.00147674	0.328788	0.280156	65.3211	0.467087	104.596	0.559416	132.903	0.838758	201.245	0.141718	32.7655	0.419663	108.567	0.69902	173.792	0.933783	241.286
0.025416	5.11981	0.00213857	0.39434	0.280467	53.7232	0.467196	86.5606	0.559612	108.855	0.838874	164.5	0.142641	27.134	0.419879	87.5264	0.699149	141.132	0.933826	194.477
0.0301837	5.11939	0.00291375	0.458507	0.280839	45.6478	0.467325	73.8385	0.559847	92.1924	0.839013	139.111	0.143732	23.2253	0.420142	73.3376	0.699305	118.817	0.933877	162.883
0.03495	5.1189	0.00379703	0.521101	0.28127	39.7051	0.467476	64.3842	0.560121	79.9682	0.839175	120.521	0.144986	20.3623	0.42045	63.1253	0.699487	102.605	0.933938	140.123
0.0397149	5.11833	0.00478297	0.581993	0.281761	35.1513	0.467647	57.0829	0.560433	70.6192	0.839361	106.321	0.146396	18.1814	0.420805	55.4255	0.699696	90.2957	0.934008	122.947
0.044478	5.11769	0.00586572	0.641066	0.282312	31.5524	0.46784	51.2751	0.560784	63.2391	0.839569	95.1212	0.147957	16.4695	0.421205	49.4143	0.699931	80.6313	0.934088	109.525
0.0492393	5.11697	0.00703933	0.698233	0.28292	28.6384	0.468054	46.5456	0.561174	57.2663	0.839801	86.0627	0.149662	15.0939	0.421652	44.5926	0.700193	72.8432	0.934176	98.7481
0.0539983	5.11618	0.00829776	0.753428	0.283587	26.2319	0.468289	42.6202	0.561602	52.3342	0.840056	78.5855	0.151504	13.9672	0.422144	40.6402	0.700482	66.434	0.934275	89.9042
0.058755	5.11531	0.00963506	0.806616	0.284312	24.2123	0.468547	39.3103	0.562068	48.1934	0.840334	72.3092	0.153476	13.0298	0.422681	37.3425	0.700797	61.0678	0.934382	82.5165
0.0635092	5.11436	0.0110453	0.857776	0.285093	22.4941	0.468827	36.4821	0.562572	44.6682	0.840635	66.9664	0.155571	12.2396	0.423264	34.5501	0.701139	56.5096	0.934499	76.2528
0.0682604	5.11333	0.012523	0.90691	0.285931	21.0153	0.469129	34.0378	0.563114	41.6315	0.840959	62.3636	0.157784	11.5659	0.423892	32.1558	0.701507	52.5902	0.934626	70.875
0.0730086	5.11221	0.0140627	0.95404	0.286824	19.7299	0.469454	31.9047	0.563694	38.9888	0.841307	58.3573	0.160108	10.986	0.424564	30.0808	0.701901	49.1844	0.934763	66.2076
0.0777534	5.11102	0.015659	0.999185	0.287772	18.6028	0.469802	30.027	0.564311	36.6684	0.841677	54.8389	0.162219	10.5434	0.425281	28.2657	0.702322	46.1978	0.93491	62.1187
0.0824946	5.10974	0.0173073	1.04239	0.288774	17.6071	0.470174	28.3619	0.564965	34.6153	0.84207	51.7246	0.164078	10.2052	0.426042	26.6651	0.702768	43.5577	0.935066	58.5072
0.087232	5.10837	0.0190029	1.0837	0.289829	16.7216	0.470569	26.8753	0.565656	32.7861	0.842486	48.9488	0.165656	9.94916	0.426848	25.2435	0.703242	41.2074	0.935232	55.2942
0.0919652	5.10691	0.0207416	1.12318	0.290936	15.9292	0.470988	25.5402	0.566384	31.1463	0.842926	46.4594	0.166927	9.76027	0.427697	23.9728	0.703741	39.102	0.935409	52.4172
0.096694	5.10536	0.0225194	1.16088	0.292095	15.2164	0.471432	24.3348	0.567149	29.6683	0.843387	44.2144	0.167876	9.62841	0.428589	22.8306	0.704266	37.2051	0.935596	49.8263
0.101418	5.10372	0.0243327	1.19687	0.293304	14.5721	0.471901	23.2413	0.56795	28.3295	0.843872	42.1796	0.168489	9.54696	0.429524	21.7985	0.704817	35.4875	0.935793	47.4809
0.106137	5.10198	0.026178	1.23121	0.294563	13.9872	0.472395	22.2448	0.568787	27.1113	0.84438	40.3269	0.169378	9.43371	0.430502	20.8617	0.705394	33.9251	0.936	45.3477
0.11085	5.10015	0.0280523	1.26398	0.29587	13.4541	0.472915	21.3334	0.56966	25.9983	0.84491	38.6332	0.170355	9.31547	0.431523	20.0079	0.705997	32.4979	0.936218	43.3992
0.115558	5.09821	0.0299527	1.29523	0.297225	12.9664	0.47346	20.4965	0.570568	24.9777	0.845463	37.0789	0.171701	9.16231	0.432586	19.2266	0.706626	31.1893	0.936447	41.6126
0.12026	5.09616	0.0318767	1.32504	0.298627	12.5187	0.474033	19.7257	0.571512	24.0386	0.846038	35.6475	0.173429	8.98031	0.43369	18.5092	0.70728	29.9851	0.936686	39.9685
0.124955	5.09401	0.0338218	1.35348	0.300075	12.1065	0.474633	19.0135	0.572491	23.1717	0.846636	34.3252	0.175559	8.77607	0.434835	17.8484	0.70796	28.8734	0.936937	38.4505
0.129644	5.09175	0.035786	1.38061	0.301567	11.726	0.47526	18.3536	0.573504	22.3691	0.847257	33.1001	0.17811	8.55631	0.436022	17.2378	0.708665	27.8441	0.937198	37.0448
0.134325	5.08937	0.0377672	1.40649	0.303104	11.3737	0.475915	17.7406	0.574552	21.6242	0.8479	31.9618	0.181103	8.32739	0.437249	16.6722	0.709396	26.8885	0.937471	35.7394
0.138998	5.08687	0.0397638	1.43118	0.304683	11.0467	0.476599	17.1698	0.575634	20.931	0.848565	30.9016	0.184163	8.12022	0.438516	16.1469	0.710152	25.999	0.937754	34.524
0.143664	5.08425	0.0417739	1.45475	0.306304	10.7426	0.477312	16.6371	0.57675	20.2843	0.849253	29.9118	0.187287	7.93207	0.439823	15.6579	0.710933	25.1691	0.938049	33.3896
0.14832	5.08149	0.0437963	1.47725	0.30775	10.4945	0.478055	16.1388	0.5779	19.6799	0.849963	28.9856	0.190469	7.76064	0.441169	15.2016	0.711739	24.3931	0.938356	32.3284
0.152968	5.07861	0.0458296	1.49873	0.309007	10.2944	0.478828	15.672	0.579082	19.1137	0.850695	28.1172	0.193708	7.60395	0.442554	14.775	0.71257	23.6659	0.938674	31.3335
0.157606	5.07559	0.0476094	1.51667	0.310063	10.1363	0.479632	15.2338	0.580298	18.5824	0.851449	27.3014	0.197	7.46033	0.443977	14.3753	0.713426	22.9831	0.939004	30.3991
0.162233	5.07242	0.0491319	1.5314	0.310908	10.0158	0.480467	14.8217	0.581547	18.0829	0.852225	26.5336	0.200343	7.32833	0.445439	14.0003	0.714307	22.3409	0.939346	29.5198
0.16685	5.06911	0.0503942	1.54322	0.311535	9.92953	0.481333	14.4336	0.582827	17.6125	0.853024	25.8098	0.203732	7.20672	0.446938	13.6478	0.715212	21.7359	0.9397	28.6909
0.171456	5.06564	0.0513943	1.55233	0.311939	9.87538	0.482232	14.0675	0.58414	17.1688	0.853844	25.1263	0.207167	7.0944	0.448474	13.3158	0.716142	21.1648	0.940066	27.9082
0.176049	5.062	0.0521308	1.55891	0.312523	9.79891	0.483164	13.7217	0.585485	16.7496	0.854686	24.4799	0.210644	6.99044	0.450047	13.0028	0.717096	20.6251	0.940444	27.1679
0.180629	5.0582	0.0526026	1.56306	0.313163	9.71758	0.48413	13.3947	0.586861	16.3531	0.85555	23.8677	0.214161	6.89401	0.451656	12.7073	0.718074	20.1142	0.940835	26.4669
0.185196	5.05422	0.0532813	1.56896	0.314041	9.60986	0.485129	13.0851	0.588268	15.9775	0.856435	23.2871	0.217717	6.80438	0.453301	12.4278	0.719076	19.63	0.941238	25.8019
0.189749	5.05006	0.0540199	1.57527	0.315163	9.47821	0.486164	12.7915	0.589706	15.6213	0.857342	22.7358	0.221308	6.72092	0.454981	12.1631	0.720103	19.1704	0.941654	25.1705
0.194286	5.0457	0.0550255	1.5837	0.316538	9.32546	0.487233	12.5129	0.591174	15.283	0.858271	22.2117	0.224934	6.64307	0.456696	11.9123	0.721153	18.7337	0.942083	24.57
0.198808	5.04115	0.0562993	1.5941	0.318177	9.15477	0.488338	12.2483	0.592673	14.9613	0.859221	21.7127	0.228592	6.57031	0.458445	11.6742	0.722227	18.3183	0.942524	23.9984
0.203312	5.03638	0.0578422	1.60631	0.32009	8.96937	0.48948	11.9965	0.594202	14.6553	0.860192	21.2372	0.232281	6.50221	0.460228	11.448	0.723324	17.9226	0.942979	23.4536
0.207798	5.03139	0.0596556	1.62014	0.322038	8.79435	0.490658	11.757	0.59576	14.3636	0.861185	20.7837	0.235999	6.43837	0.462045	11.2329	0.724445	17.5453	0.943447	22.9338
0.212266	5.02617	0.0617404	1.63538	0.324019	8.62891	0.491874	11.5287	0.597348	14.0855	0.862199	20.3505	0.239744	6.37842	0.463895	11.028	0.72559	17.1852	0.943928	22.4373
0.216713	5.02071	0.0638289	1.64998	0.326034	8.47234	0.493128	11.3111	0.598964	13.82	0.863233	19.9366	0.243516	6.32206	0.465777	10.8329	0.726757	16.8413	0.944422	21.9627
0.221139	5.015	0.0659206	1.66397	0.32808	8.324	0.494421	11.1035	0.60061	13.5663	0.864289	19.5405	0.247312	6.26899	0.467443	10.6701	0.727948	16.5123	0.94493	21.5085
0.225542	5.00902	0.068015	1.67739	0.330159	8.1833	0.495752	10.9052	0.602283	13.3237	0.865366	19.1612	0.251132	6.21894	0.468883	10.5365	0.729161	16.1975	0.945452	21.0735
0.229921	5.00277	0.0701119	1.69027	0.332269	8.04971	0.496944	10.7396	0.603985	13.0916	0.866464	18.7977	0.254975	6.1717	0.470086	10.4294	0.730397	15.896	0.945988	20.6564
0.234275	4.99622	0.0722108	1.70262	0.334411	7.92276	0.497985	10.6035	0.605715	12.8692	0.867582	18.4491	0.258838	6.12704	0.471046	10.3468	0.731655	15.6069	0.946537	20.2563
0.238603	4.98937	0.0743115	1.71449	0.336583	7.80201	0.498862	10.4943	0.607472	12.656	0.868721	18.1144	0.262721	6.08477	0.471756	10.2873	0.732937	15.3296	0.9471	19.8721
0.242902	4.9822	0.0764136	1.72589	0.338786	7.68705	0.499566	10.41	0.609257	12.4515	0.869881	17.7929	0.266624	6.04471	0.472213	10.2496	0.73424	15.0633	0.947678	19.503
0.247171	4.9747	0.078517	1.73685	0.341019	7.57753	0.500091	10.3492	0.611068	12.2551	0.871061	17.4838	0.270544	6.00672	0.472872	10.1962	0.735565	14.8075	0.94827	19.148
0.251409	4.96685	0.0806213	1.74739	0.343283	7.47312	0.500429	10.3107	0.612906	12.0665	0.872261	17.1865	0.274482	5.97063	0.473592	10.139	0.736913	14.5615	0.948876	18.8065
0.255613	4.95864	0.0827265	1.75752	0.345577	7.37351	0.500919	10.2561	0.614771	11.8852	0.873482	16.9003	0.278435	5.93632	0.474578	10.0626	0.738282	14.3248	0.949497	18.4776
0.259782	4.95004	0.0848323	1.76728	0.347902	7.27843	0.501456	10.1977	0.616661	11.7108	0.874722	16.6246	0.282404	5.90366	0.475835	9.96827	0.739673	14.097	0.950133	18.1607
0.263914	4.94105	0.0869387	1.77668	0.350258	7.18762	0.502196	10.1196	0.618578	11.543	0.875983	16.3589	0.286387	5.87254	0.47737	9.8575	0.741085	13.8775	0.950783	17.8551
0.268006	4.93165	0.0890453	1.78573	0.352645	7.10084	0.503145	10.0231	0.62052	11.3813	0.877264	16.1027	0.290383	5.84287	0.479191	9.73194	0.742519	13.6659	0.951449	17.5604
0.272058	4.92183	0.0911521	1.79445	0.355064	7.01789	0.504314	9.90975	0.622487	11.2256	0.878564	15.8554	0.294392	5.81453	0.481308	9.59341	0.743973	13.4618	0.952129	17.2759
0.276066	4.91155	0.0932591	1.80286	0.357516	6.93857	0.505715	9.78123	0.624479	11.0754	0.879884	15.6166	0.298414	5.78746	0.483454	9.46049	0.745449	13.2649	0.952824	17.0011
0.280029	4.90082	0.0953662	1.81098	0.36	6.8627	0.507362	9.63938	0.626235	10.9489	0.881224	15.386	0.302446	5.76155	0.485628	9.33287	0.746946	13.0748	0.953535	16.7355
0.283944	4.88962	0.0974731	1.81881	0.362519	6.79011	0.509052	9.50327	0.627747	10.8441	0.882584	15.1631	0.306489	5.73675	0.487829	9.21027	0.748463	12.8911	0.954261	16.4788
0.28781	4.87793	0.0995799	1.82637	0.365072	6.72066	0.510785	9.3726	0.629007	10.7595	0.883963	14.9475	0.310542	5.71298	0.490058	9.0924	0.750001	12.7136	0.955003	16.2305
0.291624	4.86573	0.101687	1.83367	0.367662	6.65419	0.512561	9.2471	0.63001	10.6939	0.885361	14.7389	0.314604	5.69018	0.492313	8.97903	0.75156	12.5419	0.955761	15.9902
0.295384	4.85303	0.103793	1.84073	0.370288	6.59059	0.514381	9.12653	0.630751	10.6463	0.886778	14.537	0.318675	5.66829	0.494595	8.86992	0.753138	12.3758	0.956534	15.7575
0.299089	4.83981	0.105899	1.84755	0.372953	6.52974	0.516244	9.01064	0.631227	10.6162	0.888214	14.3416	0.322753	5.64725	0.496902	8.76486	0.754737	12.2151	0.957323	15.5321
0.302735	4.82605	0.108005	1.85415	0.375657	6.47152	0.518151	8.89921	0.631913	10.5733	0.88967	14.1522	0.326839	5.62701	0.499236	8.66363	0.756355	12.0594	0.958128	15.3137
0.305864	4.81363	0.11011	1.86054	0.378402	6.41583	0.520102	8.79203	0.632662	10.5272	0.891144	13.9686	0.330932	5.60752	0.501594	8.56606	0.757993	11.9087	0.958949	15.1019
0.308495	4.80272	0.112215	1.86672	0.381189	6.36258	0.522098	8.68891	0.633685	10.4655	0.892637	13.7906	0.335031	5.58875	0.503977	8.47195	0.759651	11.7625	0.959787	14.8965
0.310644	4.79347	0.11432	1.8727	0.38402	6.31167	0.524137	8.58966	0.634987	10.3888	0.894149	13.6179	0.339135	5.57064	0.506384	8.38115	0.761328	11.6208	0.960641	14.6973
0.312327	4.78602	0.116424	1.8785	0.386895	6.26303	0.52622	8.49411	0.636574	10.2981	0.895679	13.4504	0.343245	5.55316	0.508815	8.2935	0.763024	11.4834	0.961511	14.5038
0.313555	4.78046	0.118528	1.88412	0.389817	6.21656	0.528348	8.40209	0.638451	10.1946	0.897228	13.2877	0.347359	5.53627	0.51127	8.20885	0.76474	11.3501	0.962399	14.316
0.314336	4.77686	0.120631	1.88957	0.392786	6.17221	0.530519	8.31345	0.640627	10.0794	0.898795	13.1298	0.351478	5.51994	0.513748	8.12706	0.76625	11.2371	0.963303	14.1336
0.315454	4.77164	0.122734	1.89485	0.395804	6.12988	0.532735	8.22804	0.642825	9.96785	0.90038	12.9763	0.355599	5.50413	0.516248	8.04801	0.767549	11.143	0.964223	13.9563
0.31666	4.76591	0.124836	1.89998	0.398871	6.08952	0.534994	8.14571	0.645047	9.85985	0.901983	12.8272	0.359724	5.48882	0.518772	7.97156	0.76863	11.0668	0.965161	13.784
0.318288	4.758	0.126938	1.90496	0.401989	6.05105	0.537297	8.06635	0.64729	9.75521	0.903604	12.6822	0.363852	5.47398	0.521317	7.8976	0.76949	11.0075	0.966116	13.6165
0.320324	4.74781	0.129039	1.90979	0.405158	6.0144	0.539643	7.98981	0.649555	9.65379	0.905243	12.5412	0.367981	5.45958	0.523884	7.82602	0.770126	10.9644	0.967088	13.4535
0.322753	4.73524	0.13114	1.91448	0.408379	5.97952	0.542032	7.91599	0.651842	9.55547	0.9069	12.404	0.372112	5.4456	0.526472	7.75673	0.770534	10.937	0.968078	13.295
0.325556	4.72013	0.13324	1.91904	0.411652	5.94632	0.544464	7.84477	0.654151	9.46011	0.908574	12.2706	0.376244	5.43201	0.529081	7.68962	0.771122	10.898	0.969085	13.1406
0.328709	4.70233	0.13534	1.92347	0.414977	5.91475	0.546939	7.77603	0.656481	9.36759	0.910266	12.1407	0.380377	5.41879	0.531711	7.6246	0.771763	10.856	0.97011	12.9904
0.331794	4.68404	0.137439	1.92778	0.418355	5.88474	0.549455	7.70969	0.658832	9.27779	0.911976	12.0142	0.38451	5.40591	0.534362	7.56158	0.772639	10.7996	0.971152	12.8441
0.334813	4.66529	0.139538	1.93197	0.421784	5.85623	0.552014	7.64564	0.661204	9.19061	0.913702	11.891	0.388643	5.39337	0.537032	7.50048	0.773753	10.7293	0.972213	12.7017
0.337765	4.64611	0.141636	1.93605	0.425264	5.82915	0.554614	7.58378	0.663597	9.10594	0.915446	11.7709	0.392775	5.38114	0.539723	7.44123	0.775109	10.6459	0.973291	12.5628
0.34065	4.6265	0.143734	1.94002	0.428795	5.80343	0.557254	7.52403	0.66601	9.02369	0.917207	11.654	0.396906	5.3692	0.542433	7.38375	0.776712	10.5503	0.974388	12.4275
0.34347	4.60651	0.145831	1.94388	0.432376	5.77902	0.559935	7.4663	0.668443	8.94376	0.918755	11.5544	0.401036	5.35753	0.545162	7.32796	0.778569	10.4434	0.975502	12.2956
0.346226	4.58617	0.147928	1.94764	0.436005	5.75584	0.562656	7.41052	0.670897	8.86606	0.920085	11.4713	0.405163	5.34613	0.54791	7.27381	0.780443	10.3393	0.976636	12.167
0.348918	4.56549	0.150025	1.95131	0.43968	5.73385	0.565416	7.3566	0.67337	8.79051	0.921192	11.4037	0.409288	5.33497	0.550677	7.22122	0.782335	10.238	0.977787	12.0416
0.351549	4.54451	0.152121	1.95488	0.443402	5.71296	0.568215	7.30447	0.675863	8.71703	0.922071	11.351	0.413409	5.32404	0.553463	7.17015	0.784244	10.1394	0.978957	11.9193
0.35412	4.52326	0.154216	1.95836	0.447167	5.69314	0.571052	7.25406	0.678375	8.64555	0.922721	11.3127	0.417528	5.31332	0.556266	7.12052	0.786171	10.0433	0.980146	11.7999
0.356632	4.50178	0.156311	1.96176	0.450975	5.67431	0.573927	7.2053	0.680907	8.57598	0.923137	11.2883	0.421642	5.30281	0.559088	7.0723	0.788114	9.94969	0.981198	11.6982
0.359088	4.48009	0.158406	1.96507	0.454824	5.65642	0.576839	7.15813	0.683458	8.50827	0.923738	11.2535	0.425753	5.29249	0.561928	7.02542	0.790075	9.85848	0.982105	11.6132
0.361489	4.45822	0.1605	1.9683	0.458711	5.63942	0.579787	7.11249	0.686027	8.44233	0.924392	11.2161	0.429858	5.28234	0.564785	6.97983	0.792052	9.76957	0.982864	11.544
0.363838	4.43621	0.162594	1.97145	0.462635	5.62325	0.582772	7.06831	0.688616	8.37813	0.925286	11.1656	0.433958	5.27237	0.567659	6.9355	0.794046	9.68289	0.983468	11.4901
0.366136	4.41408	0.164687	1.97453	0.466593	5.60786	0.585791	7.02554	0.691222	8.31558	0.926422	11.1026	0.438053	5.26255	0.570551	6.89237	0.796056	9.59835	0.983916	11.4508
0.368385	4.39187	0.166781	1.97753	0.470585	5.59321	0.588845	6.98413	0.693848	8.25464	0.927803	11.0277	0.442142	5.25287	0.573459	6.85041	0.798082	9.51588	0.984204	11.4258
0.370587	4.36959	0.168873	1.98047	0.474609	5.57924	0.591934	6.94402	0.696491	8.19525	0.929436	10.9415	0.446224	5.24333	0.576385	6.80956	0.800125	9.43542	0.984619	11.3901
0.372745	4.34728	0.170965	1.98333	0.478661	5.56592	0.595055	6.90517	0.699152	8.13735	0.931324	10.8448	0.450299	5.23392	0.579327	6.76981	0.802183	9.35689	0.985073	11.3517
0.374861	4.32495	0.173057	1.98613	0.482742	5.55321	0.598209	6.86752	0.701831	8.08091	0.933228	10.7503	0.454367	5.22462	0.582286	6.7311	0.804258	9.28024	0.985694	11.2999
0.376935	4.30264	0.175149	1.98887	0.486848	5.54106	0.601396	6.83104	0.704528	8.02586	0.935148	10.6581	0.458427	5.21543	0.585261	6.6934	0.806348	9.20539	0.986486	11.2353
0.378971	4.28036	0.17724	1.99155	0.490978	5.52943	0.604613	6.79567	0.707243	7.97217	0.937084	10.5679	0.462479	5.20634	0.588253	6.65668	0.808454	9.1323	0.987454	11.1584
0.38097	4.25813	0.179331	1.99416	0.495131	5.5183	0.607862	6.76137	0.709974	7.91979	0.939036	10.4798	0.466521	5.19734	0.59126	6.62091	0.810575	9.0609	0.988603	11.0698
0.382934	4.23597	0.181422	1.99672	0.499305	5.50762	0.61114	6.72812	0.712724	7.86867	0.941003	10.3937	0.470555	5.18842	0.594284	6.58606	0.812712	8.99114	0.98994	10.9703
0.384865	4.2139	0.183512	1.99923	0.503498	5.49738	0.614448	6.69585	0.71549	7.81879	0.942986	10.3095	0.474579	5.17957	0.597323	6.55209	0.814864	8.92298	0.991297	10.8731
0.386764	4.19193	0.185602	2.00168	0.507709	5.48753	0.617785	6.66455	0.718273	7.77009	0.944984	10.2272	0.478592	5.1708	0.600379	6.51899	0.817031	8.85635	0.992673	10.778
0.388633	4.17007	0.187691	2.00408	0.511936	5.47806	0.62115	6.63417	0.721073	7.72255	0.946997	10.1466	0.482595	5.16208	0.60345	6.48671	0.819213	8.79122	0.994069	10.6851
0.390474	4.14835	0.18978	2.00642	0.516178	5.46893	0.624543	6.60469	0.723889	7.67612	0.949026	10.0679	0.486587	5.15342	0.606537	6.45525	0.82141	8.72753	0.995486	10.5942
0.392287	4.12677	0.191869	2.00872	0.520435	5.46013	0.627962	6.57606	0.726723	7.63077	0.951069	9.9908	0.490567	5.14481	0.60964	6.42456	0.823621	8.66525	0.996922	10.5053
0.394075	4.10534	0.193958	2.01097	0.524704	5.45162	0.631409	6.54826	0.729572	7.58648	0.953127	9.91538	0.494535	5.13624	0.612758	6.39464	0.825847	8.60433	0.998379	10.4184
0.395839	4.08408	0.196046	2.01318	0.528984	5.4434	0.63488	6.52125	0.732439	7.5432	0.9552	9.84156	0.49849	5.1277	0.615892	6.36545	0.828088	8.54472	0.999856	10.3334
0.39758	4.06298	0.198135	2.01534	0.533275	5.43544	0.638377	6.49501	0.735321	7.50091	0.957288	9.76929	0.502433	5.11919	0.619042	6.33698	0.830343	8.48641	1.00135	10.2501
0.399299	4.04206	0.200222	2.01746	0.537574	5.42773	0.641899	6.46952	0.738219	7.45958	0.95939	9.69853	0.506362	5.11071	0.622207	6.30921	0.832612	8.42933		
0.400998	4.02133	0.20231	2.01953	0.541883	5.42024	0.645445	6.44474	0.741134	7.41918	0.961507	9.62923	0.510276	5.10224	0.625387	6.28211	0.834895	8.37347		
0.402677	4.00079	0.204397	2.02157	0.546198	5.41296	0.649014	6.42064	0.744064	7.37969	0.963638	9.56136	0.514177	5.09378	0.628583	6.25566	0.837192	8.31877		
0.404338	3.98045	0.206484	2.02356	0.55052	5.40587	0.652606	6.39722	0.747011	7.34107	0.965783	9.49487	0.518062	5.08534	0.631795	6.22986	0.839504	8.26522		
0.405982	3.96031	0.208571	2.02552	0.554847	5.39897	0.656221	6.37443	0.749973	7.30331	0.967943	9.42973	0.521932	5.07689	0.635021	6.20467	0.841829	8.21278		
0.40761	3.94037	0.210658	2.02744	0.559179	5.39223	0.659857	6.35226	0.75295	7.26638	0.970116	9.36589	0.525786	5.06844	0.638264	6.1801	0.844168	8.16142		
0.409222	3.92065	0.212744	2.02932	0.563514	5.38566	0.663515	6.33069	0.755944	7.23026	0.972303	9.30332	0.529623	5.05999	0.641522	6.1561	0.846521	8.1111		
0.41082	3.90113	0.21483	2.03117	0.567853	5.37922	0.667193	6.3097	0.758952	7.19492	0.974504	9.24199	0.533444	5.05153	0.644795	6.13269	0.848887	8.0618		
0.412404	3.88183	0.216916	2.03299	0.572194	5.37293	0.670892	6.28926	0.761977	7.16035	0.976719	9.18186	0.537247	5.04305	0.648084	6.10982	0.851267	8.0135		
0.413975	3.86274	0.219002	2.03476	0.576537	5.36675	0.674611	6.26937	0.765016	7.12652	0.978947	9.12291	0.541032	5.03455	0.651388	6.08751	0.85366	7.96616		
0.415534	3.84388	0.221087	2.03651	0.580881	5.36069	0.678348	6.24999	0.768072	7.09341	0.981189	9.06509	0.544799	5.02603	0.654708	6.06572	0.856066	7.91975		
0.417082	3.82522	0.223173	2.03823	0.585225	5.35474	0.682105	6.23111	0.771142	7.06101	0.983444	9.00838	0.548548	5.01748	0.658044	6.04445	0.858486	7.87427		
0.418619	3.80679	0.225258	2.03991	0.589568	5.34889	0.68588	6.21272	0.774228	7.0293	0.985712	8.95275	0.552277	5.00891	0.661395	6.02368	0.860919	7.82967		
0.420146	3.78858	0.227343	2.04157	0.593911	5.34312	0.689673	6.1948	0.777328	6.99825	0.987993	8.89817	0.555986	5.0003	0.664761	6.0034	0.863365	7.78594		
0.421664	3.77059	0.229427	2.04319	0.598252	5.33744	0.693484	6.17733	0.780444	6.96786	0.990288	8.84462	0.559676	4.99166	0.668144	5.98359	0.865823	7.74306		
0.423172	3.75281	0.231512	2.04479	0.602592	5.33183	0.697311	6.16029	0.783575	6.9381	0.992595	8.79207	0.563345	4.98297	0.671541	5.96426	0.868295	7.701		
0.424673	3.73526	0.233596	2.04636	0.606928	5.3263	0.701155	6.14368	0.786722	6.90896	0.994915	8.74049	0.566993	4.97425	0.674955	5.94538	0.87078	7.65974		
0.426166	3.71792	0.23568	2.04791	0.611262	5.32082	0.705015	6.12748	0.789883	6.88043	0.997248	8.68985	0.57062	4.96548	0.678384	5.92694	0.873278	7.61927		
0.427651	3.7008	0.237764	2.04942	0.615592	5.31541	0.708891	6.11168	0.793059	6.85249	0.999593	8.64014	0.574226	4.95667	0.681828	5.90893	0.875788	7.57956		
0.42913	3.6839	0.239848	2.05091	0.619918	5.31004	0.712782	6.09626	0.796251	6.82512	1.00195	8.59134	0.577809	4.94781	0.685288	5.89135	0.878311	7.54059		
0.430603	3.66721	0.241932	2.05238	0.62424	5.30473	0.716688	6.0812	0.799457	6.79831			0.581371	4.9389	0.688764	5.87418	0.880847	7.50235		
0.43207	3.65073	0.244015	2.05382	0.628557	5.29945	0.720608	6.06651	0.802679	6.77205			0.584909	4.92994	0.692255	5.85741	0.883395	7.46482		
0.433531	3.63447	0.246099	2.05524	0.632868	5.29421	0.724542	6.05216	0.805916	6.74633			0.588425	4.92093	0.695762	5.84104	0.885956	7.42798		
0.434987	3.61841	0.248182	2.05663	0.637174	5.28901	0.72849	6.03815	0.809167	6.72113			0.591917	4.91186	0.699284	5.82504	0.88853	7.39181		
0.436439	3.60257	0.250265	2.05801	0.641473	5.28383	0.732452	6.02446	0.812434	6.69644			0.595386	4.90274	0.702821	5.80942	0.891115	7.35631		
0.437886	3.58693	0.252348	2.05936	0.645766	5.27868	0.736426	6.01108	0.815716	6.67225			0.598831	4.89357	0.706373	5.79416	0.893714	7.32145		
0.43933	3.5715	0.254431	2.06068	0.650052	5.27355	0.740413	5.99801	0.819013	6.64856			0.602252	4.88434	0.709941	5.77926	0.896324	7.28721		
0.44077	3.55627	0.256513	2.06199	0.65433	5.26844	0.744412	5.98523	0.822326	6.62533			0.605648	4.87505	0.713524	5.7647	0.898947	7.25359		
0.442206	3.54124	0.258596	2.06328	0.658601	5.26335	0.748422	5.97273	0.825653	6.60258			0.609021	4.8657	0.717122	5.75048	0.901582	7.22057		
0.44364	3.52641	0.260678	2.06455	0.662864	5.25826	0.752444	5.96051	0.828996	6.58029			0.612368	4.8563	0.720734	5.73659	0.90423	7.18814		
0.445071	3.51177	0.26276	2.06579	0.667118	5.25318	0.756477	5.94856	0.832354	6.55844			0.615691	4.84684	0.724361	5.72302	0.90689	7.15628		
0.446499	3.49733	0.264842	2.06702	0.671364	5.24811	0.760521	5.93686	0.835727	6.53703			0.618989	4.83732	0.728003	5.70976	0.909561	7.12498		
0.447925	3.48309	0.266924	2.06823	0.6756	5.24304	0.764575	5.92541	0.839116	6.51605			0.622262	4.82775	0.731659	5.69681	0.912246	7.09423		
0.44935	3.46903	0.269006	2.06942	0.679828	5.23798	0.768638	5.9142	0.84252	6.49549			0.62551	4.81812	0.735329	5.68415	0.914942	7.06401		
0.450772	3.45516	0.271087	2.0706	0.684045	5.23291	0.772712	5.90322	0.84594	6.47534			0.628732	4.80843	0.739013	5.67178	0.91765	7.03432		
0.452193	3.44147	0.273169	2.07175	0.688252	5.22783	0.776794	5.89247	0.849376	6.4556			0.63193	4.79869	0.74271	5.65969	0.92037	7.00515		
0.453613	3.42797	0.27525	2.07289	0.69245	5.22275	0.780886	5.88194	0.852827	6.43625			0.635102	4.7889	0.746422	5.64787	0.923102	6.97647		
0.455032	3.41465	0.277332	2.07401	0.696636	5.21766	0.784986	5.87161	0.856294	6.41729			0.638248	4.77905	0.750146	5.63632	0.925847	6.94828		
0.45645	3.40151	0.279413	2.07512	0.700812	5.21256	0.789094	5.86149	0.859776	6.39872			0.64137	4.76915	0.753884	5.62502	0.928603	6.92058		
0.457867	3.38855	0.281494	2.07621	0.704977	5.20745	0.79321	5.85157	0.863275	6.38051			0.644466	4.7592	0.757634	5.61397	0.931371	6.89335		
0.459284	3.37575	0.283575	2.07728	0.70913	5.20233	0.797333	5.84184	0.866789	6.36267			0.647536	4.7492	0.761396	5.60317	0.934152	6.86657		
0.4607	3.36313	0.285656	2.07834	0.713272	5.19719	0.801464	5.83229	0.87032	6.34519			0.650582	4.73915	0.765171	5.59261	0.936944	6.84025		
0.462116	3.35068	0.287737	2.07938	0.717401	5.19203	0.805601	5.82292	0.873867	6.32807			0.653603	4.72906	0.768958	5.58227	0.939748	6.81437		
0.463533	3.3384	0.289818	2.08041	0.721519	5.18686	0.809745	5.81371	0.87743	6.31129			0.656598	4.71892	0.772756	5.57216	0.942564	6.78892		
0.464949	3.32628	0.291898	2.08143	0.725624	5.18166	0.813895	5.80468	0.88101	6.29485			0.659569	4.70874	0.776566	5.56226	0.945391	6.7639		
0.466365	3.31432	0.293979	2.08243	0.729716	5.17645	0.818051	5.79581	0.884605	6.27875			0.662514	4.69852	0.780387	5.55257	0.948231	6.73929		
0.467782	3.30252	0.296059	2.08341	0.733796	5.17121	0.822212	5.78709	0.888218	6.26297			0.665436	4.68826	0.784218	5.54308	0.951082	6.71509		
0.4692	3.29088	0.298139	2.08439	0.737862	5.16595	0.826378	5.77852	0.891847	6.24752			0.668332	4.67796	0.788059	5.53379	0.953945	6.69129		
0.470618	3.2794	0.300219	2.08535	0.741915	5.16066	0.830549	5.77009	0.895493	6.23238			0.671204	4.66763	0.791911	5.52469	0.95682	6.66788		
0.472036	3.26807	0.3023	2.08629	0.745955	5.15535	0.834725	5.7618	0.899156	6.21755			0.674052	4.65726	0.795772	5.51578	0.959706	6.64485		
0.473456	3.25689	0.30438	2.08723	0.749981	5.15001	0.838904	5.75365	0.902835	6.20304			0.676876	4.64685	0.799642	5.50704	0.962604	6.6222		
0.474877	3.24586	0.30646	2.08815	0.753993	5.14465	0.843087	5.74563	0.906532	6.18882			0.679677	4.63642	0.803521	5.49847	0.965514	6.59991		
0.476298	3.23497	0.308539	2.08906	0.757991	5.13926	0.847274	5.73773	0.910246	6.1749			0.682453	4.62596	0.807409	5.49007	0.968436	6.57799		
0.477721	3.22423	0.310619	2.08996	0.761975	5.13384	0.851464	5.72995	0.913977	6.16126			0.685206	4.61548	0.811304	5.48183	0.971369	6.55642		
0.479145	3.21364	0.312699	2.09084	0.765944	5.12839	0.855657	5.72229	0.917725	6.14792			0.687937	4.60497	0.815208	5.47375	0.974314	6.5352		
0.48057	3.20318	0.314779	2.09172	0.769899	5.12291	0.859852	5.71474	0.921491	6.13485			0.690644	4.59443	0.819119	5.46582	0.97727	6.51432		
0.481997	3.19286	0.316858	2.09258	0.773839	5.1174	0.86405	5.70729	0.925274	6.12207			0.693328	4.58388	0.823037	5.45803	0.980238	6.49377		
0.483425	3.18268	0.318938	2.09343	0.777764	5.11186	0.868249	5.69995	0.929074	6.10955			0.69599	4.57331	0.826962	5.45038	0.983217	6.47355		
0.484855	3.17263	0.321017	2.09427	0.781673	5.10629	0.87245	5.69271	0.932893	6.0973			0.69863	4.56272	0.830893	5.44287	0.986208	6.45366		
0.486286	3.16271	0.323096	2.0951	0.785568	5.10068	0.876652	5.68557	0.936728	6.08532			0.701247	4.55212	0.83483	5.43548	0.98921	6.43407		
0.487719	3.15293	0.325175	2.09592	0.789447	5.09505	0.880856	5.67852	0.940582	6.07359			0.703843	4.5415	0.838772	5.42823	0.992224	6.4148		
0.489154	3.14327	0.327255	2.09673	0.793311	5.08938	0.88506	5.67156	0.944453	6.06212			0.706418	4.53088	0.84272	5.42109	0.995249	6.39583		
0.49059	3.13374	0.329334	2.09753	0.797159	5.08368	0.889265	5.66468	0.948342	6.05089			0.708971	4.52024	0.846673	5.41407	0.998286	6.37717		
0.492029	3.12433	0.331413	2.09832	0.800991	5.07795	0.89347	5.65789	0.952249	6.03991			0.711504	4.5096	0.85063	5.40715	1.00133	6.35879		
0.493469	3.11505	0.333492	2.0991	0.804807	5.07219	0.897674	5.65117	0.956174	6.02918			0.714016	4.49895	0.854591	5.40035				
0.494911	3.10589	0.33557	2.09987	0.808608	5.06639	0.901879	5.64453	0.960116	6.01868			0.716507	4.4883	0.858556	5.39365				
0.496355	3.09684	0.337649	2.10064	0.812392	5.06056	0.906083	5.63797	0.964076	6.00841			0.718978	4.47765	0.862525	5.38705				
0.497802	3.08792	0.339728	2.10139	0.81616	5.05469	0.910287	5.63148	0.968054	5.99837			0.72143	4.467	0.866496	5.38055				
0.49925	3.07911	0.341807	2.10213	0.819912	5.0488	0.91449	5.62506	0.97205	5.98856			0.723862	4.45635	0.87047	5.37413				
0.500701	3.07041	0.343885	2.10286	0.823648	5.04287	0.918691	5.6187	0.976064	5.97897			0.726274	4.4457	0.874447	5.36781				
0.502153	3.06182	0.345964	2.10359	0.827367	5.03691	0.922891	5.61241	0.980095	5.96959			0.728668	4.43506	0.878425	5.36157				
0.503608	3.05335	0.348042	2.10431	0.83107	5.03091	0.92709	5.60618	0.984144	5.96043			0.731043	4.42442	0.882406	5.3554				
0.505065	3.04498	0.350121	2.10502	0.834756	5.02489	0.931287	5.6	0.98821	5.95147			0.733399	4.4138	0.886387	5.34932				
0.506525	3.03672	0.352199	2.10572	0.838426	5.01883	0.935482	5.59389	0.992294	5.94272			0.735738	4.40318	0.89037	5.34331				
0.507986	3.02857	0.354277	2.10641	0.842079	5.01274	0.939675	5.58783	0.996395	5.93417			0.738058	4.39258	0.894353	5.33737				
0.50945	3.02052	0.356356	2.10709	0.845715	5.00662	0.943866	5.58183	1.00051	5.92582			0.740361	4.38198	0.898336	5.3315				
0.510917	3.01257	0.358434	2.10777	0.849334	5.00046	0.948054	5.57588					0.742646	4.3714	0.90232	5.32569				
0.512386	3.00473	0.360512	2.10844	0.852937	4.99428	0.95224	5.56997					0.744915	4.36084	0.906303	5.31995				
0.513857	2.99698	0.36259	2.1091	0.856523	4.98806	0.956424	5.56412					0.747166	4.35029	0.910286	5.31426				
0.51533	2.98933	0.364668	2.10975	0.860092	4.98182	0.960604	5.55832					0.749401	4.33976	0.914267	5.30863				
0.516806	2.98178	0.366746	2.1104	0.863644	4.97554	0.964782	5.55256					0.75162	4.32926	0.918248	5.30305				
0.518285	2.97432	0.368824	2.11104	0.86718	4.96924	0.968958	5.54684					0.753823	4.31877	0.922226	5.29753				
0.519766	2.96695	0.370902	2.11167	0.870698	4.9629	0.97313	5.54117					0.75601	4.3083	0.926203	5.29205				
0.521249	2.95968	0.37298	2.1123	0.8742	4.95654	0.977299	5.53555					0.758182	4.29786	0.930178	5.28662				
0.522735	2.9525	0.375057	2.11291	0.877685	4.95015	0.981465	5.52996					0.760338	4.28744	0.934151	5.28123				
0.524224	2.94541	0.377135	2.11353	0.881152	4.94373	0.985628	5.52442					0.76248	4.27704	0.93812	5.27588				
0.525715	2.9384	0.379213	2.11413	0.884604	4.93728	0.989788	5.51891					0.764607	4.26668	0.942087	5.27058				
0.527208	2.93148	0.381291	2.11473	0.888038	4.93081	0.993945	5.51345					0.766719	4.25633	0.94605	5.2653				
0.528704	2.92465	0.383368	2.11532	0.891455	4.92431	0.998098	5.50802					0.768818	4.24602	0.95001	5.26007				
0.530203	2.9179	0.385446	2.11591	0.894856	4.91779	1.00225	5.50263					0.770902	4.23574	0.953966	5.25486				
0.531704	2.91124	0.387523	2.11649	0.89824	4.91124							0.772973	4.22549	0.957918	5.24969				
0.533208	2.90465	0.389601	2.11706	0.901607	4.90466							0.77503	4.21526	0.961866	5.24454				
0.534714	2.89815	0.391678	2.11763	0.904957	4.89806							0.777075	4.20507	0.965809	5.23943				
0.536223	2.89173	0.393755	2.11819	0.908291	4.89144							0.779106	4.19492	0.969747	5.23433				
0.537735	2.88538	0.395833	2.11874	0.911608	4.8848							0.781125	4.18479	0.97368	5.22926				
0.539249	2.87911	0.39791	2.11929	0.914909	4.87813							0.783131	4.1747	0.977607	5.22422				
0.540766	2.87292	0.399987	2.11984	0.918193	4.87144							0.785125	4.16465	0.981529	5.21919				
0.542285	2.8668	0.402064	2.12038	0.921461	4.86473							0.787107	4.15463	0.985445	5.21418				
0.543807	2.86076	0.404141	2.12091	0.924712	4.858							0.789078	4.14465	0.989355	5.20919				
0.545331	2.85478	0.406218	2.12144	0.927947	4.85125							0.791037	4.1347	0.993259	5.20421				
0.546858	2.84888	0.408295	2.12196	0.931166	4.84448							0.792984	4.1248	0.997156	5.19925				
0.548388	2.84305	0.410372	2.12248	0.934368	4.83769							0.794921	4.11493	1.00105	5.1943				
0.549921	2.83729	0.412449	2.12299	0.937554	4.83088							0.796847	4.1051						
0.551456	2.8316	0.414526	2.1235	0.940724	4.82406							0.798762	4.09531						
0.552993	2.82597	0.416603	2.124	0.943878	4.81722							0.800667	4.08556						
0.554533	2.82042	0.41868	2.12449	0.947016	4.81036							0.802561	4.07585						
0.556076	2.81492	0.420757	2.12499	0.950138	4.80348							0.804446	4.06618						
0.557621	2.8095	0.422834	2.12547	0.953245	4.79659							0.80632	4.05655						
0.559169	2.80413	0.42491	2.12596	0.956335	4.78969							0.808186	4.04697						
0.560719	2.79883	0.426987	2.12643	0.95941	4.78277							0.810041	4.03742						
0.562272	2.79359	0.429064	2.12691	0.96247	4.77584							0.811888	4.02792						
0.563828	2.78841	0.43114	2.12738	0.965513	4.7689							0.813726	4.01846						
0.565386	2.78329	0.433217	2.12784	0.968542	4.76194							0.815555	4.00905						
0.566947	2.77823	0.435294	2.1283	0.971555	4.75497							0.817375	3.99968						
0.56851	2.77323	0.43737	2.12876	0.974552	4.748							0.819187	3.99035						
0.570076	2.76829	0.439447	2.12921	0.977535	4.74101							0.82099	3.98107						
0.571644	2.7634	0.441523	2.12965	0.980502	4.73401							0.822786	3.97183						
0.573215	2.75857	0.443599	2.1301	0.983454	4.727							0.824573	3.96264						
0.574788	2.75379	0.445676	2.13054	0.986392	4.71998							0.826353	3.95349						
0.576364	2.74907	0.447752	2.13097	0.989314	4.71295							0.828126	3.94439						
0.577943	2.74441	0.449828	2.1314	0.992222	4.70592							0.829891	3.93533						
0.579524	2.73979	0.451905	2.13183	0.995115	4.69887							0.831648	3.92632						
0.581107	2.73523	0.453981	2.13225	0.997994	4.69182							0.833399	3.91735						
0.582693	2.73072	0.456057	2.13267	1.00086	4.68477							0.835143	3.90844						
0.584281	2.72626	0.458133	2.13309									0.83688	3.89956						
0.585872	2.72185	0.46021	2.1335									0.838611	3.89073						
0.587465	2.71749	0.462286	2.1339									0.840335	3.88195						
0.589061	2.71318	0.464362	2.13431									0.842053	3.87322						
0.590659	2.70891	0.466438	2.13471									0.843765	3.86453						
0.592259	2.70469	0.468514	2.13511									0.84547	3.85589						
0.593862	2.70052	0.47059	2.1355									0.84717	3.84729						
0.595468	2.6964	0.472666	2.13589									0.848865	3.83875						
0.597075	2.69232	0.474742	2.13628									0.850553	3.83025						
0.598685	2.68829	0.476818	2.13666									0.852237	3.82179						
0.600298	2.6843	0.478894	2.13704									0.853915	3.81338						
0.601913	2.68035	0.48097	2.13742									0.855587	3.80502						
0.60353	2.67645	0.483045	2.13779									0.857255	3.79671						
0.605149	2.67259	0.485121	2.13816									0.858918	3.78844						
0.606771	2.66877	0.487197	2.13853									0.860576	3.78022						
0.608395	2.66499	0.489273	2.13889									0.86223	3.77204						
0.610022	2.66126	0.491349	2.13925									0.863879	3.76392						
0.61165	2.65756	0.493424	2.13961									0.865523	3.75583						
0.613282	2.6539	0.4955	2.13997									0.867163	3.7478						
0.614915	2.65029	0.497576	2.14032									0.868799	3.73981						
0.61655	2.64671	0.499651	2.14067									0.870431	3.73187						
0.618188	2.64317	0.501727	2.14102									0.872059	3.72397						
0.619828	2.63966	0.503802	2.14136									0.873683	3.71612						
0.62147	2.6362	0.505878	2.1417									0.875304	3.70832						
0.623115	2.63277	0.507954	2.14204									0.87692	3.70056						
0.624762	2.62937	0.510029	2.14237									0.878533	3.69285						
0.62641	2.62602	0.512105	2.1427									0.880143	3.68518						
0.628061	2.62269	0.51418	2.14303									0.881749	3.67756						
0.629715	2.61941	0.516255	2.14336									0.883352	3.66999						
0.63137	2.61615	0.518331	2.14369									0.884952	3.66246						
0.633028	2.61293	0.520406	2.14401									0.886549	3.65497						
0.634687	2.60975	0.522482	2.14433									0.888143	3.64753						
0.636349	2.6066	0.524557	2.14464									0.889733	3.64014						
0.638013	2.60347	0.526632	2.14496									0.891321	3.63279						
0.639679	2.60039	0.528708	2.14527									0.892907	3.62548						
0.641347	2.59733	0.530783	2.14558									0.894489	3.61822						
0.643017	2.5943	0.532858	2.14589									0.896069	3.611						
0.644689	2.59131	0.534933	2.14619									0.897647	3.60383						
0.646363	2.58835	0.537009	2.14649									0.899222	3.5967						
0.64804	2.58541	0.539084	2.14679									0.900795	3.58961						
0.649718	2.58251	0.541159	2.14709									0.902365	3.58257						
0.651398	2.57964	0.543234	2.14739									0.903934	3.57557						
0.653081	2.57679	0.545309	2.14768									0.9055	3.56861						
0.654765	2.57397	0.547384	2.14797									0.907064	3.5617						
0.656451	2.57119	0.549459	2.14826									0.908626	3.55483						
0.65814	2.56843	0.551534	2.14855									0.910186	3.548						
0.65983	2.56569	0.55361	2.14883									0.911745	3.54121						
0.661522	2.56299	0.555685	2.14911									0.913301	3.53447						
0.663216	2.56031	0.55776	2.14939									0.914856	3.52777						
0.664912	2.55766	0.559835	2.14967									0.91641	3.52111						
0.66661	2.55503	0.561909	2.14995									0.917961	3.51449						
0.66831	2.55243	0.563984	2.15022									0.919511	3.50791						
0.670012	2.54986	0.566059	2.15049									0.92106	3.50137						
0.671715	2.54731	0.568134	2.15076									0.922607	3.49488						
0.673421	2.54479	0.570209	2.15103									0.924153	3.48842						
0.675128	2.54229	0.572284	2.1513									0.925698	3.482						
0.676837	2.53981	0.574359	2.15156									0.927241	3.47563						
0.678548	2.53736	0.576434	2.15182									0.928783	3.46929						
0.680261	2.53493	0.578508	2.15208									0.930324	3.463						
0.681976	2.53253	0.580583	2.15234									0.931864	3.45674						
0.683692	2.53015	0.582658	2.1526									0.933403	3.45052						
0.68541	2.52779	0.584733	2.15285									0.934941	3.44435						
0.68713	2.52546	0.586808	2.15311									0.936478	3.43821						
0.688852	2.52315	0.588882	2.15336									0.938014	3.43211						
0.690576	2.52086	0.590957	2.15361									0.939549	3.42604						
0.692301	2.51859	0.593032	2.15385									0.941084	3.42002						
0.694028	2.51634	0.595106	2.1541									0.942617	3.41403						
0.695757	2.51412	0.597181	2.15434									0.94415	3.40809						
0.697487	2.51192	0.599255	2.15459									0.945682	3.40217						
0.699219	2.50973	0.60133	2.15483									0.947214	3.3963						
0.700953	2.50757	0.603405	2.15507									0.948745	3.39046						
0.702689	2.50543	0.605479	2.1553									0.950275	3.38466						
0.704426	2.50331	0.607554	2.15554									0.951805	3.3789						
0.706165	2.5012	0.609628	2.15577									0.953334	3.37317						
0.707905	2.49912	0.611703	2.15601									0.954863	3.36748						
0.709648	2.49706	0.613777	2.15624									0.956392	3.36183						
0.711391	2.49502	0.615852	2.15647									0.95792	3.35621						
0.713137	2.49299	0.617926	2.15669									0.959448	3.35062						
0.714884	2.49099	0.620001	2.15692									0.960975	3.34507						
0.716632	2.489	0.622075	2.15714									0.962503	3.33956						
0.718383	2.48703	0.62415	2.15737									0.96403	3.33408						
0.720135	2.48508	0.626224	2.15759									0.965557	3.32863						
0.721888	2.48315	0.628298	2.15781									0.967083	3.32322						
0.723643	2.48123	0.630373	2.15803									0.96861	3.31784						
0.725399	2.47933	0.632447	2.15825									0.970136	3.3125						
0.727157	2.47745	0.634521	2.15846									0.971662	3.30719						
0.728917	2.47559	0.636596	2.15868									0.973189	3.30192						
0.730678	2.47374	0.63867	2.15889									0.974715	3.29667						
0.732441	2.47191	0.640744	2.1591									0.976241	3.29146						
0.734205	2.4701	0.642818	2.15931									0.977767	3.28629						
0.735971	2.4683	0.644893	2.15952									0.979294	3.28114						
0.737738	2.46652	0.646967	2.15973									0.98082	3.27603						
0.739506	2.46476	0.649041	2.15994									0.982347	3.27095						
0.741276	2.46301	0.651115	2.16014									0.983873	3.2659						
0.743048	2.46128	0.65319	2.16034									0.9854	3.26088						
0.744821	2.45956	0.655264	2.16055									0.986927	3.2559						
0.746595	2.45786	0.657338	2.16075									0.988454	3.25094						
0.748371	2.45617	0.659412	2.16095									0.989982	3.24602						
0.750148	2.4545	0.661486	2.16115									0.991509	3.24113						
0.751927	2.45284	0.66356	2.16134									0.993037	3.23627						
0.753707	2.45119	0.665634	2.16154									0.994566	3.23144						
0.755489	2.44957	0.667708	2.16173									0.996094	3.22663						
0.757271	2.44795	0.669783	2.16193									0.997623	3.22186						
0.759056	2.44635	0.671857	2.16212									0.999152	3.21712						
0.760841	2.44477	0.673931	2.16231									1.00068	3.21241						
0.762628	2.44319	0.676005	2.1625																
0.764417	2.44163	0.678079	2.16269																
0.766206	2.44009	0.680153	2.16288																
0.767997	2.43856	0.682227	2.16307																
0.76979	2.43704	0.684301	2.16325																
0.771583	2.43553	0.686375	2.16343																
0.773378	2.43404	0.688448	2.16362																
0.775175	2.43256	0.690522	2.1638																
0.776972	2.43109	0.692596	2.16398																
0.778771	2.42964	0.69467	2.16416																
0.780571	2.4282	0.696744	2.16434																
0.782372	2.42677	0.698818	2.16452																
0.784175	2.42535	0.700892	2.16469																
0.785979	2.42395	0.702966	2.16487																
0.787784	2.42255	0.705039	2.16504																
0.789591	2.42117	0.707113	2.16522																
0.791398	2.4198	0.709187	2.16539																
0.793207	2.41844	0.711261	2.16556																
0.795017	2.41709	0.713335	2.16573																
0.796829	2.41576	0.715408	2.1659																
0.798641	2.41443	0.717482	2.16607																
0.800455	2.41312	0.719556	2.16624																
0.80227	2.41182	0.72163	2.1664																
0.804086	2.41052	0.723703	2.16657																
0.805903	2.40924	0.725777	2.16673																
0.807721	2.40797	0.727851	2.1669																
0.809541	2.40671	0.729924	2.16706																
0.811362	2.40546	0.731998	2.16722																
0.813184	2.40422	0.734071	2.16738																
0.815007	2.40299	0.736145	2.16754																
0.816831	2.40177	0.738219	2.1677																
0.818656	2.40056	0.740292	2.16786																
0.820482	2.39936	0.742366	2.16802																
0.82231	2.39817	0.744439	2.16817																
0.824138	2.39699	0.746513	2.16833																
0.825968	2.39582	0.748587	2.16848																
0.827799	2.39466	0.75066	2.16863																
0.829631	2.39351	0.752734	2.16879																
0.831464	2.39237	0.754807	2.16894																
0.833298	2.39123	0.756881	2.16909																
0.835133	2.39011	0.758954	2.16924																
0.836969	2.38899	0.761028	2.16939																
0.838806	2.38789	0.763101	2.16954																
0.840644	2.38679	0.765174	2.16969																
0.842483	2.3857	0.767248	2.16983																
0.844324	2.38462	0.769321	2.16998																
0.846165	2.38355	0.771395	2.17012																
0.848007	2.38249	0.773468	2.17027																
0.849851	2.38143	0.775541	2.17041																
0.851695	2.38038	0.777615	2.17056																
0.85354	2.37935	0.779688	2.1707																
0.855387	2.37832	0.781761	2.17084																
0.857234	2.37729	0.783835	2.17098																
0.859082	2.37628	0.785908	2.17112																
0.860931	2.37527	0.787981	2.17126																
0.862782	2.37428	0.790055	2.1714																
0.864633	2.37328	0.792128	2.17153																
0.866485	2.3723	0.794201	2.17167																
0.868338	2.37133	0.796274	2.17181																
0.870192	2.37036	0.798348	2.17194																
0.872047	2.3694	0.800421	2.17208																
0.873903	2.36845	0.802494	2.17221																
0.87576	2.3675	0.804567	2.17235																
0.877618	2.36656	0.806641	2.17248																
0.879477	2.36563	0.808714	2.17261																
0.881336	2.36471	0.810787	2.17274																
0.883197	2.36379	0.81286	2.17287																
0.885058	2.36288	0.814933	2.173																
0.886921	2.36198	0.817006	2.17313																
0.888784	2.36108	0.819079	2.17326																
0.890648	2.36019	0.821153	2.17339																
0.892513	2.35931	0.823226	2.17351																
0.894379	2.35843	0.825299	2.17364																
0.896245	2.35756	0.827372	2.17377																
0.898113	2.3567	0.829445	2.17389																
0.899982	2.35584	0.831518	2.17402																
0.901851	2.35499	0.833591	2.17414																
0.903721	2.35415	0.835664	2.17426																
0.905592	2.35331	0.837737	2.17439																
0.907464	2.35248	0.83981	2.17451																
0.909337	2.35165	0.841883	2.17463																
0.91121	2.35083	0.843956	2.17475																
0.913085	2.35002	0.846029	2.17487																
0.91496	2.34921	0.848102	2.17499																
0.916836	2.34841	0.850175	2.17511																
0.918713	2.34762	0.852248	2.17523																
0.92059	2.34683	0.854321	2.17535																
0.922469	2.34605	0.856394	2.17546																
0.924348	2.34527	0.858467	2.17558																
0.926228	2.3445	0.860539	2.1757																
0.928109	2.34373	0.862612	2.17581																
0.92999	2.34297	0.864685	2.17593																
0.931873	2.34221	0.866758	2.17604																
0.933756	2.34146	0.868831	2.17615																
0.93564	2.34072	0.870904	2.17627																
0.937524	2.33998	0.872977	2.17638																
0.93941	2.33924	0.875049	2.17649																
0.941296	2.33852	0.877122	2.1766																
0.943183	2.33779	0.879195	2.17671																
0.945071	2.33707	0.881268	2.17683																
0.946959	2.33636	0.883341	2.17694																
0.948848	2.33565	0.885413	2.17704																
0.950738	2.33495	0.887486	2.17715																
0.952629	2.33425	0.889559	2.17726																
0.95452	2.33356	0.891631	2.17737																
0.956412	2.33287	0.893704	2.17748																
0.958305	2.33219	0.895777	2.17758																
0.960199	2.33151	0.89785	2.17769																
0.962093	2.33084	0.899922	2.1778																
0.963988	2.33017	0.901995	2.1779																
0.965883	2.3295	0.904068	2.17801																
0.96778	2.32884	0.90614	2.17811																
0.969677	2.32819	0.908213	2.17821																
0.971575	2.32754	0.910285	2.17832																
0.973473	2.32689	0.912358	2.17842																
0.975372	2.32625	0.914431	2.17852																
0.977272	2.32562	0.916503	2.17863																
0.979172	2.32498	0.918576	2.17873																
0.981073	2.32436	0.920648	2.17883																
0.982975	2.32373	0.922721	2.17893																
0.984878	2.32311	0.924794	2.17903																
0.986781	2.3225	0.926866	2.17913																
0.988685	2.32189	0.928939	2.17923																
0.990589	2.32128	0.931011	2.17933																
0.992494	2.32068	0.933084	2.17942																
0.9944	2.32008	0.935156	2.17952																
0.996306	2.31949	0.937229	2.17962																
0.998213	2.3189	0.939301	2.17972																
1.00012	2.31831	0.941374	2.17981																
		0.943446	2.17991																
		0.945518	2.18																
		0.947591	2.1801																
		0.949663	2.18019																
		0.951736	2.18029																
		0.953808	2.18038																
		0.955881	2.18047																
		0.957953	2.18057																
		0.960025	2.18066																
		0.962098	2.18075																
		0.96417	2.18084																
		0.966242	2.18094																
		0.968315	2.18103																
		0.970387	2.18112																
		0.972459	2.18121																
		0.974532	2.1813																
		0.976604	2.18139																
		0.978676	2.18148																
		0.980748	2.18156																
		0.982821	2.18165																
		0.984893	2.18174																
		0.986965	2.18183																
		0.989037	2.18191																
		0.99111	2.182																
		0.993182	2.18209																
		0.995254	2.18217																
		0.997326	2.18226																
		0.999398	2.18234																
		1.00147	2.18243																
