Sym0		Asym0		Sym1		Sym2		Sym3		Sym4		Asym1		Asym2		Asym3		Asym4	
469  Points		497  Points		233  Points		199  Points		186  Points		130  Points		339  Points		211  Points		173  Points		109  Points	
Freq (MHz)	Vph (m/ms)	Freq (MHz)	Vph (m/ms)	Freq (MHz)	Vph (m/ms)	Freq (MHz)	Vph (m/ms)	Freq (MHz)	Vph (m/ms)	Freq (MHz)	Vph (m/ms)	Freq (MHz)	Vph (m/ms)	Freq (MHz)	Vph (m/ms)	Freq (MHz)	Vph (m/ms)	Freq (MHz)	Vph (m/ms)
0.00338462	5.16752	0.000138801	0.101956	0.27952	502.906	0.467548	605.699	0.559023	1070.44	0.838528	1811.33	0.139797	223.273	0.419264	2451.8	0.698773	2173.67	0.935081	5407.53
0.0081991	5.16747	0.00039272	0.171263	0.279588	187.958	0.467575	274.462	0.559066	384.52	0.838552	601.272	0.140015	89.8791	0.419296	380.246	0.698796	557.624	0.935088	846.527
0.0130132	5.1673	0.000773599	0.239892	0.279719	115.625	0.467624	177.446	0.559148	234.382	0.838599	360.482	0.14042	56.4044	0.419376	206.143	0.698846	319.858	0.935103	459.214
0.0178266	5.16705	0.00127861	0.307619	0.279912	83.5336	0.467693	131.117	0.559269	168.591	0.83867	257.417	0.141007	41.2155	0.419503	141.433	0.698924	224.262	0.935128	315.069
0.0226394	5.16674	0.001904	0.374201	0.280167	65.4201	0.467783	103.982	0.559431	131.661	0.838765	200.196	0.141774	32.57	0.419677	107.671	0.699029	172.674	0.935162	239.803
0.0274511	5.16634	0.00264513	0.439401	0.280485	53.7916	0.467894	86.1621	0.559632	108.022	0.838884	163.799	0.142717	27.0061	0.419899	86.945	0.699161	140.395	0.935205	193.568
0.0322617	5.16588	0.0034971	0.503068	0.280863	45.6987	0.468026	73.5649	0.559873	91.5962	0.839026	138.611	0.143829	23.1375	0.420168	72.931	0.69932	118.295	0.935257	162.284
0.0370708	5.16534	0.00445434	0.565039	0.281303	39.7451	0.468179	64.1889	0.560154	79.521	0.839191	120.145	0.145107	20.3004	0.420484	62.8257	0.699506	102.217	0.935319	139.708
0.0418783	5.16471	0.00551102	0.625191	0.281804	35.1843	0.468354	56.9395	0.560473	70.2718	0.839381	106.029	0.146544	18.1373	0.420847	55.1962	0.69972	89.9958	0.93539	122.65
0.0466839	5.16401	0.00666108	0.683424	0.282365	31.5807	0.468551	51.1676	0.560833	62.9619	0.839594	94.8888	0.148132	16.4384	0.421256	49.2337	0.699961	80.3931	0.93547	109.307
0.0514874	5.16323	0.00789841	0.739667	0.282986	28.6633	0.468769	46.464	0.561231	57.0404	0.83983	85.8732	0.149866	15.0724	0.421712	44.4472	0.700228	72.6497	0.93556	98.5851
0.0562886	5.16237	0.00921692	0.793875	0.283666	26.2545	0.469009	42.5577	0.561668	52.1469	0.840091	78.4283	0.151739	13.9533	0.422215	40.5211	0.700523	66.2739	0.935659	89.781
0.0610871	5.16143	0.0106106	0.846022	0.284404	24.2332	0.469272	39.2622	0.562144	48.0359	0.840374	72.1768	0.153744	13.022	0.422764	37.2435	0.700845	60.9335	0.935768	82.4228
0.0658829	5.1604	0.0120736	0.896106	0.285201	22.5138	0.469557	36.4451	0.562659	44.5344	0.840682	66.8536	0.155873	12.2367	0.423359	34.467	0.701194	56.3955	0.935887	76.1815
0.0706756	5.15929	0.0136005	0.944142	0.286055	21.0342	0.469865	34.0096	0.563212	41.5166	0.841013	62.2665	0.158121	11.5671	0.424	32.0854	0.70157	52.4923	0.936015	70.8209
0.075465	5.1581	0.0151858	0.990153	0.286965	19.7482	0.470196	31.8835	0.563804	38.8893	0.841367	58.273	0.160481	10.9907	0.424686	30.0207	0.701972	49.0996	0.936153	66.167
0.0802508	5.15681	0.0168245	1.03418	0.287932	18.6208	0.470551	30.0115	0.564434	36.5818	0.841744	54.7652	0.162624	10.5508	0.425418	28.2142	0.702402	46.1239	0.936302	62.0888
0.0850326	5.15543	0.018512	1.07627	0.288953	17.6249	0.47093	28.3509	0.565101	34.5394	0.842145	51.6598	0.164511	10.2145	0.426194	26.6208	0.702858	43.4929	0.93646	58.4858
0.0898104	5.15397	0.0202438	1.11647	0.290028	16.7392	0.471332	26.8681	0.565806	32.7193	0.84257	48.8915	0.166112	9.95999	0.427016	25.2053	0.703341	41.1503	0.936628	55.2797
0.0945836	5.1524	0.0220157	1.15486	0.291157	15.9468	0.47176	25.5363	0.566549	31.0873	0.843018	46.4085	0.167402	9.77221	0.427882	23.9398	0.70385	39.0514	0.936807	52.4084
0.099352	5.15074	0.0238241	1.19149	0.292338	15.2341	0.472212	24.3335	0.567329	29.616	0.843489	44.169	0.168365	9.64112	0.428792	22.8021	0.704386	37.1602	0.936996	49.8221
0.104115	5.14899	0.0256654	1.22642	0.29357	14.5899	0.47269	23.2423	0.568146	28.2831	0.843983	42.139	0.168987	9.56015	0.429745	21.774	0.704949	35.4476	0.937196	47.4805
0.108873	5.14713	0.0275364	1.25975	0.294853	14.0052	0.473193	22.2478	0.568999	27.07	0.8445	40.2906	0.169889	9.44756	0.430743	20.8407	0.705538	33.8895	0.937406	45.3506
0.113626	5.14516	0.0294342	1.29152	0.296185	13.4723	0.473723	21.338	0.569889	25.9616	0.845041	38.6006	0.17088	9.33002	0.431783	19.99	0.706153	32.4661	0.937627	43.4048
0.118372	5.14309	0.0313561	1.32181	0.297565	12.9848	0.47428	20.5027	0.570815	24.945	0.845604	37.0495	0.172244	9.17776	0.432866	19.2114	0.706794	31.1608	0.937858	41.6204
0.123111	5.1409	0.0332997	1.35069	0.298994	12.5374	0.474864	19.7331	0.571776	24.0095	0.846191	35.6211	0.173998	8.99683	0.433991	18.4965	0.707461	29.9596	0.938101	39.9782
0.127843	5.1386	0.0352627	1.37823	0.300468	12.1255	0.475475	19.0221	0.572774	23.1458	0.8468	34.3015	0.176157	8.7938	0.435159	17.838	0.708155	28.8506	0.938355	38.4619
0.132569	5.13618	0.0372431	1.40449	0.301989	11.7452	0.476115	18.3632	0.573806	22.3462	0.847433	33.0787	0.178744	8.57534	0.436367	17.2295	0.708874	27.8238	0.93862	37.0576
0.137286	5.13364	0.0392391	1.42953	0.303553	11.3932	0.476784	17.7511	0.574874	21.6039	0.848088	31.9426	0.181778	8.34778	0.437618	16.6658	0.709619	26.8704	0.938896	35.7533
0.141995	5.13097	0.041249	1.45343	0.305161	11.0666	0.477481	17.1811	0.575976	20.9131	0.848766	30.8843	0.18488	8.14186	0.438908	16.1422	0.71039	25.9829	0.939184	34.5389
0.146695	5.12816	0.0432713	1.47622	0.306812	10.7628	0.478209	16.6491	0.577113	20.2687	0.849467	29.8963	0.188045	7.95485	0.440239	15.6547	0.711186	25.1549	0.939483	33.4053
0.151386	5.12522	0.0453047	1.49798	0.308285	10.515	0.478967	16.1516	0.578283	19.6663	0.85019	28.9718	0.191269	7.78446	0.44161	15.1999	0.712008	24.3805	0.939794	32.3448
0.156068	5.12214	0.0470848	1.51613	0.309564	10.3151	0.479756	15.6854	0.579488	19.102	0.850936	28.1049	0.194551	7.62873	0.443021	14.7746	0.712856	23.6549	0.940118	31.3507
0.160738	5.11891	0.0486075	1.53104	0.310639	10.1572	0.480576	15.2477	0.580726	18.5724	0.851705	27.2905	0.197886	7.486	0.44447	14.3763	0.713728	22.9735	0.940453	30.4168
0.165398	5.11553	0.04987	1.543	0.311499	10.0369	0.481428	14.8362	0.581997	18.0745	0.852496	26.524	0.201271	7.35484	0.445958	14.0024	0.714626	22.3327	0.9408	29.5379
0.170047	5.11198	0.0508704	1.55221	0.312138	9.95075	0.482313	14.4486	0.583301	17.6056	0.853309	25.8013	0.204704	7.23399	0.447484	13.651	0.715549	21.7289	0.941159	28.7094
0.174682	5.10827	0.051607	1.55886	0.312549	9.89667	0.483231	14.0831	0.584637	17.1633	0.854144	25.119	0.208181	7.12239	0.449048	13.3201	0.716497	21.159	0.941531	27.9271
0.179305	5.10439	0.0520789	1.56306	0.313144	9.82031	0.484183	13.7378	0.586006	16.7454	0.855002	24.4736	0.211702	7.0191	0.450649	13.0081	0.717469	20.6204	0.941915	27.1871
0.183914	5.10032	0.0527578	1.56902	0.313795	9.7391	0.485169	13.4112	0.587407	16.3502	0.855882	23.8624	0.215263	6.92329	0.452287	12.7135	0.718466	20.1105	0.942312	26.4863
0.188509	5.09606	0.0534966	1.5754	0.314688	9.63154	0.486191	13.102	0.588839	15.9757	0.856784	23.2828	0.218862	6.83425	0.453961	12.4349	0.719488	19.6273	0.942722	25.8216
0.193088	5.09161	0.0545025	1.58392	0.31583	9.50009	0.487247	12.8089	0.590302	15.6206	0.857708	22.7323	0.222497	6.75135	0.45567	12.1711	0.720534	19.1686	0.943145	25.1904
0.197651	5.08695	0.0557766	1.59443	0.31723	9.3476	0.48834	12.5307	0.591797	15.2833	0.858654	22.209	0.226166	6.67401	0.457415	11.921	0.721605	18.7328	0.943581	24.5901
0.202196	5.08207	0.0573201	1.60676	0.318898	9.17718	0.48947	12.2665	0.593322	14.9627	0.859621	21.7108	0.229868	6.60174	0.459195	11.6837	0.722699	18.3181	0.94403	24.0186
0.206723	5.07696	0.0591339	1.62072	0.320845	8.99212	0.490636	12.0152	0.594877	14.6575	0.860611	21.2361	0.233601	6.5341	0.461009	11.4582	0.723817	17.9232	0.944493	23.4739
0.211231	5.07162	0.0612193	1.63609	0.322827	8.81742	0.491841	11.776	0.596462	14.3668	0.861622	20.7832	0.237362	6.47069	0.462857	11.2438	0.72496	17.5467	0.944968	22.9542
0.215718	5.06603	0.0633085	1.65082	0.324843	8.65231	0.493084	11.5481	0.598078	14.0895	0.862654	20.3508	0.241152	6.41115	0.464738	11.0396	0.726126	17.1873	0.945458	22.4579
0.220183	5.06017	0.0654009	1.66493	0.326893	8.49606	0.494366	11.3309	0.599722	13.8248	0.863708	19.9374	0.244967	6.35517	0.466653	10.8451	0.727315	16.844	0.945961	21.9833
0.224625	5.05405	0.067496	1.67846	0.328975	8.34804	0.495688	11.1237	0.601396	13.5719	0.864783	19.542	0.248807	6.30245	0.468347	10.6829	0.728528	16.5157	0.946478	21.5292
0.229043	5.04764	0.0695935	1.69143	0.331091	8.20767	0.497049	10.9258	0.603098	13.33	0.86588	19.1633	0.252671	6.25275	0.469811	10.5497	0.729764	16.2016	0.947009	21.0942
0.233436	5.04093	0.071693	1.70388	0.333238	8.0744	0.498269	10.7605	0.604829	13.0985	0.866997	18.8004	0.256556	6.20583	0.471034	10.443	0.731023	15.9006	0.947555	20.6772
0.237801	5.03391	0.0737943	1.71582	0.335417	7.94778	0.499333	10.6247	0.606588	12.8768	0.868136	18.4523	0.260463	6.16147	0.47201	10.3607	0.732305	15.6121	0.948114	20.2772
0.242137	5.02656	0.0758969	1.72729	0.337627	7.82735	0.50023	10.5158	0.608375	12.6643	0.869296	18.1181	0.26439	6.11949	0.472733	10.3013	0.73361	15.3353	0.948688	19.8931
0.246442	5.01887	0.0780009	1.73832	0.339868	7.71272	0.500951	10.4317	0.61019	12.4604	0.870477	17.7971	0.268336	6.07971	0.473197	10.2638	0.734938	15.0696	0.949276	19.524
0.250715	5.01082	0.0801058	1.74891	0.342141	7.60352	0.501487	10.371	0.612032	12.2647	0.871678	17.4886	0.272299	6.04197	0.473867	10.2105	0.736288	14.8143	0.949879	19.1691
0.254955	5.00239	0.0822114	1.7591	0.344445	7.49944	0.501833	10.3326	0.6139	12.0766	0.8729	17.1917	0.276279	6.00612	0.474599	10.1535	0.73766	14.5688	0.950497	18.8275
0.259158	4.99358	0.0843177	1.7689	0.34678	7.40017	0.502334	10.2781	0.615796	11.8959	0.874143	16.906	0.280276	5.97203	0.475602	10.0774	0.739055	14.3326	0.95113	18.4987
0.263323	4.98436	0.0864245	1.77834	0.349146	7.30542	0.502884	10.2198	0.617718	11.722	0.875406	16.6307	0.284287	5.93959	0.476879	9.98338	0.740471	14.1052	0.951778	18.1818
0.267448	4.97471	0.0885315	1.78743	0.351544	7.21495	0.503641	10.1419	0.619666	11.5547	0.876689	16.3654	0.288312	5.90868	0.47844	9.87299	0.741909	13.8861	0.952441	17.8763
0.271532	4.96463	0.0906388	1.79619	0.353975	7.12852	0.504612	10.0457	0.62164	11.3936	0.877993	16.1096	0.292351	5.87919	0.480291	9.74788	0.743369	13.675	0.953119	17.5816
0.275571	4.95408	0.0927461	1.80463	0.356438	7.04593	0.505808	9.93265	0.62364	11.2383	0.879316	15.8627	0.296403	5.85104	0.482442	9.60983	0.74485	13.4713	0.953812	17.2971
0.279564	4.94307	0.0948535	1.81277	0.358935	6.96697	0.507241	9.80448	0.625664	11.0886	0.88066	15.6243	0.300466	5.82413	0.484623	9.47737	0.746353	13.2748	0.954521	17.0223
0.283508	4.93157	0.0969608	1.82063	0.361466	6.89147	0.508927	9.66304	0.627449	10.9625	0.882024	15.3941	0.30454	5.79838	0.486832	9.35021	0.747877	13.0851	0.955246	16.7568
0.287402	4.91957	0.0990679	1.82821	0.364032	6.81926	0.510656	9.52733	0.628986	10.8581	0.883408	15.1715	0.308624	5.77373	0.489068	9.22803	0.749422	12.9018	0.955987	16.5002
0.291242	4.90706	0.101175	1.83553	0.366635	6.7502	0.512429	9.39707	0.630267	10.7737	0.884811	14.9563	0.312718	5.75009	0.491333	9.1106	0.750988	12.7247	0.956743	16.2519
0.295028	4.89402	0.103281	1.8426	0.369274	6.68414	0.514247	9.27198	0.631286	10.7083	0.886234	14.7481	0.316821	5.72742	0.493624	8.99764	0.752574	12.5534	0.957516	16.0116
0.298757	4.88044	0.105388	1.84944	0.371952	6.62096	0.516109	9.15182	0.632039	10.6609	0.887676	14.5466	0.320933	5.70564	0.495942	8.88893	0.754181	12.3877	0.958305	15.779
0.302427	4.86633	0.107494	1.85605	0.37467	6.56053	0.518015	9.03634	0.632522	10.6309	0.889138	14.3514	0.325052	5.68471	0.498286	8.78425	0.755808	12.2273	0.95911	15.5536
0.306036	4.85166	0.109599	1.86245	0.377428	6.50275	0.519967	8.92532	0.63322	10.5881	0.890619	14.1623	0.329178	5.66458	0.500655	8.6834	0.757455	12.072	0.959931	15.3352
0.309582	4.83645	0.111705	1.86864	0.380229	6.44751	0.521964	8.81856	0.633981	10.5422	0.892119	13.9791	0.333311	5.64518	0.50305	8.58619	0.759123	11.9215	0.960769	15.1235
0.312621	4.82274	0.113809	1.87463	0.383074	6.39472	0.524005	8.71586	0.635021	10.4806	0.893638	13.8014	0.337449	5.62649	0.50547	8.49244	0.76081	11.7757	0.961624	14.9182
0.315172	4.81073	0.115914	1.88043	0.385964	6.34428	0.526092	8.61703	0.636344	10.4042	0.895176	13.629	0.341593	5.60846	0.507914	8.40199	0.762517	11.6343	0.962495	14.719
0.317253	4.80057	0.118017	1.88605	0.3889	6.29612	0.528224	8.5219	0.637956	10.3138	0.896733	13.4618	0.345742	5.59105	0.510383	8.31468	0.764243	11.4972	0.963384	14.5256
0.318882	4.79239	0.120121	1.8915	0.391883	6.25015	0.5304	8.4303	0.639863	10.2106	0.898309	13.2994	0.349895	5.57423	0.512875	8.23036	0.765989	11.3642	0.964289	14.3378
0.320069	4.7863	0.122224	1.89679	0.394916	6.20629	0.532622	8.34207	0.642074	10.0958	0.899903	13.1417	0.354052	5.55795	0.515391	8.14889	0.767525	11.2515	0.965212	14.1554
0.320824	4.78237	0.124326	1.90191	0.397998	6.16447	0.534888	8.25708	0.644307	9.98467	0.901515	12.9886	0.358212	5.54219	0.517929	8.07014	0.768847	11.1577	0.966152	13.9782
0.321904	4.77666	0.126428	1.90689	0.401131	6.12462	0.537199	8.17517	0.646564	9.87703	0.903146	12.8397	0.362374	5.52692	0.52049	7.994	0.769947	11.0816	0.96711	13.806
0.323069	4.7704	0.128529	1.91172	0.404316	6.08666	0.539554	8.09622	0.648843	9.77275	0.904795	12.695	0.366539	5.51212	0.523074	7.92034	0.770823	11.0224	0.968085	13.6385
0.32464	4.76177	0.13063	1.91641	0.407553	6.05052	0.541954	8.0201	0.651144	9.67169	0.906463	12.5543	0.370706	5.49775	0.525679	7.84905	0.771469	10.9794	0.969077	13.4756
0.326603	4.75069	0.13273	1.92097	0.410843	6.01615	0.544397	7.94669	0.653467	9.57371	0.908148	12.4174	0.374873	5.48378	0.528306	7.78004	0.771884	10.9521	0.970088	13.3171
0.328943	4.73703	0.13483	1.92539	0.414185	5.98346	0.546884	7.87588	0.655812	9.47868	0.909851	12.2842	0.379042	5.47021	0.530954	7.71321	0.772482	10.9132	0.971116	13.1629
0.331639	4.72067	0.136929	1.9297	0.41758	5.95239	0.549414	7.80755	0.658179	9.38649	0.911572	12.1545	0.38321	5.45699	0.533622	7.64846	0.773135	10.8713	0.972163	13.0127
0.33467	4.70146	0.139028	1.93388	0.421028	5.92287	0.551987	7.74162	0.660567	9.29701	0.91331	12.0283	0.387379	5.44412	0.536312	7.58571	0.774026	10.815	0.973228	12.8665
0.337633	4.6818	0.141127	1.93796	0.424527	5.89483	0.554602	7.67796	0.662976	9.21015	0.915066	11.9053	0.391547	5.43157	0.539022	7.52487	0.775159	10.7449	0.974311	12.7241
0.340528	4.66173	0.143224	1.94192	0.428078	5.86822	0.557259	7.6165	0.665406	9.12579	0.916839	11.7855	0.395713	5.41933	0.541751	7.46587	0.776539	10.6618	0.975412	12.5854
0.343358	4.64126	0.145322	1.94578	0.431678	5.84295	0.559957	7.55715	0.667857	9.04384	0.91863	11.6688	0.399878	5.40738	0.5445	7.40863	0.77817	10.5664	0.976532	12.4502
0.346121	4.62043	0.147419	1.94953	0.435328	5.81897	0.562696	7.49981	0.670328	8.9642	0.920204	11.5695	0.404041	5.39569	0.547269	7.35309	0.780059	10.4597	0.977671	12.3184
0.348821	4.59927	0.149515	1.95319	0.439026	5.79621	0.565476	7.44442	0.67282	8.8868	0.921557	11.4865	0.408201	5.38425	0.550057	7.29917	0.781966	10.3559	0.978829	12.1898
0.351459	4.57781	0.151611	1.95676	0.44277	5.77461	0.568295	7.39088	0.675331	8.81154	0.922682	11.4191	0.412359	5.37306	0.552864	7.24682	0.78389	10.2548	0.980005	12.0645
0.354035	4.55608	0.153707	1.96023	0.446559	5.75411	0.571154	7.33913	0.677863	8.73834	0.923576	11.3665	0.416513	5.36209	0.555689	7.19598	0.785832	10.1565	0.981201	11.9423
0.356553	4.53411	0.155802	1.96362	0.450391	5.73463	0.574051	7.28909	0.680414	8.66713	0.924237	11.3282	0.420663	5.35133	0.558533	7.14658	0.787791	10.0606	0.982416	11.823
0.359013	4.51194	0.157897	1.96692	0.454264	5.71614	0.576986	7.24071	0.682984	8.59783	0.92466	11.3039	0.424808	5.34076	0.561395	7.09857	0.789768	9.96728	0.98349	11.7214
0.361418	4.4896	0.159991	1.97014	0.458176	5.69856	0.579959	7.1939	0.685574	8.53039	0.925271	11.2692	0.428949	5.33039	0.564274	7.05191	0.791762	9.87631	0.984418	11.6364
0.36377	4.46711	0.162085	1.97329	0.462126	5.68185	0.582969	7.14861	0.688183	8.46472	0.925936	11.2318	0.433084	5.32018	0.567172	7.00654	0.793772	9.78765	0.985193	11.5674
0.366071	4.44451	0.164178	1.97636	0.466112	5.66595	0.586014	7.10479	0.690811	8.40077	0.926845	11.1814	0.437214	5.31013	0.570087	6.96241	0.7958	9.7012	0.985811	11.5134
0.368322	4.42183	0.166271	1.97935	0.470131	5.65081	0.589095	7.06237	0.693458	8.33848	0.928	11.1186	0.441337	5.30024	0.573019	6.91949	0.797844	9.61689	0.986268	11.4742
0.370527	4.39909	0.168364	1.98228	0.474182	5.63638	0.592211	7.0213	0.696123	8.27779	0.929404	11.0439	0.445454	5.29048	0.575969	6.87773	0.799905	9.53465	0.986562	11.4492
0.372686	4.37632	0.170456	1.98514	0.478263	5.62262	0.595361	6.98153	0.698807	8.21865	0.931064	10.9579	0.449564	5.28085	0.578936	6.83709	0.801982	9.45441	0.986987	11.4136
0.374803	4.35354	0.172548	1.98793	0.482373	5.60949	0.598545	6.94301	0.701508	8.161	0.932983	10.8614	0.453666	5.27135	0.581919	6.79753	0.804075	9.3761	0.987451	11.3752
0.376878	4.33078	0.17464	1.99066	0.486508	5.59694	0.601762	6.90569	0.704228	8.10479	0.934919	10.7671	0.457759	5.26195	0.58492	6.75902	0.806184	9.29966	0.988086	11.3235
0.378915	4.30806	0.176731	1.99333	0.490668	5.58494	0.60501	6.86952	0.706966	8.04998	0.936871	10.675	0.461845	5.25266	0.587936	6.72151	0.808309	9.22503	0.988895	11.2589
0.380914	4.2854	0.178822	1.99594	0.494851	5.57344	0.608291	6.83446	0.709722	7.99653	0.938839	10.5851	0.465921	5.24345	0.59097	6.68499	0.81045	9.15215	0.989885	11.1821
0.382878	4.26281	0.180912	1.99849	0.499055	5.56242	0.611602	6.80048	0.712495	7.94438	0.940823	10.4972	0.469988	5.23434	0.594019	6.64941	0.812607	9.08096	0.991059	11.0936
0.384808	4.24032	0.183002	2.00098	0.503279	5.55185	0.614943	6.76752	0.715286	7.89349	0.942822	10.4113	0.474044	5.2253	0.597085	6.61474	0.814779	9.01141	0.992426	10.9942
0.386707	4.21793	0.185092	2.00342	0.507521	5.54169	0.618314	6.73556	0.718094	7.84383	0.944837	10.3273	0.47809	5.21633	0.600167	6.58096	0.816967	8.94345	0.993812	10.8971
0.388575	4.19567	0.187182	2.00581	0.51178	5.53191	0.621714	6.70454	0.720919	7.79536	0.946868	10.2451	0.482126	5.20742	0.603266	6.54803	0.819169	8.87702	0.995219	10.8022
0.390414	4.17355	0.189271	2.00815	0.516054	5.52249	0.625142	6.67445	0.723761	7.74804	0.948914	10.1648	0.486149	5.19856	0.60638	6.51594	0.821387	8.81208	0.996647	10.7094
0.392227	4.15157	0.19136	2.01044	0.520342	5.51341	0.628597	6.64524	0.726621	7.70183	0.950975	10.0862	0.490161	5.18976	0.60951	6.48465	0.82362	8.74859	0.998095	10.6186
0.394013	4.12976	0.193449	2.01269	0.524643	5.50464	0.63208	6.61689	0.729497	7.6567	0.953052	10.0093	0.49416	5.18099	0.612656	6.45415	0.825868	8.6865	0.999563	10.5299
0.395775	4.10811	0.195537	2.01488	0.528955	5.49616	0.635589	6.58935	0.73239	7.61262	0.955144	9.9341	0.498147	5.17226	0.615818	6.4244	0.828131	8.62577	1.00105	10.4431
0.397514	4.08664	0.197625	2.01703	0.533278	5.48794	0.639124	6.56261	0.735299	7.56956	0.95725	9.86045	0.50212	5.16356	0.618996	6.39539	0.830408	8.56636		
0.399232	4.06535	0.199713	2.01914	0.53761	5.47998	0.642684	6.53663	0.738225	7.52748	0.959371	9.78837	0.506079	5.15488	0.62219	6.3671	0.8327	8.50823		
0.400928	4.04426	0.201801	2.02121	0.54195	5.47226	0.646268	6.51138	0.741167	7.48636	0.961507	9.71778	0.510023	5.14622	0.625399	6.3395	0.835006	8.45134		
0.402606	4.02337	0.203888	2.02324	0.546298	5.46474	0.649877	6.48685	0.744126	7.44617	0.963658	9.64866	0.513953	5.13758	0.628624	6.31257	0.837327	8.39565		
0.404264	4.00268	0.205975	2.02522	0.550652	5.45744	0.653508	6.46299	0.747101	7.40688	0.965823	9.58096	0.517867	5.12894	0.631865	6.2863	0.839661	8.34114		
0.405906	3.98219	0.208062	2.02717	0.555011	5.45031	0.657163	6.4398	0.750092	7.36847	0.968002	9.51464	0.521765	5.1203	0.635122	6.26067	0.84201	8.28777		
0.407531	3.96192	0.210149	2.02908	0.559375	5.44336	0.66084	6.41724	0.753099	7.33092	0.970196	9.44967	0.525647	5.11165	0.638394	6.23566	0.844373	8.2355		
0.40914	3.94186	0.212235	2.03096	0.563743	5.43658	0.664539	6.3953	0.756122	7.29419	0.972404	9.386	0.529512	5.103	0.641682	6.21125	0.84675	8.18431		
0.410735	3.92203	0.214321	2.0328	0.568114	5.42994	0.668259	6.37394	0.759161	7.25827	0.974626	9.32359	0.533359	5.09434	0.644986	6.18743	0.849141	8.13417		
0.412317	3.90241	0.216407	2.0346	0.572487	5.42344	0.671999	6.35316	0.762216	7.22313	0.976862	9.26243	0.537189	5.08566	0.648306	6.16418	0.851545	8.08504		
0.413885	3.88301	0.218493	2.03638	0.576861	5.41707	0.67576	6.33293	0.765286	7.18876	0.979111	9.20246	0.541	5.07696	0.651641	6.14149	0.853963	8.03691		
0.415441	3.86384	0.220579	2.03811	0.581236	5.41082	0.67954	6.31324	0.768373	7.15513	0.981374	9.14366	0.544793	5.06824	0.654993	6.11935	0.856395	7.98974		
0.416986	3.84488	0.222664	2.03982	0.585612	5.40467	0.68334	6.29406	0.771475	7.12222	0.983651	9.086	0.548566	5.05949	0.65836	6.09773	0.85884	7.9435		
0.41852	3.82616	0.224749	2.0415	0.589987	5.39863	0.687158	6.27537	0.774592	7.09002	0.985941	9.02945	0.55232	5.05071	0.661743	6.07662	0.861299	7.89818		
0.420044	3.80766	0.226834	2.04315	0.594361	5.39268	0.690994	6.25716	0.777726	7.05851	0.988245	8.97397	0.556053	5.04189	0.665142	6.05602	0.86377	7.85375		
0.421558	3.78938	0.228919	2.04477	0.598733	5.38681	0.694848	6.23942	0.780874	7.02766	0.990562	8.91955	0.559766	5.03304	0.668557	6.03591	0.866256	7.81018		
0.423064	3.77133	0.231003	2.04636	0.603103	5.38102	0.698719	6.22213	0.784039	6.99746	0.992892	8.86615	0.563458	5.02414	0.671987	6.01628	0.868754	7.76746		
0.424561	3.7535	0.233088	2.04792	0.607471	5.37531	0.702607	6.20526	0.787219	6.9679	0.995235	8.81374	0.567128	5.0152	0.675434	5.99711	0.871265	7.72555		
0.42605	3.7359	0.235172	2.04945	0.611835	5.36965	0.706511	6.18882	0.790414	6.93896	0.997591	8.76231	0.570776	5.00622	0.678896	5.97839	0.87379	7.68446		
0.427533	3.71852	0.237256	2.05096	0.616195	5.36406	0.710431	6.17278	0.793625	6.91063	0.999959	8.71182	0.574403	4.99719	0.682374	5.96012	0.876327	7.64414		
0.429008	3.70136	0.23934	2.05245	0.620551	5.35852	0.714366	6.15713	0.796851	6.88288	1.00234	8.66226	0.578006	4.98811	0.685868	5.94228	0.878878	7.60458		
0.430477	3.68442	0.241424	2.0539	0.624903	5.35303	0.718316	6.14186	0.800093	6.85571			0.581587	4.97898	0.689378	5.92486	0.881441	7.56577		
0.431941	3.66769	0.243507	2.05534	0.629249	5.34758	0.722281	6.12695	0.80335	6.8291			0.585145	4.9698	0.692903	5.90785	0.884017	7.52768		
0.433399	3.65119	0.245591	2.05675	0.63359	5.34217	0.72626	6.11239	0.806623	6.80305			0.588679	4.96056	0.696444	5.89125	0.886606	7.4903		
0.434851	3.6349	0.247674	2.05814	0.637924	5.33679	0.730253	6.09818	0.809912	6.77752			0.592189	4.95126	0.700001	5.87503	0.889208	7.45361		
0.4363	3.61882	0.249757	2.0595	0.642252	5.33145	0.734259	6.08429	0.813216	6.75253			0.595675	4.94191	0.703573	5.8592	0.891822	7.4176		
0.437744	3.60295	0.25184	2.06085	0.646574	5.32612	0.738277	6.07072	0.816536	6.72804			0.599136	4.9325	0.707161	5.84373	0.894449	7.38224		
0.439184	3.58729	0.253923	2.06217	0.650888	5.32083	0.742309	6.05746	0.819871	6.70406			0.602573	4.92304	0.710764	5.82863	0.897089	7.34752		
0.44062	3.57184	0.256005	2.06347	0.655194	5.31554	0.746352	6.0445	0.823222	6.68056			0.605985	4.91351	0.714382	5.81388	0.899741	7.31344		
0.442053	3.5566	0.258088	2.06475	0.659493	5.31028	0.750407	6.03183	0.826589	6.65755			0.609372	4.90393	0.718016	5.79948	0.902405	7.27996		
0.443483	3.54156	0.26017	2.06601	0.663783	5.30502	0.754473	6.01944	0.829971	6.635			0.612734	4.89429	0.721664	5.78541	0.905082	7.24709		
0.44491	3.52672	0.262252	2.06725	0.668064	5.29978	0.75855	6.00731	0.833369	6.61291			0.61607	4.88458	0.725327	5.77167	0.907772	7.2148		
0.446335	3.51207	0.264335	2.06847	0.672337	5.29454	0.762638	5.99544	0.836784	6.59127			0.619381	4.87482	0.729005	5.75824	0.910473	7.18308		
0.447758	3.49763	0.266417	2.06967	0.6766	5.2893	0.766736	5.98383	0.840214	6.57008			0.622666	4.86501	0.732697	5.74513	0.913188	7.15192		
0.449179	3.48337	0.268499	2.07086	0.680853	5.28407	0.770843	5.97246	0.84366	6.54931			0.625926	4.85513	0.736404	5.73231	0.915914	7.12131		
0.450598	3.46931	0.27058	2.07202	0.685097	5.27883	0.77496	5.96132	0.847122	6.52897			0.62916	4.8452	0.740124	5.71979	0.918653	7.09124		
0.452016	3.45544	0.272662	2.07317	0.68933	5.27359	0.779086	5.95041	0.850601	6.50904			0.632367	4.83521	0.743859	5.70755	0.921404	7.06169		
0.453432	3.44175	0.274743	2.0743	0.693552	5.26834	0.78322	5.93972	0.854096	6.48951			0.635549	4.82516	0.747607	5.6956	0.924167	7.03265		
0.454847	3.42825	0.276825	2.07542	0.697764	5.26308	0.787363	5.92924	0.857607	6.47039			0.638706	4.81507	0.751368	5.68391	0.926943	7.00411		
0.456262	3.41493	0.278906	2.07652	0.701964	5.25782	0.791513	5.91897	0.861135	6.45165			0.641836	4.80492	0.755142	5.67248	0.92973	6.97606		
0.457675	3.40179	0.280987	2.0776	0.706153	5.25254	0.795671	5.90889	0.864679	6.4333			0.64494	4.79471	0.758929	5.6613	0.93253	6.94849		
0.459089	3.38883	0.283068	2.07867	0.71033	5.24724	0.799836	5.89901	0.86824	6.41532			0.648019	4.78446	0.762729	5.65038	0.935342	6.9214		
0.460502	3.37604	0.285149	2.07972	0.714496	5.24194	0.804008	5.88931	0.871818	6.39771			0.651072	4.77416	0.766541	5.63969	0.938166	6.89476		
0.461914	3.36342	0.28723	2.08076	0.718649	5.23661	0.808186	5.87979	0.875412	6.38047			0.654099	4.76381	0.770365	5.62924	0.941002	6.86857		
0.463327	3.35097	0.289311	2.08178	0.722789	5.23127	0.81237	5.87043	0.879024	6.36358			0.657101	4.75342	0.7742	5.61901	0.94385	6.84282		
0.46474	3.33869	0.291392	2.08279	0.726917	5.2259	0.816559	5.86125	0.882652	6.34704			0.660078	4.74299	0.778046	5.60899	0.94671	6.81751		
0.466153	3.32658	0.293472	2.08379	0.731032	5.22052	0.820754	5.85222	0.886298	6.33084			0.663029	4.73251	0.781904	5.5992	0.949582	6.79261		
0.467566	3.31463	0.295553	2.08477	0.735133	5.21511	0.824954	5.84335	0.889961	6.31498			0.665955	4.72199	0.785772	5.5896	0.952466	6.76814		
0.46898	3.30284	0.297633	2.08573	0.739222	5.20968	0.829159	5.83462	0.893642	6.29945			0.668856	4.71144	0.78965	5.58021	0.955362	6.74407		
0.470395	3.29121	0.299714	2.08669	0.743296	5.20422	0.833367	5.82604	0.89734	6.28424			0.671732	4.70085	0.793538	5.571	0.95827	6.72039		
0.47181	3.27973	0.301794	2.08763	0.747357	5.19874	0.83758	5.8176	0.901055	6.26935			0.674584	4.69022	0.797436	5.56198	0.961189	6.69711		
0.473227	3.26841	0.303874	2.08856	0.751404	5.19323	0.841796	5.80929	0.904788	6.25478			0.677411	4.67957	0.801342	5.55315	0.964121	6.67421		
0.474644	3.25724	0.305954	2.08947	0.755436	5.1877	0.846015	5.80111	0.908539	6.24052			0.680214	4.66888	0.805258	5.54448	0.967064	6.65168		
0.476062	3.24621	0.308034	2.09038	0.759454	5.18213	0.850238	5.79305	0.912308	6.22656			0.682993	4.65817	0.809182	5.53599	0.970019	6.62953		
0.477482	3.23534	0.310114	2.09127	0.763458	5.17654	0.854462	5.78511	0.916095	6.2129			0.685748	4.64743	0.813114	5.52765	0.972987	6.60773		
0.478902	3.22461	0.312194	2.09215	0.767446	5.17092	0.858689	5.77729	0.9199	6.19953			0.68848	4.63666	0.817053	5.51947	0.975965	6.58628		
0.480324	3.21402	0.314274	2.09302	0.77142	5.16527	0.862918	5.76957	0.923724	6.18645			0.691188	4.62588	0.821	5.51145	0.978956	6.56519		
0.481748	3.20357	0.316353	2.09388	0.775379	5.15959	0.867148	5.76196	0.927565	6.17366			0.693874	4.61507	0.824954	5.50357	0.981958	6.54443		
0.483173	3.19326	0.318433	2.09473	0.779322	5.15388	0.87138	5.75445	0.931425	6.16114			0.696536	4.60425	0.828914	5.49583	0.984972	6.524		
0.484599	3.18309	0.320512	2.09556	0.78325	5.14813	0.875612	5.74705	0.935303	6.1489			0.699176	4.59341	0.83288	5.48822	0.987997	6.50391		
0.486028	3.17305	0.322592	2.09639	0.787162	5.14235	0.879846	5.73973	0.939199	6.13692			0.701794	4.58256	0.836852	5.48075	0.991034	6.48413		
0.487457	3.16315	0.324671	2.0972	0.791059	5.13655	0.884079	5.73251	0.943114	6.12522			0.704389	4.57169	0.84083	5.4734	0.994083	6.46467		
0.488889	3.15337	0.32675	2.09801	0.794939	5.1307	0.888313	5.72537	0.947048	6.11377			0.706963	4.56082	0.844812	5.46617	0.997143	6.44552		
0.490322	3.14373	0.328829	2.0988	0.798804	5.12483	0.892546	5.71832	0.951	6.10258			0.709516	4.54994	0.848799	5.45906	1.00021	6.42667		
0.491758	3.13421	0.330909	2.09959	0.802653	5.11892	0.89678	5.71135	0.95497	6.09163			0.712047	4.53905	0.85279	5.45206				
0.493195	3.12481	0.332988	2.10036	0.806485	5.11298	0.901012	5.70445	0.958959	6.08094			0.714557	4.52816	0.856785	5.44516				
0.494634	3.11554	0.335067	2.10113	0.810301	5.10701	0.905244	5.69764	0.962967	6.07049			0.717047	4.51726	0.860784	5.43838				
0.496075	3.10639	0.337146	2.10188	0.814101	5.10101	0.909474	5.69089	0.966993	6.06027			0.719516	4.50637	0.864786	5.43169				
0.497519	3.09735	0.339224	2.10263	0.817884	5.09497	0.913703	5.68422	0.971037	6.05029			0.721965	4.49548	0.86879	5.42509				
0.498964	3.08844	0.341303	2.10337	0.821651	5.08889	0.917931	5.67761	0.9751	6.04054			0.724395	4.48459	0.872797	5.41859				
0.500412	3.07964	0.343382	2.1041	0.8254	5.08279	0.922157	5.67107	0.979181	6.03101			0.726805	4.4737	0.876807	5.41217				
0.501861	3.07095	0.345461	2.10482	0.829134	5.07665	0.926381	5.66459	0.983281	6.02171			0.729195	4.46282	0.880817	5.40584				
0.503313	3.06238	0.347539	2.10553	0.83285	5.07048	0.930603	5.65817	0.987398	6.01262			0.731567	4.45195	0.884829	5.39959				
0.504768	3.05391	0.349618	2.10624	0.836549	5.06428	0.934823	5.65181	0.991534	6.00374			0.73392	4.44109	0.888843	5.39341				
0.506224	3.04556	0.351696	2.10693	0.840232	5.05804	0.93904	5.6455	0.995688	5.99507			0.736255	4.43024	0.892856	5.38731				
0.507683	3.03731	0.353775	2.10762	0.843897	5.05177	0.943255	5.63926	0.999859	5.9866			0.738571	4.41941	0.896871	5.38128				
0.509144	3.02917	0.355853	2.1083	0.847546	5.04547	0.947467	5.63306	1.00405	5.97833			0.74087	4.40858	0.900885	5.37532				
0.510608	3.02113	0.357932	2.10897	0.851177	5.03914	0.951676	5.62692					0.743151	4.39778	0.904899	5.36942				
0.512074	3.01319	0.36001	2.10963	0.854791	5.03278	0.955883	5.62083					0.745415	4.38699	0.908912	5.36358				
0.513542	3.00536	0.362088	2.11029	0.858388	5.02638	0.960087	5.61479					0.747662	4.37622	0.912924	5.3578				
0.515013	2.99762	0.364166	2.11094	0.861968	5.01996	0.964287	5.60879					0.749893	4.36546	0.916935	5.35207				
0.516486	2.98998	0.366244	2.11158	0.865531	5.01351	0.968485	5.60284					0.752107	4.35473	0.920945	5.3464				
0.517962	2.98244	0.368322	2.11222	0.869077	5.00702	0.97268	5.59694					0.754305	4.34403	0.924952	5.34078				
0.51944	2.97499	0.370401	2.11285	0.872605	5.00051	0.976871	5.59108					0.756487	4.33334	0.928958	5.33521				
0.520921	2.96763	0.372478	2.11347	0.876116	4.99397	0.981059	5.58527					0.758653	4.32268	0.932961	5.32968				
0.522404	2.96037	0.374556	2.11408	0.87961	4.9874	0.985243	5.5795					0.760804	4.31205	0.936961	5.32419				
0.52389	2.9532	0.376634	2.11469	0.883087	4.9808	0.989425	5.57377					0.76294	4.30144	0.940958	5.31874				
0.525379	2.94612	0.378712	2.11529	0.886547	4.97417	0.993603	5.56808					0.765062	4.29086	0.944951	5.31333				
0.52687	2.93912	0.38079	2.11588	0.889989	4.96752	0.997777	5.56243					0.767169	4.28031	0.948941	5.30796				
0.528363	2.93221	0.382868	2.11647	0.893415	4.96084	1.00195	5.55682					0.769261	4.26979	0.952927	5.30262				
0.529859	2.92539	0.384945	2.11705	0.896823	4.95413							0.77134	4.2593	0.956909	5.29732				
0.531358	2.91865	0.387023	2.11763	0.900214	4.9474							0.773405	4.24884	0.960886	5.29204				
0.532859	2.912	0.389101	2.1182	0.903588	4.94065							0.775456	4.23842	0.964859	5.28679				
0.534363	2.90542	0.391178	2.11876	0.906945	4.93387							0.777494	4.22803	0.968826	5.28157				
0.53587	2.89893	0.393256	2.11932	0.910285	4.92707							0.779519	4.21767	0.972789	5.27637				
0.537379	2.89251	0.395333	2.11987	0.913609	4.92024							0.781532	4.20735	0.976746	5.27119				
0.53889	2.88617	0.39741	2.12042	0.916915	4.9134							0.783531	4.19706	0.980697	5.26604				
0.540405	2.87991	0.399488	2.12096	0.920205	4.90653							0.785519	4.18682	0.984642	5.2609				
0.541922	2.87373	0.401565	2.12149	0.923477	4.89964							0.787495	4.1766	0.988581	5.25578				
0.543441	2.86762	0.403642	2.12202	0.926734	4.89273							0.789459	4.16643	0.992513	5.25068				
0.544964	2.86158	0.40572	2.12255	0.929973	4.8858							0.791411	4.1563	0.996439	5.24559				
0.546488	2.85562	0.407797	2.12306	0.933196	4.87885							0.793352	4.1462	1.00036	5.24052				
0.548016	2.84973	0.409874	2.12358	0.936402	4.87188							0.795282	4.13615						
0.549546	2.84391	0.411951	2.12409	0.939592	4.8649							0.797201	4.12614						
0.551079	2.83815	0.414028	2.12459	0.942766	4.85789							0.799109	4.11617						
0.552614	2.83247	0.416105	2.12509	0.945923	4.85087							0.801007	4.10623						
0.554152	2.82685	0.418182	2.12558	0.949064	4.84384							0.802894	4.09635						
0.555692	2.8213	0.420259	2.12607	0.952188	4.83678							0.804772	4.0865						
0.557235	2.81582	0.422336	2.12655	0.955297	4.82972							0.80664	4.0767						
0.558781	2.81039	0.424413	2.12703	0.95839	4.82264							0.808498	4.06694						
0.560329	2.80504	0.42649	2.12751	0.961466	4.81554							0.810347	4.05723						
0.56188	2.79974	0.428567	2.12798	0.964527	4.80843							0.812187	4.04755						
0.563434	2.79451	0.430644	2.12844	0.967572	4.80131							0.814017	4.03793						
0.56499	2.78934	0.43272	2.1289	0.970601	4.79418							0.815839	4.02835						
0.566548	2.78423	0.434797	2.12936	0.973615	4.78704							0.817652	4.01881						
0.568109	2.77917	0.436874	2.12981	0.976613	4.77988							0.819457	4.00932						
0.569673	2.77418	0.43895	2.13026	0.979596	4.77271							0.821253	3.99988						
0.571239	2.76924	0.441027	2.1307	0.982563	4.76554							0.823042	3.99048						
0.572808	2.76436	0.443104	2.13114	0.985515	4.75836							0.824822	3.98113						
0.57438	2.75954	0.44518	2.13158	0.988452	4.75116							0.826595	3.97183						
0.575953	2.75477	0.447257	2.13201	0.991374	4.74396							0.82836	3.96257						
0.57753	2.75005	0.449333	2.13244	0.994281	4.73675							0.830118	3.95336						
0.579109	2.74539	0.45141	2.13286	0.997172	4.72954							0.831869	3.9442						
0.58069	2.74078	0.453486	2.13328	1.00005	4.72231							0.833613	3.93508						
0.582274	2.73623	0.455563	2.1337									0.835349	3.92601						
0.583861	2.73172	0.457639	2.13411									0.837079	3.91699						
0.58545	2.72727	0.459715	2.13452									0.838803	3.90802						
0.587041	2.72286	0.461792	2.13493									0.84052	3.89909						
0.588635	2.71851	0.463868	2.13533									0.842231	3.89021						
0.590231	2.7142	0.465944	2.13572									0.843936	3.88139						
0.59183	2.70994	0.46802	2.13612									0.845634	3.8726						
0.593431	2.70573	0.470097	2.13651									0.847327	3.86387						
0.595034	2.70156	0.472173	2.1369									0.849015	3.85519						
0.59664	2.69744	0.474249	2.13728									0.850696	3.84655						
0.598248	2.69337	0.476325	2.13766									0.852373	3.83796						
0.599859	2.68934	0.478401	2.13804									0.854044	3.82942						
0.601472	2.68536	0.480477	2.13841									0.85571	3.82093						
0.603088	2.68142	0.482553	2.13878									0.857371	3.81248						
0.604705	2.67752	0.484629	2.13915									0.859027	3.80409						
0.606326	2.67366	0.486705	2.13952									0.860678	3.79574						
0.607948	2.66985	0.488781	2.13988									0.862325	3.78744						
0.609573	2.66607	0.490857	2.14024									0.863967	3.77919						
0.6112	2.66234	0.492933	2.14059									0.865605	3.77098						
0.612829	2.65865	0.495009	2.14094									0.867238	3.76282						
0.614461	2.655	0.497085	2.14129									0.868867	3.75472						
0.616095	2.65138	0.49916	2.14164									0.870493	3.74665						
0.617731	2.64781	0.501236	2.14198									0.872114	3.73864						
0.61937	2.64427	0.503312	2.14232									0.873731	3.73067						
0.62101	2.64077	0.505388	2.14266									0.875345	3.72275						
0.622653	2.63731	0.507464	2.143									0.876955	3.71488						
0.624298	2.63388	0.509539	2.14333									0.878562	3.70706						
0.625946	2.63049	0.511615	2.14366									0.880165	3.69928						
0.627595	2.62714	0.513691	2.14399									0.881765	3.69155						
0.629247	2.62382	0.515766	2.14431									0.883361	3.68386						
0.630901	2.62053	0.517842	2.14463									0.884955	3.67622						
0.632557	2.61728	0.519917	2.14495									0.886545	3.66863						
0.634215	2.61407	0.521993	2.14527									0.888132	3.66108						
0.635875	2.61088	0.524068	2.14559									0.889717	3.65358						
0.637538	2.60773	0.526144	2.1459									0.891299	3.64613						
0.639202	2.60462	0.52822	2.14621									0.892878	3.63872						
0.640869	2.60153	0.530295	2.14651									0.894454	3.63136						
0.642538	2.59848	0.53237	2.14682									0.896028	3.62404						
0.644208	2.59546	0.534446	2.14712									0.897599	3.61676						
0.645881	2.59246	0.536521	2.14742									0.899168	3.60953						
0.647556	2.5895	0.538597	2.14772									0.900735	3.60235						
0.649233	2.58657	0.540672	2.14801									0.902299	3.59521						
0.650912	2.58367	0.542747	2.14831									0.903862	3.58812						
0.652593	2.5808	0.544823	2.1486									0.905422	3.58106						
0.654276	2.57796	0.546898	2.14889									0.90698	3.57406						
0.655961	2.57514	0.548973	2.14917									0.908536	3.56709						
0.657648	2.57236	0.551049	2.14946									0.910091	3.56017						
0.659337	2.5696	0.553124	2.14974									0.911643	3.5533						
0.661028	2.56687	0.555199	2.15002									0.913194	3.54646						
0.662721	2.56416	0.557274	2.1503									0.914743	3.53967						
0.664415	2.56149	0.559349	2.15057									0.916291	3.53292						
0.666112	2.55884	0.561425	2.15085									0.917837	3.52621						
0.667811	2.55621	0.5635	2.15112									0.919381	3.51955						
0.669511	2.55361	0.565575	2.15139									0.920924	3.51293						
0.671214	2.55104	0.56765	2.15166									0.922466	3.50635						
0.672918	2.5485	0.569725	2.15192									0.924006	3.49981						
0.674624	2.54597	0.5718	2.15219									0.925545	3.49331						
0.676332	2.54348	0.573875	2.15245									0.927083	3.48685						
0.678042	2.541	0.57595	2.15271									0.928619	3.48043						
0.679754	2.53855	0.578025	2.15297									0.930155	3.47406						
0.681467	2.53613	0.5801	2.15322									0.931689	3.46772						
0.683182	2.53373	0.582175	2.15348									0.933223	3.46143						
0.684899	2.53135	0.58425	2.15373									0.934755	3.45517						
0.686618	2.52899	0.586325	2.15398									0.936287	3.44895						
0.688339	2.52666	0.5884	2.15423									0.937817	3.44278						
0.690061	2.52435	0.590475	2.15448									0.939347	3.43664						
0.691786	2.52206	0.59255	2.15473									0.940876	3.43054						
0.693512	2.51979	0.594625	2.15497									0.942405	3.42448						
0.695239	2.51755	0.5967	2.15521									0.943932	3.41846						
0.696969	2.51532	0.598774	2.15545									0.945459	3.41247						
0.6987	2.51312	0.600849	2.15569									0.946986	3.40653						
0.700433	2.51094	0.602924	2.15593									0.948512	3.40062						
0.702167	2.50878	0.604999	2.15616									0.950037	3.39475						
0.703903	2.50664	0.607074	2.1564									0.951562	3.38891						
0.705641	2.50452	0.609148	2.15663									0.953086	3.38311						
0.707381	2.50242	0.611223	2.15686									0.95461	3.37735						
0.709122	2.50033	0.613298	2.15709									0.956134	3.37163						
0.710865	2.49827	0.615372	2.15732									0.957657	3.36594						
0.712609	2.49623	0.617447	2.15754									0.95918	3.36029						
0.714355	2.49421	0.619522	2.15777									0.960702	3.35468						
0.716103	2.4922	0.621596	2.15799									0.962225	3.3491						
0.717852	2.49021	0.623671	2.15821									0.963747	3.34355						
0.719603	2.48825	0.625746	2.15843									0.965269	3.33804						
0.721355	2.4863	0.62782	2.15865									0.966791	3.33257						
0.723109	2.48436	0.629895	2.15887									0.968313	3.32713						
0.724865	2.48245	0.631969	2.15909									0.969834	3.32172						
0.726622	2.48055	0.634044	2.1593									0.971356	3.31635						
0.728381	2.47867	0.636118	2.15951									0.972877	3.31102						
0.730141	2.47681	0.638193	2.15972									0.974399	3.30571						
0.731903	2.47496	0.640267	2.15993									0.975921	3.30044						
0.733666	2.47313	0.642342	2.16014									0.977442	3.29521						
0.735431	2.47132	0.644417	2.16035									0.978964	3.29						
0.737197	2.46952	0.646491	2.16056									0.980486	3.28483						
0.738965	2.46774	0.648565	2.16076									0.982008	3.27969						
0.740734	2.46598	0.65064	2.16096									0.98353	3.27459						
0.742504	2.46423	0.652714	2.16117									0.985052	3.26951						
0.744276	2.4625	0.654789	2.16137									0.986575	3.26447						
0.74605	2.46078	0.656863	2.16157									0.988098	3.25946						
0.747825	2.45908	0.658937	2.16177									0.989621	3.25448						
0.749601	2.45739	0.661012	2.16196									0.991144	3.24954						
0.751379	2.45572	0.663086	2.16216									0.992668	3.24462						
0.753159	2.45406	0.66516	2.16235									0.994192	3.23974						
0.754939	2.45242	0.667235	2.16255									0.995716	3.23488						
0.756721	2.45079	0.669309	2.16274									0.99724	3.23006						
0.758505	2.44917	0.671383	2.16293									0.998765	3.22526						
0.76029	2.44757	0.673457	2.16312									1.00029	3.2205						
0.762076	2.44599	0.675532	2.16331																
0.763863	2.44442	0.677606	2.16349																
0.765652	2.44286	0.67968	2.16368																
0.767443	2.44131	0.681754	2.16387																
0.769234	2.43978	0.683829	2.16405																
0.771027	2.43826	0.685903	2.16423																
0.772821	2.43676	0.687977	2.16441																
0.774617	2.43526	0.690051	2.1646																
0.776414	2.43378	0.692125	2.16478																
0.778212	2.43232	0.694199	2.16495																
0.780011	2.43086	0.696273	2.16513																
0.781812	2.42942	0.698348	2.16531																
0.783614	2.42799	0.700422	2.16548																
0.785417	2.42657	0.702496	2.16566																
0.787222	2.42517	0.70457	2.16583																
0.789027	2.42377	0.706644	2.166																
0.790834	2.42239	0.708718	2.16617																
0.792642	2.42102	0.710792	2.16634																
0.794452	2.41966	0.712866	2.16651																
0.796262	2.41831	0.71494	2.16668																
0.798074	2.41698	0.717014	2.16685																
0.799887	2.41565	0.719088	2.16701																
0.801702	2.41434	0.721162	2.16718																
0.803517	2.41303	0.723236	2.16734																
0.805334	2.41174	0.72531	2.16751																
0.807151	2.41046	0.727383	2.16767																
0.80897	2.40919	0.729457	2.16783																
0.81079	2.40793	0.731531	2.16799																
0.812612	2.40668	0.733605	2.16815																
0.814434	2.40544	0.735679	2.16831																
0.816258	2.40421	0.737753	2.16847																
0.818082	2.40299	0.739827	2.16862																
0.819908	2.40178	0.7419	2.16878																
0.821735	2.40057	0.743974	2.16893																
0.823563	2.39938	0.746048	2.16909																
0.825392	2.3982	0.748122	2.16924																
0.827222	2.39703	0.750196	2.16939																
0.829053	2.39587	0.752269	2.16954																
0.830886	2.39472	0.754343	2.1697																
0.832719	2.39358	0.756417	2.16984																
0.834554	2.39244	0.758491	2.16999																
0.836389	2.39132	0.760564	2.17014																
0.838226	2.3902	0.762638	2.17029																
0.840064	2.38909	0.764712	2.17044																
0.841902	2.38799	0.766785	2.17058																
0.843742	2.38691	0.768859	2.17073																
0.845583	2.38582	0.770933	2.17087																
0.847425	2.38475	0.773006	2.17101																
0.849267	2.38369	0.77508	2.17116																
0.851111	2.38263	0.777153	2.1713																
0.852956	2.38159	0.779227	2.17144																
0.854802	2.38055	0.781301	2.17158																
0.856649	2.37952	0.783374	2.17172																
0.858497	2.37849	0.785448	2.17186																
0.860345	2.37748	0.787521	2.172																
0.862195	2.37647	0.789595	2.17213																
0.864046	2.37547	0.791668	2.17227																
0.865898	2.37448	0.793742	2.17241																
0.86775	2.3735	0.795815	2.17254																
0.869604	2.37252	0.797889	2.17268																
0.871458	2.37155	0.799962	2.17281																
0.873314	2.37059	0.802036	2.17294																
0.87517	2.36964	0.804109	2.17307																
0.877028	2.36869	0.806183	2.17321																
0.878886	2.36775	0.808256	2.17334																
0.880745	2.36682	0.81033	2.17347																
0.882605	2.36589	0.812403	2.1736																
0.884466	2.36498	0.814476	2.17372																
0.886328	2.36407	0.81655	2.17385																
0.888191	2.36316	0.818623	2.17398																
0.890055	2.36226	0.820697	2.17411																
0.891919	2.36137	0.82277	2.17423																
0.893785	2.36049	0.824843	2.17436																
0.895651	2.35961	0.826917	2.17448																
0.897518	2.35874	0.82899	2.17461																
0.899386	2.35788	0.831063	2.17473																
0.901255	2.35702	0.833136	2.17485																
0.903125	2.35617	0.83521	2.17498																
0.904996	2.35533	0.837283	2.1751																
0.906867	2.35449	0.839356	2.17522																
0.908739	2.35365	0.84143	2.17534																
0.910613	2.35283	0.843503	2.17546																
0.912487	2.35201	0.845576	2.17558																
0.914361	2.35119	0.847649	2.1757																
0.916237	2.35039	0.849722	2.17582																
0.918113	2.34958	0.851796	2.17593																
0.919991	2.34879	0.853869	2.17605																
0.921869	2.348	0.855942	2.17617																
0.923748	2.34721	0.858015	2.17628																
0.925627	2.34643	0.860088	2.1764																
0.927508	2.34566	0.862161	2.17651																
0.929389	2.34489	0.864235	2.17663																
0.931271	2.34413	0.866308	2.17674																
0.933154	2.34338	0.868381	2.17685																
0.935037	2.34262	0.870454	2.17697																
0.936922	2.34188	0.872527	2.17708																
0.938807	2.34114	0.8746	2.17719																
0.940693	2.3404	0.876673	2.1773																
0.942579	2.33967	0.878746	2.17741																
0.944467	2.33895	0.880819	2.17752																
0.946355	2.33823	0.882892	2.17763																
0.948244	2.33752	0.884965	2.17774																
0.950133	2.33681	0.887038	2.17785																
0.952024	2.3361	0.889111	2.17795																
0.953915	2.33541	0.891184	2.17806																
0.955807	2.33471	0.893257	2.17817																
0.957699	2.33402	0.89533	2.17827																
0.959592	2.33334	0.897403	2.17838																
0.961486	2.33266	0.899476	2.17848																
0.963381	2.33198	0.901549	2.17859																
0.965276	2.33131	0.903622	2.17869																
0.967172	2.33065	0.905695	2.17879																
0.969069	2.32999	0.907768	2.1789																
0.970967	2.32933	0.909841	2.179																
0.972865	2.32868	0.911914	2.1791																
0.974764	2.32804	0.913986	2.1792																
0.976663	2.32739	0.916059	2.17931																
0.978563	2.32676	0.918132	2.17941																
0.980464	2.32612	0.920205	2.17951																
0.982366	2.32549	0.922278	2.17961																
0.984268	2.32487	0.924351	2.17971																
0.986171	2.32425	0.926423	2.1798																
0.988074	2.32363	0.928496	2.1799																
0.989979	2.32302	0.930569	2.18																
0.991883	2.32241	0.932642	2.1801																
0.993789	2.32181	0.934715	2.18019																
0.995695	2.32121	0.936787	2.18029																
0.997602	2.32061	0.93886	2.18039																
0.999509	2.32002	0.940933	2.18048																
1.00142	2.31944	0.943006	2.18058																
		0.945078	2.18067																
		0.947151	2.18077																
		0.949224	2.18086																
		0.951296	2.18095																
		0.953369	2.18105																
		0.955442	2.18114																
		0.957514	2.18123																
		0.959587	2.18132																
		0.96166	2.18142																
		0.963732	2.18151																
		0.965805	2.1816																
		0.967877	2.18169																
		0.96995	2.18178																
		0.972023	2.18187																
		0.974095	2.18196																
		0.976168	2.18204																
		0.97824	2.18213																
		0.980313	2.18222																
		0.982385	2.18231																
		0.984458	2.1824																
		0.986531	2.18248																
		0.988603	2.18257																
		0.990676	2.18265																
		0.992748	2.18274																
		0.994821	2.18283																
		0.996893	2.18291																
		0.998965	2.18299																
		1.00104	2.18308																
