Sym0		Asym0		Sym1		Sym2		Sym3		Sym4		Asym1		Asym2		Asym3		Asym4	
470  Points		498  Points		235  Points		201  Points		188  Points		131  Points		340  Points		213  Points		175  Points		111  Points	
Freq (MHz)	Vph (m/ms)	Freq (MHz)	Vph (m/ms)	Freq (MHz)	Vph (m/ms)	Freq (MHz)	Vph (m/ms)	Freq (MHz)	Vph (m/ms)	Freq (MHz)	Vph (m/ms)	Freq (MHz)	Vph (m/ms)	Freq (MHz)	Vph (m/ms)	Freq (MHz)	Vph (m/ms)	Freq (MHz)	Vph (m/ms)
0.000735388	5.11547	4.79564e-005	0.0596686	0.27952	499.739	0.46678	639.187	0.559022	1169.98	0.838528	1912.46	0.139792	234.846	0.419263	3106.98	0.698773	2390.51	0.933548	7049.09
0.00550137	5.11539	0.000223027	0.128515	0.279587	187.513	0.466806	280.876	0.559062	396.638	0.838551	612.013	0.140001	91.687	0.419293	393.098	0.698794	570.908	0.933554	877.293
0.0102671	5.11528	0.00052521	0.196921	0.279715	115.455	0.466853	179.998	0.55914	238.827	0.838596	364.315	0.140392	57.1015	0.41937	209.86	0.698843	324.184	0.933569	467.761
0.0150324	5.11509	0.0009521	0.26456	0.279904	83.4434	0.46692	132.446	0.559258	170.876	0.838665	259.364	0.140963	41.578	0.419492	143.17	0.698918	226.378	0.933593	318.902
0.0197971	5.11483	0.00150052	0.331205	0.280154	65.3632	0.467008	104.779	0.559414	133.049	0.838758	201.371	0.141711	32.7882	0.419661	108.672	0.69902	173.925	0.933626	241.921
0.024561	5.1145	0.00216659	0.396653	0.280464	53.7513	0.467116	86.6836	0.55961	108.952	0.838873	164.584	0.142632	27.1488	0.419877	87.5945	0.699148	141.22	0.933668	194.883
0.0293238	5.11409	0.00294566	0.4607	0.280834	45.6678	0.467245	73.926	0.559844	92.2621	0.839012	139.171	0.143721	23.2354	0.420139	73.3852	0.699303	118.879	0.93372	163.163
0.0340854	5.11362	0.00383254	0.523173	0.281265	39.7199	0.467395	64.4492	0.560117	80.0205	0.839173	120.565	0.144972	20.3695	0.420446	63.1604	0.699485	102.651	0.93378	140.327
0.0388456	5.11307	0.00482177	0.583943	0.281755	35.1627	0.467565	57.1328	0.560429	70.6598	0.839358	106.355	0.14638	18.1865	0.4208	55.4523	0.699693	90.3311	0.93385	123.102
0.0436041	5.11244	0.00590748	0.642888	0.282303	31.5614	0.467758	51.3144	0.560779	63.2715	0.839566	95.1489	0.147937	16.4732	0.4212	49.4354	0.699928	80.6595	0.933929	109.646
0.0483607	5.11174	0.00708376	0.699931	0.282911	28.6455	0.467971	46.5772	0.561168	57.2927	0.839798	86.0854	0.149638	15.0964	0.421645	44.6096	0.700189	72.8661	0.934018	98.8443
0.0531152	5.11096	0.00834458	0.755005	0.283576	26.2376	0.468206	42.6459	0.561594	52.356	0.840052	78.6043	0.151477	13.9688	0.422136	40.6541	0.700477	66.4529	0.934116	89.9825
0.0578674	5.11011	0.009684	0.808074	0.284298	24.2169	0.468463	39.3316	0.562059	48.2117	0.840329	72.325	0.153445	13.0308	0.422672	37.3541	0.700792	61.0837	0.934223	82.5813
0.0626171	5.10918	0.0110962	0.859125	0.285078	22.4978	0.468742	36.4998	0.562562	44.6838	0.84063	66.9798	0.155537	12.24	0.423253	34.5598	0.701132	56.5231	0.93434	76.3071
0.0673639	5.10817	0.0125756	0.90815	0.285913	21.0183	0.469044	34.0528	0.563103	41.6449	0.840953	62.3752	0.157746	11.5658	0.423879	32.164	0.701499	52.6018	0.934467	70.921
0.0721078	5.10708	0.0141166	0.955174	0.286804	19.7323	0.469368	31.9174	0.563681	39.0003	0.8413	58.3673	0.160066	10.9855	0.42455	30.0878	0.701893	49.1944	0.934604	66.247
0.0768483	5.1059	0.0157143	1.00022	0.28775	18.6048	0.469715	30.0379	0.564297	36.6785	0.841669	54.8477	0.162173	10.5426	0.425265	28.2718	0.702312	46.2065	0.93475	62.1528
0.0815854	5.10464	0.0173637	1.04333	0.288749	17.6087	0.470086	28.3712	0.564949	34.6242	0.842062	51.7324	0.164029	10.2042	0.426025	26.6703	0.702758	43.5654	0.934906	58.5368
0.0863185	5.1033	0.0190602	1.08455	0.289802	16.7227	0.47048	26.8834	0.565639	32.7939	0.842477	48.9557	0.165603	9.94793	0.426828	25.248	0.70323	41.2142	0.935072	55.3201
0.0910476	5.10186	0.0207997	1.12395	0.290906	15.93	0.470898	25.5472	0.566366	31.1532	0.842915	46.4655	0.166873	9.75891	0.427675	23.9767	0.703728	39.1079	0.935248	52.44
0.0957724	5.10034	0.0225781	1.16157	0.292062	15.2169	0.471341	24.3409	0.567128	29.6744	0.843376	44.2198	0.16782	9.62696	0.428566	22.8339	0.704252	37.2104	0.935435	49.8464
0.100492	5.09872	0.0243919	1.19749	0.293269	14.5724	0.471808	23.2465	0.567928	28.3349	0.84386	42.1844	0.168432	9.54546	0.429499	21.8014	0.704802	35.4923	0.935631	47.4987
0.105208	5.09701	0.0262378	1.23176	0.294524	13.9873	0.472301	22.2494	0.568763	27.1161	0.844366	40.3313	0.16932	9.43213	0.430475	20.8642	0.705378	33.9294	0.935838	45.3636
0.109917	5.0952	0.0281124	1.26446	0.295829	13.4539	0.47282	21.3373	0.569634	26.0026	0.844895	38.6371	0.170295	9.31381	0.431493	20.01	0.705979	32.5017	0.936056	43.4135
0.114622	5.09329	0.0300131	1.29566	0.297181	12.966	0.473364	20.5	0.57054	24.9815	0.845447	37.0824	0.171638	9.16055	0.432553	19.2283	0.706607	31.1926	0.936284	41.6254
0.11932	5.09127	0.0319374	1.32542	0.29858	12.5182	0.473935	19.7287	0.571482	24.042	0.846021	35.6507	0.173364	8.97842	0.433655	18.5107	0.707259	29.9881	0.936523	39.98
0.124012	5.08915	0.0338827	1.3538	0.300024	12.1058	0.474534	19.0161	0.572459	23.1747	0.846618	34.3281	0.175491	8.77405	0.434798	17.8496	0.707938	28.8761	0.936773	38.4609
0.128697	5.08692	0.035847	1.38088	0.301513	11.7251	0.475159	18.3558	0.57347	22.3718	0.847237	33.1027	0.178037	8.55414	0.435982	17.2388	0.708641	27.8466	0.937034	37.0542
0.133375	5.08458	0.0378283	1.40672	0.303046	11.3727	0.475813	17.7425	0.574515	21.6266	0.847878	31.9641	0.181026	8.32506	0.437207	16.673	0.70937	26.8907	0.937306	35.7479
0.138045	5.08211	0.0398249	1.43137	0.304622	11.0456	0.476495	17.1714	0.575595	20.933	0.848542	30.9037	0.184081	8.11774	0.438471	16.1475	0.710125	26.001	0.937589	34.5316
0.142707	5.07953	0.0418351	1.4549	0.306239	10.7414	0.477207	16.6384	0.576709	20.2862	0.849228	29.9137	0.1872	7.92946	0.439775	15.6583	0.710904	25.1708	0.937884	33.3965
0.147361	5.07681	0.0438575	1.47737	0.307682	10.4932	0.477948	16.1399	0.577856	19.6815	0.849937	28.9873	0.190378	7.75791	0.441118	15.2018	0.711708	24.3946	0.938189	32.3347
0.152006	5.07397	0.0458908	1.49882	0.308937	10.293	0.478718	15.6728	0.579036	19.1151	0.850667	28.1187	0.193612	7.60111	0.4425	14.775	0.712537	23.6672	0.938507	31.3393
0.156641	5.07099	0.0476705	1.51673	0.30999	10.1349	0.47952	15.2344	0.580249	18.5836	0.85142	27.3028	0.196899	7.45739	0.443921	14.3753	0.713391	22.9843	0.938836	30.4043
0.161266	5.06786	0.049193	1.53144	0.310833	10.0143	0.480353	14.8221	0.581495	18.0839	0.852194	26.5348	0.200236	7.32529	0.445379	14.0001	0.71427	22.3419	0.939178	29.5245
0.165881	5.0646	0.0504553	1.54324	0.311459	9.928	0.481217	14.4338	0.582773	17.6133	0.852991	25.8108	0.203621	7.20359	0.446875	13.6474	0.715173	21.7367	0.939531	28.6952
0.170484	5.06117	0.0514554	1.55235	0.311863	9.87382	0.482114	14.0676	0.584083	17.1694	0.853809	25.1272	0.207051	7.09119	0.448408	13.3154	0.716101	21.1655	0.939896	27.9121
0.175076	5.05759	0.0521918	1.55891	0.312445	9.79732	0.483043	13.7217	0.585425	16.7501	0.85465	24.4807	0.210523	6.98715	0.449978	13.0023	0.717053	20.6257	0.940274	27.1715
0.179655	5.05384	0.0526635	1.56306	0.313084	9.71596	0.484006	13.3945	0.586798	16.3535	0.855512	23.8684	0.214035	6.89065	0.451584	12.7066	0.718029	20.1147	0.940663	26.4701
0.18422	5.04991	0.0533423	1.56895	0.313959	9.6082	0.485003	13.0847	0.588202	15.9777	0.856395	23.2877	0.217585	6.80095	0.453225	12.427	0.719029	19.6304	0.941066	25.8049
0.188771	5.04581	0.0540808	1.57526	0.315079	9.47649	0.486035	12.791	0.589638	15.6214	0.8573	22.7363	0.221172	6.71743	0.454902	12.1623	0.720053	19.1707	0.941481	25.1731
0.193308	5.04151	0.0550865	1.58367	0.316452	9.32369	0.487102	12.5123	0.591103	15.2829	0.858227	22.212	0.224792	6.63952	0.456613	11.9113	0.721101	18.7339	0.941909	24.5724
0.197829	5.03702	0.0563602	1.59406	0.318087	9.15292	0.488204	12.2475	0.592599	14.9612	0.859175	21.713	0.228446	6.56671	0.458359	11.6731	0.722173	18.3183	0.942349	24.0006
0.202332	5.03231	0.0579031	1.60626	0.319996	8.96744	0.489342	11.9957	0.594124	14.655	0.860144	21.2374	0.232129	6.49855	0.460139	11.4469	0.723268	17.9225	0.942803	23.4555
0.206819	5.02739	0.0597163	1.62007	0.32194	8.79234	0.490518	11.756	0.59568	14.3633	0.861135	20.7838	0.235842	6.43466	0.461952	11.2316	0.724387	17.5452	0.94327	22.9355
0.211286	5.02225	0.061801	1.63529	0.323917	8.62683	0.49173	11.5277	0.597264	14.0851	0.862146	20.3506	0.239583	6.37467	0.463798	11.0267	0.725528	17.185	0.94375	22.4389
0.215734	5.01686	0.0638895	1.64988	0.325927	8.4702	0.492981	11.31	0.598878	13.8195	0.863179	19.9365	0.243349	6.31826	0.465676	10.8315	0.726693	16.841	0.944243	21.964
0.22016	5.01123	0.0659811	1.66386	0.32797	8.32178	0.49427	11.1022	0.60052	13.5657	0.864233	19.5403	0.247141	6.26514	0.467339	10.6687	0.727881	16.512	0.94475	21.5097
0.224565	5.00533	0.0680755	1.67727	0.330044	8.18102	0.495598	10.9038	0.60219	13.323	0.865307	19.161	0.250956	6.21506	0.468776	10.535	0.729092	16.1971	0.94527	21.0745
0.228946	4.99916	0.0701722	1.69013	0.33215	8.04737	0.496787	10.7382	0.603889	13.0908	0.866403	18.7974	0.254793	6.16778	0.469977	10.4279	0.730325	15.8955	0.945805	20.6573
0.233302	4.99271	0.0722711	1.70248	0.334287	7.92036	0.497824	10.602	0.605615	12.8683	0.867519	18.4487	0.258651	6.12308	0.470935	10.3453	0.731581	15.6064	0.946353	20.2571
0.237632	4.98596	0.0743717	1.71434	0.336455	7.79954	0.498699	10.4927	0.607369	12.655	0.868655	18.114	0.26253	6.08078	0.471644	10.2857	0.732859	15.329	0.946915	19.8728
0.241934	4.97889	0.0764738	1.72573	0.338653	7.68453	0.499402	10.4084	0.60915	12.4504	0.869812	17.7925	0.266427	6.04069	0.4721	10.248	0.73416	15.0626	0.947491	19.5035
0.246206	4.97149	0.0785771	1.73668	0.340882	7.57496	0.499924	10.3476	0.610958	12.254	0.87099	17.4833	0.270343	6.00267	0.472758	10.1945	0.735482	14.8067	0.948082	19.1484
0.250447	4.96375	0.0806814	1.74721	0.343141	7.47049	0.500261	10.3091	0.612792	12.0654	0.872188	17.186	0.274275	5.96655	0.473477	10.1373	0.736827	14.5607	0.948687	18.8067
0.254656	4.95565	0.0827865	1.75734	0.345431	7.37083	0.50075	10.2545	0.614653	11.884	0.873406	16.8997	0.278224	5.93221	0.474461	10.0609	0.738193	14.324	0.949306	18.4777
0.25883	4.94718	0.0848923	1.76709	0.347751	7.27569	0.501286	10.196	0.61654	11.7096	0.874644	16.624	0.282187	5.89953	0.475715	9.96654	0.739581	14.0961	0.94994	18.1607
0.262967	4.93832	0.0869985	1.77648	0.350102	7.18482	0.502023	10.1178	0.618453	11.5417	0.875902	16.3582	0.286166	5.86839	0.477248	9.85573	0.74099	13.8765	0.950589	17.8551
0.267066	4.92905	0.0891051	1.78553	0.352484	7.09799	0.50297	10.0213	0.620391	11.38	0.87718	16.1019	0.290157	5.83869	0.479065	9.73013	0.742421	13.6649	0.951253	17.5603
0.271124	4.91935	0.0912119	1.79425	0.354898	7.01498	0.504136	9.90792	0.622355	11.2242	0.878478	15.8546	0.294162	5.81034	0.481178	9.59154	0.743873	13.4608	0.951932	17.2757
0.27514	4.90922	0.0933189	1.80266	0.357344	6.93561	0.505533	9.77933	0.624343	11.0739	0.879795	15.6158	0.298178	5.78324	0.48332	9.45857	0.745346	13.2638	0.952625	17.0008
0.279111	4.89864	0.0954258	1.81077	0.359823	6.85968	0.507175	9.63741	0.626096	10.9474	0.881133	15.3851	0.302206	5.75732	0.48549	9.33089	0.746839	13.0736	0.953335	16.7352
0.283034	4.88759	0.0975328	1.8186	0.362336	6.78704	0.508861	9.50123	0.627605	10.8425	0.882489	15.1621	0.306244	5.7325	0.487687	9.20824	0.748353	12.8899	0.954059	16.4784
0.286909	4.87605	0.0996396	1.82615	0.364884	6.71753	0.510589	9.37048	0.628863	10.7579	0.883865	14.9465	0.310292	5.70872	0.489911	9.09032	0.749888	12.7123	0.954799	16.23
0.290733	4.86402	0.101746	1.83346	0.367467	6.65101	0.51236	9.24491	0.629864	10.6923	0.885261	14.7379	0.314349	5.6859	0.492163	8.9769	0.751443	12.5406	0.955554	15.9896
0.294504	4.85148	0.103853	1.84051	0.370087	6.58735	0.514175	9.12426	0.630603	10.6447	0.886675	14.536	0.318415	5.66399	0.49444	8.86775	0.753019	12.3745	0.956326	15.7569
0.298219	4.83842	0.105959	1.84733	0.372746	6.52644	0.516033	9.0083	0.631078	10.6145	0.888108	14.3404	0.322489	5.64294	0.496744	8.76264	0.754614	12.2137	0.957113	15.5314
0.301877	4.82484	0.108064	1.85393	0.375444	6.46816	0.517935	8.8968	0.631763	10.5716	0.889561	14.151	0.32657	5.62269	0.499073	8.66137	0.756229	12.058	0.957916	15.3129
0.305017	4.81257	0.11017	1.86032	0.378182	6.41241	0.519881	8.78956	0.632511	10.5255	0.891032	13.9674	0.330658	5.60319	0.501427	8.56375	0.757864	11.9072	0.958735	15.1011
0.307657	4.80179	0.112275	1.8665	0.380963	6.3591	0.52187	8.68637	0.633532	10.4637	0.892522	13.7894	0.334753	5.5844	0.503805	8.46961	0.759518	11.761	0.959571	14.8957
0.309815	4.79265	0.114379	1.87248	0.383786	6.30813	0.523904	8.58705	0.634832	10.387	0.894031	13.6167	0.338853	5.56629	0.506208	8.37877	0.761192	11.6193	0.960423	14.6964
0.311504	4.78529	0.116483	1.87828	0.386655	6.25942	0.525982	8.49143	0.636415	10.2963	0.895558	13.4491	0.342958	5.5488	0.508635	8.29108	0.762885	11.4818	0.961291	14.5029
0.312737	4.77979	0.118587	1.8839	0.389569	6.21289	0.528103	8.39935	0.638289	10.1928	0.897104	13.2864	0.347068	5.5319	0.511086	8.20639	0.764596	11.3485	0.962176	14.315
0.313521	4.77623	0.12069	1.88934	0.392531	6.16847	0.530269	8.31064	0.640461	10.0775	0.898667	13.1284	0.351181	5.51556	0.513559	8.12456	0.766104	11.2355	0.963078	14.1325
0.314643	4.77107	0.122793	1.89463	0.395541	6.12608	0.532479	8.22517	0.642656	9.96593	0.900249	12.9749	0.355299	5.49975	0.516056	8.04547	0.7674	11.1414	0.963996	13.9552
0.315855	4.7654	0.124895	1.89975	0.398601	6.08565	0.534732	8.14278	0.644873	9.85788	0.901849	12.8257	0.359419	5.48444	0.518574	7.96898	0.768479	11.0651	0.964932	13.7829
0.317489	4.75758	0.126997	1.90473	0.401711	6.04711	0.537028	8.06335	0.647112	9.7532	0.903467	12.6807	0.363542	5.46959	0.521115	7.89499	0.769338	11.0058	0.965884	13.6153
0.319534	4.74751	0.129098	1.90956	0.404872	6.0104	0.539368	7.98676	0.649373	9.65175	0.905103	12.5397	0.367668	5.45519	0.523678	7.82338	0.769972	10.9626	0.966854	13.4523
0.321974	4.73506	0.131199	1.91425	0.408085	5.97545	0.541751	7.91287	0.651656	9.55339	0.906757	12.4025	0.371795	5.4412	0.526261	7.75406	0.770379	10.9353	0.967841	13.2937
0.324789	4.72011	0.133299	1.91881	0.41135	5.94219	0.544176	7.84159	0.653961	9.45799	0.908428	12.269	0.375923	5.42761	0.528866	7.68692	0.770965	10.8963	0.968846	13.1393
0.327957	4.70247	0.135399	1.92325	0.414667	5.91056	0.546644	7.7728	0.656286	9.36543	0.910117	12.1391	0.380051	5.41439	0.531492	7.62186	0.771605	10.8543	0.969868	12.9891
0.331058	4.68436	0.137498	1.92756	0.418036	5.88049	0.549154	7.70639	0.658633	9.2756	0.911823	12.0126	0.38418	5.40151	0.534138	7.55882	0.77248	10.7978	0.970908	12.8427
0.334092	4.66577	0.139597	1.93175	0.421457	5.85191	0.551706	7.64228	0.661001	9.18838	0.913546	11.8893	0.388309	5.38897	0.536804	7.49769	0.773591	10.7275	0.971966	12.7002
0.337059	4.64675	0.141695	1.93582	0.424929	5.82477	0.554299	7.58037	0.663389	9.10368	0.915286	11.7693	0.392437	5.37674	0.53949	7.43841	0.774945	10.6441	0.973041	12.5613
0.339959	4.6273	0.143793	1.93979	0.428451	5.799	0.556933	7.52056	0.665798	9.02139	0.917044	11.6523	0.396564	5.3648	0.542196	7.38089	0.776545	10.5485	0.974135	12.426
0.342794	4.60746	0.145891	1.94366	0.432024	5.77453	0.559607	7.46278	0.668227	8.94142	0.918589	11.5527	0.400689	5.35314	0.54492	7.32508	0.778398	10.4415	0.975247	12.2941
0.345564	4.58725	0.147988	1.94742	0.435644	5.7513	0.562321	7.40694	0.670676	8.86369	0.919916	11.4696	0.404813	5.34173	0.547664	7.2709	0.780269	10.3374	0.976377	12.1654
0.348272	4.5667	0.150084	1.95109	0.439312	5.72925	0.565074	7.35297	0.673145	8.78811	0.921021	11.402	0.408934	5.33058	0.550426	7.21829	0.782157	10.2361	0.977525	12.04
0.350917	4.54585	0.15218	1.95466	0.443026	5.70832	0.567866	7.30079	0.675634	8.7146	0.921899	11.3493	0.413052	5.31965	0.553207	7.16718	0.784062	10.1374	0.978693	11.9176
0.353501	4.52472	0.154275	1.95814	0.446783	5.68845	0.570696	7.25032	0.678142	8.64308	0.922547	11.3109	0.417167	5.30894	0.556006	7.11753	0.785985	10.0413	0.979878	11.7982
0.356027	4.50335	0.156371	1.96154	0.450583	5.66958	0.573564	7.20152	0.680669	8.57348	0.922962	11.2865	0.421278	5.29843	0.558823	7.06928	0.787925	9.94768	0.980927	11.6965
0.358496	4.48176	0.158465	1.96485	0.454424	5.65165	0.576468	7.1543	0.683215	8.50573	0.923562	11.2518	0.425384	5.28812	0.561658	7.02238	0.789881	9.85644	0.981832	11.6114
0.36091	4.45999	0.160559	1.96808	0.458304	5.63461	0.57941	7.1086	0.68578	8.43977	0.924215	11.2143	0.429486	5.27798	0.56451	6.97677	0.791854	9.76751	0.982589	11.5423
0.363271	4.43807	0.162653	1.97124	0.46222	5.6184	0.582387	7.06438	0.688364	8.37554	0.925107	11.1638	0.433583	5.26801	0.56738	6.93241	0.793844	9.6808	0.983192	11.4883
0.365581	4.41602	0.164747	1.97431	0.466172	5.60298	0.585399	7.02156	0.690966	8.31296	0.926241	11.1008	0.437675	5.2582	0.570267	6.88926	0.795851	9.59623	0.983638	11.449
0.367842	4.39388	0.16684	1.97732	0.470157	5.5883	0.588446	6.98011	0.693587	8.25199	0.92762	11.0259	0.44176	5.24853	0.573171	6.84727	0.797873	9.51374	0.983925	11.424
0.370055	4.37167	0.168932	1.98025	0.474173	5.57431	0.591527	6.93995	0.696225	8.19257	0.929249	10.9396	0.445839	5.239	0.576092	6.80641	0.799912	9.43325	0.98434	11.3883
0.372224	4.34942	0.171025	1.98312	0.478219	5.56096	0.594641	6.90105	0.698882	8.13465	0.931133	10.8429	0.449911	5.2296	0.579029	6.76663	0.801966	9.3547	0.984792	11.3499
0.374349	4.32714	0.173117	1.98592	0.482293	5.54822	0.597788	6.86336	0.701557	8.07818	0.933034	10.7484	0.453976	5.22031	0.581983	6.72789	0.804037	9.27802	0.985412	11.2981
0.376434	4.30488	0.175208	1.98866	0.486393	5.53605	0.600967	6.82684	0.704249	8.0231	0.934951	10.6561	0.458033	5.21113	0.584954	6.69017	0.806123	9.20315	0.986202	11.2334
0.378479	4.28264	0.177299	1.99134	0.490517	5.52441	0.604177	6.79142	0.706959	7.96938	0.936883	10.566	0.462082	5.20205	0.587941	6.65344	0.808225	9.13003	0.987167	11.1565
0.380487	4.26044	0.17939	1.99396	0.494664	5.51326	0.607418	6.75709	0.709686	7.91697	0.938831	10.4778	0.466122	5.19306	0.590943	6.61764	0.810342	9.0586	0.988313	11.0679
0.38246	4.23831	0.181481	1.99652	0.498831	5.50257	0.610689	6.72379	0.71243	7.86583	0.940794	10.3917	0.470152	5.18416	0.593962	6.58277	0.812475	8.98882	0.989646	10.9684
0.384398	4.21627	0.183571	1.99902	0.503018	5.49231	0.61399	6.69149	0.715191	7.81592	0.942773	10.3075	0.474173	5.17533	0.596997	6.54878	0.814623	8.92063	0.990999	10.8711
0.386305	4.19432	0.185661	2.00148	0.507224	5.48245	0.61732	6.66015	0.71797	7.7672	0.944768	10.2251	0.478184	5.16657	0.600047	6.51565	0.816785	8.85398	0.992372	10.776
0.388182	4.17248	0.18775	2.00387	0.511446	5.47297	0.620677	6.62973	0.720765	7.71963	0.946777	10.1446	0.482185	5.15787	0.603114	6.48336	0.818963	8.78883	0.993765	10.6831
0.390029	4.15077	0.18984	2.00622	0.515683	5.46384	0.624063	6.60021	0.723576	7.67317	0.948802	10.0658	0.486174	5.14923	0.606196	6.45187	0.821156	8.72512	0.995177	10.5922
0.391849	4.1292	0.191929	2.00852	0.519934	5.45503	0.627475	6.57154	0.726405	7.6278	0.950841	9.98869	0.490152	5.14063	0.609294	6.42117	0.823363	8.66281	0.99661	10.5033
0.393644	4.10778	0.194017	2.01078	0.524197	5.44652	0.630914	6.54371	0.72925	7.58348	0.952896	9.91324	0.494118	5.13208	0.612407	6.39122	0.825585	8.60187	0.998063	10.4163
0.395413	4.08652	0.196106	2.01298	0.528473	5.4383	0.634378	6.51667	0.732111	7.54018	0.954965	9.8394	0.498071	5.12356	0.615536	6.36201	0.827821	8.54225	0.999536	10.3312
0.39716	4.06542	0.198194	2.01514	0.532759	5.43034	0.637868	6.4904	0.734988	7.49787	0.957049	9.76711	0.502012	5.11507	0.61868	6.33352	0.830072	8.48391	1.00103	10.248
0.398885	4.0445	0.200282	2.01726	0.537054	5.42262	0.641382	6.46487	0.737881	7.45651	0.959147	9.69633	0.505939	5.1066	0.62184	6.30573	0.832337	8.42681		
0.400589	4.02377	0.202369	2.01934	0.541357	5.41513	0.644921	6.44005	0.740791	7.41609	0.96126	9.62701	0.509852	5.09815	0.625015	6.27861	0.834616	8.37092		
0.402273	4.00322	0.204457	2.02138	0.545668	5.40785	0.648482	6.41593	0.743716	7.37657	0.963387	9.55912	0.51375	5.08972	0.628206	6.25215	0.836909	8.31621		
0.403939	3.98287	0.206544	2.02337	0.549985	5.40077	0.652067	6.39247	0.746657	7.33794	0.965529	9.49261	0.517634	5.08129	0.631412	6.22632	0.839216	8.26264		
0.405587	3.96272	0.20863	2.02533	0.554308	5.39387	0.655674	6.36965	0.749614	7.30015	0.967684	9.42745	0.521502	5.07287	0.634634	6.20112	0.841537	8.21018		
0.407219	3.94277	0.210717	2.02725	0.558636	5.38714	0.659304	6.34746	0.752587	7.2632	0.969853	9.36359	0.525355	5.06445	0.637871	6.17652	0.843872	8.15879		
0.408835	3.92303	0.212803	2.02913	0.562967	5.38057	0.662954	6.32586	0.755575	7.22705	0.972036	9.301	0.529191	5.05602	0.641124	6.15251	0.84622	8.10846		
0.410437	3.9035	0.21489	2.03098	0.567302	5.37415	0.666625	6.30484	0.758579	7.19169	0.974234	9.23965	0.53301	5.04758	0.644392	6.12907	0.848582	8.05914		
0.412024	3.88418	0.216975	2.0328	0.571639	5.36786	0.670317	6.28438	0.761598	7.1571	0.976444	9.17951	0.536813	5.03912	0.647675	6.10619	0.850957	8.01081		
0.413599	3.86508	0.219061	2.03458	0.575978	5.36169	0.674028	6.26445	0.764632	7.12324	0.978668	9.12053	0.540597	5.03065	0.650974	6.08385	0.853346	7.96346		
0.415161	3.84619	0.221147	2.03633	0.580318	5.35564	0.677759	6.24505	0.767682	7.09012	0.980906	9.06269	0.544363	5.02216	0.654289	6.06204	0.855748	7.91704		
0.416712	3.82752	0.223232	2.03804	0.584658	5.3497	0.681508	6.22615	0.770747	7.05769	0.983157	9.00597	0.548111	5.01364	0.657619	6.04075	0.858163	7.87153		
0.418252	3.80907	0.225317	2.03973	0.588998	5.34385	0.685276	6.20773	0.773827	7.02596	0.985421	8.95032	0.55184	5.00509	0.660964	6.01996	0.860591	7.82691		
0.419782	3.79084	0.227402	2.04139	0.593338	5.3381	0.689062	6.18978	0.776922	6.99489	0.987698	8.89573	0.555549	4.99651	0.664326	5.99966	0.863033	7.78317		
0.421302	3.77282	0.229487	2.04301	0.597676	5.33243	0.692865	6.17229	0.780033	6.96447	0.989989	8.84216	0.559238	4.98789	0.667702	5.97984	0.865487	7.74027		
0.422813	3.75503	0.231571	2.04461	0.602012	5.32683	0.696686	6.15524	0.783158	6.93469	0.992292	8.78959	0.562907	4.97924	0.671094	5.96049	0.867954	7.69819		
0.424316	3.73745	0.233655	2.04618	0.606345	5.32131	0.700523	6.13861	0.786299	6.90553	0.994608	8.73799	0.566555	4.97054	0.674502	5.94159	0.870435	7.65691		
0.425811	3.72009	0.23574	2.04773	0.610676	5.31585	0.704376	6.12238	0.789455	6.87697	0.996936	8.68734	0.570182	4.96181	0.677926	5.92313	0.872928	7.61642		
0.427299	3.70294	0.237824	2.04924	0.615003	5.31045	0.708244	6.10656	0.792625	6.84901	0.999278	8.63761	0.573788	4.95302	0.681364	5.90511	0.875433	7.57669		
0.42878	3.68602	0.239907	2.05073	0.619326	5.3051	0.712129	6.09112	0.795811	6.82162	1.00163	8.58879	0.577371	4.94419	0.684819	5.88751	0.877952	7.53771		
0.430254	3.6693	0.241991	2.0522	0.623645	5.29979	0.716028	6.07605	0.799012	6.79479			0.580933	4.93532	0.688289	5.87032	0.880483	7.49945		
0.431723	3.6528	0.244075	2.05364	0.627959	5.29453	0.719941	6.06133	0.802228	6.76851			0.584472	4.92639	0.691774	5.85353	0.883027	7.4619		
0.433186	3.63651	0.246158	2.05506	0.632267	5.28931	0.723869	6.04697	0.805458	6.74276			0.587988	4.91741	0.695275	5.83713	0.885583	7.42504		
0.434644	3.62044	0.248241	2.05646	0.63657	5.28412	0.72781	6.03294	0.808704	6.71754			0.591481	4.90837	0.698791	5.82112	0.888152	7.38886		
0.436097	3.60457	0.250324	2.05783	0.640867	5.27896	0.731764	6.01923	0.811965	6.69283			0.59495	4.89929	0.702323	5.80548	0.890733	7.35334		
0.437546	3.58891	0.252407	2.05918	0.645158	5.27383	0.735732	6.00584	0.815241	6.66862			0.598396	4.89014	0.705869	5.79021	0.893326	7.31846		
0.438991	3.57345	0.25449	2.06051	0.649441	5.26872	0.739712	5.99275	0.818532	6.6449			0.601818	4.88095	0.709431	5.77528	0.895932	7.28421		
0.440432	3.55819	0.256572	2.06182	0.653717	5.26362	0.743704	5.97995	0.821838	6.62165			0.605216	4.87169	0.713008	5.76071	0.89855	7.25057		
0.44187	3.54314	0.258655	2.06311	0.657986	5.25854	0.747708	5.96744	0.825159	6.59888			0.608589	4.86238	0.7166	5.74647	0.901181	7.21753		
0.443305	3.52828	0.260737	2.06438	0.662246	5.25348	0.751724	5.95521	0.828496	6.57656			0.611938	4.85301	0.720207	5.73256	0.903823	7.18508		
0.444736	3.51363	0.262819	2.06562	0.666499	5.24842	0.75575	5.94324	0.831847	6.55469			0.615262	4.84358	0.723828	5.71898	0.906478	7.15321		
0.446166	3.49916	0.264901	2.06685	0.670742	5.24337	0.759787	5.93153	0.835214	6.53325			0.618561	4.8341	0.727464	5.7057	0.909145	7.12189		
0.447593	3.48489	0.266983	2.06806	0.674977	5.23832	0.763835	5.92007	0.838597	6.51225			0.621836	4.82456	0.731114	5.69273	0.911824	7.09112		
0.449018	3.47081	0.269065	2.06926	0.679202	5.23327	0.767893	5.90885	0.841994	6.49167			0.625085	4.81496	0.734778	5.68006	0.914516	7.06089		
0.450442	3.45692	0.271147	2.07043	0.683418	5.22822	0.77196	5.89786	0.845408	6.47149			0.628309	4.80531	0.738456	5.66767	0.917219	7.03119		
0.451863	3.44321	0.273228	2.07159	0.687623	5.22316	0.776036	5.8871	0.848836	6.45173			0.631508	4.79561	0.742148	5.65556	0.919934	7.00199		
0.453284	3.42968	0.27531	2.07273	0.691819	5.2181	0.780122	5.87656	0.85228	6.43235			0.634682	4.78585	0.745853	5.64373	0.922662	6.9733		
0.454704	3.41634	0.277391	2.07385	0.696004	5.21304	0.784216	5.86623	0.85574	6.41337			0.637831	4.77604	0.749572	5.63216	0.925401	6.9451		
0.456122	3.40318	0.279472	2.07495	0.700178	5.20796	0.788318	5.8561	0.859216	6.39477			0.640954	4.76617	0.753304	5.62085	0.928152	6.91738		
0.45754	3.39019	0.281553	2.07604	0.704341	5.20287	0.792428	5.84617	0.862708	6.37654			0.644052	4.75626	0.757048	5.60979	0.930916	6.89013		
0.458957	3.37737	0.283634	2.07712	0.708493	5.19776	0.796546	5.83643	0.866215	6.35867			0.647125	4.74629	0.760805	5.59898	0.933691	6.86334		
0.460374	3.36473	0.285715	2.07818	0.712633	5.19265	0.800671	5.82688	0.869739	6.34117			0.650172	4.73628	0.764574	5.5884	0.936478	6.837		
0.46179	3.35226	0.287796	2.07922	0.716762	5.18751	0.804803	5.8175	0.873278	6.32402			0.653195	4.72622	0.768356	5.57805	0.939277	6.81111		
0.463207	3.33995	0.289876	2.08025	0.720878	5.18236	0.808941	5.8083	0.876834	6.30721			0.656193	4.71612	0.772148	5.56792	0.942088	6.78565		
0.464624	3.32781	0.291957	2.08127	0.724982	5.17718	0.813086	5.79926	0.880406	6.29075			0.659165	4.70597	0.775952	5.55801	0.94491	6.76061		
0.46604	3.31583	0.294037	2.08227	0.729073	5.17199	0.817236	5.79039	0.883994	6.27461			0.662113	4.69578	0.779767	5.54831	0.947744	6.73598		
0.467458	3.30401	0.296118	2.08326	0.733152	5.16677	0.821392	5.78167	0.887599	6.25881			0.665037	4.68556	0.783593	5.53882	0.950591	6.71177		
0.468875	3.29235	0.298198	2.08423	0.737218	5.16153	0.825553	5.77309	0.89122	6.24333			0.667936	4.67529	0.787429	5.52951	0.953449	6.68795		
0.470294	3.28084	0.300278	2.08519	0.74127	5.15627	0.829719	5.76467	0.894858	6.22816			0.67081	4.66499	0.791275	5.5204	0.956318	6.66452		
0.471713	3.26949	0.302358	2.08614	0.745309	5.15098	0.83389	5.75638	0.898513	6.21331			0.673661	4.65465	0.795131	5.51148	0.959199	6.64148		
0.473132	3.25829	0.304438	2.08707	0.749334	5.14567	0.838064	5.74823	0.902185	6.19876			0.676487	4.64428	0.798996	5.50273	0.962092	6.61881		
0.474553	3.24724	0.306518	2.088	0.753345	5.14033	0.842243	5.74021	0.905873	6.18452			0.67929	4.63388	0.80287	5.49416	0.964997	6.59652		
0.475975	3.23634	0.308598	2.08891	0.757343	5.13496	0.846425	5.73231	0.909579	6.17057			0.682069	4.62346	0.806752	5.48575	0.967913	6.57458		
0.477398	3.22558	0.310678	2.0898	0.761326	5.12956	0.85061	5.72454	0.913302	6.1569			0.684824	4.613	0.810643	5.4775	0.970841	6.55299		
0.478822	3.21496	0.312758	2.09069	0.765295	5.12413	0.854799	5.71688	0.917042	6.14353			0.687557	4.60252	0.814541	5.46941	0.973781	6.53176		
0.480247	3.20448	0.314837	2.09157	0.769249	5.11868	0.85899	5.70933	0.920799	6.13044			0.690267	4.59202	0.818448	5.46148	0.976732	6.51086		
0.481674	3.19415	0.316917	2.09243	0.773188	5.11319	0.863183	5.70189	0.924573	6.11762			0.692953	4.5815	0.822361	5.45368	0.979694	6.4903		
0.483102	3.18395	0.318996	2.09328	0.777113	5.10767	0.867379	5.69456	0.928365	6.10507			0.695618	4.57096	0.826281	5.44603	0.982668	6.47007		
0.484531	3.17388	0.321076	2.09412	0.781022	5.10213	0.871576	5.68733	0.932174	6.09279			0.69826	4.5604	0.830207	5.43851	0.985654	6.45016		
0.485963	3.16395	0.323155	2.09495	0.784917	5.09655	0.875774	5.68019	0.936001	6.08077			0.70088	4.54983	0.834139	5.43112	0.988651	6.43056		
0.487396	3.15414	0.325234	2.09578	0.788796	5.09094	0.879974	5.67315	0.939846	6.06902			0.703479	4.53924	0.838077	5.42386	0.991659	6.41128		
0.48883	3.14447	0.327313	2.09659	0.792659	5.08529	0.884174	5.66619	0.943708	6.05751			0.706056	4.52865	0.84202	5.41672	0.994679	6.3923		
0.490267	3.13492	0.329392	2.09739	0.796507	5.07962	0.888376	5.65933	0.947588	6.04626			0.708612	4.51804	0.845968	5.40969	0.99771	6.37361		
0.491705	3.12549	0.331471	2.09818	0.80034	5.07391	0.892577	5.65254	0.951485	6.03525			0.711147	4.50743	0.849921	5.40278	1.00075	6.35522		
0.493145	3.11619	0.33355	2.09896	0.804156	5.06817	0.896779	5.64584	0.955401	6.02448			0.713661	4.49681	0.853878	5.39597				
0.494587	3.10701	0.335629	2.09973	0.807956	5.06239	0.90098	5.63921	0.959334	6.01395			0.716155	4.48619	0.857839	5.38927				
0.496031	3.09795	0.337708	2.10049	0.811741	5.05659	0.905182	5.63266	0.963284	6.00365			0.718629	4.47556	0.861803	5.38267				
0.497478	3.08901	0.339787	2.10124	0.815509	5.05075	0.909382	5.62618	0.967253	5.99358			0.721083	4.46494	0.86577	5.37616				
0.498926	3.08018	0.341865	2.10199	0.819262	5.04488	0.913582	5.61977	0.971239	5.98373			0.723518	4.45432	0.86974	5.36975				
0.500376	3.07147	0.343944	2.10272	0.822997	5.03897	0.917781	5.61343	0.975243	5.97411			0.725933	4.4437	0.873713	5.36342				
0.501829	3.06287	0.346022	2.10345	0.826717	5.03304	0.921978	5.60715	0.979264	5.9647			0.728329	4.43308	0.877687	5.35718				
0.503283	3.05438	0.348101	2.10416	0.83042	5.02707	0.926174	5.60093	0.983303	5.9555			0.730706	4.42247	0.881664	5.35102				
0.50474	3.046	0.350179	2.10487	0.834107	5.02106	0.930368	5.59477	0.987359	5.94651			0.733065	4.41187	0.885641	5.34494				
0.506199	3.03772	0.352258	2.10557	0.837777	5.01503	0.934561	5.58867	0.991433	5.93773			0.735406	4.40128	0.88962	5.33893				
0.507661	3.02956	0.354336	2.10627	0.84143	5.00896	0.938752	5.58263	0.995524	5.92915			0.737729	4.3907	0.8936	5.333				
0.509125	3.02149	0.356414	2.10695	0.845067	5.00286	0.94294	5.57664	0.999633	5.92076			0.740034	4.38013	0.897579	5.32713				
0.510591	3.01353	0.358492	2.10763	0.848687	4.99674	0.947126	5.5707	1.00376	5.91257			0.742322	4.36958	0.901559	5.32132				
0.512059	3.00567	0.36057	2.1083	0.85229	4.99058	0.95131	5.56481					0.744593	4.35904	0.905539	5.31558				
0.51353	2.99791	0.362649	2.10896	0.855877	4.98438	0.955492	5.55898					0.746847	4.34852	0.909518	5.3099				
0.515003	2.99024	0.364727	2.10961	0.859447	4.97816	0.959671	5.55319					0.749085	4.33801	0.913497	5.30427				
0.516479	2.98268	0.366804	2.11026	0.863	4.97191	0.963847	5.54745					0.751306	4.32752	0.917474	5.2987				
0.517957	2.97521	0.368882	2.1109	0.866536	4.96563	0.96802	5.54175					0.753511	4.31706	0.921449	5.29318				
0.519438	2.96783	0.37096	2.11153	0.870056	4.95932	0.97219	5.53609					0.755701	4.30662	0.925423	5.28771				
0.520921	2.96054	0.373038	2.11216	0.873558	4.95298	0.976358	5.53048					0.757875	4.29619	0.929395	5.28228				
0.522407	2.95335	0.375116	2.11278	0.877044	4.94661	0.980522	5.52491					0.760034	4.2858	0.933365	5.2769				
0.523895	2.94624	0.377194	2.11339	0.880513	4.94022	0.984683	5.51939					0.762178	4.27542	0.937332	5.27156				
0.525385	2.93922	0.379271	2.114	0.883965	4.9338	0.988841	5.5139					0.764307	4.26508	0.941296	5.26626				
0.526879	2.93229	0.381349	2.11459	0.8874	4.92735	0.992996	5.50845					0.766422	4.25476	0.945256	5.26099				
0.528374	2.92545	0.383426	2.11519	0.890819	4.92087	0.997148	5.50304					0.768522	4.24447	0.949213	5.25576				
0.529873	2.91869	0.385504	2.11577	0.89422	4.91437	1.0013	5.49766					0.770609	4.2342	0.953167	5.25057				
0.531374	2.91201	0.387581	2.11635	0.897605	4.90784							0.772682	4.22397	0.957116	5.2454				
0.532877	2.90542	0.389659	2.11693	0.900974	4.90129							0.774742	4.21377	0.961061	5.24027				
0.534383	2.8989	0.391736	2.11749	0.904325	4.89472							0.776788	4.2036	0.965002	5.23516				
0.535892	2.89247	0.393813	2.11806	0.907661	4.88812							0.778822	4.19346	0.968938	5.23007				
0.537403	2.88611	0.395891	2.11861	0.910979	4.8815							0.780843	4.18335	0.972868	5.22501				
0.538917	2.87983	0.397968	2.11916	0.914281	4.87485							0.782851	4.17328	0.976794	5.21998				
0.540433	2.87362	0.400045	2.11971	0.917566	4.86819							0.784848	4.16325	0.980714	5.21496				
0.541952	2.8675	0.402122	2.12025	0.920835	4.8615							0.786832	4.15325	0.984628	5.20996				
0.543474	2.86144	0.404199	2.12078	0.924088	4.85479							0.788804	4.14328	0.988536	5.20498				
0.544998	2.85546	0.406276	2.12131	0.927324	4.84806							0.790765	4.13335	0.992438	5.20001				
0.546524	2.84955	0.408353	2.12183	0.930544	4.84132							0.792715	4.12346	0.996333	5.19506				
0.548054	2.84371	0.41043	2.12235	0.933748	4.83455							0.794654	4.11361	1.00022	5.19013				
0.549586	2.83794	0.412507	2.12286	0.936936	4.82776							0.796581	4.1038						
0.55112	2.83223	0.414584	2.12337	0.940107	4.82096							0.798499	4.09403						
0.552657	2.8266	0.416661	2.12387	0.943263	4.81414							0.800405	4.08429						
0.554197	2.82103	0.418738	2.12437	0.946403	4.80731							0.802302	4.0746						
0.55574	2.81553	0.420815	2.12486	0.949526	4.80046							0.804188	4.06494						
0.557284	2.81009	0.422892	2.12535	0.952634	4.79359							0.806065	4.05533						
0.558832	2.80472	0.424968	2.12583	0.955726	4.78671							0.807932	4.04576						
0.560382	2.79941	0.427045	2.12631	0.958803	4.77981							0.80979	4.03623						
0.561935	2.79416	0.429122	2.12678	0.961864	4.7729							0.811638	4.02675						
0.56349	2.78897	0.431198	2.12725	0.964909	4.76598							0.813478	4.0173						
0.565048	2.78385	0.433275	2.12772	0.967939	4.75905							0.815309	4.0079						
0.566608	2.77878	0.435351	2.12818	0.970954	4.7521							0.817131	3.99855						
0.568171	2.77377	0.437428	2.12863	0.973954	4.74514							0.818944	3.98923						
0.569736	2.76882	0.439504	2.12908	0.976938	4.73818							0.82075	3.97996						
0.571304	2.76392	0.441581	2.12953	0.979907	4.7312							0.822547	3.97074						
0.572874	2.75908	0.443657	2.12997	0.982861	4.72421							0.824336	3.96156						
0.574447	2.7543	0.445733	2.13041	0.9858	4.71721							0.826118	3.95243						
0.576023	2.74957	0.44781	2.13085	0.988725	4.7102							0.827892	3.94334						
0.577601	2.7449	0.449886	2.13128	0.991634	4.70319							0.829659	3.93429						
0.579182	2.74027	0.451962	2.13171	0.994529	4.69617							0.831418	3.92529						
0.580764	2.7357	0.454039	2.13213	0.997409	4.68914							0.83317	3.91634						
0.58235	2.73119	0.456115	2.13255	1.00028	4.6821							0.834916	3.90743						
0.583938	2.72672	0.458191	2.13297									0.836655	3.89857						
0.585528	2.7223	0.460267	2.13338									0.838387	3.88975						
0.587121	2.71793	0.462343	2.13379									0.840112	3.88098						
0.588716	2.71361	0.464419	2.13419									0.841832	3.87226						
0.590314	2.70934	0.466495	2.13459									0.843545	3.86358						
0.591914	2.70512	0.468571	2.13499									0.845252	3.85495						
0.593517	2.70094	0.470647	2.13538									0.846954	3.84637						
0.595122	2.69681	0.472723	2.13577									0.84865	3.83783						
0.596729	2.69273	0.474799	2.13616									0.85034	3.82934						
0.598339	2.68869	0.476875	2.13654									0.852024	3.82089						
0.599951	2.68469	0.478951	2.13692									0.853704	3.8125						
0.601565	2.68074	0.481027	2.1373									0.855378	3.80415						
0.603182	2.67683	0.483103	2.13768									0.857047	3.79584						
0.604801	2.67296	0.485179	2.13805									0.858712	3.78758						
0.606423	2.66914	0.487254	2.13841									0.860371	3.77937						
0.608046	2.66536	0.48933	2.13878									0.862026	3.77121						
0.609672	2.66161	0.491406	2.13914									0.863676	3.76309						
0.611301	2.65791	0.493481	2.1395									0.865322	3.75501						
0.612931	2.65425	0.495557	2.13985									0.866963	3.74699						
0.614564	2.65063	0.497633	2.14021									0.868601	3.73901						
0.6162	2.64704	0.499708	2.14056									0.870234	3.73107						
0.617837	2.6435	0.501784	2.1409									0.871863	3.72319						
0.619477	2.63999	0.50386	2.14125									0.873488	3.71535						
0.621119	2.63652	0.505935	2.14159									0.87511	3.70755						
0.622763	2.63308	0.508011	2.14193									0.876728	3.6998						
0.624409	2.62968	0.510086	2.14226									0.878342	3.6921						
0.626057	2.62632	0.512162	2.14259									0.879953	3.68444						
0.627708	2.62299	0.514237	2.14292									0.88156	3.67682						
0.629361	2.6197	0.516312	2.14325									0.883164	3.66926						
0.631016	2.61644	0.518388	2.14358									0.884765	3.66173						
0.632673	2.61322	0.520463	2.1439									0.886363	3.65425						
0.634332	2.61003	0.522538	2.14422									0.887958	3.64682						
0.635994	2.60687	0.524614	2.14453									0.88955	3.63943						
0.637657	2.60375	0.526689	2.14485									0.891139	3.63209						
0.639323	2.60065	0.528764	2.14516									0.892725	3.62479						
0.640991	2.59759	0.53084	2.14547									0.894309	3.61754						
0.64266	2.59456	0.532915	2.14578									0.89589	3.61032						
0.644332	2.59156	0.53499	2.14608									0.897468	3.60316						
0.646006	2.5886	0.537065	2.14639									0.899045	3.59603						
0.647682	2.58566	0.53914	2.14669									0.900618	3.58895						
0.64936	2.58275	0.541216	2.14698									0.90219	3.58192						
0.65104	2.57987	0.543291	2.14728									0.903759	3.57492						
0.652722	2.57702	0.545366	2.14757									0.905326	3.56797						
0.654406	2.5742	0.547441	2.14786									0.906891	3.56107						
0.656092	2.57141	0.549516	2.14815									0.908454	3.5542						
0.65778	2.56865	0.551591	2.14844									0.910016	3.54738						
0.65947	2.56591	0.553666	2.14872									0.911575	3.5406						
0.661162	2.5632	0.555741	2.14901									0.913132	3.53386						
0.662855	2.56052	0.557816	2.14929									0.914688	3.52716						
0.664551	2.55786	0.559891	2.14956									0.916242	3.52051						
0.666249	2.55523	0.561966	2.14984									0.917795	3.51389						
0.667948	2.55263	0.564041	2.15012									0.919346	3.50732						
0.66965	2.55005	0.566116	2.15039									0.920895	3.50079						
0.671353	2.5475	0.568191	2.15066									0.922443	3.4943						
0.673058	2.54497	0.570265	2.15093									0.92399	3.48785						
0.674765	2.54247	0.57234	2.15119									0.925536	3.48144						
0.676474	2.53999	0.574415	2.15146									0.92708	3.47507						
0.678185	2.53754	0.57649	2.15172									0.928623	3.46873						
0.679897	2.53511	0.578565	2.15198									0.930164	3.46244						
0.681612	2.5327	0.580639	2.15224									0.931705	3.45619						
0.683328	2.53032	0.582714	2.15249									0.933245	3.44998						
0.685046	2.52796	0.584789	2.15275									0.934783	3.44381						
0.686765	2.52562	0.586864	2.153									0.936321	3.43767						
0.688487	2.52331	0.588938	2.15325									0.937858	3.43158						
0.69021	2.52101	0.591013	2.1535									0.939394	3.42552						
0.691935	2.51874	0.593088	2.15375									0.940929	3.4195						
0.693662	2.5165	0.595162	2.154									0.942463	3.41352						
0.69539	2.51427	0.597237	2.15424									0.943997	3.40757						
0.69712	2.51206	0.599311	2.15448									0.945529	3.40166						
0.698852	2.50987	0.601386	2.15473									0.947062	3.39579						
0.700586	2.50771	0.603461	2.15496									0.948593	3.38996						
0.702321	2.50557	0.605535	2.1552									0.950124	3.38416						
0.704058	2.50344	0.60761	2.15544									0.951655	3.3784						
0.705797	2.50134	0.609684	2.15567									0.953185	3.37268						
0.707537	2.49925	0.611759	2.15591									0.954714	3.36699						
0.709279	2.49719	0.613833	2.15614									0.956244	3.36134						
0.711022	2.49514	0.615908	2.15637									0.957772	3.35573						
0.712767	2.49311	0.617982	2.15659									0.959301	3.35014						
0.714514	2.4911	0.620056	2.15682									0.960829	3.3446						
0.716262	2.48911	0.622131	2.15705									0.962357	3.33909						
0.718012	2.48714	0.624205	2.15727									0.963885	3.33361						
0.719764	2.48519	0.62628	2.15749									0.965412	3.32817						
0.721517	2.48325	0.628354	2.15771									0.966939	3.32276						
0.723272	2.48134	0.630428	2.15793									0.968466	3.31739						
0.725028	2.47944	0.632503	2.15815									0.969993	3.31205						
0.726786	2.47755	0.634577	2.15837									0.97152	3.30674						
0.728545	2.47569	0.636651	2.15858									0.973047	3.30147						
0.730306	2.47384	0.638725	2.15879									0.974574	3.29623						
0.732068	2.47201	0.6408	2.15901									0.976101	3.29102						
0.733832	2.47019	0.642874	2.15922									0.977627	3.28585						
0.735598	2.46839	0.644948	2.15943									0.979154	3.28071						
0.737364	2.46661	0.647022	2.15963									0.980681	3.2756						
0.739133	2.46484	0.649097	2.15984									0.982208	3.27052						
0.740903	2.46309	0.651171	2.16004									0.983735	3.26548						
0.742674	2.46136	0.653245	2.16025									0.985263	3.26046						
0.744447	2.45964	0.655319	2.16045									0.98679	3.25548						
0.746221	2.45793	0.657393	2.16065									0.988318	3.25053						
0.747996	2.45624	0.659467	2.16085									0.989846	3.24561						
0.749773	2.45457	0.661541	2.16105									0.991374	3.24072						
0.751552	2.45291	0.663615	2.16125									0.992902	3.23586						
0.753332	2.45126	0.66569	2.16145									0.994431	3.23103						
0.755113	2.44963	0.667764	2.16164									0.99596	3.22623						
0.756895	2.44802	0.669838	2.16183									0.997489	3.22146						
0.758679	2.44642	0.671912	2.16203									0.999019	3.21672						
0.760465	2.44483	0.673986	2.16222									1.00055	3.21202						
0.762251	2.44325	0.67606	2.16241																
0.76404	2.44169	0.678134	2.1626																
0.765829	2.44015	0.680208	2.16279																
0.76762	2.43861	0.682282	2.16297																
0.769412	2.43709	0.684355	2.16316																
0.771205	2.43559	0.686429	2.16334																
0.773	2.43409	0.688503	2.16353																
0.774796	2.43261	0.690577	2.16371																
0.776593	2.43114	0.692651	2.16389																
0.778392	2.42969	0.694725	2.16407																
0.780192	2.42824	0.696799	2.16425																
0.781993	2.42681	0.698873	2.16442																
0.783796	2.42539	0.700946	2.1646																
0.785599	2.42398	0.70302	2.16478																
0.787404	2.42259	0.705094	2.16495																
0.78921	2.42121	0.707168	2.16513																
0.791018	2.41983	0.709242	2.1653																
0.792826	2.41847	0.711315	2.16547																
0.794636	2.41713	0.713389	2.16564																
0.796447	2.41579	0.715463	2.16581																
0.79826	2.41446	0.717536	2.16598																
0.800073	2.41315	0.71961	2.16615																
0.801888	2.41184	0.721684	2.16631																
0.803704	2.41055	0.723758	2.16648																
0.805521	2.40927	0.725831	2.16664																
0.807339	2.40799	0.727905	2.16681																
0.809158	2.40673	0.729978	2.16697																
0.810979	2.40548	0.732052	2.16713																
0.8128	2.40424	0.734126	2.16729																
0.814623	2.40301	0.736199	2.16745																
0.816447	2.40179	0.738273	2.16761																
0.818272	2.40058	0.740346	2.16777																
0.820098	2.39938	0.74242	2.16793																
0.821926	2.39819	0.744494	2.16808																
0.823754	2.397	0.746567	2.16824																
0.825583	2.39583	0.748641	2.16839																
0.827414	2.39467	0.750714	2.16855																
0.829246	2.39352	0.752788	2.1687																
0.831078	2.39237	0.754861	2.16885																
0.832912	2.39124	0.756934	2.169																
0.834747	2.39011	0.759008	2.16915																
0.836583	2.389	0.761081	2.1693																
0.83842	2.38789	0.763155	2.16945																
0.840258	2.38679	0.765228	2.1696																
0.842097	2.3857	0.767302	2.16975																
0.843937	2.38462	0.769375	2.16989																
0.845778	2.38355	0.771448	2.17004																
0.84762	2.38248	0.773522	2.17018																
0.849463	2.38143	0.775595	2.17033																
0.851308	2.38038	0.777668	2.17047																
0.853153	2.37934	0.779742	2.17061																
0.854999	2.37831	0.781815	2.17075																
0.856846	2.37729	0.783888	2.17089																
0.858694	2.37627	0.785962	2.17103																
0.860543	2.37526	0.788035	2.17117																
0.862393	2.37427	0.790108	2.17131																
0.864244	2.37327	0.792181	2.17145																
0.866096	2.37229	0.794255	2.17159																
0.867949	2.37131	0.796328	2.17172																
0.869803	2.37035	0.798401	2.17186																
0.871658	2.36938	0.800474	2.17199																
0.873514	2.36843	0.802547	2.17213																
0.87537	2.36748	0.804621	2.17226																
0.877228	2.36654	0.806694	2.17239																
0.879087	2.36561	0.808767	2.17252																
0.880946	2.36469	0.81084	2.17266																
0.882806	2.36377	0.812913	2.17279																
0.884668	2.36286	0.814986	2.17292																
0.88653	2.36195	0.817059	2.17305																
0.888393	2.36106	0.819132	2.17317																
0.890257	2.36017	0.821206	2.1733																
0.892122	2.35928	0.823279	2.17343																
0.893987	2.35841	0.825352	2.17356																
0.895854	2.35754	0.827425	2.17368																
0.897721	2.35667	0.829498	2.17381																
0.89959	2.35582	0.831571	2.17393																
0.901459	2.35496	0.833644	2.17406																
0.903329	2.35412	0.835717	2.17418																
0.9052	2.35328	0.83779	2.1743																
0.907071	2.35245	0.839863	2.17442																
0.908944	2.35162	0.841936	2.17455																
0.910817	2.3508	0.844009	2.17467																
0.912692	2.34999	0.846082	2.17479																
0.914567	2.34918	0.848154	2.17491																
0.916442	2.34838	0.850227	2.17503																
0.918319	2.34758	0.8523	2.17515																
0.920197	2.34679	0.854373	2.17526																
0.922075	2.34601	0.856446	2.17538																
0.923954	2.34523	0.858519	2.1755																
0.925834	2.34446	0.860592	2.17561																
0.927714	2.34369	0.862665	2.17573																
0.929596	2.34293	0.864738	2.17584																
0.931478	2.34217	0.86681	2.17596																
0.933361	2.34142	0.868883	2.17607																
0.935245	2.34068	0.870956	2.17619																
0.937129	2.33994	0.873029	2.1763																
0.939015	2.3392	0.875102	2.17641																
0.940901	2.33848	0.877174	2.17652																
0.942787	2.33775	0.879247	2.17663																
0.944675	2.33703	0.88132	2.17674																
0.946563	2.33632	0.883393	2.17685																
0.948452	2.33561	0.885465	2.17696																
0.950342	2.33491	0.887538	2.17707																
0.952233	2.33421	0.889611	2.17718																
0.954124	2.33352	0.891683	2.17729																
0.956016	2.33283	0.893756	2.1774																
0.957908	2.33214	0.895829	2.1775																
0.959802	2.33146	0.897901	2.17761																
0.961696	2.33079	0.899974	2.17772																
0.963591	2.33012	0.902047	2.17782																
0.965486	2.32946	0.904119	2.17793																
0.967382	2.3288	0.906192	2.17803																
0.969279	2.32814	0.908265	2.17813																
0.971177	2.32749	0.910337	2.17824																
0.973075	2.32684	0.91241	2.17834																
0.974974	2.3262	0.914482	2.17844																
0.976874	2.32557	0.916555	2.17855																
0.978774	2.32493	0.918627	2.17865																
0.980675	2.3243	0.9207	2.17875																
0.982577	2.32368	0.922773	2.17885																
0.984479	2.32306	0.924845	2.17895																
0.986382	2.32244	0.926918	2.17905																
0.988286	2.32183	0.92899	2.17915																
0.99019	2.32123	0.931063	2.17925																
0.992095	2.32062	0.933135	2.17935																
0.994001	2.32003	0.935207	2.17944																
0.995907	2.31943	0.93728	2.17954																
0.997814	2.31884	0.939352	2.17964																
0.999721	2.31825	0.941425	2.17973																
1.00163	2.31767	0.943497	2.17983																
		0.94557	2.17993																
		0.947642	2.18002																
		0.949714	2.18012																
		0.951787	2.18021																
		0.953859	2.1803																
		0.955932	2.1804																
		0.958004	2.18049																
		0.960076	2.18058																
		0.962149	2.18068																
		0.964221	2.18077																
		0.966293	2.18086																
		0.968365	2.18095																
		0.970438	2.18104																
		0.97251	2.18113																
		0.974582	2.18122																
		0.976655	2.18131																
		0.978727	2.1814																
		0.980799	2.18149																
		0.982871	2.18157																
		0.984943	2.18166																
		0.987016	2.18175																
		0.989088	2.18184																
		0.99116	2.18192																
		0.993232	2.18201																
		0.995304	2.1821																
		0.997377	2.18218																
		0.999449	2.18227																
		1.00152	2.18235																
