Sym0		Asym0		Sym1		Sym2		Sym3		Sym4		Asym1		Asym2		Asym3		Asym4	
468  Points		497  Points		230  Points		196  Points		182  Points		128  Points		338  Points		208  Points		171  Points		105  Points	
Freq (MHz)	Vph (m/ms)	Freq (MHz)	Vph (m/ms)	Freq (MHz)	Vph (m/ms)	Freq (MHz)	Vph (m/ms)	Freq (MHz)	Vph (m/ms)	Freq (MHz)	Vph (m/ms)	Freq (MHz)	Vph (m/ms)	Freq (MHz)	Vph (m/ms)	Freq (MHz)	Vph (m/ms)	Freq (MHz)	Vph (m/ms)
0.00350042	5.25281	4.49854e-005	0.0585581	0.279522	466.842	0.468835	537.418	0.559024	1037.27	0.838528	1939.65	0.139802	213.075	0.419264	2270.19	0.698773	2279.94	0.937651	3275.36
0.00839421	5.25267	0.000219764	0.12928	0.279596	182.689	0.468865	259.892	0.559068	380.154	0.838552	614.773	0.140033	88.1926	0.419298	375.588	0.698796	564.372	0.937658	769.854
0.0132877	5.2525	0.000524999	0.199497	0.279735	113.614	0.468917	171.402	0.559154	232.755	0.8386	365.292	0.140455	55.7471	0.419381	204.769	0.698848	322.068	0.937675	436.196
0.0181805	5.25223	0.000958217	0.268913	0.279938	82.4842	0.468991	127.879	0.55928	167.749	0.838672	259.861	0.141065	40.8743	0.419513	140.787	0.698928	225.346	0.937701	304.314
0.0230725	5.2519	0.00151611	0.337288	0.280206	64.7795	0.469086	101.994	0.559448	131.15	0.83877	201.672	0.14186	32.3667	0.419694	107.299	0.699036	173.317	0.937737	233.672
0.0279633	5.25146	0.00219437	0.404366	0.280537	53.3623	0.469202	84.8335	0.559657	107.68	0.838891	164.786	0.142835	26.876	0.419924	86.7046	0.699172	140.821	0.937781	189.652
0.032853	5.25096	0.00298823	0.469967	0.280933	45.3929	0.469341	72.6246	0.559906	91.352	0.839037	139.318	0.143984	23.0512	0.420203	72.7642	0.699336	118.599	0.937835	159.592
0.037741	5.25037	0.0038921	0.533889	0.281392	39.5179	0.469501	63.4954	0.560197	79.3389	0.839208	120.677	0.145303	20.2429	0.42053	62.7044	0.699528	102.445	0.937899	137.761
0.0426273	5.2497	0.00490022	0.596005	0.281914	35.0103	0.469683	56.412	0.560528	70.1317	0.839403	106.444	0.146784	18.0998	0.420906	55.105	0.699749	90.1733	0.937972	121.188
0.0475114	5.24893	0.00600633	0.656181	0.282498	31.4446	0.469888	50.7568	0.560899	62.8515	0.839622	95.2216	0.148421	16.4157	0.42133	49.1637	0.699998	80.5359	0.938055	108.176
0.0523934	5.24808	0.00720428	0.714344	0.283145	28.5552	0.470115	46.138	0.561311	56.9519	0.839866	86.1466	0.150206	15.0612	0.421802	44.3926	0.700274	72.7676	0.938147	97.6908
0.0572728	5.24715	0.00848764	0.770422	0.283852	26.1678	0.470365	42.2951	0.561764	52.075	0.840134	78.6572	0.152133	13.9511	0.422322	40.4782	0.700579	66.3733	0.938249	89.0609
0.0621493	5.24612	0.00985022	0.824386	0.284621	24.1632	0.470638	39.0483	0.562256	47.977	0.840426	72.3716	0.154195	13.0271	0.42289	37.2097	0.700912	61.0187	0.938361	81.8341
0.0670229	5.245	0.011286	0.876224	0.285449	22.4572	0.470934	36.2692	0.562788	44.4858	0.840743	67.0217	0.156384	12.248	0.423505	34.4405	0.701272	56.4698	0.938482	75.6944
0.0718931	5.24379	0.0127889	0.925932	0.286337	20.9886	0.471254	33.8639	0.56336	41.4764	0.841084	62.4133	0.158694	11.5836	0.424168	32.0649	0.70166	52.558	0.938614	70.4136
0.0767596	5.24249	0.0143535	0.973537	0.287283	19.7118	0.471598	31.7621	0.563972	38.8561	0.841449	58.4026	0.161117	11.0116	0.424877	30.0052	0.702076	49.1584	0.938756	65.8235
0.0816222	5.24109	0.0159744	1.01908	0.288286	18.5921	0.471967	29.9101	0.564623	36.5545	0.841839	54.8807	0.163317	10.5752	0.425634	28.203	0.70252	46.1771	0.938908	61.7971
0.0864806	5.2396	0.0176465	1.06259	0.289346	17.6027	0.47236	28.2661	0.565313	34.5171	0.842253	51.7636	0.165254	10.2416	0.426437	26.6132	0.702992	43.5416	0.93907	58.2366
0.0913345	5.238	0.0193653	1.10415	0.290462	16.7228	0.472778	26.7971	0.566041	32.7013	0.84269	48.9856	0.166896	9.98906	0.427286	25.2009	0.703491	41.1952	0.939243	55.0656
0.0961835	5.2363	0.0211263	1.14379	0.291633	15.9354	0.473221	25.4768	0.566809	31.0731	0.843152	46.4943	0.16822	9.80279	0.428181	23.9382	0.704017	39.0932	0.939426	52.2237
0.101027	5.23449	0.0229256	1.1816	0.292858	15.2271	0.473691	24.284	0.567614	29.6051	0.843638	44.2478	0.169207	9.67276	0.429121	22.803	0.704571	37.1994	0.93962	49.6623
0.105865	5.23258	0.0247593	1.21764	0.294136	14.5869	0.474187	23.2013	0.568458	28.2751	0.844148	42.2118	0.169845	9.59244	0.430107	21.7772	0.705153	35.4846	0.939824	47.3419
0.110698	5.23055	0.0266242	1.25199	0.295466	14.0057	0.47471	22.2142	0.569339	27.0647	0.844682	40.3582	0.17077	9.48077	0.431137	20.846	0.705761	33.9247	0.94004	45.23
0.115524	5.22841	0.0285171	1.28471	0.296846	13.476	0.47526	21.3108	0.570258	25.9587	0.845239	38.6637	0.171786	9.36419	0.432211	19.9971	0.706397	32.4997	0.940267	43.2998
0.120343	5.22615	0.0304351	1.31589	0.298277	12.9915	0.475838	20.4811	0.571214	24.9443	0.845821	37.1088	0.173185	9.21319	0.43333	19.2204	0.70706	31.1931	0.940505	41.529
0.125155	5.22377	0.0323757	1.34559	0.299756	12.5468	0.476445	19.7165	0.572207	24.0107	0.846426	35.677	0.174983	9.03375	0.434492	18.5071	0.70775	29.9908	0.940754	39.8986
0.12996	5.22126	0.0343364	1.37388	0.301283	12.1373	0.47708	19.0099	0.573237	23.1489	0.847055	34.3544	0.177196	8.83242	0.435698	17.8501	0.708466	28.881	0.941015	38.3926
0.134756	5.21862	0.0363153	1.40084	0.302857	11.7594	0.477745	18.3549	0.574302	22.351	0.847708	33.129	0.179846	8.61583	0.436946	17.243	0.70921	27.8534	0.941287	36.9973
0.139544	5.21585	0.0383103	1.42653	0.304476	11.4095	0.478439	17.7464	0.575404	21.6103	0.848384	31.9906	0.182954	8.39024	0.438237	16.6807	0.70998	26.8993	0.941571	35.7011
0.144323	5.21293	0.0403197	1.45101	0.30614	11.0849	0.479164	17.1796	0.576542	20.921	0.849084	30.9304	0.18613	8.18613	0.439569	16.1583	0.710777	26.0113	0.941867	34.4938
0.149092	5.20987	0.0423419	1.47435	0.307848	10.7829	0.479921	16.6505	0.577715	20.278	0.849807	29.9405	0.189371	8.0008	0.440943	15.6721	0.7116	25.1828	0.942176	33.3666
0.153851	5.20666	0.0443754	1.4966	0.309371	10.5366	0.480709	16.1556	0.578922	19.6769	0.850553	29.0144	0.192672	7.83196	0.442358	15.2184	0.712449	24.4081	0.942496	32.3118
0.1586	5.20329	0.0461559	1.51516	0.310694	10.338	0.481529	15.6918	0.580165	19.1138	0.851323	28.1461	0.19603	7.67769	0.443813	14.7943	0.713325	23.6822	0.942829	31.3227
0.163337	5.19976	0.047679	1.53039	0.311806	10.1811	0.482383	15.2564	0.581442	18.5854	0.852116	27.3305	0.199441	7.53631	0.445309	14.397	0.714227	23.0007	0.943174	30.3934
0.168062	5.19606	0.048942	1.54259	0.312695	10.0615	0.483269	14.847	0.582753	18.0886	0.852932	26.5629	0.202904	7.4064	0.446844	14.0242	0.715154	22.3597	0.943532	29.5187
0.172774	5.19219	0.0499427	1.552	0.313355	9.97589	0.48419	14.4613	0.584098	17.6208	0.853772	25.8393	0.206415	7.28674	0.448418	13.6738	0.716108	21.7557	0.943902	28.6939
0.177472	5.18812	0.0506797	1.55878	0.31378	9.92216	0.485146	14.0976	0.585476	17.1795	0.854634	25.156	0.209971	7.17624	0.450031	13.3438	0.717087	21.1858	0.944286	27.9149
0.182156	5.18387	0.0511518	1.56306	0.314395	9.84628	0.486137	13.754	0.586887	16.7626	0.855519	24.5099	0.21357	7.07399	0.451681	13.0328	0.718092	20.6472	0.944682	27.1781
0.186826	5.17941	0.051831	1.56914	0.315068	9.76559	0.487164	13.4291	0.588331	16.3683	0.856427	23.898	0.217209	6.97916	0.45337	12.739	0.719122	20.1373	0.945092	26.4801
0.191479	5.17475	0.0525701	1.57564	0.315991	9.65872	0.488227	13.1214	0.589808	15.9948	0.857358	23.3178	0.220887	6.89104	0.455095	12.4613	0.720178	19.6541	0.945515	25.818
0.196115	5.16986	0.0535765	1.58432	0.317171	9.52811	0.489328	12.8297	0.591316	15.6405	0.858311	22.7668	0.224601	6.809	0.456858	12.1983	0.721259	19.1955	0.945952	25.1891
0.200733	5.16475	0.0548512	1.59502	0.318618	9.37661	0.490467	12.5529	0.592856	15.3041	0.859287	22.243	0.22835	6.73248	0.458656	11.9491	0.722364	18.7598	0.946402	24.591
0.205331	5.1594	0.0563955	1.60757	0.320341	9.20732	0.491644	12.29	0.594428	14.9843	0.860285	21.7444	0.232131	6.66098	0.46049	11.7126	0.723495	18.3453	0.946866	24.0215
0.20991	5.15379	0.0582103	1.62177	0.322352	9.02349	0.49286	12.04	0.596031	14.6799	0.861306	21.2693	0.235942	6.59407	0.462359	11.4879	0.72465	17.9505	0.947344	23.4787
0.214467	5.14792	0.0602969	1.6374	0.324399	8.84998	0.494116	11.8021	0.597665	14.3899	0.862349	20.8162	0.239783	6.53134	0.464263	11.2742	0.72583	17.5741	0.947837	22.9607
0.219002	5.14178	0.0623871	1.65235	0.326481	8.686	0.495412	11.5754	0.599329	14.1134	0.863415	20.3835	0.243652	6.47245	0.466201	11.0708	0.727034	17.2149	0.948343	22.4659
0.223513	5.13535	0.0644807	1.66668	0.328598	8.53085	0.496749	11.3594	0.601023	13.8494	0.864502	19.9699	0.247546	6.41709	0.468172	10.8769	0.728263	16.8718	0.948864	21.9928
0.227998	5.12861	0.0665769	1.68039	0.330748	8.38389	0.498128	11.1533	0.602747	13.5972	0.865611	19.5742	0.251465	6.36495	0.469917	10.7154	0.729515	16.5437	0.949399	21.5401
0.232456	5.12156	0.0686755	1.69353	0.332932	8.24454	0.499548	10.9565	0.6045	13.3561	0.866742	19.1954	0.255408	6.3158	0.471424	10.5827	0.730792	16.2298	0.949948	21.1064
0.236886	5.11418	0.0707761	1.70614	0.335149	8.11227	0.50082	10.7922	0.606283	13.1253	0.867895	18.8323	0.259372	6.26939	0.472684	10.4764	0.732092	15.9291	0.950513	20.6906
0.241285	5.10645	0.0728785	1.71822	0.337399	7.98661	0.501931	10.6572	0.608095	12.9042	0.86907	18.4841	0.263358	6.22553	0.473689	10.3944	0.733416	15.6408	0.951092	20.2917
0.245653	5.09836	0.0749821	1.72982	0.339681	7.86713	0.502867	10.5489	0.609935	12.6923	0.870266	18.1499	0.267363	6.18401	0.474432	10.3352	0.734763	15.3642	0.951687	19.9086
0.249987	5.08988	0.077087	1.74096	0.341996	7.75344	0.503619	10.4653	0.611803	12.4891	0.871484	17.8289	0.271387	6.14466	0.47491	10.2979	0.736134	15.0988	0.952297	19.5405
0.254286	5.08102	0.0791928	1.75166	0.344343	7.64516	0.504178	10.405	0.613699	12.294	0.872723	17.5203	0.275428	6.10733	0.4756	10.2448	0.737528	14.8437	0.952922	19.1866
0.258547	5.07174	0.0812993	1.76195	0.346722	7.54198	0.50454	10.3669	0.615623	12.1065	0.873984	17.2234	0.279486	6.07187	0.476354	10.188	0.738944	14.5984	0.953562	18.8459
0.262768	5.06203	0.0834064	1.77184	0.349135	7.4436	0.505062	10.3128	0.617574	11.9264	0.875265	16.9377	0.28356	6.03815	0.477385	10.1122	0.740384	14.3625	0.954218	18.5179
0.266947	5.05187	0.0855139	1.78135	0.35158	7.34974	0.505636	10.2548	0.619553	11.7531	0.876568	16.6625	0.287648	6.00606	0.4787	10.0186	0.741846	14.1354	0.95489	18.2018
0.271083	5.04125	0.0876217	1.79051	0.354059	7.26016	0.506426	10.1774	0.621558	11.5864	0.877891	16.3973	0.291751	5.97546	0.480306	9.9087	0.74333	13.9166	0.955577	17.8971
0.275172	5.03014	0.0897296	1.79932	0.356572	7.17462	0.50744	10.0818	0.623589	11.4258	0.879236	16.1415	0.295866	5.94628	0.48221	9.78412	0.744837	13.7058	0.956281	17.6031
0.279214	5.01854	0.0918376	1.80782	0.35912	7.09291	0.508688	9.96954	0.625647	11.2711	0.880601	15.8947	0.299993	5.91841	0.484424	9.64667	0.746366	13.5024	0.957001	17.3193
0.283204	5.00643	0.0939455	1.81601	0.361703	7.01485	0.510184	9.84225	0.62773	11.122	0.881986	15.6564	0.304132	5.89177	0.486667	9.5148	0.747916	13.3062	0.957736	17.0452
0.287142	4.99379	0.0960534	1.8239	0.364323	6.94025	0.511943	9.70182	0.629567	10.9963	0.883393	15.4262	0.308282	5.86627	0.488939	9.38821	0.749489	13.1167	0.958489	16.7804
0.291024	4.98061	0.0981609	1.83152	0.36698	6.86895	0.513749	9.5671	0.631147	10.8922	0.884819	15.2038	0.312441	5.84185	0.491239	9.2666	0.751083	12.9337	0.959258	16.5243
0.29485	4.96688	0.100268	1.83887	0.369675	6.80081	0.5156	9.43783	0.632465	10.8082	0.886266	14.9887	0.31661	5.81843	0.493567	9.1497	0.752698	12.7569	0.960043	16.2766
0.298616	4.95259	0.102375	1.84597	0.372411	6.73569	0.517497	9.31372	0.633514	10.7431	0.887733	14.7806	0.320787	5.79596	0.495923	9.03728	0.754335	12.5859	0.960845	16.0369
0.30232	4.93773	0.104482	1.85283	0.375188	6.67345	0.519441	9.19452	0.634288	10.6959	0.88922	14.5792	0.324972	5.77437	0.498305	8.9291	0.755992	12.4205	0.961665	15.8048
0.305961	4.9223	0.106588	1.85946	0.378007	6.61398	0.521431	9.08	0.634786	10.6659	0.890726	14.3841	0.329164	5.75361	0.500714	8.82494	0.757671	12.2604	0.962501	15.58
0.309538	4.90629	0.108694	1.86587	0.380869	6.55718	0.523468	8.96995	0.635503	10.6233	0.892253	14.1952	0.333363	5.73363	0.50315	8.72459	0.75937	12.1054	0.963354	15.3621
0.313048	4.88972	0.1108	1.87208	0.383777	6.50293	0.525551	8.86413	0.636286	10.5776	0.893799	14.0121	0.337567	5.71437	0.505611	8.62788	0.76109	11.9552	0.964225	15.1509
0.31649	4.87257	0.112905	1.87808	0.386732	6.45115	0.527682	8.76237	0.637355	10.5163	0.895365	13.8346	0.341778	5.69581	0.508097	8.53462	0.76283	11.8097	0.965113	14.946
0.319863	4.85487	0.115009	1.88389	0.389734	6.40173	0.529859	8.66448	0.638716	10.4401	0.89695	13.6624	0.345992	5.67789	0.510608	8.44464	0.76459	11.6686	0.966019	14.7473
0.322746	4.83899	0.117113	1.88952	0.392785	6.3546	0.532083	8.57027	0.640374	10.3501	0.898555	13.4953	0.350212	5.66058	0.513144	8.35779	0.76637	11.5318	0.966942	14.5544
0.325162	4.82514	0.119217	1.89497	0.395887	6.30967	0.534354	8.47959	0.642336	10.2474	0.900178	13.3331	0.354434	5.64384	0.515703	8.27393	0.76817	11.3991	0.967884	14.367
0.32713	4.81346	0.12132	1.90026	0.399039	6.26686	0.536671	8.39228	0.644609	10.133	0.901821	13.1757	0.35866	5.62764	0.518287	8.19291	0.769754	11.2866	0.968843	14.1851
0.328667	4.8041	0.123422	1.90538	0.402244	6.22609	0.539034	8.30819	0.646906	10.0223	0.903483	13.0227	0.362889	5.61195	0.520893	8.1146	0.771117	11.193	0.969821	14.0083
0.329787	4.79713	0.125524	1.91035	0.405502	6.18729	0.541444	8.22719	0.649227	9.91517	0.905163	12.874	0.367119	5.59673	0.523523	8.03889	0.772251	11.1171	0.970816	13.8365
0.330499	4.79264	0.127626	1.91518	0.408813	6.15038	0.543899	8.14913	0.65157	9.81135	0.906862	12.7295	0.371351	5.58196	0.526175	7.96565	0.773154	11.0581	0.97183	13.6694
0.331516	4.78615	0.129727	1.91986	0.412178	6.11528	0.5464	8.07389	0.653936	9.71074	0.90858	12.5889	0.375584	5.56762	0.528849	7.89478	0.77382	11.0152	0.972863	13.507
0.332613	4.77902	0.131827	1.92441	0.415596	6.08193	0.548945	8.00135	0.656324	9.61321	0.910316	12.4523	0.379817	5.55367	0.531545	7.82618	0.774248	10.988	0.973914	13.3489
0.33409	4.76924	0.133927	1.92883	0.419068	6.05024	0.551536	7.9314	0.658735	9.51862	0.91207	12.3192	0.384051	5.54009	0.534263	7.75974	0.774864	10.9492	0.974984	13.195
0.335935	4.75671	0.136026	1.93313	0.422593	6.02016	0.554171	7.86392	0.661168	9.42687	0.913843	12.1898	0.388283	5.52687	0.537002	7.69539	0.775537	10.9074	0.976073	13.0453
0.338131	4.74134	0.138125	1.93731	0.426171	5.9916	0.556849	7.79883	0.663622	9.33782	0.915634	12.0637	0.392515	5.51398	0.539761	7.63302	0.776456	10.8512	0.977181	12.8995
0.340659	4.72302	0.140224	1.94137	0.4298	5.9645	0.559572	7.73601	0.666099	9.25138	0.917442	11.941	0.396746	5.5014	0.542541	7.57256	0.777624	10.7813	0.978309	12.7575
0.343496	4.70162	0.142322	1.94532	0.43348	5.93878	0.562337	7.67537	0.668596	9.16744	0.919268	11.8214	0.400974	5.48912	0.545342	7.51393	0.779046	10.6984	0.979455	12.6191
0.346266	4.67986	0.144419	1.94917	0.437209	5.91437	0.565144	7.61682	0.671115	9.0859	0.921112	11.7049	0.4052	5.47711	0.548162	7.45707	0.780727	10.6033	0.980621	12.4843
0.348972	4.65777	0.146516	1.95291	0.440986	5.89122	0.567993	7.56029	0.673655	9.00668	0.922734	11.6057	0.409422	5.46536	0.551002	7.40188	0.782673	10.4969	0.981807	12.3528
0.351613	4.63538	0.148612	1.95656	0.44481	5.86925	0.570883	7.50568	0.676215	8.92967	0.924126	11.523	0.413642	5.45385	0.553861	7.34832	0.784638	10.3933	0.983012	12.2247
0.354193	4.61273	0.150708	1.96011	0.448678	5.84839	0.573814	7.45291	0.678796	8.85481	0.925285	11.4557	0.417857	5.44258	0.55674	7.29632	0.786621	10.2926	0.984237	12.0997
0.356712	4.58985	0.152804	1.96357	0.452589	5.82858	0.576784	7.40192	0.681397	8.78201	0.926206	11.4032	0.422068	5.43151	0.559637	7.24582	0.788622	10.1945	0.985482	11.9778
0.359173	4.56677	0.154899	1.96694	0.456541	5.80977	0.579794	7.35264	0.684018	8.71119	0.926885	11.365	0.426274	5.42064	0.562553	7.19676	0.790641	10.099	0.986747	11.8589
0.361579	4.54353	0.156994	1.97023	0.460532	5.79188	0.582843	7.30499	0.686659	8.64228	0.927321	11.3407	0.430474	5.40996	0.565488	7.14909	0.792677	10.0059	0.987866	11.7576
0.36393	4.52016	0.159088	1.97344	0.46456	5.77488	0.585929	7.25891	0.68932	8.57521	0.92795	11.3061	0.434669	5.39945	0.568441	7.10276	0.794731	9.91521	0.988832	11.673
0.366229	4.49668	0.161182	1.97657	0.468623	5.75869	0.589053	7.21433	0.692001	8.50993	0.928635	11.2687	0.438857	5.38911	0.571412	7.05772	0.796802	9.82682	0.989639	11.6041
0.368479	4.47314	0.163275	1.97962	0.47272	5.74327	0.592213	7.17121	0.694701	8.44635	0.929571	11.2185	0.443038	5.37891	0.5744	7.01392	0.798891	9.74065	0.990283	11.5504
0.370681	4.44954	0.165368	1.9826	0.476847	5.72858	0.595409	7.12948	0.69742	8.38443	0.930759	11.1558	0.447212	5.36886	0.577407	6.97132	0.800996	9.65662	0.99076	11.5113
0.372838	4.42593	0.167461	1.98552	0.481004	5.71455	0.59864	7.08908	0.700158	8.32411	0.932205	11.0812	0.451378	5.35893	0.58043	6.92987	0.803118	9.57466	0.991066	11.4864
0.374952	4.40233	0.169553	1.98836	0.485189	5.70116	0.601906	7.04997	0.702914	8.26533	0.933914	10.9954	0.455536	5.34912	0.583472	6.88955	0.805257	9.4947	0.991508	11.4509
0.377024	4.37876	0.171645	1.99113	0.489399	5.68836	0.605206	7.0121	0.70569	8.20805	0.93589	10.8991	0.459685	5.33942	0.58653	6.8503	0.807413	9.41667	0.991991	11.4126
0.379056	4.35524	0.173737	1.99385	0.493633	5.6761	0.608538	6.97541	0.708484	8.1522	0.937882	10.805	0.463824	5.32982	0.589606	6.81209	0.809585	9.34051	0.992653	11.3611
0.381051	4.33179	0.175828	1.9965	0.497889	5.66436	0.611903	6.93986	0.711296	8.09775	0.939891	10.7132	0.467953	5.32032	0.592698	6.77489	0.811773	9.26615	0.993496	11.2967
0.38301	4.30843	0.177919	1.99909	0.502165	5.65309	0.6153	6.90542	0.714127	8.04465	0.941916	10.6235	0.472072	5.31089	0.595807	6.73867	0.813977	9.19354	0.994527	11.2201
0.384936	4.28518	0.180009	2.00163	0.506461	5.64227	0.618727	6.87203	0.716976	7.99285	0.943958	10.5358	0.476181	5.30154	0.598933	6.70339	0.816198	9.12262	0.99575	11.132
0.386829	4.26205	0.1821	2.00411	0.510774	5.63186	0.622185	6.83965	0.719842	7.94231	0.946015	10.4501	0.480277	5.29225	0.602076	6.66902	0.818434	9.05333	0.997174	11.033
0.388692	4.23906	0.184189	2.00653	0.515102	5.62183	0.625672	6.80826	0.722727	7.893	0.948089	10.3663	0.484362	5.28302	0.605235	6.63553	0.820686	8.98564	0.998619	10.9362
0.390527	4.21622	0.186279	2.00891	0.519446	5.61217	0.629188	6.77781	0.725629	7.84487	0.950178	10.2844	0.488434	5.27385	0.608411	6.6029	0.822953	8.91947	1.00009	10.8417
0.392333	4.19355	0.188368	2.01123	0.523802	5.60284	0.632733	6.74826	0.728549	7.79789	0.952283	10.2042	0.492494	5.26471	0.611604	6.57111	0.825236	8.8548		
0.394114	4.17105	0.190457	2.01351	0.528171	5.59382	0.636305	6.71958	0.731486	7.75202	0.954404	10.1259	0.496539	5.25562	0.614812	6.54011	0.827535	8.79157		
0.39587	4.14872	0.192546	2.01573	0.53255	5.58509	0.639903	6.69175	0.73444	7.70723	0.95654	10.0492	0.500571	5.24655	0.618037	6.5099	0.829848	8.72974		
0.397603	4.12659	0.194634	2.01791	0.536939	5.57663	0.643529	6.66472	0.737412	7.66349	0.958691	9.97417	0.504588	5.23751	0.621279	6.48045	0.832177	8.66927		
0.399315	4.10466	0.196723	2.02005	0.541336	5.56842	0.647179	6.63847	0.7404	7.62076	0.960858	9.90074	0.50859	5.22849	0.624536	6.45173	0.834521	8.61012		
0.401005	4.08294	0.198811	2.02214	0.545741	5.56044	0.650855	6.61298	0.743406	7.57902	0.96304	9.82886	0.512577	5.21948	0.62781	6.42372	0.836879	8.55224		
0.402676	4.06142	0.200898	2.0242	0.550153	5.55267	0.654555	6.58821	0.746429	7.53823	0.965237	9.75849	0.516547	5.21048	0.631101	6.39641	0.839252	8.4956		
0.404328	4.04012	0.202986	2.02621	0.55457	5.54511	0.658279	6.56413	0.749469	7.49838	0.967448	9.68958	0.520501	5.20147	0.634407	6.36977	0.84164	8.44017		
0.405963	4.01904	0.205073	2.02818	0.558991	5.53773	0.662026	6.54073	0.752525	7.45942	0.969674	9.62209	0.524438	5.19247	0.63773	6.34379	0.844043	8.38592		
0.407582	3.99819	0.20716	2.03011	0.563416	5.53052	0.665795	6.51797	0.755598	7.42134	0.971916	9.55598	0.528357	5.18345	0.641069	6.31845	0.84646	8.33279		
0.409185	3.97756	0.209246	2.03201	0.567845	5.52348	0.669587	6.49584	0.758688	7.38412	0.974171	9.49121	0.532257	5.17443	0.644425	6.29373	0.848891	8.28078		
0.410773	3.95716	0.211333	2.03387	0.572275	5.51658	0.6734	6.47431	0.761794	7.34772	0.976441	9.42775	0.536139	5.16538	0.647796	6.26961	0.851336	8.22983		
0.412348	3.93699	0.213419	2.03569	0.576707	5.50981	0.677233	6.45336	0.764917	7.31213	0.978725	9.36555	0.540002	5.15631	0.651184	6.24607	0.853796	8.17994		
0.413909	3.91706	0.215505	2.03748	0.58114	5.50318	0.681087	6.43297	0.768056	7.27733	0.981023	9.30459	0.543845	5.14722	0.654589	6.22311	0.856269	8.13106		
0.415459	3.89736	0.217591	2.03924	0.585572	5.49665	0.684961	6.41313	0.771212	7.24329	0.983336	9.24483	0.547668	5.13809	0.658009	6.20071	0.858757	8.08316		
0.416997	3.87789	0.219677	2.04097	0.590004	5.49024	0.688854	6.3938	0.774384	7.20999	0.985662	9.18623	0.551471	5.12893	0.661446	6.17885	0.861259	8.03623		
0.418524	3.85866	0.221762	2.04266	0.594435	5.48392	0.692766	6.37498	0.777573	7.17742	0.988002	9.12878	0.555252	5.11974	0.6649	6.15752	0.863774	7.99024		
0.420041	3.83967	0.223847	2.04432	0.598864	5.4777	0.696695	6.35664	0.780778	7.14555	0.990356	9.07242	0.559012	5.1105	0.668369	6.1367	0.866303	7.94516		
0.421549	3.82091	0.225932	2.04595	0.60329	5.47156	0.700643	6.33877	0.783999	7.11436	0.992723	9.01715	0.56275	5.10122	0.671856	6.11639	0.868846	7.90097		
0.423047	3.80238	0.228017	2.04756	0.607713	5.46549	0.704607	6.32136	0.787237	7.08385	0.995104	8.96292	0.566465	5.0919	0.675358	6.09656	0.871402	7.85764		
0.424538	3.78409	0.230102	2.04913	0.612133	5.4595	0.708588	6.30438	0.79049	7.05399	0.997498	8.90972	0.570158	5.08252	0.678877	6.07721	0.873972	7.81515		
0.426021	3.76603	0.232186	2.05068	0.616549	5.45356	0.712586	6.28782	0.793761	7.02477	0.999906	8.85751	0.573827	5.0731	0.682412	6.05833	0.876555	7.77349		
0.427496	3.7482	0.23427	2.0522	0.62096	5.44768	0.716599	6.27167	0.797047	6.99617	1.00233	8.80627	0.577473	5.06362	0.685963	6.0399	0.879151	7.73263		
0.428965	3.7306	0.236355	2.0537	0.625366	5.44186	0.720627	6.25591	0.80035	6.96818			0.581094	5.05409	0.68953	6.02191	0.881761	7.69254		
0.430427	3.71323	0.238439	2.05517	0.629766	5.43608	0.72467	6.24053	0.80367	6.94077			0.584692	5.0445	0.693114	6.00435	0.884384	7.65322		
0.431884	3.69609	0.240522	2.05662	0.634161	5.43034	0.728727	6.22552	0.807005	6.91395			0.588265	5.03485	0.696714	5.98721	0.887021	7.61464		
0.433335	3.67917	0.242606	2.05804	0.638549	5.42464	0.732797	6.21086	0.810357	6.88769			0.591813	5.02515	0.70033	5.97048	0.88967	7.57678		
0.434781	3.66248	0.24469	2.05943	0.64293	5.41896	0.736882	6.19654	0.813726	6.86198			0.595335	5.01538	0.703961	5.95415	0.892333	7.53963		
0.436222	3.64601	0.246773	2.06081	0.647304	5.41332	0.740979	6.18256	0.817111	6.83681			0.598833	5.00556	0.707609	5.9382	0.895008	7.50317		
0.437659	3.62975	0.248856	2.06216	0.651671	5.4077	0.745088	6.16889	0.820513	6.81217			0.602304	4.99567	0.711272	5.92264	0.897697	7.46739		
0.439093	3.61372	0.250939	2.06349	0.656029	5.4021	0.749209	6.15553	0.823932	6.78805			0.60575	4.98572	0.714951	5.90744	0.900398	7.43226		
0.440522	3.59789	0.253022	2.0648	0.660379	5.39652	0.753342	6.14246	0.827367	6.76443			0.609169	4.97571	0.718646	5.8926	0.903113	7.39777		
0.441949	3.58229	0.255105	2.06609	0.66472	5.39095	0.757486	6.12969	0.830819	6.7413			0.612562	4.96563	0.722355	5.87812	0.90584	7.36391		
0.443372	3.56689	0.257188	2.06735	0.669052	5.38539	0.76164	6.11718	0.834288	6.71865			0.615929	4.9555	0.72608	5.86397	0.90858	7.33066		
0.444793	3.55169	0.25927	2.0686	0.673374	5.37983	0.765805	6.10495	0.837774	6.69648			0.619269	4.9453	0.72982	5.85015	0.911333	7.29801		
0.446211	3.53671	0.261352	2.06983	0.677686	5.37428	0.769979	6.09297	0.841277	6.67477			0.622583	4.93504	0.733574	5.83666	0.914098	7.26595		
0.447628	3.52192	0.263435	2.07104	0.681989	5.36873	0.774163	6.08124	0.844797	6.65352			0.625869	4.92472	0.737343	5.82348	0.916876	7.23445		
0.449042	3.50734	0.265517	2.07223	0.686281	5.36318	0.778356	6.06976	0.848334	6.63271			0.629129	4.91435	0.741127	5.8106	0.919667	7.20352		
0.450454	3.49296	0.267599	2.0734	0.690562	5.35763	0.782557	6.0585	0.851889	6.61234			0.632362	4.90391	0.744924	5.79802	0.922471	7.17313		
0.451866	3.47877	0.269681	2.07456	0.694832	5.35207	0.786766	6.04746	0.855461	6.59239			0.635568	4.89342	0.748735	5.78573	0.925287	7.14328		
0.453276	3.46477	0.271763	2.0757	0.69909	5.3465	0.790982	6.03664	0.859051	6.57286			0.638747	4.88287	0.75256	5.77371	0.928116	7.11394		
0.454685	3.45096	0.273844	2.07682	0.703337	5.34092	0.795206	6.02603	0.862659	6.55374			0.641899	4.87226	0.756398	5.76197	0.930957	7.08512		
0.456093	3.43734	0.275926	2.07792	0.707572	5.33533	0.799437	6.01562	0.866284	6.53503			0.645025	4.86161	0.760249	5.75049	0.93381	7.0568		
0.4575	3.42391	0.278007	2.07901	0.711794	5.32973	0.803674	6.0054	0.869928	6.51671			0.648124	4.8509	0.764112	5.73927	0.936676	7.02897		
0.458907	3.41066	0.280089	2.08008	0.716004	5.32411	0.807917	5.99537	0.873589	6.49878			0.651196	4.84014	0.767988	5.72829	0.939555	7.00162		
0.460314	3.39759	0.28217	2.08114	0.720201	5.31848	0.812166	5.98551	0.877269	6.48123			0.654241	4.82933	0.771875	5.71756	0.942446	6.97474		
0.46172	3.38469	0.284251	2.08218	0.724386	5.31282	0.816419	5.97583	0.880966	6.46406			0.657261	4.81848	0.775775	5.70705	0.945349	6.94831		
0.463127	3.37197	0.286332	2.08321	0.728556	5.30715	0.820678	5.96631	0.884683	6.44725			0.660253	4.80759	0.779685	5.69677	0.948265	6.92234		
0.464534	3.35943	0.288413	2.08422	0.732714	5.30145	0.824941	5.95695	0.888418	6.43081			0.66322	4.79665	0.783607	5.68671	0.951193	6.89681		
0.465941	3.34705	0.290494	2.08522	0.736857	5.29573	0.829207	5.94774	0.892171	6.41472			0.666161	4.78567	0.787539	5.67687	0.954133	6.8717		
0.467348	3.33484	0.292575	2.0862	0.740987	5.28999	0.833478	5.93869	0.895944	6.39897			0.669076	4.77465	0.791481	5.66722	0.957085	6.84702		
0.468757	3.3228	0.294655	2.08717	0.745103	5.28422	0.837751	5.92977	0.899735	6.38358			0.671965	4.76359	0.795433	5.65777	0.96005	6.82276		
0.470165	3.31092	0.296736	2.08813	0.749204	5.27843	0.842027	5.92099	0.903546	6.36851			0.674829	4.75251	0.799394	5.64852	0.963027	6.79889		
0.471575	3.2992	0.298817	2.08907	0.75329	5.27261	0.846306	5.91234	0.907376	6.35378			0.677667	4.74139	0.803365	5.63945	0.966016	6.77543		
0.472985	3.28764	0.300897	2.09	0.757361	5.26676	0.850587	5.90382	0.911225	6.33937			0.680481	4.73024	0.807344	5.63055	0.969017	6.75236		
0.474397	3.27623	0.302977	2.09092	0.761418	5.26088	0.854869	5.89542	0.915093	6.32529			0.68327	4.71906	0.811331	5.62183	0.97203	6.72966		
0.475809	3.26498	0.305058	2.09183	0.765459	5.25498	0.859153	5.88714	0.918981	6.31151			0.686034	4.70786	0.815326	5.61328	0.975056	6.70734		
0.477223	3.25388	0.307138	2.09272	0.769485	5.24904	0.863438	5.87896	0.922888	6.29805			0.688774	4.69663	0.819329	5.60488	0.978093	6.68539		
0.478638	3.24292	0.309218	2.0936	0.773496	5.24308	0.867723	5.8709	0.926815	6.28489			0.69149	4.68539	0.823338	5.59664	0.981142	6.66379		
0.480055	3.23212	0.311298	2.09447	0.77749	5.23708	0.872009	5.86294	0.930762	6.27203			0.694182	4.67412	0.827354	5.58855	0.984204	6.64255		
0.481473	3.22146	0.313378	2.09533	0.781469	5.23105	0.876295	5.85508	0.934728	6.25946			0.696851	4.66284	0.831377	5.58059	0.987277	6.62166		
0.482892	3.21094	0.315458	2.09618	0.785432	5.22499	0.88058	5.84731	0.938715	6.24717			0.699497	4.65154	0.835405	5.57278	0.990362	6.6011		
0.484313	3.20056	0.317537	2.09702	0.789378	5.2189	0.884865	5.83964	0.942721	6.23517			0.702119	4.64023	0.839439	5.5651	0.993459	6.58087		
0.485736	3.19032	0.319617	2.09784	0.793309	5.21277	0.88915	5.83205	0.946747	6.22345			0.704719	4.62891	0.843478	5.55755	0.996568	6.56097		
0.487161	3.18021	0.321697	2.09866	0.797222	5.20661	0.893433	5.82455	0.950793	6.212			0.707297	4.61759	0.847521	5.55012	0.999688	6.54139		
0.488587	3.17024	0.323776	2.09947	0.801119	5.20042	0.897715	5.81713	0.954859	6.20082			0.709853	4.60625	0.851569	5.54281	1.00282	6.52213		
0.490015	3.1604	0.325856	2.10026	0.805	5.1942	0.901995	5.80979	0.958945	6.1899			0.712386	4.59492	0.855621	5.53562				
0.491445	3.15069	0.327935	2.10105	0.808863	5.18794	0.906274	5.80253	0.96305	6.17924			0.714899	4.58357	0.859676	5.52853				
0.492877	3.14111	0.330015	2.10182	0.81271	5.18165	0.91055	5.79534	0.967175	6.16883			0.71739	4.57223	0.863735	5.52154				
0.494311	3.13166	0.332094	2.10259	0.81654	5.17532	0.914825	5.78822	0.97132	6.15867			0.71986	4.5609	0.867796	5.51466				
0.495747	3.12233	0.334173	2.10335	0.820352	5.16896	0.919097	5.78117	0.975485	6.14875			0.72231	4.54956	0.871859	5.50787				
0.497186	3.11312	0.336252	2.10409	0.824147	5.16257	0.923366	5.77419	0.979669	6.13907			0.724739	4.53823	0.875925	5.50117				
0.498626	3.10403	0.338331	2.10483	0.827925	5.15614	0.927633	5.76727	0.983872	6.12963			0.727149	4.52691	0.879992	5.49457				
0.500069	3.09506	0.34041	2.10556	0.831686	5.14968	0.931897	5.76041	0.988095	6.12041			0.729538	4.51559	0.88406	5.48804				
0.501513	3.0862	0.342489	2.10628	0.835429	5.14319	0.936158	5.75362	0.992337	6.11141			0.731909	4.50429	0.888129	5.4816				
0.50296	3.07746	0.344568	2.107	0.839155	5.13666	0.940416	5.74688	0.996597	6.10264			0.73426	4.49299	0.892199	5.47523				
0.50441	3.06884	0.346647	2.1077	0.842863	5.1301	0.944671	5.7402	1.00088	6.09407			0.736592	4.48172	0.896269	5.46894				
0.505862	3.06032	0.348726	2.1084	0.846553	5.12351	0.948923	5.73357					0.738906	4.47045	0.900339	5.46272				
0.507316	3.05192	0.350805	2.10908	0.850226	5.11688	0.953172	5.727					0.741202	4.45921	0.904408	5.45656				
0.508772	3.04362	0.352883	2.10976	0.853881	5.11023	0.957417	5.72049					0.74348	4.44798	0.908477	5.45047				
0.510231	3.03543	0.354962	2.11043	0.857518	5.10354	0.961658	5.71402					0.74574	4.43677	0.912544	5.44444				
0.511692	3.02734	0.357041	2.1111	0.861138	5.09682	0.965897	5.70761					0.747983	4.42558	0.91661	5.43847				
0.513156	3.01936	0.359119	2.11176	0.86474	5.09007	0.970131	5.70124					0.750209	4.41442	0.920674	5.43255				
0.514622	3.01148	0.361198	2.1124	0.868324	5.08329	0.974363	5.69493					0.752418	4.40328	0.924736	5.42668				
0.516091	3.00369	0.363276	2.11305	0.87189	5.07647	0.97859	5.68866					0.754611	4.39216	0.928795	5.42087				
0.517562	2.99601	0.365354	2.11368	0.875438	5.06963	0.982815	5.68244					0.756787	4.38107	0.932852	5.4151				
0.519036	2.98843	0.367433	2.11431	0.878969	5.06276	0.987035	5.67627					0.758948	4.37001	0.936906	5.40937				
0.520513	2.98094	0.369511	2.11493	0.882482	5.05586	0.991253	5.67014					0.761093	4.35898	0.940956	5.40369				
0.521992	2.97354	0.371589	2.11554	0.885977	5.04894	0.995466	5.66405					0.763223	4.34797	0.945002	5.39805				
0.523473	2.96624	0.373667	2.11615	0.889454	5.04198	0.999677	5.65802					0.765338	4.337	0.949045	5.39244				
0.524957	2.95902	0.375746	2.11675	0.892914	5.035	1.00388	5.65202					0.767438	4.32606	0.953083	5.38687				
0.526444	2.9519	0.377824	2.11734	0.896355	5.02799							0.769523	4.31515	0.957117	5.38133				
0.527933	2.94487	0.379902	2.11793	0.89978	5.02096							0.771594	4.30428	0.961146	5.37582				
0.529425	2.93792	0.38198	2.11851	0.903186	5.0139							0.773652	4.29344	0.96517	5.37034				
0.53092	2.93106	0.384058	2.11908	0.906575	5.00682							0.775695	4.28264	0.969188	5.36489				
0.532417	2.92428	0.386135	2.11965	0.909946	4.99971							0.777725	4.27187	0.973201	5.35946				
0.533917	2.91759	0.388213	2.12022	0.9133	4.99258							0.779742	4.26115	0.977208	5.35405				
0.535419	2.91098	0.390291	2.12077	0.916636	4.98542							0.781746	4.25046	0.981209	5.34867				
0.536924	2.90445	0.392369	2.12132	0.919955	4.97825							0.783738	4.23981	0.985203	5.34331				
0.538432	2.898	0.394447	2.12187	0.923256	4.97105							0.785717	4.2292	0.98919	5.33796				
0.539942	2.89163	0.396524	2.12241	0.92654	4.96383							0.787683	4.21863	0.993171	5.33263				
0.541455	2.88534	0.398602	2.12294	0.929807	4.95659							0.789638	4.2081	0.997145	5.32731				
0.542971	2.87912	0.40068	2.12347	0.933056	4.94933							0.791581	4.19761	1.00111	5.32201				
0.54449	2.87298	0.402757	2.12399	0.936289	4.94206							0.793513	4.18717						
0.546011	2.86691	0.404835	2.12451	0.939504	4.93476							0.795433	4.17677						
0.547534	2.86091	0.406912	2.12502	0.942703	4.92745							0.797343	4.16641						
0.549061	2.85499	0.40899	2.12553	0.945884	4.92011							0.799241	4.1561						
0.55059	2.84914	0.411067	2.12603	0.949049	4.91277							0.801129	4.14583						
0.552121	2.84336	0.413144	2.12653	0.952197	4.9054							0.803007	4.13561						
0.553655	2.83764	0.415222	2.12702	0.955328	4.89802							0.804875	4.12543						
0.555192	2.83199	0.417299	2.12751	0.958443	4.89063							0.806733	4.1153						
0.556732	2.82642	0.419376	2.12799	0.961541	4.88322							0.808581	4.10521						
0.558274	2.8209	0.421454	2.12847	0.964622	4.8758							0.810419	4.09518						
0.559819	2.81545	0.423531	2.12894	0.967687	4.86837							0.812248	4.08519						
0.561366	2.81007	0.425608	2.12941	0.970736	4.86093							0.814069	4.07525						
0.562916	2.80475	0.427685	2.12987	0.973769	4.85347							0.81588	4.06535						
0.564469	2.79949	0.429762	2.13033	0.976786	4.846							0.817682	4.05551						
0.566024	2.79429	0.431839	2.13079	0.979787	4.83852							0.819477	4.04571						
0.567582	2.78915	0.433916	2.13124	0.982772	4.83104							0.821262	4.03596						
0.569142	2.78407	0.435993	2.13168	0.98574	4.82354							0.82304	4.02626						
0.570705	2.77905	0.43807	2.13213	0.988694	4.81603							0.82481	4.01661						
0.572271	2.77409	0.440147	2.13256	0.991631	4.80852							0.826572	4.00701						
0.573839	2.76918	0.442224	2.133	0.994553	4.801							0.828326	3.99746						
0.57541	2.76433	0.444301	2.13343	0.99746	4.79347							0.830073	3.98796						
0.576983	2.75954	0.446378	2.13385	1.00035	4.78594							0.831813	3.97851						
0.578559	2.7548	0.448454	2.13428									0.833546	3.96911						
0.580137	2.75012	0.450531	2.1347									0.835272	3.95977						
0.581718	2.74548	0.452608	2.13511									0.836991	3.95047						
0.583301	2.7409	0.454685	2.13552									0.838703	3.94122						
0.584887	2.73638	0.456761	2.13593									0.840409	3.93202						
0.586475	2.7319	0.458838	2.13633									0.842109	3.92287						
0.588066	2.72747	0.460915	2.13673									0.843803	3.91378						
0.589659	2.72309	0.462991	2.13713									0.845491	3.90473						
0.591255	2.71877	0.465068	2.13752									0.847172	3.89573						
0.592853	2.71449	0.467144	2.13791									0.848849	3.88679						
0.594454	2.71025	0.469221	2.13829									0.850519	3.8779						
0.596057	2.70607	0.471297	2.13868									0.852185	3.86905						
0.597662	2.70193	0.473374	2.13906									0.853845	3.86026						
0.59927	2.69783	0.47545	2.13943									0.8555	3.85152						
0.600881	2.69378	0.477527	2.1398									0.85715	3.84283						
0.602493	2.68978	0.479603	2.14017									0.858795	3.83419						
0.604108	2.68582	0.481679	2.14054									0.860435	3.8256						
0.605726	2.6819	0.483756	2.1409									0.862071	3.81706						
0.607345	2.67802	0.485832	2.14126									0.863702	3.80857						
0.608968	2.67419	0.487908	2.14162									0.865329	3.80013						
0.610592	2.6704	0.489985	2.14197									0.866951	3.79174						
0.612219	2.66665	0.492061	2.14232									0.86857	3.7834						
0.613848	2.66293	0.494137	2.14267									0.870184	3.77512						
0.615479	2.65926	0.496213	2.14302									0.871795	3.76688						
0.617113	2.65563	0.498289	2.14336									0.873401	3.75869						
0.618749	2.65204	0.500365	2.1437									0.875004	3.75055						
0.620387	2.64848	0.502442	2.14403									0.876604	3.74246						
0.622027	2.64497	0.504518	2.14437									0.878199	3.73442						
0.62367	2.64149	0.506594	2.1447									0.879792	3.72642						
0.625315	2.63804	0.50867	2.14503									0.881381	3.71848						
0.626962	2.63464	0.510746	2.14535									0.882967	3.71059						
0.628611	2.63127	0.512822	2.14567									0.88455	3.70274						
0.630263	2.62793	0.514898	2.14599									0.886129	3.69494						
0.631917	2.62463	0.516974	2.14631									0.887706	3.68719						
0.633572	2.62136	0.51905	2.14663									0.88928	3.67949						
0.63523	2.61813	0.521125	2.14694									0.890852	3.67184						
0.63689	2.61493	0.523201	2.14725									0.89242	3.66423						
0.638553	2.61176	0.525277	2.14756									0.893986	3.65667						
0.640217	2.60863	0.527353	2.14786									0.89555	3.64916						
0.641884	2.60553	0.529429	2.14817									0.897111	3.6417						
0.643552	2.60246	0.531505	2.14847									0.898669	3.63428						
0.645223	2.59942	0.53358	2.14877									0.900226	3.62691						
0.646895	2.59642	0.535656	2.14906									0.90178	3.61958						
0.64857	2.59344	0.537732	2.14935									0.903332	3.61231						
0.650247	2.59049	0.539808	2.14965									0.904882	3.60507						
0.651926	2.58758	0.541883	2.14994									0.90643	3.59788						
0.653607	2.58469	0.543959	2.15022									0.907977	3.59074						
0.65529	2.58183	0.546035	2.15051									0.909521	3.58365						
0.656975	2.579	0.54811	2.15079									0.911064	3.57659						
0.658661	2.5762	0.550186	2.15107									0.912605	3.56959						
0.66035	2.57343	0.552262	2.15135									0.914144	3.56263						
0.662041	2.57069	0.554337	2.15162									0.915682	3.55571						
0.663734	2.56797	0.556413	2.1519									0.917218	3.54883						
0.665429	2.56528	0.558488	2.15217									0.918752	3.542						
0.667125	2.56262	0.560564	2.15244									0.920286	3.53522						
0.668824	2.55998	0.562639	2.15271									0.921818	3.52847						
0.670524	2.55737	0.564715	2.15298									0.923348	3.52177						
0.672227	2.55478	0.56679	2.15324									0.924878	3.51511						
0.673931	2.55222	0.568866	2.1535									0.926406	3.5085						
0.675637	2.54969	0.570941	2.15376									0.927933	3.50193						
0.677345	2.54718	0.573016	2.15402									0.929459	3.49539						
0.679055	2.54469	0.575092	2.15428									0.930984	3.48891						
0.680766	2.54223	0.577167	2.15453									0.932508	3.48246						
0.68248	2.53979	0.579243	2.15479									0.934032	3.47605						
0.684195	2.53738	0.581318	2.15504									0.935554	3.46969						
0.685912	2.53498	0.583393	2.15529									0.937075	3.46336						
0.687631	2.53262	0.585469	2.15553									0.938596	3.45708						
0.689352	2.53027	0.587544	2.15578									0.940116	3.45083						
0.691074	2.52795	0.589619	2.15602									0.941635	3.44463						
0.692798	2.52565	0.591694	2.15627									0.943154	3.43847						
0.694524	2.52337	0.59377	2.15651									0.944672	3.43234						
0.696252	2.52111	0.595845	2.15674									0.946189	3.42626						
0.697981	2.51888	0.59792	2.15698									0.947706	3.42021						
0.699713	2.51666	0.599995	2.15722									0.949223	3.4142						
0.701445	2.51447	0.60207	2.15745									0.950739	3.40823						
0.70318	2.5123	0.604146	2.15768									0.952254	3.4023						
0.704916	2.51014	0.606221	2.15791									0.953769	3.39641						
0.706654	2.50801	0.608296	2.15814									0.955284	3.39056						
0.708394	2.5059	0.610371	2.15837									0.956799	3.38474						
0.710135	2.50381	0.612446	2.1586									0.958313	3.37896						
0.711878	2.50173	0.614521	2.15882									0.959827	3.37322						
0.713622	2.49968	0.616596	2.15905									0.961341	3.36751						
0.715368	2.49764	0.618671	2.15927									0.962855	3.36184						
0.717116	2.49563	0.620746	2.15949									0.964368	3.35621						
0.718866	2.49363	0.622821	2.15971									0.965882	3.35061						
0.720616	2.49165	0.624896	2.15992									0.967395	3.34505						
0.722369	2.48969	0.626971	2.16014									0.968909	3.33952						
0.724123	2.48775	0.629046	2.16035									0.970422	3.33403						
0.725879	2.48582	0.631121	2.16057									0.971935	3.32858						
0.727636	2.48392	0.633196	2.16078									0.973449	3.32316						
0.729395	2.48202	0.635271	2.16099									0.974962	3.31777						
0.731155	2.48015	0.637346	2.1612									0.976476	3.31242						
0.732917	2.4783	0.639421	2.1614									0.977989	3.3071						
0.73468	2.47646	0.641496	2.16161									0.979503	3.30182						
0.736445	2.47463	0.64357	2.16181									0.981017	3.29657						
0.738211	2.47283	0.645645	2.16202									0.982531	3.29135						
0.739979	2.47104	0.64772	2.16222									0.984046	3.28617						
0.741748	2.46926	0.649795	2.16242									0.985561	3.28102						
0.743519	2.4675	0.65187	2.16262									0.987075	3.2759						
0.745291	2.46576	0.653944	2.16282									0.988591	3.27082						
0.747065	2.46403	0.656019	2.16301									0.990106	3.26576						
0.74884	2.46232	0.658094	2.16321									0.991622	3.26074						
0.750617	2.46063	0.660169	2.1634									0.993138	3.25575						
0.752395	2.45894	0.662244	2.1636									0.994655	3.2508						
0.754174	2.45728	0.664318	2.16379									0.996172	3.24587						
0.755955	2.45563	0.666393	2.16398									0.997689	3.24098						
0.757737	2.45399	0.668468	2.16417									0.999207	3.23611						
0.759521	2.45236	0.670542	2.16436									1.00073	3.23128						
0.761306	2.45075	0.672617	2.16454																
0.763092	2.44916	0.674692	2.16473																
0.76488	2.44758	0.676766	2.16491																
0.766669	2.44601	0.678841	2.1651																
0.768459	2.44446	0.680915	2.16528																
0.770251	2.44292	0.68299	2.16546																
0.772044	2.44139	0.685065	2.16564																
0.773838	2.43987	0.687139	2.16582																
0.775634	2.43837	0.689214	2.166																
0.777431	2.43689	0.691288	2.16618																
0.779229	2.43541	0.693363	2.16635																
0.781029	2.43395	0.695437	2.16653																
0.78283	2.4325	0.697512	2.1667																
0.784632	2.43106	0.699586	2.16687																
0.786435	2.42963	0.701661	2.16705																
0.78824	2.42822	0.703735	2.16722																
0.790046	2.42682	0.70581	2.16739																
0.791853	2.42542	0.707884	2.16755																
0.793661	2.42405	0.709958	2.16772																
0.795471	2.42268	0.712033	2.16789																
0.797282	2.42132	0.714107	2.16805																
0.799094	2.41998	0.716182	2.16822																
0.800907	2.41865	0.718256	2.16838																
0.802721	2.41732	0.72033	2.16855																
0.804537	2.41601	0.722405	2.16871																
0.806354	2.41471	0.724479	2.16887																
0.808172	2.41342	0.726553	2.16903																
0.809991	2.41214	0.728628	2.16919																
0.811811	2.41088	0.730702	2.16935																
0.813633	2.40962	0.732776	2.1695																
0.815455	2.40837	0.73485	2.16966																
0.817279	2.40713	0.736925	2.16981																
0.819104	2.40591	0.738999	2.16997																
0.82093	2.40469	0.741073	2.17012																
0.822757	2.40348	0.743147	2.17028																
0.824585	2.40228	0.745222	2.17043																
0.826414	2.40109	0.747296	2.17058																
0.828245	2.39992	0.74937	2.17073																
0.830076	2.39875	0.751444	2.17088																
0.831909	2.39759	0.753518	2.17103																
0.833743	2.39644	0.755593	2.17117																
0.835577	2.3953	0.757667	2.17132																
0.837413	2.39416	0.759741	2.17147																
0.83925	2.39304	0.761815	2.17161																
0.841088	2.39193	0.763889	2.17176																
0.842927	2.39082	0.765963	2.1719																
0.844767	2.38973	0.768037	2.17204																
0.846608	2.38864	0.770111	2.17219																
0.84845	2.38756	0.772185	2.17233																
0.850293	2.38649	0.774259	2.17247																
0.852137	2.38543	0.776333	2.17261																
0.853982	2.38437	0.778407	2.17275																
0.855828	2.38333	0.780481	2.17289																
0.857675	2.38229	0.782555	2.17302																
0.859523	2.38126	0.784629	2.17316																
0.861372	2.38024	0.786703	2.1733																
0.863222	2.37923	0.788777	2.17343																
0.865073	2.37822	0.790851	2.17357																
0.866925	2.37722	0.792925	2.1737																
0.868778	2.37623	0.794999	2.17383																
0.870631	2.37525	0.797073	2.17397																
0.872486	2.37428	0.799147	2.1741																
0.874342	2.37331	0.801221	2.17423																
0.876199	2.37235	0.803295	2.17436																
0.878056	2.3714	0.805369	2.17449																
0.879915	2.37045	0.807443	2.17462																
0.881774	2.36951	0.809516	2.17475																
0.883635	2.36858	0.81159	2.17487																
0.885496	2.36766	0.813664	2.175																
0.887358	2.36674	0.815738	2.17513																
0.889221	2.36583	0.817812	2.17525																
0.891085	2.36493	0.819886	2.17538																
0.89295	2.36403	0.821959	2.1755																
0.894816	2.36314	0.824033	2.17563																
0.896682	2.36226	0.826107	2.17575																
0.89855	2.36138	0.828181	2.17587																
0.900418	2.36051	0.830254	2.17599																
0.902287	2.35965	0.832328	2.17611																
0.904157	2.35879	0.834402	2.17623																
0.906028	2.35794	0.836475	2.17635																
0.9079	2.3571	0.838549	2.17647																
0.909772	2.35626	0.840623	2.17659																
0.911646	2.35543	0.842697	2.17671																
0.91352	2.3546	0.84477	2.17683																
0.915395	2.35378	0.846844	2.17695																
0.917271	2.35297	0.848918	2.17706																
0.919148	2.35216	0.850991	2.17718																
0.921025	2.35136	0.853065	2.17729																
0.922903	2.35057	0.855138	2.17741																
0.924783	2.34978	0.857212	2.17752																
0.926663	2.34899	0.859286	2.17764																
0.928543	2.34821	0.861359	2.17775																
0.930425	2.34744	0.863433	2.17786																
0.932307	2.34667	0.865506	2.17797																
0.93419	2.34591	0.86758	2.17808																
0.936074	2.34515	0.869654	2.1782																
0.937959	2.3444	0.871727	2.17831																
0.939844	2.34366	0.873801	2.17842																
0.94173	2.34292	0.875874	2.17852																
0.943617	2.34218	0.877948	2.17863																
0.945505	2.34145	0.880021	2.17874																
0.947393	2.34073	0.882095	2.17885																
0.949282	2.34001	0.884168	2.17896																
0.951172	2.3393	0.886242	2.17906																
0.953063	2.33859	0.888315	2.17917																
0.954954	2.33788	0.890388	2.17927																
0.956846	2.33719	0.892462	2.17938																
0.958739	2.33649	0.894535	2.17948																
0.960633	2.3358	0.896609	2.17959																
0.962527	2.33512	0.898682	2.17969																
0.964422	2.33444	0.900756	2.17979																
0.966317	2.33376	0.902829	2.1799																
0.968214	2.33309	0.904902	2.18																
0.970111	2.33243	0.906976	2.1801																
0.972009	2.33177	0.909049	2.1802																
0.973907	2.33111	0.911122	2.1803																
0.975806	2.33046	0.913196	2.1804																
0.977706	2.32981	0.915269	2.1805																
0.979606	2.32917	0.917342	2.1806																
0.981508	2.32853	0.919416	2.1807																
0.983409	2.3279	0.921489	2.1808																
0.985312	2.32727	0.923562	2.1809																
0.987215	2.32665	0.925635	2.18099																
0.989119	2.32603	0.927709	2.18109																
0.991023	2.32541	0.929782	2.18119																
0.992929	2.3248	0.931855	2.18128																
0.994834	2.32419	0.933929	2.18138																
0.996741	2.32359	0.936002	2.18147																
0.998648	2.32299	0.938075	2.18157																
1.00056	2.32239	0.940148	2.18166																
		0.942221	2.18176																
		0.944295	2.18185																
		0.946368	2.18194																
		0.948441	2.18204																
		0.950514	2.18213																
		0.952587	2.18222																
		0.95466	2.18231																
		0.956733	2.1824																
		0.958807	2.18249																
		0.96088	2.18258																
		0.962953	2.18267																
		0.965026	2.18276																
		0.967099	2.18285																
		0.969172	2.18294																
		0.971245	2.18303																
		0.973318	2.18312																
		0.975391	2.1832																
		0.977464	2.18329																
		0.979537	2.18338																
		0.98161	2.18346																
		0.983683	2.18355																
		0.985756	2.18364																
		0.987829	2.18372																
		0.989902	2.1838																
		0.991975	2.18389																
		0.994048	2.18397																
		0.996121	2.18406																
		0.998194	2.18414																
		1.00027	2.18422																
