Sym0		Asym0		Sym1		Sym2		Sym3		Sym4		Asym1		Asym2		Asym3		Asym4	
470  Points		496  Points		234  Points		200  Points		186  Points		130  Points		340  Points		212  Points		174  Points		110  Points	
Freq (MHz)	Vph (m/ms)	Freq (MHz)	Vph (m/ms)	Freq (MHz)	Vph (m/ms)	Freq (MHz)	Vph (m/ms)	Freq (MHz)	Vph (m/ms)	Freq (MHz)	Vph (m/ms)	Freq (MHz)	Vph (m/ms)	Freq (MHz)	Vph (m/ms)	Freq (MHz)	Vph (m/ms)	Freq (MHz)	Vph (m/ms)
0.000370811	5.14523	0.00044668	0.182197	0.279519	513.384	0.467218	635.074	0.559023	1110.59	0.838528	1852.34	0.139794	228.069	0.419263	2692.78	0.698773	2260.08	0.934423	7331.58
0.00516462	5.14525	0.000847318	0.250439	0.279586	189.401	0.467244	280.226	0.559064	389.578	0.838551	605.723	0.140009	90.6416	0.419295	385.596	0.698795	563.147	0.934429	882.247
0.00995826	5.14517	0.00137091	0.317706	0.279715	116.168	0.467292	179.791	0.559144	236.25	0.838598	362.077	0.140408	56.6998	0.419373	207.704	0.698845	321.667	0.934444	469.371
0.0147514	5.14498	0.00201362	0.383786	0.279906	83.8154	0.467359	132.367	0.559264	169.554	0.838668	258.229	0.140988	41.3694	0.419498	142.165	0.698921	225.149	0.934468	319.746
0.019544	5.14471	0.00277105	0.448504	0.280158	65.5916	0.467448	104.751	0.559424	132.247	0.838762	200.686	0.141747	32.6627	0.419671	108.093	0.699025	173.199	0.934501	242.461
0.0243357	5.14438	0.00363795	0.511659	0.280471	53.9063	0.467557	86.6784	0.559623	108.416	0.838879	164.127	0.14268	27.0668	0.41989	87.2194	0.699155	140.741	0.934544	195.269
0.0291263	5.14396	0.0046089	0.573118	0.280845	45.7803	0.467688	73.9327	0.559861	91.878	0.83902	138.845	0.143783	23.1791	0.420155	73.123	0.699313	118.541	0.934595	163.459
0.0339158	5.14348	0.00567806	0.632759	0.28128	39.8057	0.467839	64.4624	0.560138	79.7325	0.839184	120.321	0.145049	20.3298	0.420468	62.9672	0.699497	102.4	0.934656	140.564
0.0387037	5.14292	0.00683938	0.690485	0.281775	35.2306	0.468012	57.1495	0.560454	70.4361	0.839371	106.166	0.146473	18.1582	0.420827	55.3046	0.699708	90.1368	0.934726	123.298
0.04349	5.14229	0.00808676	0.746226	0.28233	31.6169	0.468206	51.3331	0.56081	63.0931	0.839582	94.9975	0.148049	16.4531	0.421232	49.3191	0.699947	80.5051	0.934806	109.813
0.0482742	5.14156	0.00941427	0.799949	0.282945	28.6921	0.468422	46.5969	0.561204	57.1473	0.839816	85.9619	0.149769	15.0826	0.421684	44.5159	0.700212	72.7407	0.934895	98.9893
0.0530565	5.14077	0.0108159	0.851627	0.283618	26.2776	0.46866	42.6662	0.561637	52.2355	0.840074	78.5018	0.151627	13.9599	0.422181	40.5774	0.700504	66.3492	0.934994	90.1103
0.0578363	5.1399	0.012286	0.901261	0.284349	24.2519	0.468919	39.352	0.562108	48.1105	0.840355	72.2387	0.153616	13.0257	0.422725	37.2903	0.700822	60.9967	0.935102	82.6953
0.0626135	5.13895	0.0138189	0.948862	0.285137	22.5289	0.469201	36.5202	0.562617	44.5977	0.84066	66.9063	0.155729	12.2381	0.423314	34.5063	0.701168	56.4492	0.935219	76.41
0.0673879	5.13792	0.0154095	0.994459	0.285982	21.0464	0.469506	34.073	0.563165	41.571	0.840987	62.3119	0.15796	11.5665	0.423948	32.1187	0.70154	52.5383	0.935347	71.0146
0.0721591	5.1368	0.0170528	1.03809	0.286884	19.758	0.469834	31.9373	0.563751	38.9364	0.841338	58.3124	0.160303	10.9884	0.424628	30.0491	0.701938	49.1395	0.935484	66.3328
0.076927	5.13559	0.0187442	1.07981	0.28784	18.6285	0.470185	30.0576	0.564375	36.6228	0.841712	54.7997	0.162431	10.5473	0.425353	28.2386	0.702364	46.1586	0.935631	62.232
0.0816912	5.1343	0.0204792	1.11967	0.288852	17.6309	0.47056	28.3906	0.565036	34.5753	0.84211	51.6901	0.164304	10.2101	0.426122	26.6418	0.702815	43.5234	0.935788	58.6103
0.0864517	5.13292	0.022254	1.15773	0.289916	16.7437	0.470958	26.9024	0.565735	32.7509	0.84253	48.9183	0.165894	9.9548	0.426936	25.2233	0.703294	41.1772	0.935955	55.3886
0.0912078	5.13145	0.0240647	1.19405	0.291034	15.95	0.471381	25.5659	0.56647	31.1152	0.842974	46.4323	0.167176	9.7665	0.427793	23.9554	0.703798	39.0752	0.936133	52.5042
0.0959595	5.12989	0.0259079	1.2287	0.292203	15.2361	0.471829	24.3593	0.567243	29.6408	0.84344	44.1902	0.168132	9.63504	0.428695	22.8155	0.704329	37.1813	0.93632	49.9069
0.100706	5.12823	0.0277805	1.26176	0.293424	14.5909	0.472302	23.2646	0.568052	28.305	0.84393	42.158	0.168749	9.55385	0.42964	21.7856	0.704886	35.4664	0.936518	47.5558
0.105448	5.12647	0.0296796	1.29329	0.294694	14.0052	0.4728	22.2673	0.568898	27.0895	0.844443	40.3076	0.169645	9.44094	0.430628	20.8506	0.705469	33.9062	0.936727	45.4176
0.110185	5.12462	0.0316025	1.32335	0.296014	13.4714	0.473325	21.3549	0.56978	25.979	0.844978	38.6158	0.170629	9.32307	0.431659	19.9984	0.706079	32.4811	0.936946	43.4648
0.114915	5.12265	0.0335467	1.35202	0.297382	12.9832	0.473876	20.5173	0.570697	24.9605	0.845537	37.0632	0.171985	9.17038	0.432732	19.2185	0.706714	31.1742	0.937176	41.6742
0.11964	5.12059	0.0355103	1.37936	0.298797	12.5351	0.474453	19.7458	0.57165	24.0232	0.846118	35.6334	0.173726	8.98893	0.433847	18.5025	0.707375	29.9715	0.937416	40.0266
0.124358	5.11841	0.0374912	1.40544	0.300258	12.1226	0.475059	19.033	0.572639	23.158	0.846722	34.3125	0.175872	8.78533	0.435004	17.8428	0.708062	28.8613	0.937668	38.5055
0.129069	5.11612	0.0394874	1.43032	0.301764	11.7417	0.475692	18.3725	0.573662	22.357	0.847349	33.0886	0.178441	8.56625	0.436203	17.2334	0.708775	27.8333	0.937931	37.097
0.133772	5.11371	0.0414975	1.45406	0.303315	11.3891	0.476353	17.759	0.57472	21.6135	0.847998	31.9515	0.181456	8.33805	0.437442	16.6688	0.709513	26.8789	0.938205	35.789
0.138468	5.11117	0.0435198	1.47671	0.304908	11.062	0.477044	17.1878	0.575813	20.9215	0.84867	30.8924	0.184538	8.13153	0.438721	16.1444	0.710276	25.9905	0.938491	34.5712
0.143156	5.10852	0.0455531	1.49834	0.306544	10.7577	0.477764	16.6546	0.57694	20.2761	0.849365	29.9035	0.187683	7.94398	0.440041	15.6562	0.711066	25.1615	0.938788	33.4346
0.147834	5.10573	0.047333	1.51639	0.308004	10.5095	0.478514	16.1561	0.5781	19.6727	0.850082	28.9782	0.190888	7.77309	0.4414	15.2006	0.71188	24.3864	0.939096	32.3715
0.152504	5.1028	0.0488557	1.53121	0.309272	10.3093	0.479294	15.6889	0.579294	19.1075	0.850821	28.1106	0.194149	7.61691	0.442798	14.7747	0.71272	23.66	0.939417	31.3749
0.157164	5.09974	0.0501181	1.5431	0.310337	10.1511	0.480106	15.2504	0.580522	18.5771	0.851583	27.2955	0.197463	7.47376	0.444235	14.3758	0.713584	22.978	0.939749	30.4388
0.161813	5.09653	0.0511184	1.55227	0.31119	10.0306	0.480949	14.838	0.581782	18.0784	0.852367	26.5284	0.200828	7.3422	0.445711	14.0014	0.714474	22.3365	0.940093	29.558
0.166452	5.09316	0.0518549	1.55888	0.311823	9.94431	0.481825	14.4497	0.583075	17.6088	0.853173	25.8052	0.20424	7.22099	0.447224	13.6494	0.715388	21.7321	0.940449	28.7276
0.171079	5.08964	0.0523267	1.56306	0.312231	9.89014	0.482733	14.0834	0.5844	17.1658	0.854001	25.1223	0.207698	7.10904	0.448774	13.318	0.716327	21.1617	0.940818	27.9436
0.175693	5.08596	0.0530056	1.56899	0.31282	9.81365	0.483675	13.7375	0.585757	16.7474	0.854851	24.4765	0.211198	7.00543	0.450362	13.0056	0.717291	20.6225	0.941199	27.2022
0.180295	5.0821	0.0537442	1.57534	0.313466	9.73231	0.48465	13.4103	0.587146	16.3515	0.855724	23.8648	0.214738	6.90933	0.451986	12.7105	0.718279	20.1122	0.941593	26.5
0.184883	5.07806	0.05475	1.58381	0.314351	9.62457	0.48566	13.1005	0.588566	15.9765	0.856618	23.2847	0.218316	6.82001	0.453646	12.4314	0.719292	19.6285	0.941999	25.834
0.189456	5.07383	0.056024	1.59427	0.315484	9.4929	0.486705	12.8069	0.590018	15.6209	0.857534	22.7339	0.22193	6.73685	0.455341	12.1673	0.720329	19.1694	0.942418	25.2015
0.194014	5.06941	0.0575672	1.60654	0.316871	9.34014	0.487786	12.5282	0.5915	15.2831	0.858471	22.2102	0.225579	6.65926	0.457072	11.9168	0.721389	18.7332	0.94285	24.6002
0.198556	5.06478	0.0593808	1.62044	0.318525	9.16944	0.488903	12.2634	0.593012	14.962	0.85943	21.7116	0.22926	6.58676	0.458837	11.6791	0.722474	18.3181	0.943295	24.0277
0.20308	5.05993	0.0614659	1.63575	0.320455	8.98405	0.490057	12.0116	0.594555	14.6564	0.860411	21.2366	0.232972	6.5189	0.460637	11.4533	0.723582	17.9228	0.943753	23.4821
0.207587	5.05487	0.0635548	1.65042	0.32242	8.80904	0.491248	11.772	0.596127	14.3652	0.861413	20.7834	0.236712	6.45529	0.46247	11.2386	0.724714	17.546	0.944225	22.9615
0.212073	5.04957	0.0656468	1.66448	0.324419	8.64363	0.492478	11.5437	0.597729	14.0875	0.862437	20.3506	0.240481	6.39555	0.464336	11.0341	0.72587	17.1863	0.94471	22.4644
0.21654	5.04402	0.0677416	1.67795	0.326452	8.4871	0.493745	11.3261	0.599361	13.8225	0.863482	19.9369	0.244275	6.33939	0.466235	10.8392	0.727049	16.8426	0.945209	21.9891
0.220985	5.03821	0.0698388	1.69088	0.328517	8.3388	0.495052	11.1184	0.601021	13.5692	0.864548	19.5412	0.248095	6.28651	0.467916	10.6768	0.728251	16.5141	0.945721	21.5342
0.225407	5.03213	0.0719381	1.70328	0.330614	8.19816	0.496398	10.9202	0.602709	13.327	0.865635	19.1622	0.251938	6.23665	0.469368	10.5434	0.729476	16.1996	0.946247	21.0986
0.229804	5.02578	0.0740391	1.71519	0.332743	8.06464	0.497604	10.7546	0.604427	13.0952	0.866743	18.799	0.255803	6.18957	0.470582	10.4365	0.730725	15.8984	0.946787	20.681
0.234176	5.01912	0.0761415	1.72663	0.334904	7.93775	0.498656	10.6185	0.606172	12.8731	0.867872	18.4507	0.259689	6.14507	0.47155	10.3541	0.731995	15.6096	0.947341	20.2804
0.238521	5.01216	0.0782451	1.73762	0.337095	7.81708	0.499543	10.5093	0.607944	12.6603	0.869022	18.1163	0.263595	6.10295	0.472267	10.2946	0.733289	15.3326	0.94791	19.8957
0.242837	5.00487	0.0803498	1.74819	0.339318	7.70221	0.500256	10.4251	0.609745	12.4561	0.870193	17.795	0.26752	6.06304	0.472728	10.257	0.734605	15.0666	0.948492	19.5261
0.247123	4.99724	0.0824552	1.75835	0.341571	7.59278	0.500786	10.3642	0.611572	12.2601	0.871384	17.4862	0.271463	6.02518	0.473393	10.2037	0.735943	14.811	0.94909	19.1707
0.251377	4.98926	0.0845613	1.76813	0.343855	7.48846	0.501128	10.3258	0.613426	12.0718	0.872595	17.1892	0.275423	5.98921	0.474119	10.1466	0.737304	14.5653	0.949701	18.8287
0.255597	4.9809	0.0866678	1.77755	0.34617	7.38896	0.501623	10.2712	0.615307	11.8908	0.873827	16.9032	0.279399	5.95502	0.475114	10.0703	0.738686	14.3288	0.950328	18.4994
0.259781	4.97216	0.0887747	1.78662	0.348517	7.29398	0.502167	10.2128	0.617214	11.7167	0.87508	16.6278	0.28339	5.92248	0.476382	9.97616	0.74009	14.1012	0.950969	18.1821
0.263927	4.96302	0.0908818	1.79536	0.350894	7.20328	0.502915	10.1347	0.619147	11.5491	0.876352	16.3623	0.287395	5.89147	0.47793	9.86559	0.741516	13.882	0.951626	17.8763
0.268034	4.95346	0.0929889	1.80379	0.353303	7.11663	0.503875	10.0383	0.621105	11.3877	0.877645	16.1062	0.291414	5.86189	0.479767	9.74026	0.742964	13.6706	0.952297	17.5812
0.272098	4.94346	0.0950961	1.81192	0.355745	7.0338	0.505057	9.92498	0.62309	11.2322	0.878958	15.8592	0.295445	5.83365	0.481902	9.60199	0.744432	13.4668	0.952984	17.2963
0.276119	4.93301	0.0972033	1.81976	0.35822	6.95462	0.506474	9.79652	0.625099	11.0823	0.88029	15.6206	0.299488	5.80666	0.484066	9.46931	0.745922	13.2701	0.953686	17.0212
0.280094	4.9221	0.0993103	1.82734	0.360728	6.87889	0.50814	9.65476	0.62687	10.956	0.881643	15.3902	0.303543	5.78084	0.486258	9.34193	0.747433	13.0801	0.954404	16.7554
0.284021	4.9107	0.101417	1.83465	0.363271	6.80645	0.50985	9.51873	0.628395	10.8514	0.883015	15.1674	0.307607	5.75612	0.488478	9.21955	0.748965	12.8967	0.955137	16.4984
0.287897	4.89881	0.103524	1.84171	0.365849	6.73715	0.511603	9.38816	0.629666	10.7669	0.884406	14.9521	0.311682	5.73242	0.490725	9.10191	0.750517	12.7193	0.955886	16.2499
0.291721	4.88641	0.10563	1.84854	0.368464	6.67086	0.5134	9.26277	0.630677	10.7014	0.885818	14.7437	0.315765	5.70969	0.492999	8.98875	0.75209	12.5479	0.956651	16.0093
0.29549	4.87349	0.107736	1.85515	0.371117	6.60743	0.515241	9.1423	0.631424	10.654	0.887248	14.542	0.319858	5.68786	0.4953	8.87986	0.753684	12.382	0.957431	15.7764
0.299203	4.86004	0.109841	1.86154	0.373809	6.54675	0.517126	9.02652	0.631904	10.6239	0.888698	14.3467	0.323957	5.66688	0.497626	8.77499	0.755297	12.2214	0.958228	15.5508
0.302857	4.84605	0.111946	1.86773	0.376541	6.48872	0.519055	8.91521	0.632597	10.5811	0.890166	14.1574	0.328064	5.64669	0.499978	8.67397	0.756931	12.066	0.959041	15.3321
0.306451	4.83153	0.114051	1.87371	0.379314	6.43323	0.521029	8.80816	0.633352	10.5351	0.891654	13.974	0.332178	5.62725	0.502356	8.57658	0.758584	11.9154	0.959871	15.1202
0.309532	4.81842	0.116155	1.87952	0.382131	6.38018	0.523047	8.70517	0.634384	10.4734	0.893161	13.7962	0.336298	5.60852	0.504758	8.48267	0.760257	11.7694	0.960717	14.9146
0.31212	4.80693	0.118259	1.88514	0.384992	6.32948	0.52511	8.60606	0.635697	10.3968	0.894686	13.6237	0.340423	5.59046	0.507185	8.39205	0.76195	11.6279	0.961579	14.7152
0.314234	4.7972	0.120362	1.89059	0.387898	6.28106	0.527218	8.51065	0.637297	10.3063	0.896231	13.4563	0.344553	5.57301	0.509636	8.30458	0.763662	11.4906	0.962459	14.5216
0.315888	4.78936	0.122465	1.89587	0.390851	6.23482	0.52937	8.41877	0.63919	10.203	0.897793	13.2938	0.348688	5.55616	0.51211	8.2201	0.765393	11.3575	0.963355	14.3336
0.317094	4.78351	0.124567	1.901	0.393853	6.19069	0.531567	8.33027	0.641384	10.088	0.899374	13.136	0.352826	5.53986	0.514608	8.13848	0.766917	11.2446	0.964268	14.151
0.317861	4.77973	0.126669	1.90597	0.396904	6.1486	0.533808	8.24501	0.643601	9.97663	0.900974	12.9827	0.356968	5.52408	0.517128	8.05958	0.768228	11.1507	0.965198	13.9736
0.318959	4.77426	0.12877	1.9108	0.400005	6.10847	0.536093	8.16284	0.64584	9.86882	0.902592	12.8337	0.361113	5.50879	0.519671	7.98329	0.76932	11.0745	0.966146	13.8012
0.320143	4.76824	0.130871	1.91549	0.403157	6.07024	0.538422	8.08363	0.648102	9.76437	0.904228	12.6889	0.36526	5.49397	0.522236	7.90949	0.770188	11.0153	0.96711	13.6335
0.32174	4.75994	0.132972	1.92005	0.406361	6.03384	0.540795	8.00725	0.650386	9.66314	0.905881	12.548	0.369409	5.47958	0.524823	7.83807	0.770829	10.9722	0.968093	13.4704
0.323738	4.74928	0.135071	1.92448	0.409617	5.99919	0.543212	7.93359	0.652692	9.565	0.907553	12.411	0.373559	5.46561	0.527432	7.76893	0.77124	10.9449	0.969093	13.3118
0.326119	4.73613	0.137171	1.92879	0.412925	5.96623	0.545672	7.86252	0.65502	9.46981	0.909242	12.2777	0.37771	5.45203	0.530061	7.70196	0.771834	10.9059	0.97011	13.1574
0.328865	4.72035	0.139269	1.93298	0.416286	5.9349	0.548174	7.79395	0.657369	9.37746	0.91095	12.1479	0.381862	5.43881	0.532712	7.63708	0.772481	10.864	0.971146	13.007
0.331952	4.70178	0.141368	1.93705	0.4197	5.90513	0.550719	7.72776	0.65974	9.28783	0.912674	12.0215	0.386014	5.42594	0.535383	7.5742	0.773365	10.8076	0.972199	12.8607
0.334972	4.68276	0.143466	1.94102	0.423165	5.87684	0.553306	7.66387	0.662131	9.20082	0.914416	11.8985	0.390165	5.4134	0.538074	7.51324	0.774489	10.7375	0.973271	12.7181
0.337924	4.66329	0.145563	1.94488	0.426681	5.84999	0.555935	7.60218	0.664543	9.11631	0.916175	11.7785	0.394315	5.40116	0.540785	7.45412	0.775857	10.6542	0.974361	12.5792
0.34081	4.64341	0.14766	1.94864	0.430248	5.82449	0.558605	7.54259	0.666976	9.03422	0.917952	11.6617	0.398464	5.38921	0.543515	7.39677	0.777475	10.5587	0.975469	12.4438
0.34363	4.62314	0.149756	1.9523	0.433864	5.80028	0.561315	7.48502	0.669429	8.95444	0.919514	11.5623	0.402611	5.37754	0.546265	7.34111	0.779349	10.4519	0.976596	12.3119
0.346384	4.60251	0.151852	1.95587	0.437529	5.77731	0.564066	7.4294	0.671903	8.8769	0.920855	11.4793	0.406756	5.36612	0.549034	7.28708	0.78124	10.348	0.977741	12.1832
0.349076	4.58156	0.153948	1.95934	0.44124	5.7555	0.566856	7.37564	0.674396	8.8015	0.921972	11.4118	0.410898	5.35494	0.551822	7.23462	0.783149	10.2468	0.978905	12.0577
0.351705	4.5603	0.156043	1.96274	0.444996	5.73481	0.569685	7.32367	0.676909	8.72817	0.922859	11.3591	0.415036	5.34399	0.554628	7.18366	0.785075	10.1483	0.980088	11.9353
0.354275	4.53879	0.158138	1.96604	0.448796	5.71515	0.572553	7.27342	0.679442	8.65683	0.923514	11.3208	0.419171	5.33325	0.557453	7.13416	0.787019	10.0523	0.981289	11.8159
0.356785	4.51703	0.160232	1.96927	0.452637	5.69648	0.575459	7.22482	0.681994	8.5874	0.923934	11.2965	0.423302	5.32271	0.560296	7.08605	0.78898	9.95888	0.982352	11.7142
0.359239	4.49508	0.162326	1.97242	0.456519	5.67875	0.578402	7.17781	0.684565	8.51983	0.92454	11.2617	0.427428	5.31236	0.563156	7.03928	0.790958	9.8678	0.98327	11.6291
0.361638	4.47295	0.164419	1.97549	0.460438	5.66189	0.581381	7.13232	0.687155	8.45404	0.9252	11.2243	0.43155	5.30219	0.566034	6.99381	0.792952	9.77901	0.984036	11.5599
0.363984	4.45068	0.166512	1.97849	0.464394	5.64585	0.584397	7.0883	0.689764	8.38996	0.926102	11.1739	0.435665	5.29217	0.56893	6.94958	0.794964	9.69245	0.984648	11.506
0.366279	4.4283	0.168605	1.98142	0.468384	5.63058	0.587448	7.04568	0.692392	8.32755	0.927247	11.111	0.439775	5.28231	0.571843	6.90657	0.796992	9.60804	0.9851	11.4667
0.368526	4.40583	0.170697	1.98428	0.472407	5.61604	0.590534	7.00442	0.695038	8.26674	0.928641	11.0361	0.443879	5.2726	0.574773	6.86471	0.799036	9.52569	0.985391	11.4417
0.370726	4.38331	0.172789	1.98708	0.47646	5.60217	0.593654	6.96446	0.697702	8.20748	0.930288	10.95	0.447975	5.26301	0.57772	6.82397	0.801097	9.44534	0.985811	11.406
0.372882	4.36075	0.174881	1.98981	0.480542	5.58894	0.596807	6.92575	0.700385	8.14971	0.932192	10.8534	0.452065	5.25355	0.580684	6.78432	0.803173	9.36693	0.98627	11.3676
0.374994	4.33819	0.176972	1.99248	0.484651	5.57631	0.599993	6.88825	0.703085	8.0934	0.934113	10.7591	0.456146	5.2442	0.583665	6.74571	0.805266	9.29039	0.986898	11.3158
0.377066	4.31565	0.179063	1.9951	0.488786	5.56423	0.603211	6.85191	0.705804	8.03847	0.93605	10.6669	0.46022	5.23496	0.586662	6.70812	0.807375	9.21566	0.987699	11.2511
0.3791	4.29314	0.181153	1.99765	0.492943	5.55267	0.606461	6.81668	0.708539	7.9849	0.938003	10.5769	0.464284	5.22581	0.589675	6.6715	0.809499	9.14267	0.988677	11.1742
0.381096	4.27069	0.183244	2.00015	0.497123	5.54159	0.609742	6.78252	0.711293	7.93264	0.939971	10.4889	0.46834	5.21675	0.592705	6.63583	0.811639	9.07139	0.989839	11.0856
0.383057	4.24831	0.185333	2.0026	0.501323	5.53096	0.613052	6.7494	0.714064	7.88165	0.941955	10.4029	0.472385	5.20777	0.595751	6.60107	0.813794	9.00174	0.991191	10.9861
0.384985	4.22602	0.187423	2.00499	0.505541	5.52075	0.616393	6.71728	0.716852	7.83188	0.943955	10.3188	0.476421	5.19886	0.598812	6.5672	0.815964	8.93368	0.992562	10.8888
0.386882	4.20385	0.189512	2.00733	0.509777	5.51094	0.619762	6.6861	0.719657	7.7833	0.94597	10.2366	0.480446	5.19001	0.60189	6.53419	0.81815	8.86716	0.993954	10.7938
0.388748	4.18179	0.191601	2.00963	0.514029	5.50149	0.623159	6.65586	0.722479	7.73587	0.948	10.1561	0.48446	5.18123	0.604984	6.50201	0.820351	8.80213	0.995366	10.7009
0.390586	4.15987	0.19369	2.01187	0.518295	5.49238	0.626584	6.6265	0.725318	7.68956	0.950046	10.0775	0.488462	5.17249	0.608094	6.47064	0.822567	8.73854	0.996798	10.61
0.392396	4.13809	0.195778	2.01408	0.522575	5.4836	0.630036	6.59799	0.728174	7.64433	0.952107	10.0005	0.492453	5.1638	0.611219	6.44005	0.824797	8.67636	0.99825	10.5211
0.394182	4.11647	0.197866	2.01623	0.526866	5.4751	0.633515	6.57031	0.731046	7.60015	0.954183	9.92516	0.49643	5.15515	0.61436	6.41022	0.827042	8.61554	0.999723	10.4342
0.395943	4.09502	0.199954	2.01835	0.531169	5.46688	0.637019	6.54343	0.733935	7.55698	0.956273	9.85143	0.500395	5.14653	0.617517	6.38112	0.829302	8.55604	1.00122	10.3491
0.397681	4.07374	0.202042	2.02042	0.535481	5.45892	0.640548	6.51731	0.73684	7.5148	0.958378	9.77926	0.504346	5.13793	0.62069	6.35275	0.831576	8.49782		
0.399398	4.05265	0.204129	2.02245	0.539803	5.4512	0.644102	6.49193	0.739761	7.47358	0.960498	9.70859	0.508284	5.12935	0.623878	6.32506	0.833865	8.44084		
0.401094	4.03174	0.206216	2.02444	0.544131	5.44369	0.647681	6.46726	0.742699	7.43329	0.962633	9.63939	0.512206	5.12079	0.627082	6.29805	0.836168	8.38507		
0.40277	4.01103	0.208303	2.02639	0.548467	5.43639	0.651282	6.44328	0.745653	7.39391	0.964782	9.5716	0.516114	5.11224	0.630301	6.2717	0.838485	8.33047		
0.404429	3.99052	0.21039	2.02831	0.552809	5.42929	0.654907	6.41996	0.748622	7.3554	0.966945	9.50521	0.520006	5.10369	0.633536	6.24599	0.840816	8.27701		
0.40607	3.97022	0.212476	2.03018	0.557155	5.42236	0.658553	6.39728	0.751608	7.31775	0.969122	9.44015	0.523883	5.09515	0.636787	6.22089	0.843161	8.22466		
0.407695	3.95012	0.214562	2.03203	0.561506	5.4156	0.662222	6.37522	0.754609	7.28092	0.971314	9.3764	0.527742	5.0866	0.640053	6.1964	0.845519	8.17339		
0.409305	3.93024	0.216648	2.03384	0.56586	5.40899	0.665912	6.35375	0.757626	7.2449	0.973519	9.31392	0.531585	5.07803	0.643335	6.1725	0.847892	8.12316		
0.4109	3.91057	0.218734	2.03561	0.570217	5.40252	0.669622	6.33286	0.760659	7.20967	0.975738	9.25267	0.535411	5.06946	0.646633	6.14917	0.850278	8.07396		
0.412481	3.89112	0.22082	2.03736	0.574576	5.39618	0.673353	6.31252	0.763708	7.1752	0.977971	9.19263	0.539218	5.06087	0.649946	6.1264	0.852678	8.02574		
0.41405	3.87189	0.222905	2.03907	0.578935	5.38996	0.677104	6.29272	0.766772	7.14148	0.980218	9.13376	0.543008	5.05225	0.653275	6.10417	0.855091	7.97849		
0.415607	3.85288	0.22499	2.04075	0.583296	5.38386	0.680873	6.27343	0.769851	7.10848	0.982478	9.07602	0.546778	5.04361	0.65662	6.08247	0.857518	7.93217		
0.417152	3.83409	0.227075	2.0424	0.587656	5.37786	0.684662	6.25465	0.772946	7.07618	0.984751	9.0194	0.550529	5.03494	0.65998	6.06129	0.859958	7.88677		
0.418687	3.81552	0.22916	2.04402	0.592016	5.37195	0.688469	6.23634	0.776057	7.04457	0.987038	8.96385	0.554261	5.02624	0.663356	6.04061	0.862411	7.84226		
0.420211	3.79717	0.231244	2.04561	0.596374	5.36614	0.692293	6.21851	0.779183	7.01363	0.989338	8.90935	0.557972	5.0175	0.666748	6.02041	0.864878	7.79862		
0.421727	3.77905	0.233329	2.04718	0.600731	5.3604	0.696135	6.20112	0.782324	6.98334	0.991651	8.85588	0.561663	5.00873	0.670156	6.0007	0.867357	7.75582		
0.423233	3.76115	0.235413	2.04872	0.605085	5.35473	0.699994	6.18417	0.78548	6.95368	0.993977	8.8034	0.565333	4.99992	0.673579	5.98145	0.86985	7.71384		
0.424731	3.74347	0.237497	2.05023	0.609436	5.34914	0.703869	6.16764	0.788652	6.92465	0.996316	8.7519	0.568982	4.99106	0.677018	5.96266	0.872355	7.67267		
0.426222	3.72601	0.239581	2.05172	0.613784	5.3436	0.70776	6.15151	0.791839	6.89622	0.998667	8.70134	0.572609	4.98215	0.680473	5.94431	0.874874	7.63228		
0.427705	3.70877	0.241664	2.05318	0.618128	5.33812	0.711667	6.13578	0.795042	6.86837	1.00103	8.65171	0.576213	4.9732	0.683943	5.92639	0.877405	7.59265		
0.429182	3.69174	0.243748	2.05462	0.622468	5.33269	0.715589	6.12043	0.79826	6.84111			0.579796	4.9642	0.687429	5.90889	0.879949	7.55376		
0.430652	3.67494	0.245831	2.05603	0.626803	5.3273	0.719525	6.10544	0.801493	6.81441			0.583355	4.95515	0.690931	5.89181	0.882506	7.5156		
0.432116	3.65835	0.247914	2.05743	0.631132	5.32196	0.723476	6.09082	0.804741	6.78825			0.586891	4.94604	0.694448	5.87512	0.885076	7.47815		
0.433576	3.64198	0.249997	2.05879	0.635456	5.31665	0.727441	6.07653	0.808005	6.76263			0.590404	4.93689	0.697981	5.85883	0.887658	7.44139		
0.43503	3.62581	0.25208	2.06014	0.639773	5.31137	0.731419	6.06258	0.811284	6.73754			0.593893	4.92767	0.701529	5.84292	0.890253	7.4053		
0.436479	3.60986	0.254163	2.06146	0.644085	5.30612	0.73541	6.04895	0.814578	6.71296			0.597358	4.9184	0.705093	5.82738	0.89286	7.36987		
0.437924	3.59412	0.256246	2.06277	0.648389	5.30089	0.739414	6.03563	0.817888	6.68887			0.600799	4.90907	0.708672	5.8122	0.89548	7.33509		
0.439366	3.57859	0.258328	2.06405	0.652686	5.29568	0.74343	6.02261	0.821213	6.66528			0.604216	4.89969	0.712266	5.79738	0.898112	7.30093		
0.440804	3.56326	0.260411	2.06532	0.656975	5.29049	0.747459	6.00988	0.824554	6.64217			0.607608	4.89025	0.715875	5.78291	0.900757	7.26739		
0.442238	3.54813	0.262493	2.06656	0.661256	5.28531	0.751498	5.99743	0.82791	6.61952			0.610974	4.88075	0.7195	5.76877	0.903414	7.23444		
0.44367	3.53321	0.264575	2.06778	0.665529	5.28014	0.755549	5.98526	0.831282	6.59733			0.614316	4.87119	0.723139	5.75495	0.906084	7.20209		
0.445098	3.51848	0.266657	2.06899	0.669793	5.27498	0.759611	5.97335	0.834669	6.57559			0.617633	4.86157	0.726792	5.74146	0.908765	7.1703		
0.446525	3.50395	0.268739	2.07018	0.674048	5.26982	0.763683	5.96169	0.838072	6.55429			0.620924	4.8519	0.730461	5.72828	0.911459	7.13908		
0.447949	3.48961	0.27082	2.07135	0.678294	5.26467	0.767764	5.95027	0.84149	6.53342			0.62419	4.84216	0.734143	5.71539	0.914166	7.1084		
0.449371	3.47547	0.272902	2.0725	0.68253	5.25951	0.771856	5.9391	0.844925	6.51298			0.627431	4.83238	0.73784	5.70281	0.916884	7.07826		
0.450792	3.46151	0.274983	2.07363	0.686755	5.25435	0.775957	5.92816	0.848375	6.49294			0.630646	4.82253	0.74155	5.69051	0.919615	7.04864		
0.452211	3.44774	0.277065	2.07475	0.690971	5.24919	0.780067	5.91743	0.851842	6.47331			0.633835	4.81263	0.745274	5.67849	0.922358	7.01953		
0.453629	3.43416	0.279146	2.07586	0.695176	5.24401	0.784185	5.90693	0.855324	6.45408			0.636999	4.80268	0.749012	5.66674	0.925112	6.99093		
0.455046	3.42076	0.281227	2.07694	0.69937	5.23883	0.788311	5.89663	0.858822	6.43524			0.640137	4.79267	0.752762	5.65525	0.927879	6.96282		
0.456462	3.40753	0.283308	2.07801	0.703553	5.23364	0.792446	5.88653	0.862337	6.41678			0.64325	4.78262	0.756526	5.64402	0.930658	6.93518		
0.457877	3.39449	0.285389	2.07907	0.707725	5.22843	0.796587	5.87662	0.865868	6.39869			0.646337	4.77251	0.760302	5.63304	0.93345	6.90802		
0.459292	3.38162	0.28747	2.08011	0.711885	5.22321	0.800736	5.8669	0.869416	6.38097			0.649399	4.76235	0.764091	5.6223	0.936253	6.88132		
0.460707	3.36893	0.289551	2.08113	0.716032	5.21798	0.804892	5.85737	0.872979	6.36361			0.652435	4.75215	0.767891	5.61179	0.939068	6.85507		
0.462121	3.3564	0.291632	2.08215	0.720168	5.21272	0.809054	5.848	0.87656	6.34661			0.655446	4.7419	0.771703	5.60151	0.941895	6.82926		
0.463535	3.34405	0.293712	2.08314	0.724291	5.20745	0.813222	5.83881	0.880157	6.32995			0.658431	4.7316	0.775527	5.59145	0.944734	6.80388		
0.46495	3.33186	0.295793	2.08413	0.728402	5.20216	0.817396	5.82978	0.883771	6.31364			0.661392	4.72127	0.779362	5.5816	0.947585	6.77893		
0.466365	3.31983	0.297873	2.0851	0.732499	5.19684	0.821575	5.8209	0.887402	6.29766			0.664327	4.71089	0.783207	5.57197	0.950447	6.75439		
0.46778	3.30796	0.299953	2.08605	0.736584	5.1915	0.825759	5.81218	0.891049	6.28201			0.667238	4.70048	0.787063	5.56253	0.953322	6.73025		
0.469195	3.29626	0.302033	2.087	0.740655	5.18614	0.829948	5.80361	0.894714	6.26668			0.670124	4.69002	0.790929	5.55328	0.956209	6.70652		
0.470612	3.28471	0.304113	2.08793	0.744712	5.18075	0.834141	5.79517	0.898396	6.25168			0.672985	4.67954	0.794805	5.54423	0.959107	6.68317		
0.472029	3.27331	0.306193	2.08885	0.748756	5.17534	0.838338	5.78687	0.902096	6.23698			0.675822	4.66902	0.79869	5.53535	0.962017	6.66021		
0.473447	3.26207	0.308273	2.08975	0.752786	5.1699	0.842538	5.7787	0.905812	6.2226			0.678635	4.65847	0.802584	5.52665	0.964939	6.63763		
0.474866	3.25097	0.310353	2.09065	0.756801	5.16443	0.846742	5.77066	0.909547	6.20851			0.681425	4.64789	0.806487	5.51813	0.967873	6.61541		
0.476286	3.24003	0.312433	2.09153	0.760803	5.15894	0.850949	5.76274	0.913298	6.19472			0.68419	4.63728	0.810398	5.50976	0.970818	6.59355		
0.477707	3.22923	0.314513	2.0924	0.764789	5.15341	0.855159	5.75494	0.917068	6.18123			0.686932	4.62665	0.814317	5.50156	0.973775	6.57205		
0.479129	3.21857	0.316592	2.09326	0.768761	5.14786	0.859371	5.74725	0.920855	6.16802			0.689651	4.61599	0.818243	5.4935	0.976744	6.55089		
0.480553	3.20806	0.318672	2.09411	0.772718	5.14227	0.863585	5.73967	0.92466	6.1551			0.692347	4.60532	0.822176	5.4856	0.979724	6.53008		
0.481978	3.19768	0.320751	2.09495	0.77666	5.13666	0.867801	5.73219	0.928483	6.14245			0.69502	4.59462	0.826117	5.47784	0.982716	6.50959		
0.483404	3.18745	0.32283	2.09578	0.780587	5.13101	0.872018	5.72481	0.932324	6.13007			0.69767	4.58391	0.830063	5.47021	0.985719	6.48944		
0.484833	3.17734	0.32491	2.0966	0.784498	5.12533	0.876236	5.71753	0.936182	6.11797			0.700298	4.57318	0.834016	5.46272	0.988734	6.4696		
0.486262	3.16737	0.326989	2.0974	0.788394	5.11962	0.880455	5.71035	0.940059	6.10612			0.702904	4.56244	0.837974	5.45535	0.991761	6.45009		
0.487694	3.15754	0.329068	2.0982	0.792274	5.11388	0.884675	5.70325	0.943954	6.09454			0.705489	4.55169	0.841938	5.44811	0.994799	6.43088		
0.489127	3.14783	0.331147	2.09899	0.796139	5.1081	0.888895	5.69625	0.947868	6.08321			0.708052	4.54093	0.845906	5.44099	0.997849	6.41197		
0.490562	3.13824	0.333226	2.09977	0.799988	5.1023	0.893115	5.68932	0.951799	6.07214			0.710594	4.53016	0.84988	5.43398	1.00091	6.39336		
0.491999	3.12879	0.335305	2.10053	0.80382	5.09646	0.897335	5.68248	0.955748	6.0613			0.713114	4.51939	0.853857	5.42708				
0.493438	3.11946	0.337384	2.10129	0.807637	5.09058	0.901554	5.67571	0.959716	6.05072			0.715615	4.50862	0.857838	5.42028				
0.494879	3.11024	0.339463	2.10204	0.811437	5.08468	0.905773	5.66901	0.963702	6.04036			0.718094	4.49784	0.861822	5.41359				
0.496321	3.10115	0.341542	2.10278	0.815222	5.07874	0.90999	5.66239	0.967706	6.03025			0.720554	4.48706	0.86581	5.40699				
0.497766	3.09218	0.34362	2.10351	0.818989	5.07277	0.914207	5.65584	0.971728	6.02036			0.722994	4.47628	0.8698	5.40049				
0.499213	3.08332	0.345699	2.10424	0.82274	5.06676	0.918422	5.64936	0.975768	6.01069			0.725414	4.46551	0.873793	5.39408				
0.500662	3.07458	0.347777	2.10495	0.826475	5.06073	0.922636	5.64294	0.979827	6.00125			0.727815	4.45474	0.877787	5.38775				
0.502114	3.06595	0.349856	2.10566	0.830193	5.05465	0.926848	5.63658	0.983903	5.99202			0.730198	4.44398	0.881784	5.3815				
0.503567	3.05743	0.351934	2.10636	0.833894	5.04855	0.931058	5.63028	0.987997	5.98301			0.732561	4.43322	0.885781	5.37534				
0.505023	3.04902	0.354013	2.10705	0.837579	5.04242	0.935266	5.62404	0.992109	5.9742			0.734906	4.42248	0.88978	5.36924				
0.506481	3.04072	0.356091	2.10773	0.841247	5.03625	0.939472	5.61786	0.996238	5.9656			0.737233	4.41175	0.893779	5.36322				
0.507941	3.03253	0.358169	2.1084	0.844898	5.03005	0.943675	5.61173	1.00039	5.95719			0.739542	4.40103	0.897779	5.35727				
0.509404	3.02444	0.360248	2.10907	0.848532	5.02382	0.947876	5.60565					0.741834	4.39032	0.901778	5.35139				
0.510869	3.01645	0.362326	2.10973	0.852149	5.01756	0.952074	5.59962					0.744108	4.37963	0.905778	5.34557				
0.512337	3.00856	0.364404	2.11038	0.855749	5.01126	0.95627	5.59365					0.746365	4.36896	0.909776	5.3398				
0.513807	3.00078	0.366482	2.11102	0.859332	5.00494	0.960463	5.58772					0.748605	4.3583	0.913774	5.3341				
0.515279	2.99309	0.36856	2.11166	0.862898	4.99858	0.964653	5.58184					0.750829	4.34767	0.91777	5.32845				
0.516754	2.9855	0.370638	2.11229	0.866447	4.9922	0.96884	5.57601					0.753037	4.33705	0.921765	5.32285				
0.518231	2.978	0.372716	2.11291	0.869979	4.98579	0.973023	5.57022					0.755229	4.32646	0.925758	5.3173				
0.519711	2.9706	0.374794	2.11353	0.873494	4.97934	0.977204	5.56447					0.757405	4.31589	0.929749	5.31179				
0.521193	2.96329	0.376871	2.11414	0.876992	4.97287	0.981382	5.55877					0.759566	4.30535	0.933737	5.30633				
0.522678	2.95608	0.378949	2.11474	0.880473	4.96637	0.985556	5.55311					0.761712	4.29483	0.937722	5.30091				
0.524165	2.94895	0.381027	2.11534	0.883937	4.95985	0.989727	5.54749					0.763843	4.28434	0.941705	5.29554				
0.525655	2.94191	0.383105	2.11593	0.887384	4.95329	0.993895	5.54191					0.765959	4.27388	0.945684	5.29019				
0.527147	2.93496	0.385182	2.11651	0.890814	4.94671	0.998059	5.53637					0.768061	4.26344	0.949659	5.28489				
0.528642	2.92809	0.38726	2.11709	0.894227	4.9401	1.00222	5.53086					0.770149	4.25304	0.953631	5.27962				
0.53014	2.92131	0.389337	2.11766	0.897623	4.93347							0.772223	4.24266	0.957598	5.27437				
0.53164	2.91461	0.391415	2.11822	0.901002	4.92682							0.774284	4.23232	0.961561	5.26916				
0.533142	2.908	0.393492	2.11878	0.904364	4.92014							0.776331	4.22201	0.965519	5.26398				
0.534648	2.90147	0.395569	2.11934	0.90771	4.91343							0.778365	4.21173	0.969473	5.25882				
0.536155	2.89501	0.397647	2.11988	0.911039	4.9067							0.780387	4.20148	0.973421	5.25368				
0.537666	2.88863	0.399724	2.12043	0.91435	4.89995							0.782396	4.19128	0.977363	5.24857				
0.539179	2.88234	0.401801	2.12096	0.917646	4.89318							0.784392	4.1811	0.9813	5.24348				
0.540695	2.87611	0.403879	2.12149	0.920924	4.88639							0.786376	4.17097	0.985231	5.2384				
0.542213	2.86997	0.405956	2.12202	0.924186	4.87957							0.788349	4.16087	0.989156	5.23334				
0.543734	2.86389	0.408033	2.12254	0.927431	4.87274							0.79031	4.1508	0.993074	5.2283				
0.545257	2.85789	0.41011	2.12306	0.93066	4.86588							0.792259	4.14078	0.996986	5.22328				
0.546783	2.85196	0.412187	2.12357	0.933873	4.85901							0.794198	4.1308	1.00089	5.21826				
0.548312	2.84611	0.414264	2.12407	0.937069	4.85212							0.796125	4.12085						
0.549844	2.84032	0.416341	2.12457	0.940249	4.84521							0.798041	4.11095						
0.551377	2.8346	0.418418	2.12507	0.943412	4.83828							0.799948	4.10108						
0.552914	2.82895	0.420495	2.12556	0.94656	4.83134							0.801843	4.09126						
0.554453	2.82337	0.422572	2.12604	0.949691	4.82438							0.803729	4.08148						
0.555995	2.81785	0.424649	2.12652	0.952807	4.8174							0.805605	4.07174						
0.557539	2.81239	0.426725	2.127	0.955906	4.81041							0.807471	4.06204						
0.559086	2.80701	0.428802	2.12747	0.95899	4.80341							0.809327	4.05239						
0.560636	2.80168	0.430879	2.12794	0.962058	4.79639							0.811174	4.04278						
0.562188	2.79642	0.432955	2.1284	0.96511	4.78936							0.813013	4.03321						
0.563742	2.79121	0.435032	2.12886	0.968146	4.78232							0.814842	4.02369						
0.5653	2.78607	0.437109	2.12931	0.971167	4.77527							0.816663	4.01421						
0.566859	2.78099	0.439185	2.12976	0.974173	4.7682							0.818475	4.00478						
0.568422	2.77597	0.441262	2.13021	0.977163	4.76112							0.820278	3.99539						
0.569987	2.771	0.443338	2.13065	0.980138	4.75404							0.822074	3.98604						
0.571554	2.76609	0.445415	2.13109	0.983097	4.74694							0.823861	3.97675						
0.573124	2.76124	0.447491	2.13152	0.986042	4.73983							0.825641	3.96749						
0.574697	2.75644	0.449568	2.13195	0.988971	4.73272							0.827413	3.95829						
0.576272	2.7517	0.451644	2.13237	0.991886	4.7256							0.829178	3.94913						
0.577849	2.74701	0.45372	2.13279	0.994785	4.71847							0.830936	3.94002						
0.579429	2.74238	0.455797	2.13321	0.99767	4.71133							0.832686	3.93095						
0.581012	2.73779	0.457873	2.13363	1.00054	4.70419							0.834429	3.92193						
0.582597	2.73326	0.459949	2.13404									0.836166	3.91296						
0.584184	2.72878	0.462026	2.13444									0.837896	3.90403						
0.585774	2.72435	0.464102	2.13484									0.839619	3.89515						
0.587367	2.71997	0.466178	2.13524									0.841337	3.88632						
0.588962	2.71564	0.468254	2.13564									0.843047	3.87754						
0.590559	2.71136	0.47033	2.13603									0.844752	3.8688						
0.592159	2.70712	0.472406	2.13642									0.846451	3.86011						
0.593761	2.70294	0.474482	2.13681									0.848145	3.85147						
0.595365	2.69879	0.476558	2.13719									0.849832	3.84287						
0.596972	2.6947	0.478634	2.13757									0.851514	3.83432						
0.598582	2.69065	0.48071	2.13794									0.853191	3.82582						
0.600194	2.68664	0.482786	2.13831									0.854863	3.81737						
0.601808	2.68268	0.484862	2.13868									0.856529	3.80897						
0.603424	2.67876	0.486938	2.13905									0.858191	3.80061						
0.605043	2.67488	0.489014	2.13941									0.859848	3.7923						
0.606664	2.67104	0.49109	2.13977									0.8615	3.78403						
0.608287	2.66725	0.493166	2.14013									0.863147	3.77582						
0.609913	2.6635	0.495241	2.14048									0.86479	3.76765						
0.611541	2.65979	0.497317	2.14083									0.866429	3.75953						
0.613171	2.65611	0.499393	2.14118									0.868064	3.75146						
0.614804	2.65248	0.501469	2.14153									0.869694	3.74343						
0.616439	2.64889	0.503544	2.14187									0.87132	3.73545						
0.618076	2.64533	0.50562	2.14221									0.872943	3.72752						
0.619716	2.64181	0.507696	2.14254									0.874561	3.71963						
0.621357	2.63833	0.509771	2.14288									0.876176	3.71179						
0.623001	2.63489	0.511847	2.14321									0.877787	3.704						
0.624647	2.63148	0.513922	2.14354									0.879395	3.69625						
0.626295	2.62811	0.515998	2.14386									0.881	3.68855						
0.627946	2.62477	0.518073	2.14419									0.882601	3.68089						
0.629598	2.62147	0.520149	2.14451									0.884199	3.67328						
0.631253	2.6182	0.522224	2.14482									0.885794	3.66572						
0.63291	2.61497	0.5243	2.14514									0.887385	3.6582						
0.634569	2.61177	0.526375	2.14545									0.888974	3.65073						
0.63623	2.60861	0.528451	2.14576									0.89056	3.6433						
0.637893	2.60547	0.530526	2.14607									0.892144	3.63592						
0.639559	2.60237	0.532601	2.14638									0.893724	3.62859						
0.641226	2.5993	0.534677	2.14668									0.895302	3.62129						
0.642896	2.59626	0.536752	2.14698									0.896878	3.61405						
0.644567	2.59326	0.538827	2.14728									0.89845	3.60684						
0.646241	2.59028	0.540903	2.14758									0.900021	3.59969						
0.647917	2.58734	0.542978	2.14787									0.90159	3.59257						
0.649594	2.58442	0.545053	2.14816									0.903156	3.5855						
0.651274	2.58153	0.547128	2.14845									0.90472	3.57847						
0.652956	2.57868	0.549204	2.14874									0.906282	3.57149						
0.65464	2.57585	0.551279	2.14903									0.907842	3.56455						
0.656326	2.57305	0.553354	2.14931									0.9094	3.55765						
0.658013	2.57028	0.555429	2.14959									0.910956	3.5508						
0.659703	2.56753	0.557504	2.14987									0.91251	3.54399						
0.661395	2.56482	0.559579	2.15015									0.914063	3.53722						
0.663088	2.56213	0.561654	2.15042									0.915614	3.53049						
0.664784	2.55946	0.563729	2.15069									0.917163	3.52381						
0.666481	2.55683	0.565804	2.15096									0.918711	3.51716						
0.668181	2.55422	0.567879	2.15123									0.920258	3.51056						
0.669882	2.55163	0.569954	2.1515									0.921802	3.504						
0.671585	2.54907	0.572029	2.15177									0.923346	3.49748						
0.67329	2.54654	0.574104	2.15203									0.924888	3.491						
0.674997	2.54403	0.576179	2.15229									0.926429	3.48457						
0.676705	2.54155	0.578254	2.15255									0.927969	3.47817						
0.678416	2.53909	0.580329	2.15281									0.929508	3.47181						
0.680128	2.53665	0.582404	2.15306									0.931045	3.46549						
0.681842	2.53424	0.584479	2.15332									0.932582	3.45922						
0.683558	2.53185	0.586554	2.15357									0.934117	3.45298						
0.685276	2.52948	0.588628	2.15382									0.935652	3.44678						
0.686996	2.52714	0.590703	2.15407									0.937185	3.44062						
0.688717	2.52482	0.592778	2.15431									0.938718	3.4345						
0.69044	2.52252	0.594853	2.15456									0.94025	3.42842						
0.692165	2.52024	0.596927	2.1548									0.941781	3.42238						
0.693892	2.51798	0.599002	2.15504									0.943312	3.41637						
0.69562	2.51575	0.601077	2.15528									0.944841	3.4104						
0.69735	2.51354	0.603152	2.15552									0.946371	3.40447						
0.699082	2.51135	0.605226	2.15576									0.947899	3.39858						
0.700815	2.50917	0.607301	2.15599									0.949427	3.39273						
0.70255	2.50702	0.609376	2.15622									0.950955	3.38691						
0.704287	2.50489	0.61145	2.15646									0.952481	3.38113						
0.706026	2.50278	0.613525	2.15669									0.954008	3.37538						
0.707766	2.50069	0.615599	2.15691									0.955534	3.36967						
0.709508	2.49862	0.617674	2.15714									0.95706	3.364						
0.711251	2.49657	0.619749	2.15737									0.958585	3.35837						
0.712996	2.49454	0.621823	2.15759									0.96011	3.35276						
0.714743	2.49252	0.623898	2.15781									0.961635	3.3472						
0.716491	2.49053	0.625972	2.15803									0.96316	3.34167						
0.718241	2.48855	0.628047	2.15825									0.964684	3.33617						
0.719992	2.48659	0.630121	2.15847									0.966208	3.33071						
0.721745	2.48465	0.632196	2.15869									0.967732	3.32529						
0.7235	2.48273	0.63427	2.1589									0.969256	3.31989						
0.725256	2.48082	0.636344	2.15912									0.97078	3.31454						
0.727014	2.47894	0.638419	2.15933									0.972304	3.30921						
0.728773	2.47706	0.640493	2.15954									0.973828	3.30392						
0.730534	2.47521	0.642568	2.15975									0.975352	3.29866						
0.732296	2.47337	0.644642	2.15996									0.976875	3.29344						
0.73406	2.47155	0.646716	2.16017									0.978399	3.28825						
0.735825	2.46975	0.648791	2.16037									0.979923	3.28309						
0.737592	2.46796	0.650865	2.16057									0.981447	3.27796						
0.73936	2.46619	0.652939	2.16078									0.982972	3.27287						
0.74113	2.46443	0.655014	2.16098									0.984496	3.26781						
0.742901	2.46269	0.657088	2.16118									0.98602	3.26278						
0.744673	2.46097	0.659162	2.16138									0.987545	3.25778						
0.746447	2.45926	0.661236	2.16158									0.98907	3.25281						
0.748223	2.45757	0.663311	2.16177									0.990595	3.24788						
0.75	2.45589	0.665385	2.16197									0.992121	3.24297						
0.751778	2.45422	0.667459	2.16216									0.993647	3.2381						
0.753558	2.45257	0.669533	2.16236									0.995173	3.23326						
0.755339	2.45094	0.671607	2.16255									0.996699	3.22844						
0.757122	2.44932	0.673682	2.16274									0.998226	3.22366						
0.758906	2.44771	0.675756	2.16293									0.999753	3.21891						
0.760691	2.44612	0.67783	2.16311									1.00128	3.21418						
0.762478	2.44454	0.679904	2.1633																
0.764266	2.44298	0.681978	2.16349																
0.766055	2.44142	0.684052	2.16367																
0.767846	2.43989	0.686126	2.16386																
0.769638	2.43836	0.6882	2.16404																
0.771431	2.43685	0.690274	2.16422																
0.773226	2.43535	0.692348	2.1644																
0.775022	2.43387	0.694422	2.16458																
0.776819	2.43239	0.696496	2.16476																
0.778618	2.43093	0.69857	2.16493																
0.780418	2.42949	0.700644	2.16511																
0.782219	2.42805	0.702718	2.16528																
0.784021	2.42663	0.704792	2.16546																
0.785825	2.42522	0.706866	2.16563																
0.78763	2.42382	0.70894	2.1658																
0.789436	2.42243	0.711014	2.16597																
0.791243	2.42106	0.713088	2.16614																
0.793052	2.41969	0.715162	2.16631																
0.794862	2.41834	0.717236	2.16648																
0.796673	2.417	0.719309	2.16665																
0.798485	2.41567	0.721383	2.16681																
0.800298	2.41435	0.723457	2.16698																
0.802113	2.41304	0.725531	2.16714																
0.803929	2.41174	0.727605	2.1673																
0.805746	2.41046	0.729678	2.16747																
0.807564	2.40918	0.731752	2.16763																
0.809383	2.40792	0.733826	2.16779																
0.811204	2.40666	0.7359	2.16795																
0.813025	2.40542	0.737973	2.1681																
0.814848	2.40418	0.740047	2.16826																
0.816672	2.40296	0.742121	2.16842																
0.818497	2.40174	0.744195	2.16857																
0.820323	2.40054	0.746268	2.16873																
0.822151	2.39934	0.748342	2.16888																
0.823979	2.39816	0.750416	2.16903																
0.825808	2.39698	0.752489	2.16919																
0.827639	2.39582	0.754563	2.16934																
0.829471	2.39466	0.756636	2.16949																
0.831303	2.39352	0.75871	2.16964																
0.833137	2.39238	0.760784	2.16979																
0.834972	2.39125	0.762857	2.16993																
0.836808	2.39013	0.764931	2.17008																
0.838645	2.38902	0.767004	2.17023																
0.840483	2.38792	0.769078	2.17037																
0.842322	2.38682	0.771151	2.17052																
0.844162	2.38574	0.773225	2.17066																
0.846003	2.38466	0.775298	2.1708																
0.847845	2.3836	0.777372	2.17095																
0.849688	2.38254	0.779445	2.17109																
0.851532	2.38149	0.781519	2.17123																
0.853378	2.38044	0.783592	2.17137																
0.855224	2.37941	0.785666	2.17151																
0.857071	2.37838	0.787739	2.17165																
0.858919	2.37737	0.789813	2.17179																
0.860768	2.37636	0.791886	2.17192																
0.862618	2.37535	0.793959	2.17206																
0.864469	2.37436	0.796033	2.17219																
0.866321	2.37337	0.798106	2.17233																
0.868174	2.37239	0.80018	2.17246																
0.870028	2.37142	0.802253	2.1726																
0.871883	2.37046	0.804326	2.17273																
0.873739	2.3695	0.8064	2.17286																
0.875595	2.36855	0.808473	2.17299																
0.877453	2.36761	0.810546	2.17312																
0.879311	2.36667	0.812619	2.17325																
0.881171	2.36575	0.814693	2.17338																
0.883031	2.36483	0.816766	2.17351																
0.884893	2.36391	0.818839	2.17364																
0.886755	2.36301	0.820913	2.17377																
0.888618	2.36211	0.822986	2.17389																
0.890482	2.36121	0.825059	2.17402																
0.892347	2.36033	0.827132	2.17414																
0.894212	2.35945	0.829205	2.17427																
0.896079	2.35857	0.831279	2.17439																
0.897947	2.35771	0.833352	2.17452																
0.899815	2.35685	0.835425	2.17464																
0.901684	2.35599	0.837498	2.17476																
0.903554	2.35515	0.839571	2.17488																
0.905425	2.35431	0.841644	2.175																
0.907297	2.35347	0.843717	2.17512																
0.909169	2.35264	0.845791	2.17524																
0.911043	2.35182	0.847864	2.17536																
0.912917	2.351	0.849937	2.17548																
0.914792	2.35019	0.85201	2.1756																
0.916668	2.34939	0.854083	2.17572																
0.918544	2.34859	0.856156	2.17583																
0.920422	2.3478	0.858229	2.17595																
0.9223	2.34701	0.860302	2.17607																
0.924179	2.34623	0.862375	2.17618																
0.926059	2.34546	0.864448	2.1763																
0.92794	2.34469	0.866521	2.17641																
0.929821	2.34392	0.868594	2.17652																
0.931704	2.34316	0.870667	2.17664																
0.933587	2.34241	0.87274	2.17675																
0.93547	2.34166	0.874813	2.17686																
0.937355	2.34092	0.876886	2.17697																
0.93924	2.34018	0.878959	2.17708																
0.941126	2.33945	0.881032	2.17719																
0.943013	2.33873	0.883105	2.1773																
0.944901	2.33801	0.885177	2.17741																
0.946789	2.33729	0.88725	2.17752																
0.948678	2.33658	0.889323	2.17763																
0.950568	2.33587	0.891396	2.17773																
0.952459	2.33517	0.893469	2.17784																
0.95435	2.33448	0.895542	2.17795																
0.956242	2.33379	0.897615	2.17805																
0.958135	2.3331	0.899687	2.17816																
0.960028	2.33242	0.90176	2.17826																
0.961922	2.33174	0.903833	2.17837																
0.963817	2.33107	0.905906	2.17847																
0.965713	2.33041	0.907979	2.17857																
0.967609	2.32974	0.910051	2.17868																
0.969506	2.32909	0.912124	2.17878																
0.971404	2.32843	0.914197	2.17888																
0.973302	2.32778	0.91627	2.17898																
0.975201	2.32714	0.918342	2.17908																
0.977101	2.3265	0.920415	2.17919																
0.979001	2.32587	0.922488	2.17929																
0.980902	2.32524	0.92456	2.17939																
0.982804	2.32461	0.926633	2.17948																
0.984706	2.32399	0.928706	2.17958																
0.986609	2.32337	0.930779	2.17968																
0.988513	2.32276	0.932851	2.17978																
0.990417	2.32215	0.934924	2.17988																
0.992322	2.32154	0.936996	2.17997																
0.994228	2.32094	0.939069	2.18007																
0.996134	2.32035	0.941142	2.18017																
0.998041	2.31975	0.943214	2.18026																
0.999949	2.31917	0.945287	2.18036																
1.00186	2.31858	0.947359	2.18045																
		0.949432	2.18055																
		0.951505	2.18064																
		0.953577	2.18073																
		0.95565	2.18083																
		0.957722	2.18092																
		0.959795	2.18101																
		0.961867	2.1811																
		0.96394	2.18119																
		0.966012	2.18128																
		0.968085	2.18138																
		0.970157	2.18147																
		0.97223	2.18156																
		0.974302	2.18164																
		0.976374	2.18173																
		0.978447	2.18182																
		0.980519	2.18191																
		0.982592	2.182																
		0.984664	2.18209																
		0.986737	2.18217																
		0.988809	2.18226																
		0.990881	2.18235																
		0.992954	2.18243																
		0.995026	2.18252																
		0.997098	2.1826																
		0.999171	2.18269																
		1.00124	2.18277																
