Sym0		Asym0		Sym1		Sym2		Sym3		Sym4		Asym1		Asym2		Asym3		Asym4	
426  Points		528  Points		426  Points		406  Points		353  Points		253  Points		457  Points		401  Points		346  Points		216  Points	
Freq (MHz)	Vph (m/ms)	Freq (MHz)	Vph (m/ms)	Freq (MHz)	Vph (m/ms)	Freq (MHz)	Vph (m/ms)	Freq (MHz)	Vph (m/ms)	Freq (MHz)	Vph (m/ms)	Freq (MHz)	Vph (m/ms)	Freq (MHz)	Vph (m/ms)	Freq (MHz)	Vph (m/ms)	Freq (MHz)	Vph (m/ms)
0.279509	765	0.000178332	0.0822912	0.27951	536.288	0.441178	2298.42	0.559017	2382.51	0.838525	15805.9	0.139763	294.244	0.419267	515.809	0.698772	1287.51	0.882358	1142.19
0.279518	215.5	0.000364136	0.117509	0.279521	192.39	0.441186	392.639	0.559026	479.304	0.838529	851.517	0.13983	99.4042	0.419283	240.342	0.698779	473.933	0.882366	517.757
0.279538	125.423	0.000614862	0.152553	0.279542	117.229	0.441206	214.664	0.559045	266.463	0.838538	437.549	0.139964	59.8552	0.41931	156.68	0.698791	290.422	0.882379	334.754
0.279567	88.4578	0.000929925	0.187403	0.279573	84.3031	0.441238	147.718	0.559075	184.53	0.838552	294.421	0.140164	42.8627	0.419349	116.23	0.698809	209.361	0.882398	247.337
0.279606	68.3275	0.00130829	0.221974	0.279614	65.8229	0.441281	112.608	0.559116	141.141	0.838573	221.855	0.14043	33.4216	0.419399	92.3865	0.698833	163.68	0.882423	196.125
0.279656	55.6657	0.0017491	0.256257	0.279665	53.9929	0.441336	90.9892	0.559169	114.277	0.838599	177.989	0.140761	27.4202	0.419461	76.6655	0.698863	134.366	0.882454	162.485
0.279716	46.9673	0.00225108	0.29019	0.279727	45.7716	0.441403	76.3392	0.559232	96.0087	0.838631	148.609	0.141155	23.2731	0.419534	65.5214	0.698898	113.959	0.882491	138.698
0.279786	40.6238	0.00281303	0.323748	0.279798	39.7268	0.441481	65.7571	0.559306	82.7804	0.838669	127.556	0.141612	20.2395	0.419619	57.2101	0.69894	98.9356	0.882533	120.988
0.279866	35.7934	0.00343349	0.356888	0.27988	35.0958	0.441571	57.7556	0.559391	72.7598	0.838712	111.73	0.142132	17.9266	0.419715	50.7736	0.698988	87.414	0.882581	107.291
0.279956	31.9927	0.00411094	0.389576	0.279972	31.4348	0.441672	51.4937	0.559487	64.9066	0.838761	99.3992	0.142711	16.1069	0.419822	45.6423	0.699041	78.2977	0.882635	96.3811
0.280056	28.9245	0.00484393	0.421797	0.280074	28.4682	0.441785	46.4602	0.559594	58.5866	0.838816	89.5214	0.14335	14.6396	0.419941	41.4561	0.6991	70.9049	0.882695	87.4868
0.280167	26.3959	0.00563071	0.453514	0.280186	26.0158	0.44191	42.3261	0.559713	53.391	0.838877	81.4309	0.144046	13.4326	0.420072	37.9761	0.699165	64.7892	0.882761	80.0969
0.280288	24.2763	0.00646964	0.48471	0.280309	23.9549	0.442046	38.8705	0.559842	49.0445	0.838943	74.683	0.144798	12.4234	0.420214	35.0377	0.699236	59.6462	0.882832	73.8595
0.280418	22.4741	0.00735896	0.515365	0.280441	22.1987	0.442194	35.9391	0.559981	45.3549	0.839015	68.9691	0.145605	11.5678	0.420367	32.5239	0.699313	55.2608	0.882909	68.5246
0.280559	20.923	0.00829693	0.545462	0.280584	20.6845	0.442353	33.4213	0.560132	42.1838	0.839093	64.0686	0.146464	10.8341	0.420532	30.3489	0.699395	51.4774	0.882992	63.9097
0.28071	19.5742	0.00928183	0.574993	0.280736	19.3656	0.442524	31.2354	0.560294	39.4294	0.839177	59.8195	0.147254	10.2754	0.420708	28.4488	0.699484	48.1799	0.88308	59.8782
0.280871	18.3907	0.0103119	0.603946	0.280899	18.2067	0.442707	29.3201	0.560467	37.0147	0.839266	56.1	0.147957	9.84884	0.420895	26.7746	0.699578	45.2806	0.883175	56.3262
0.281042	17.3438	0.0113853	0.632311	0.281072	17.1804	0.442901	27.6282	0.56065	34.8805	0.839361	52.817	0.148558	9.52596	0.421094	25.2884	0.699679	42.7114	0.883275	53.1731
0.281224	16.4114	0.0125004	0.660086	0.281255	16.2653	0.443106	26.1228	0.560845	32.9809	0.839462	49.898	0.149046	9.28775	0.421305	23.9604	0.699785	40.419	0.883381	50.3551
0.281415	15.5757	0.0136555	0.687269	0.281448	15.4443	0.443323	24.7747	0.56105	31.2792	0.839568	47.2856	0.149412	9.12142	0.421526	22.7667	0.699897	38.3611	0.883492	47.8217
0.281617	14.8225	0.014849	0.713859	0.281652	14.7037	0.443551	23.5608	0.561266	29.7462	0.83968	44.9341	0.149649	9.01865	0.421759	21.6879	0.700014	36.5035	0.88361	45.5319
0.281829	14.1402	0.0160791	0.739856	0.281865	14.0324	0.443791	22.4619	0.561493	28.3579	0.839798	42.8061	0.149994	8.8757	0.422003	20.7083	0.700138	34.8183	0.883733	43.4521
0.28205	13.5194	0.0173443	0.765266	0.282088	13.421	0.444043	21.4625	0.561731	27.095	0.839922	40.8714	0.150375	8.72639	0.422259	19.8149	0.700268	33.2827	0.883862	41.5548
0.282282	12.9521	0.018643	0.79009	0.282322	12.8619	0.444305	20.5498	0.56198	25.9412	0.840052	39.1048	0.150901	8.53286	0.422525	18.9969	0.700403	31.8775	0.883997	39.817
0.282524	12.4317	0.0199739	0.814339	0.282566	12.3489	0.444579	19.713	0.562239	24.883	0.840187	37.4854	0.151582	8.30264	0.422803	18.2451	0.700544	30.5869	0.884137	38.2194
0.282776	11.9528	0.0213354	0.838013	0.282819	11.8764	0.444864	18.943	0.56251	23.9091	0.840327	35.9954	0.152426	8.04391	0.423093	17.5519	0.700691	29.3975	0.884283	36.7458
0.283038	11.5106	0.0227261	0.861127	0.283083	11.4399	0.445161	18.2323	0.562791	23.0098	0.840474	34.62	0.153444	7.76496	0.423393	16.9108	0.700844	28.2977	0.884435	35.3822
0.28331	11.101	0.0241448	0.883686	0.283357	11.0355	0.445469	17.5743	0.563082	22.177	0.840626	33.3465	0.154649	7.47359	0.423705	16.316	0.701003	27.278	0.884593	34.1169
0.283593	10.7207	0.0255902	0.905701	0.283641	10.6597	0.445788	16.9634	0.563385	21.4035	0.840784	32.164	0.155892	7.20908	0.424028	15.7629	0.701168	26.3298	0.884756	32.9396
0.283885	10.3666	0.027061	0.927182	0.283935	10.3098	0.446118	16.3947	0.563698	20.6833	0.840948	31.0631	0.157171	6.96801	0.424362	15.2473	0.701338	25.4459	0.884925	31.8414
0.284187	10.0362	0.028556	0.948141	0.284199	10.0239	0.446459	15.8641	0.564022	20.0111	0.841117	30.0357	0.158485	6.74753	0.424707	14.7654	0.701514	24.6201	0.8851	30.8146
0.2845	9.72718	0.0300742	0.968585	0.284431	9.79297	0.446812	15.3678	0.564356	19.3822	0.841292	29.0747	0.159831	6.54523	0.425063	14.3141	0.701696	23.8467	0.88528	29.8526
0.284822	9.43757	0.0316145	0.988529	0.284626	9.61033	0.447175	14.9028	0.564701	18.7928	0.841473	28.1737	0.161209	6.35904	0.42543	13.8907	0.701884	23.121	0.885467	28.9493
0.285155	9.16563	0.0331758	1.00798	0.284784	9.47093	0.44755	14.4661	0.565057	18.2391	0.84166	27.3275	0.162618	6.1872	0.425809	13.4926	0.702078	22.4387	0.885658	28.0997
0.285497	8.90981	0.0347572	1.02696	0.284901	9.37112	0.447936	14.0553	0.565423	17.7181	0.841852	26.5312	0.164055	6.02818	0.426198	13.1176	0.702278	21.7961	0.885856	27.299
0.28585	8.66876	0.0363578	1.04547	0.284976	9.30841	0.448333	13.6681	0.5658	17.2269	0.84205	25.7804	0.165519	5.88067	0.426598	12.7639	0.702483	21.1897	0.886059	26.5432
0.286212	8.44125	0.0379766	1.06353	0.285086	9.2198	0.44874	13.3027	0.566188	16.7632	0.842253	25.0715	0.16701	5.74351	0.42701	12.4297	0.702694	20.6167	0.886268	25.8285
0.286585	8.22619	0.0396129	1.08114	0.285206	9.12549	0.449159	12.9573	0.566586	16.3247	0.842462	24.401	0.168526	5.61571	0.427432	12.1135	0.702911	20.0743	0.886483	25.1519
0.286967	8.02262	0.0412659	1.09833	0.285372	9.00048	0.449588	12.6302	0.566994	15.9093	0.842677	23.7659	0.170066	5.49638	0.427865	11.8138	0.703134	19.5602	0.886703	24.5102
0.28736	7.82965	0.0429347	1.11509	0.285585	8.84749	0.450029	12.3201	0.567413	15.5155	0.842898	23.1634	0.171629	5.38475	0.428309	11.5295	0.703363	19.0723	0.886929	23.9009
0.287762	7.6465	0.0446187	1.13145	0.285848	8.66974	0.45048	12.0257	0.567842	15.1415	0.843124	22.5912	0.173213	5.28012	0.428764	11.2594	0.703597	18.6085	0.887161	23.3216
0.288175	7.47246	0.0463171	1.14741	0.286164	8.47071	0.450942	11.7459	0.568282	14.7859	0.843356	22.047	0.174819	5.18189	0.42923	11.0024	0.703838	18.1672	0.887398	22.7701
0.288597	7.30689	0.0480294	1.16299	0.286535	8.25406	0.451414	11.4796	0.568732	14.4474	0.843593	21.5289	0.176445	5.08952	0.429706	10.7577	0.704084	17.7468	0.887641	22.2446
0.289029	7.14919	0.0497549	1.17819	0.286916	8.04901	0.451897	11.2259	0.569192	14.1247	0.843836	21.0349	0.178089	5.00252	0.430193	10.5244	0.704336	17.3458	0.88789	21.7431
0.289472	6.99884	0.051493	1.19303	0.287307	7.85468	0.452391	10.984	0.569663	13.817	0.844085	20.5636	0.179752	4.92046	0.430691	10.3018	0.704593	16.9629	0.888144	21.2642
0.289924	6.85535	0.0532431	1.20751	0.287708	7.67028	0.452895	10.753	0.570144	13.523	0.84434	20.1132	0.181432	4.84294	0.431134	10.1159	0.704857	16.597	0.888404	20.8063
0.290386	6.71827	0.0550048	1.22165	0.288119	7.49507	0.45341	10.5322	0.570635	13.2421	0.8446	19.6826	0.183129	4.76961	0.431518	9.96314	0.705126	16.2469	0.88867	20.3681
0.290858	6.5872	0.0567775	1.23545	0.28854	7.3284	0.453936	10.321	0.571137	12.9732	0.844865	19.2704	0.184842	4.70017	0.43184	9.84053	0.705401	15.9116	0.888941	19.9483
0.29134	6.46177	0.0585607	1.24894	0.288971	7.16969	0.454402	10.1444	0.571648	12.7157	0.845137	18.8754	0.18657	4.63432	0.432097	9.74589	0.705682	15.5903	0.889218	19.5459
0.291832	6.34163	0.060354	1.2621	0.289412	7.01839	0.454806	9.99889	0.57217	12.4689	0.845414	18.4967	0.188313	4.5718	0.432288	9.67756	0.705968	15.2821	0.8895	19.1597
0.292334	6.22647	0.0621569	1.27496	0.289863	6.87402	0.455144	9.88199	0.572702	12.2322	0.845696	18.1333	0.190069	4.51238	0.43241	9.63438	0.706261	14.9862	0.889788	18.7888
0.292845	6.116	0.063969	1.28753	0.290324	6.73611	0.455414	9.79165	0.573244	12.0048	0.845985	17.7842	0.191839	4.45584	0.432588	9.57304	0.706559	14.7019	0.890082	18.4324
0.293367	6.00995	0.06579	1.29981	0.290795	6.60427	0.455615	9.72637	0.573796	11.7864	0.846278	17.4486	0.193622	4.40199	0.432782	9.50733	0.706863	14.4285	0.890381	18.0896
0.293898	5.90807	0.0676195	1.3118	0.291275	6.47811	0.455743	9.68509	0.574358	11.5764	0.846578	17.1258	0.195417	4.35064	0.433048	9.41954	0.707172	14.1654	0.890685	17.7596
0.294439	5.81013	0.069457	1.32353	0.291766	6.35729	0.45593	9.62642	0.57493	11.3744	0.846883	16.8151	0.197224	4.30164	0.433389	9.31103	0.707488	13.9121	0.890996	17.4418
0.29499	5.71591	0.0713023	1.33499	0.292266	6.24148	0.456133	9.56353	0.575513	11.1798	0.847194	16.5157	0.199042	4.25483	0.433806	9.18343	0.707809	13.668	0.891312	17.1354
0.295551	5.62523	0.073155	1.3462	0.292777	6.13041	0.456412	9.47944	0.576105	10.9924	0.84751	16.2271	0.200871	4.21007	0.434302	9.03859	0.708136	13.4326	0.891633	16.84
0.296122	5.53789	0.0750149	1.35715	0.293297	6.02378	0.456769	9.37539	0.576706	10.8116	0.847832	15.9488	0.20271	4.16724	0.434881	8.87849	0.708468	13.2055	0.89196	16.5548
0.296702	5.45372	0.0768816	1.36787	0.293827	5.92136	0.457204	9.25289	0.577318	10.6373	0.848159	15.6801	0.204558	4.12622	0.435471	8.72458	0.708807	12.9863	0.892292	16.2795
0.297293	5.37256	0.0787549	1.37835	0.294367	5.82291	0.457723	9.11364	0.57794	10.469	0.848492	15.4207	0.206417	4.0869	0.436072	8.57651	0.709151	12.7746	0.892631	16.0135
0.297893	5.29426	0.0806344	1.3886	0.294917	5.72821	0.458328	8.95947	0.578489	10.3271	0.848831	15.1699	0.208285	4.04918	0.436682	8.43398	0.709501	12.5699	0.892974	15.7563
0.298503	5.21869	0.08252	1.39863	0.295476	5.63707	0.458942	8.81101	0.578963	10.2094	0.849175	14.9275	0.210161	4.01297	0.437303	8.29667	0.709856	12.372	0.893323	15.5075
0.299122	5.14571	0.0844114	1.40845	0.296045	5.5493	0.459567	8.66796	0.57936	10.1143	0.849524	14.693	0.212046	3.97818	0.437934	8.16433	0.710218	12.1805	0.893678	15.2667
0.299752	5.07519	0.0863084	1.41806	0.296625	5.46471	0.460201	8.53003	0.579676	10.0405	0.849879	14.4661	0.213938	3.94474	0.438576	8.0367	0.710584	11.9951	0.894038	15.0336
0.300391	5.00703	0.0882106	1.42746	0.297214	5.38317	0.460846	8.39696	0.579909	9.98703	0.85024	14.2463	0.215839	3.91257	0.439227	7.91353	0.710957	11.8156	0.894403	14.8078
0.30104	4.94111	0.0901181	1.43666	0.297813	5.3045	0.4615	8.26852	0.58006	9.95311	0.850607	14.0333	0.217747	3.88161	0.439889	7.79461	0.711335	11.6416	0.894774	14.5889
0.301698	4.87734	0.0920304	1.44568	0.298421	5.22857	0.462164	8.14446	0.580277	9.90481	0.850978	13.8269	0.219662	3.85177	0.440561	7.67973	0.71172	11.4729	0.895151	14.3766
0.302367	4.81561	0.0939475	1.45451	0.299039	5.15525	0.462838	8.02459	0.580513	9.85289	0.851356	13.6268	0.221585	3.82302	0.441243	7.5687	0.712109	11.3094	0.895533	14.1707
0.303045	4.75584	0.0958691	1.46315	0.299668	5.08441	0.463522	7.90869	0.580838	9.78325	0.851738	13.4326	0.223513	3.79529	0.441935	7.46132	0.712505	11.1507	0.89592	13.9709
0.303644	4.70529	0.0977951	1.47162	0.300305	5.01594	0.464215	7.79657	0.581251	9.69673	0.852127	13.2441	0.225449	3.76853	0.442637	7.35744	0.712906	10.9966	0.896313	13.7768
0.30416	4.66327	0.0997253	1.47992	0.300953	4.94973	0.464918	7.68808	0.581755	9.59437	0.852521	13.0611	0.22739	3.74269	0.443349	7.25689	0.713313	10.847	0.896711	13.5884
0.304591	4.62926	0.10166	1.48805	0.30161	4.88568	0.46563	7.58302	0.582354	9.47734	0.85292	12.8833	0.229337	3.71773	0.444071	7.15952	0.713725	10.7016	0.897115	13.4052
0.304935	4.60282	0.103598	1.49601	0.302278	4.82369	0.466352	7.48127	0.58305	9.34694	0.853325	12.7106	0.23129	3.69361	0.444803	7.06519	0.714089	10.5783	0.897524	13.2272
0.305189	4.58364	0.10554	1.50382	0.302955	4.76366	0.467083	7.38265	0.583755	9.22052	0.853735	12.5426	0.233249	3.67027	0.445544	6.97377	0.714403	10.4756	0.897938	13.054
0.305352	4.57147	0.107485	1.51148	0.303641	4.70552	0.467824	7.28705	0.58447	9.09792	0.854151	12.3793	0.235212	3.6477	0.446296	6.88512	0.714665	10.3922	0.898358	12.8856
0.305588	4.55412	0.109434	1.51898	0.304337	4.64919	0.468574	7.19432	0.585194	8.97897	0.854572	12.2204	0.237181	3.62584	0.447057	6.79914	0.714873	10.3273	0.898784	12.7217
0.305845	4.53546	0.111386	1.52634	0.305044	4.59458	0.469333	7.10435	0.585927	8.86352	0.854999	12.0657	0.239155	3.60468	0.447828	6.7157	0.715027	10.2801	0.899214	12.5621
0.306196	4.51041	0.113342	1.53356	0.305759	4.54163	0.470102	7.01702	0.58667	8.75141	0.855431	11.9152	0.241134	3.58417	0.448608	6.63471	0.715126	10.2501	0.89965	12.4067
0.306645	4.47925	0.1153	1.54064	0.306485	4.49026	0.470879	6.93222	0.587421	8.64251	0.855869	11.7685	0.243117	3.56428	0.449398	6.55605	0.715269	10.2074	0.900092	12.2554
0.307191	4.44232	0.11701	1.5467	0.30722	4.44042	0.471666	6.84985	0.588183	8.53669	0.856312	11.6257	0.245105	3.545	0.450198	6.47965	0.715425	10.1613	0.900538	12.1078
0.30784	4.40004	0.118468	1.55178	0.307965	4.39204	0.472462	6.7698	0.588953	8.43382	0.85676	11.4865	0.247096	3.52629	0.451007	6.4054	0.715639	10.0995	0.90099	11.9641
0.308593	4.35283	0.119676	1.55594	0.30872	4.34507	0.473266	6.69199	0.589732	8.3338	0.857214	11.3508	0.249092	3.50813	0.451826	6.33322	0.71591	10.0223	0.901448	11.8238
0.309355	4.30699	0.120631	1.55918	0.309484	4.29945	0.47408	6.61633	0.590521	8.2365	0.857674	11.2185	0.251092	3.4905	0.452654	6.26304	0.716242	9.93076	0.90191	11.6871
0.310128	4.26245	0.121334	1.56155	0.310258	4.25513	0.474902	6.54274	0.591319	8.14182	0.858138	11.0894	0.253096	3.47337	0.453492	6.19477	0.716634	9.8256	0.902378	11.5537
0.31091	4.21917	0.121784	1.56306	0.311042	4.21206	0.475734	6.47113	0.592125	8.04966	0.858609	10.9635	0.255104	3.45672	0.454338	6.12834	0.71709	9.70784	0.902852	11.4235
0.311702	4.17711	0.122431	1.56522	0.311835	4.17019	0.476574	6.40143	0.592941	7.95993	0.859023	10.8562	0.257115	3.44053	0.455195	6.06369	0.717552	9.59309	0.90333	11.2963
0.312503	4.13621	0.123135	1.56755	0.312638	4.12948	0.477422	6.33356	0.593765	7.87253	0.859379	10.7665	0.259129	3.42479	0.45606	6.00074	0.718019	9.48124	0.903814	11.1722
0.313315	4.09643	0.124093	1.57069	0.313451	4.08988	0.47828	6.26747	0.594599	7.78738	0.859676	10.6936	0.261147	3.40948	0.456935	5.93944	0.718492	9.37217	0.904303	11.051
0.314136	4.05774	0.125305	1.57463	0.314274	4.05137	0.479146	6.20309	0.595441	7.7044	0.859912	10.6366	0.263168	3.39457	0.457819	5.87972	0.71897	9.2658	0.904733	10.9476
0.314967	4.02009	0.126772	1.57932	0.315107	4.01389	0.48002	6.14034	0.596292	7.62351	0.860086	10.5952	0.265192	3.38006	0.458712	5.82153	0.719454	9.16203	0.905103	10.8612
0.315807	3.98345	0.128495	1.58475	0.315949	3.97741	0.480903	6.07918	0.597151	7.54463	0.860198	10.5688	0.267219	3.36593	0.459614	5.76482	0.719943	9.06076	0.905411	10.7907
0.316658	3.94778	0.130473	1.59088	0.316801	3.9419	0.481795	6.01956	0.59802	7.4677	0.86036	10.5312	0.269249	3.35216	0.460525	5.70953	0.720438	8.9619	0.905656	10.7358
0.317518	3.91305	0.132455	1.59689	0.317663	3.90733	0.482694	5.9614	0.598897	7.39264	0.860536	10.4906	0.271282	3.33874	0.461445	5.65561	0.720939	8.86538	0.905837	10.6957
0.318388	3.87923	0.134438	1.6028	0.318534	3.87366	0.483602	5.90468	0.599782	7.31939	0.860777	10.436	0.273318	3.32566	0.462375	5.60301	0.721445	8.77112	0.905954	10.6703
0.319268	3.84629	0.136423	1.6086	0.319416	3.84086	0.484519	5.84932	0.600677	7.2479	0.861083	10.3678	0.275356	3.3129	0.463313	5.5517	0.721957	8.67903	0.906121	10.6339
0.320157	3.81419	0.13841	1.6143	0.320307	3.80891	0.485443	5.7953	0.601579	7.17809	0.861456	10.2865	0.277397	3.30046	0.46426	5.50163	0.722474	8.58905	0.906304	10.5947
0.321057	3.78292	0.1404	1.6199	0.321208	3.77777	0.486376	5.74256	0.60249	7.10992	0.861897	10.193	0.27944	3.28831	0.465215	5.45275	0.722997	8.5011	0.906553	10.5418
0.321966	3.75244	0.142391	1.6254	0.322119	3.74742	0.487317	5.69106	0.60341	7.04333	0.862409	10.0879	0.281486	3.27646	0.46618	5.40503	0.723525	8.41513	0.906871	10.4758
0.322886	3.72273	0.144384	1.6308	0.32304	3.71784	0.488265	5.64077	0.604338	6.97828	0.862926	9.98512	0.283533	3.26489	0.467153	5.35843	0.724059	8.33106	0.907257	10.3971
0.323815	3.69377	0.146378	1.63612	0.323971	3.689	0.489222	5.59164	0.605274	6.9147	0.863448	9.8846	0.285583	3.25359	0.468135	5.31292	0.724599	8.24884	0.907714	10.3065
0.324754	3.66553	0.148374	1.64134	0.324912	3.66087	0.490187	5.54363	0.606219	6.85255	0.863975	9.78626	0.287635	3.24255	0.469126	5.26845	0.725144	8.1684	0.908243	10.2045
0.325704	3.63799	0.150372	1.64647	0.325864	3.63345	0.491159	5.49671	0.607171	6.79179	0.864508	9.69003	0.28969	3.23177	0.470125	5.22501	0.725694	8.0897	0.908777	10.1047
0.326663	3.61112	0.152372	1.65151	0.326825	3.6067	0.49214	5.45085	0.608132	6.73238	0.865046	9.59585	0.291746	3.22122	0.471133	5.18254	0.72625	8.01268	0.909317	10.0071
0.327633	3.58492	0.154373	1.65647	0.327796	3.5806	0.493128	5.406	0.609102	6.67426	0.86559	9.50365	0.293804	3.21092	0.47215	5.14103	0.726812	7.93728	0.909861	9.91144
0.328613	3.55936	0.156375	1.66135	0.328778	3.55514	0.494124	5.36215	0.610079	6.61741	0.866138	9.41338	0.295864	3.20084	0.473174	5.10045	0.727378	7.86346	0.910411	9.81778
0.329603	3.53441	0.158379	1.66614	0.329769	3.5303	0.495127	5.31926	0.611064	6.56179	0.866692	9.32498	0.297926	3.19098	0.474208	5.06076	0.727951	7.79118	0.910965	9.72604
0.330603	3.51007	0.160384	1.67086	0.330771	3.50606	0.496138	5.2773	0.612057	6.50735	0.867251	9.23839	0.299989	3.18133	0.475249	5.02194	0.728529	7.72038	0.911525	9.63616
0.331614	3.48631	0.16239	1.6755	0.331784	3.4824	0.497156	5.23624	0.613058	6.45406	0.867816	9.15355	0.302054	3.17189	0.476299	4.98397	0.729112	7.65102	0.91209	9.54809
0.332635	3.46313	0.164398	1.68006	0.332807	3.4593	0.498183	5.19606	0.614067	6.40189	0.868385	9.07042	0.304121	3.16265	0.477358	4.94682	0.729701	7.58305	0.91266	9.46178
0.333667	3.4405	0.166406	1.68455	0.33384	3.43676	0.499216	5.15673	0.615084	6.3508	0.86896	8.98895	0.306189	3.1536	0.478424	4.91046	0.730295	7.51645	0.913235	9.37716
0.334709	3.4184	0.168416	1.68897	0.334884	3.41476	0.500257	5.11822	0.616109	6.30077	0.86954	8.90909	0.308259	3.14474	0.479499	4.87487	0.730895	7.45117	0.913815	9.2942
0.335762	3.39683	0.170427	1.69331	0.335939	3.39328	0.501305	5.08051	0.617142	6.25176	0.870126	8.83079	0.31033	3.13607	0.480582	4.84004	0.7315	7.38718	0.9144	9.21285
0.336825	3.37577	0.17244	1.69759	0.337004	3.3723	0.50236	5.04359	0.618182	6.20375	0.870716	8.754	0.312402	3.12756	0.481673	4.80593	0.73211	7.32443	0.91499	9.13307
0.3379	3.35521	0.174453	1.7018	0.338081	3.35182	0.503423	5.00742	0.61923	6.1567	0.871312	8.6787	0.314476	3.11923	0.482772	4.77253	0.732726	7.26289	0.915586	9.0548
0.338985	3.33514	0.176467	1.70594	0.339168	3.33183	0.504493	4.97198	0.620285	6.11059	0.871913	8.60483	0.316551	3.11106	0.483879	4.73982	0.733347	7.20253	0.916186	8.97801
0.340082	3.31553	0.178482	1.71002	0.340266	3.3123	0.50557	4.93726	0.621348	6.06539	0.872519	8.53236	0.318628	3.10305	0.484994	4.70778	0.733974	7.14332	0.916791	8.90266
0.34119	3.29639	0.180498	1.71404	0.341376	3.29323	0.506654	4.90323	0.622419	6.02108	0.87313	8.46125	0.320705	3.0952	0.486118	4.67639	0.734606	7.08523	0.917401	8.82871
0.342309	3.2777	0.182515	1.71799	0.342497	3.27462	0.507745	4.86988	0.623497	5.97764	0.873747	8.39146	0.322784	3.0875	0.487249	4.64563	0.735244	7.02822	0.918016	8.75611
0.343439	3.25945	0.184532	1.72188	0.343629	3.25643	0.508843	4.83718	0.624583	5.93503	0.874368	8.32295	0.324864	3.07995	0.488388	4.61549	0.735886	6.97227	0.918636	8.68485
0.344581	3.24162	0.186551	1.72571	0.344774	3.23868	0.509947	4.80513	0.625676	5.89324	0.874995	8.2557	0.326944	3.07253	0.489534	4.58595	0.736535	6.91735	0.919261	8.61488
0.345735	3.22422	0.18857	1.72948	0.345929	3.22135	0.511059	4.77369	0.626776	5.85225	0.875627	8.18967	0.329026	3.06526	0.490689	4.55699	0.737188	6.86343	0.919891	8.54616
0.346901	3.20722	0.19059	1.7332	0.347097	3.20442	0.512178	4.74287	0.627884	5.81203	0.876264	8.12483	0.331109	3.05812	0.491851	4.5286	0.737847	6.81049	0.920525	8.47866
0.348079	3.19063	0.192611	1.73686	0.348277	3.18789	0.513303	4.71263	0.628998	5.77256	0.876906	8.06114	0.333192	3.05111	0.493021	4.50077	0.738511	6.7585	0.921165	8.41237
0.349269	3.17443	0.194632	1.74047	0.349469	3.17175	0.514435	4.68296	0.63012	5.73383	0.877553	7.99859	0.335277	3.04422	0.494199	4.47347	0.739181	6.70743	0.92181	8.34723
0.350471	3.15861	0.196654	1.74402	0.350674	3.156	0.515573	4.65386	0.63125	5.69582	0.878206	7.93713	0.337362	3.03746	0.495384	4.44669	0.739856	6.65727	0.922459	8.28323
0.351687	3.14317	0.198677	1.74752	0.351891	3.14062	0.516719	4.62529	0.632386	5.6585	0.878863	7.87675	0.339448	3.03082	0.496577	4.42043	0.740536	6.608	0.923113	8.22033
0.352915	3.12809	0.200701	1.75097	0.353121	3.12561	0.51787	4.59726	0.633529	5.62187	0.879526	7.81741	0.341535	3.02429	0.497777	4.39467	0.741221	6.55958	0.923772	8.15851
0.354156	3.11338	0.202725	1.75436	0.354365	3.11096	0.519029	4.56975	0.63468	5.58589	0.880193	7.75909	0.343623	3.01788	0.498985	4.36939	0.741912	6.512	0.924436	8.09774
0.35541	3.09903	0.204749	1.75771	0.355621	3.09666	0.520193	4.54274	0.635837	5.55056	0.880866	7.70176	0.345711	3.01158	0.500201	4.34459	0.742608	6.46524	0.925105	8.038
0.356678	3.08502	0.206774	1.76101	0.356892	3.08271	0.521364	4.51622	0.637001	5.51586	0.881543	7.6454	0.3478	3.00538	0.501424	4.32025	0.743309	6.41927	0.925778	7.97925
0.35796	3.07136	0.2088	1.76426	0.358176	3.06911	0.522542	4.49018	0.638172	5.48178	0.882226	7.58999	0.34989	2.99929	0.502654	4.29636	0.744016	6.37409	0.926457	7.92149
0.359256	3.05803	0.210826	1.76747	0.359474	3.05583	0.523726	4.46461	0.63935	5.4483	0.882914	7.53551	0.35198	2.9933	0.503891	4.27291	0.744728	6.32966	0.92714	7.86468
0.360566	3.04503	0.212852	1.77063	0.360786	3.04289	0.524916	4.4395	0.640535	5.41539	0.883607	7.48193	0.35407	2.98741	0.505136	4.24989	0.745445	6.28598	0.927828	7.8088
0.361891	3.03236	0.214879	1.77374	0.362114	3.03027	0.526112	4.41482	0.641727	5.38307	0.884304	7.42922	0.356162	2.98162	0.506388	4.22729	0.746167	6.24302	0.92852	7.75382
0.36323	3.02001	0.216907	1.77682	0.363456	3.01797	0.527314	4.39059	0.642925	5.35129	0.885007	7.37738	0.358253	2.97592	0.507647	4.2051	0.746895	6.20077	0.929217	7.69974
0.364585	3.00797	0.218935	1.77984	0.364813	3.00599	0.528523	4.36678	0.64413	5.32007	0.885715	7.32638	0.360345	2.97031	0.508914	4.1833	0.747627	6.15921	0.929919	7.64652
0.365956	2.99625	0.220963	1.78283	0.366186	2.99432	0.529738	4.34338	0.645341	5.28937	0.886427	7.2762	0.362438	2.96479	0.510188	4.1619	0.748365	6.11833	0.930626	7.59416
0.367342	2.98483	0.222992	1.78577	0.367575	2.98295	0.530958	4.32038	0.646559	5.25919	0.887145	7.22682	0.364531	2.95935	0.511468	4.14087	0.749109	6.07811	0.931338	7.54262
0.368744	2.97371	0.225021	1.78867	0.36898	2.97188	0.532185	4.29778	0.647784	5.22952	0.887868	7.17823	0.366624	2.954	0.512756	4.12022	0.749857	6.03853	0.932054	7.49188
0.370163	2.96289	0.22705	1.79154	0.370402	2.96111	0.533418	4.27556	0.649014	5.20034	0.888595	7.1304	0.368717	2.94873	0.514051	4.09993	0.75061	5.99959	0.932774	7.44195
0.371599	2.95237	0.22908	1.79436	0.371841	2.95064	0.534656	4.25372	0.650252	5.17165	0.889328	7.08332	0.370811	2.94355	0.515353	4.07999	0.751369	5.96126	0.9335	7.39278
0.373052	2.94213	0.23111	1.79715	0.373297	2.94045	0.5359	4.23225	0.651496	5.14343	0.890065	7.03697	0.372905	2.93844	0.516662	4.06041	0.752133	5.92353	0.93423	7.34437
0.374522	2.93218	0.23314	1.79989	0.37477	2.93055	0.53715	4.21114	0.652746	5.11567	0.890807	6.99134	0.375	2.9334	0.517977	4.04116	0.752902	5.8864	0.934965	7.2967
0.376011	2.92252	0.23517	1.8026	0.376261	2.92093	0.538406	4.19038	0.654002	5.08836	0.891555	6.94641	0.377094	2.92845	0.5193	4.02224	0.753676	5.84984	0.935704	7.24976
0.377517	2.91313	0.237201	1.80528	0.377771	2.91159	0.539668	4.16996	0.655265	5.06149	0.892307	6.90217	0.379189	2.92356	0.520629	4.00364	0.754455	5.81384	0.936448	7.20352
0.379042	2.90402	0.239232	1.80791	0.379299	2.90253	0.540935	4.14988	0.656534	5.03506	0.893064	6.8586	0.381284	2.91874	0.521966	3.98536	0.75524	5.7784	0.937196	7.15798
0.380586	2.89518	0.241263	1.81052	0.380846	2.89373	0.542208	4.13012	0.657809	5.00905	0.893826	6.81568	0.383379	2.914	0.523309	3.9674	0.756029	5.7435	0.937949	7.11311
0.382149	2.88662	0.243295	1.81309	0.382412	2.88521	0.543487	4.11069	0.65909	4.98345	0.894592	6.77341	0.385474	2.90932	0.524658	3.94973	0.756824	5.70913	0.938707	7.06891
0.383731	2.87831	0.245326	1.81562	0.383998	2.87695	0.544771	4.09157	0.660377	4.95825	0.895364	6.73176	0.387569	2.90471	0.526015	3.93236	0.757624	5.67527	0.939469	7.02536
0.385333	2.87027	0.247358	1.81812	0.385603	2.86895	0.54606	4.07275	0.66167	4.93345	0.89614	6.69073	0.389664	2.90016	0.527378	3.91528	0.758429	5.64192	0.940236	6.98245
0.386955	2.86249	0.24939	1.82059	0.387229	2.86121	0.547355	4.05424	0.662969	4.90903	0.896922	6.6503	0.391759	2.89567	0.528748	3.89848	0.759238	5.60907	0.941007	6.94016
0.388598	2.85496	0.251423	1.82303	0.388874	2.85372	0.548656	4.03602	0.664274	4.885	0.897708	6.61046	0.393854	2.89125	0.530124	3.88197	0.760053	5.57671	0.941783	6.89847
0.39026	2.84768	0.253455	1.82543	0.39054	2.84648	0.549962	4.01808	0.665585	4.86133	0.898499	6.5712	0.395949	2.88688	0.531507	3.86572	0.760873	5.54482	0.942563	6.85739
0.391943	2.84064	0.255487	1.8278	0.392226	2.83949	0.551273	4.00043	0.666902	4.83802	0.899294	6.53251	0.398044	2.88258	0.532897	3.84974	0.761698	5.5134	0.943348	6.81689
0.393646	2.83385	0.25752	1.83015	0.393933	2.83274	0.552589	3.98306	0.668225	4.81507	0.900095	6.49437	0.40014	2.87833	0.534293	3.83402	0.762528	5.48243	0.944137	6.77697
0.39537	2.8273	0.259553	1.83246	0.395661	2.82623	0.553911	3.96595	0.669553	4.79247	0.9009	6.45678	0.402234	2.87413	0.535695	3.81855	0.763363	5.45192	0.944931	6.7376
0.397115	2.82098	0.261586	1.83474	0.397409	2.81995	0.555238	3.94911	0.670887	4.77021	0.90171	6.41971	0.404329	2.87	0.537104	3.80333	0.764204	5.42184	0.945729	6.69879
0.398881	2.8149	0.263619	1.837	0.399178	2.8139	0.55657	3.93252	0.672227	4.74828	0.902525	6.38317	0.406424	2.86591	0.538519	3.78836	0.765049	5.39219	0.946531	6.66052
0.400667	2.80903	0.265652	1.83922	0.400967	2.80807	0.557907	3.91619	0.673573	4.72668	0.903344	6.34715	0.408518	2.86188	0.539941	3.77363	0.765899	5.36297	0.947338	6.62278
0.402473	2.80339	0.267685	1.84142	0.402777	2.80246	0.55925	3.90011	0.674924	4.7054	0.904168	6.31162	0.410612	2.85789	0.541369	3.75913	0.766754	5.33415	0.948149	6.58556
0.4043	2.79795	0.269718	1.84359	0.404608	2.79707	0.560597	3.88426	0.67628	4.68443	0.904997	6.27658	0.412706	2.85396	0.542803	3.74486	0.767614	5.30575	0.948965	6.54884
0.406148	2.79273	0.271751	1.84573	0.406459	2.79188	0.56195	3.86866	0.677643	4.66376	0.905831	6.24203	0.4148	2.85008	0.544244	3.73082	0.768479	5.27774	0.949785	6.51263
0.408015	2.78771	0.273784	1.84785	0.408329	2.78689	0.563307	3.85329	0.67901	4.6434	0.906669	6.20795	0.416894	2.84624	0.545691	3.717	0.769349	5.25012	0.950609	6.4769
0.409902	2.78289	0.275818	1.84994	0.41022	2.7821	0.564669	3.83815	0.680383	4.62333	0.907512	6.17434	0.418987	2.84245	0.547144	3.70339	0.770224	5.22288	0.951438	6.44166
0.411809	2.77826	0.277851	1.85201	0.412129	2.7775	0.566037	3.82323	0.681762	4.60355	0.90836	6.14118	0.42108	2.83871	0.548603	3.69	0.771104	5.19602	0.952271	6.40688
0.413734	2.77382	0.279884	1.85404	0.414058	2.77309	0.567409	3.80853	0.683146	4.58406	0.909212	6.10846	0.423172	2.83501	0.550068	3.67681	0.771988	5.16953	0.953108	6.37257
0.415679	2.76955	0.281918	1.85606	0.416006	2.76886	0.568786	3.79405	0.684535	4.56484	0.910069	6.07619	0.425264	2.83135	0.551539	3.66383	0.772878	5.14339	0.95395	6.33871
0.417641	2.76546	0.283951	1.85805	0.417971	2.76479	0.570168	3.77977	0.685929	4.5459	0.910931	6.04434	0.427356	2.82774	0.553017	3.65105	0.773772	5.11762	0.954796	6.3053
0.419622	2.76154	0.285984	1.86001	0.419955	2.7609	0.571554	3.76571	0.687329	4.52722	0.911797	6.01292	0.429448	2.82417	0.5545	3.63846	0.774672	5.09219	0.955646	6.27232
0.42162	2.75778	0.288018	1.86196	0.421956	2.75717	0.572946	3.75184	0.688733	4.5088	0.912668	5.98191	0.431539	2.82063	0.55599	3.62607	0.775576	5.0671	0.9565	6.23977
0.423635	2.75418	0.290051	1.86387	0.423974	2.75359	0.574342	3.73818	0.690143	4.49064	0.913544	5.9513	0.433629	2.81714	0.557485	3.61386	0.776485	5.04235	0.957359	6.20764
0.425667	2.75072	0.292084	1.86577	0.426008	2.75016	0.575742	3.72471	0.691558	4.47273	0.914424	5.9211	0.435719	2.81369	0.558987	3.60184	0.777399	5.01792	0.958222	6.17593
0.427714	2.74741	0.294118	1.86764	0.428058	2.74687	0.577148	3.71143	0.692979	4.45507	0.915309	5.89128	0.437809	2.81028	0.560494	3.59	0.778318	4.99382	0.959089	6.14462
0.429777	2.74424	0.296151	1.86949	0.430123	2.74372	0.578558	3.69834	0.694404	4.43766	0.916198	5.86186	0.439898	2.8069	0.562008	3.57834	0.779242	4.97004	0.959961	6.11371
0.431855	2.7412	0.298184	1.87132	0.432204	2.7407	0.579972	3.68543	0.695834	4.42048	0.917092	5.83281	0.441987	2.80356	0.563527	3.56686	0.780171	4.94656	0.960836	6.08319
0.433947	2.73829	0.300217	1.87313	0.434298	2.73781	0.581391	3.6727	0.697269	4.40353	0.917991	5.80413	0.444075	2.80026	0.565052	3.55554	0.781104	4.9234	0.961716	6.05305
0.436053	2.73549	0.30225	1.87491	0.436407	2.73504	0.582815	3.66015	0.698709	4.38681	0.918894	5.77581	0.446163	2.79699	0.566583	3.54439	0.782042	4.90053	0.9626	6.02329
0.438173	2.73282	0.304283	1.87668	0.438529	2.73238	0.584243	3.64778	0.700154	4.37032	0.919801	5.74786	0.44825	2.79375	0.568119	3.53341	0.782985	4.87796	0.963488	5.99391
0.440305	2.73025	0.306316	1.87842	0.440663	2.72983	0.585675	3.63557	0.701604	4.35405	0.920713	5.72025	0.450336	2.79055	0.569661	3.52259	0.783933	4.85568	0.96438	5.96488
0.44245	2.72779	0.308349	1.88015	0.44281	2.72739	0.587112	3.62353	0.703058	4.33799	0.92163	5.69299	0.452422	2.78739	0.571209	3.51193	0.784885	4.83369	0.965276	5.93622
0.444607	2.72543	0.310382	1.88185	0.444969	2.72505	0.588553	3.61166	0.704518	4.32215	0.922551	5.66607	0.454507	2.78425	0.572763	3.50143	0.785842	4.81197	0.966177	5.9079
0.446775	2.72317	0.312414	1.88354	0.447139	2.7228	0.589998	3.59995	0.705982	4.30652	0.923476	5.63949	0.456592	2.78115	0.574323	3.49108	0.786804	4.79053	0.967081	5.87994
0.448954	2.721	0.314447	1.8852	0.449319	2.72065	0.591448	3.5884	0.707451	4.29109	0.924407	5.61323	0.458676	2.77808	0.575888	3.48088	0.787771	4.76936	0.96799	5.85231
0.451143	2.71892	0.316479	1.88685	0.45151	2.71858	0.592902	3.577	0.708924	4.27586	0.925341	5.58729	0.460759	2.77503	0.577458	3.47082	0.788743	4.74846	0.968902	5.82502
0.453343	2.71692	0.318512	1.88847	0.453711	2.71659	0.59436	3.56575	0.710402	4.26083	0.92628	5.56168	0.462841	2.77202	0.579035	3.46092	0.789719	4.72782	0.969819	5.79805
0.455552	2.71499	0.320544	1.89008	0.455922	2.71468	0.595823	3.55466	0.711885	4.246	0.927223	5.53637	0.464923	2.76904	0.580616	3.45115	0.7907	4.70743	0.97074	5.77141
0.45777	2.71315	0.322576	1.89167	0.458142	2.71285	0.59729	3.54371	0.713372	4.23135	0.928171	5.51137	0.467004	2.76609	0.582204	3.44153	0.791685	4.6873	0.971664	5.74508
0.459996	2.71137	0.324608	1.89324	0.46037	2.71108	0.59876	3.53291	0.714864	4.2169	0.929124	5.48667	0.469085	2.76316	0.583796	3.43204	0.792675	4.66742	0.972593	5.71907
0.462232	2.70967	0.32664	1.8948	0.462606	2.70939	0.600235	3.52225	0.71636	4.20263	0.93008	5.46227	0.471165	2.76026	0.585395	3.42269	0.79367	4.64778	0.973526	5.69336
0.464475	2.70803	0.328672	1.89634	0.464851	2.70776	0.601714	3.51173	0.717861	4.18854	0.931041	5.43815	0.473243	2.75739	0.586998	3.41347	0.79467	4.62838	0.974463	5.66796
0.466726	2.70645	0.330703	1.89785	0.467103	2.70619	0.603197	3.50134	0.719366	4.17462	0.932007	5.41433	0.475322	2.75454	0.588607	3.40438	0.795674	4.60922	0.975403	5.64285
0.468984	2.70493	0.332735	1.89936	0.469362	2.70468	0.604684	3.49109	0.720875	4.16088	0.932977	5.39079	0.477399	2.75173	0.590222	3.39542	0.796683	4.59029	0.976348	5.61803
0.471249	2.70346	0.334766	1.90084	0.471628	2.70323	0.606176	3.48098	0.722389	4.14732	0.933951	5.36752	0.479475	2.74893	0.591842	3.38659	0.797697	4.57158	0.977297	5.5935
0.47352	2.70205	0.336797	1.90231	0.473901	2.70182	0.607671	3.47099	0.723907	4.13392	0.93493	5.34453	0.481551	2.74616	0.593467	3.37788	0.798715	4.55311	0.978249	5.56926
0.475798	2.70069	0.338828	1.90377	0.47618	2.70047	0.60917	3.46114	0.725429	4.12069	0.935913	5.3218	0.483626	2.74342	0.595097	3.3693	0.799738	4.53485	0.979206	5.54529
0.478082	2.69938	0.340859	1.9052	0.478465	2.69917	0.610673	3.4514	0.726955	4.10762	0.9369	5.29934	0.4857	2.7407	0.596733	3.36083	0.800765	4.51682	0.980166	5.52159
0.480372	2.69812	0.34289	1.90662	0.480755	2.69791	0.612179	3.4418	0.728486	4.09472	0.937892	5.27714	0.487773	2.738	0.598374	3.35248	0.801797	4.49899	0.98113	5.49817
0.482667	2.69689	0.34492	1.90803	0.483051	2.69669	0.61369	3.43231	0.730021	4.08197	0.938888	5.25519	0.489846	2.73533	0.60002	3.34425	0.802833	4.48138	0.982099	5.47501
0.484967	2.69571	0.346951	1.90942	0.485352	2.69552	0.615205	3.42295	0.73156	4.06937	0.939888	5.2335	0.491917	2.73268	0.601672	3.33613	0.803875	4.46398	0.983071	5.45211
0.487273	2.69457	0.348981	1.9108	0.487659	2.69439	0.616723	3.4137	0.733103	4.05693	0.940893	5.21205	0.493987	2.73005	0.603329	3.32812	0.80492	4.44678	0.984047	5.42947
0.489583	2.69347	0.351011	1.91216	0.48997	2.69329	0.618245	3.40457	0.73465	4.04464	0.941901	5.19085	0.496057	2.72745	0.60499	3.32022	0.80597	4.42978	0.985026	5.40708
0.491898	2.69241	0.353041	1.9135	0.492285	2.69223	0.619771	3.39555	0.736202	4.03249	0.942914	5.16989	0.498126	2.72486	0.606657	3.31243	0.807025	4.41298	0.98601	5.38494
0.494217	2.69138	0.355071	1.91483	0.494605	2.69121	0.621301	3.38664	0.737757	4.02049	0.943932	5.14916	0.500193	2.7223	0.608329	3.30475	0.808084	4.39637	0.986997	5.36304
0.49654	2.69038	0.3571	1.91615	0.496929	2.69021	0.622834	3.37784	0.739316	4.00864	0.944953	5.12867	0.50226	2.71975	0.610006	3.29717	0.809148	4.37996	0.987988	5.34138
0.498867	2.68941	0.359129	1.91745	0.499257	2.68925	0.624371	3.36916	0.740879	3.99692	0.945979	5.10841	0.504326	2.71723	0.611688	3.2897	0.810216	4.36373	0.988983	5.31997
0.501198	2.68847	0.361158	1.91874	0.501588	2.68832	0.625912	3.36057	0.742446	3.98534	0.947009	5.08837	0.506391	2.71473	0.613375	3.28232	0.811289	4.34769	0.989982	5.29878
0.503533	2.68756	0.363187	1.92002	0.503923	2.68741	0.627456	3.3521	0.744017	3.9739	0.948044	5.06855	0.508455	2.71225	0.615067	3.27505	0.812366	4.33184	0.990985	5.27783
0.505871	2.68668	0.365216	1.92128	0.506262	2.68654	0.629004	3.34372	0.745592	3.96259	0.949082	5.04896	0.510517	2.70978	0.616764	3.26787	0.813448	4.31616	0.991991	5.2571
0.508212	2.68583	0.367245	1.92253	0.508604	2.68569	0.630555	3.33545	0.74717	3.95142	0.950125	5.02957	0.512579	2.70734	0.618466	3.26079	0.814534	4.30066	0.993001	5.2366
0.510557	2.685	0.369273	1.92376	0.510949	2.68486	0.63211	3.32728	0.748752	3.94037	0.951172	5.01041	0.51464	2.70491	0.620173	3.25381	0.815624	4.28534	0.994015	5.21631
0.512904	2.68419	0.371301	1.92499	0.513297	2.68406	0.633669	3.3192	0.750338	3.92945	0.952223	4.99144	0.5167	2.70251	0.621885	3.24692	0.816719	4.27019	0.995032	5.19625
0.515254	2.68341	0.373329	1.9262	0.515648	2.68328	0.635231	3.31123	0.751928	3.91865	0.953278	4.97269	0.518759	2.70012	0.623601	3.24012	0.817819	4.25521	0.996053	5.17639
0.517608	2.68264	0.375357	1.92739	0.518001	2.68252	0.636797	3.30335	0.753522	3.90798	0.954338	4.95414	0.520817	2.69774	0.625323	3.23341	0.818923	4.2404	0.997078	5.15675
0.519963	2.6819	0.377384	1.92858	0.520358	2.68178	0.638366	3.29556	0.755119	3.89743	0.955401	4.93579	0.522873	2.69539	0.627049	3.22679	0.820031	4.22575	0.998106	5.13732
0.522322	2.68118	0.379411	1.92975	0.522716	2.68106	0.639939	3.28786	0.756719	3.887	0.956469	4.91763	0.524929	2.69305	0.62878	3.22026	0.821144	4.21126	0.999139	5.11809
0.524682	2.68048	0.381438	1.93091	0.525077	2.68037	0.641515	3.28026	0.758324	3.87669	0.957541	4.89967	0.526983	2.69073	0.630516	3.21381	0.822261	4.19694	1.00017	5.09906
0.527045	2.6798	0.383465	1.93205	0.527441	2.67969	0.643094	3.27274	0.759931	3.86649	0.958617	4.88191	0.529037	2.68843	0.632256	3.20745	0.823382	4.18277		
0.52941	2.67913	0.385492	1.93319	0.529806	2.67902	0.644677	3.26531	0.761543	3.85641	0.959697	4.86433	0.531089	2.68614	0.634001	3.20118	0.824508	4.16876		
0.531778	2.67848	0.387518	1.93431	0.532174	2.67838	0.646263	3.25797	0.763158	3.84644	0.960781	4.84693	0.533141	2.68387	0.635751	3.19498	0.825638	4.1549		
0.534147	2.67785	0.389544	1.93543	0.534543	2.67774	0.647852	3.25072	0.764776	3.83658	0.961869	4.82972	0.535191	2.68161	0.637506	3.18887	0.826772	4.14119		
0.536518	2.67723	0.39157	1.93653	0.536915	2.67713	0.649445	3.24355	0.766398	3.82683	0.962961	4.81269	0.53724	2.67937	0.639265	3.18283	0.827911	4.12763		
0.538891	2.67663	0.393596	1.93762	0.539288	2.67653	0.651041	3.23646	0.768023	3.81719	0.964058	4.79584	0.539288	2.67714	0.641028	3.17688	0.829054	4.11422		
0.541266	2.67604	0.395621	1.9387	0.541663	2.67594	0.652641	3.22945	0.769651	3.80765	0.965158	4.77916	0.541335	2.67493	0.642797	3.171	0.830202	4.10095		
0.543642	2.67546	0.397646	1.93977	0.544039	2.67537	0.654244	3.22253	0.771283	3.79822	0.966262	4.76266	0.543381	2.67274	0.644569	3.16519	0.831353	4.08783		
0.54602	2.6749	0.399671	1.94082	0.546418	2.67481	0.65585	3.21568	0.772919	3.78889	0.967371	4.74632	0.545425	2.67056	0.646346	3.15947	0.832509	4.07485		
0.548399	2.67435	0.401696	1.94187	0.548797	2.67426	0.657459	3.20891	0.774557	3.77965	0.968483	4.73016	0.547469	2.66839	0.648128	3.15381	0.833669	4.062		
0.55078	2.67381	0.40372	1.9429	0.551178	2.67372	0.659071	3.20222	0.776199	3.77052	0.9696	4.71416	0.549511	2.66624	0.649914	3.14823	0.834834	4.04929		
0.553162	2.67329	0.405745	1.94393	0.553561	2.6732	0.660687	3.1956	0.777844	3.76149	0.97072	4.69833	0.551553	2.6641	0.651705	3.14272	0.836003	4.03672		
0.555546	2.67277	0.407769	1.94495	0.555945	2.67269	0.662305	3.18906	0.779492	3.75255	0.971845	4.68265	0.553593	2.66197	0.6535	3.13728	0.837176	4.02428		
0.557931	2.67227	0.409792	1.94595	0.55833	2.67218	0.663927	3.18259	0.781144	3.74371	0.972973	4.66714	0.555632	2.65986	0.655299	3.13191	0.838353	4.01197		
0.560317	2.67177	0.411816	1.94695	0.560716	2.67169	0.665552	3.1762	0.782798	3.73497	0.974105	4.65178	0.55767	2.65776	0.657103	3.12661	0.839534	3.99979		
0.562704	2.67129	0.413839	1.94793	0.563103	2.67121	0.667181	3.16987	0.784456	3.72631	0.975242	4.63658	0.559706	2.65568	0.658911	3.12137	0.84072	3.98774		
0.565092	2.67081	0.415862	1.94891	0.565492	2.67073	0.668812	3.16362	0.786117	3.71775	0.976382	4.62153	0.561742	2.6536	0.660723	3.11621	0.84191	3.97581		
0.567481	2.67035	0.417885	1.94987	0.567881	2.67027	0.670446	3.15744	0.787781	3.70927	0.977526	4.60663	0.563776	2.65154	0.66254	3.1111	0.843104	3.96401		
0.569872	2.66989	0.419907	1.95083	0.570271	2.66981	0.672084	3.15132	0.789448	3.70089	0.978674	4.59188	0.56581	2.6495	0.66436	3.10606	0.844302	3.95233		
0.572263	2.66944	0.42193	1.95177	0.572663	2.66936	0.673724	3.14527	0.791118	3.69259	0.979826	4.57727	0.567842	2.64746	0.666185	3.10109	0.845505	3.94077		
0.574655	2.669	0.423951	1.95271	0.575055	2.66892	0.675368	3.13929	0.792791	3.68437	0.980982	4.56281	0.569873	2.64544	0.668014	3.09617	0.846711	3.92933		
0.577048	2.66856	0.425973	1.95364	0.577448	2.66849	0.677015	3.13337	0.794467	3.67624	0.982142	4.5485	0.571902	2.64343	0.669848	3.09132	0.847922	3.91801		
0.579441	2.66814	0.427995	1.95456	0.579842	2.66807	0.678664	3.12752	0.796146	3.6682	0.983306	4.53432	0.573931	2.64143	0.671685	3.08653	0.849137	3.9068		
0.581836	2.66772	0.430016	1.95547	0.582236	2.66765	0.680317	3.12174	0.797828	3.66024	0.984474	4.52028	0.575959	2.63944	0.673527	3.0818	0.850356	3.89571		
0.584231	2.6673	0.432037	1.95637	0.584631	2.66724	0.681973	3.11601	0.799513	3.65235	0.985645	4.50639	0.577985	2.63747	0.675372	3.07712	0.851579	3.88473		
0.586627	2.6669	0.434057	1.95726	0.587027	2.66683	0.683631	3.11035	0.8012	3.64455	0.98682	4.49262	0.58001	2.6355	0.677222	3.07251	0.852806	3.87387		
0.589023	2.6665	0.436078	1.95815	0.589424	2.66643	0.685293	3.10475	0.802891	3.63683	0.987999	4.47899	0.582034	2.63355	0.679075	3.06795	0.854037	3.86311		
0.59142	2.6661	0.438098	1.95902	0.591821	2.66604	0.686957	3.09921	0.804584	3.62918	0.989182	4.46549	0.584057	2.63161	0.680933	3.06345	0.855273	3.85246		
0.593817	2.66572	0.440118	1.95989	0.594218	2.66565	0.688625	3.09373	0.80628	3.62161	0.990369	4.45213	0.586078	2.62968	0.682794	3.059	0.856512	3.84192		
0.596215	2.66533	0.442137	1.96075	0.596616	2.66527	0.690295	3.0883	0.807979	3.61412	0.99156	4.43889	0.588099	2.62776	0.684659	3.0546	0.857756	3.83149		
0.598614	2.66495	0.444157	1.9616	0.599015	2.66489	0.691969	3.08294	0.809681	3.6067	0.992754	4.42577	0.590118	2.62585	0.686529	3.05026	0.859003	3.82116		
0.601013	2.66458	0.446176	1.96244	0.601414	2.66452	0.693645	3.07763	0.811385	3.59935	0.993953	4.41279	0.592136	2.62395	0.688402	3.04598	0.860255	3.81093		
0.603412	2.66421	0.448195	1.96327	0.603813	2.66415	0.695324	3.07238	0.813092	3.59208	0.995155	4.39992	0.594153	2.62207	0.690279	3.04174	0.861511	3.80081		
0.605812	2.66385	0.450213	1.9641	0.606213	2.66379	0.697006	3.06719	0.814802	3.58488	0.99636	4.38718	0.596169	2.62019	0.692159	3.03756	0.86277	3.79078		
0.608212	2.66349	0.452231	1.96492	0.608613	2.66343	0.698691	3.06205	0.816514	3.57775	0.99757	4.37456	0.598184	2.61832	0.694044	3.03343	0.864034	3.78086		
0.610612	2.66314	0.454249	1.96573	0.611013	2.66308	0.700379	3.05696	0.818229	3.57068	0.998783	4.36206	0.600198	2.61647	0.695932	3.02934	0.865302	3.77103		
0.613012	2.66279	0.456267	1.96653	0.613414	2.66273	0.702069	3.05193	0.819947	3.56369	1	4.34968	0.60221	2.61462	0.697824	3.02531	0.866573	3.7613		
0.615413	2.66244	0.458284	1.96733	0.615815	2.66238	0.703763	3.04695	0.821667	3.55676			0.604222	2.61278	0.699719	3.02132	0.867849	3.75167		
0.617814	2.6621	0.460301	1.96811	0.618216	2.66204	0.705459	3.04202	0.82339	3.5499			0.606232	2.61096	0.701618	3.01738	0.869129	3.74213		
0.620215	2.66176	0.462318	1.96889	0.620617	2.6617	0.707158	3.03715	0.825115	3.54311			0.608241	2.60914	0.703521	3.01349	0.870413	3.73268		
0.622617	2.66142	0.464335	1.96967	0.623018	2.66137	0.70886	3.03232	0.826843	3.53638			0.610249	2.60733	0.705428	3.00965	0.8717	3.72333		
0.625018	2.66109	0.466351	1.97043	0.62542	2.66103	0.710565	3.02755	0.828573	3.52972			0.612256	2.60554	0.707337	3.00585	0.872992	3.71406		
0.62742	2.66076	0.468367	1.97119	0.627821	2.66071	0.712272	3.02282	0.830306	3.52311			0.614261	2.60375	0.709251	3.00209	0.874287	3.70489		
0.629821	2.66043	0.470383	1.97194	0.630223	2.66038	0.713982	3.01815	0.832041	3.51657			0.616266	2.60197	0.711168	2.99838	0.875587	3.6958		
0.632223	2.66011	0.472398	1.97268	0.632625	2.66005	0.715695	3.01352	0.833779	3.5101			0.61827	2.6002	0.713088	2.99471	0.87689	3.68681		
0.634625	2.65979	0.474414	1.97342	0.635026	2.65973	0.717411	3.00894	0.835519	3.50368			0.620272	2.59844	0.715012	2.99109	0.878197	3.6779		
0.637026	2.65947	0.476429	1.97415	0.637428	2.65941	0.71913	3.00441	0.837261	3.49732			0.622273	2.59669	0.716939	2.98751	0.879509	3.66907		
0.639428	2.65915	0.478443	1.97488	0.639829	2.6591	0.720851	2.99993	0.839006	3.49102			0.624274	2.59495	0.71887	2.98397	0.880824	3.66033		
0.641829	2.65884	0.480458	1.97559	0.642231	2.65878	0.722576	2.99549	0.840753	3.48478			0.626273	2.59321	0.720803	2.98047	0.882143	3.65167		
0.644231	2.65852	0.482472	1.9763	0.644632	2.65847	0.724303	2.99109	0.842503	3.4786			0.628271	2.59149	0.722741	2.97701	0.883466	3.6431		
0.646632	2.65821	0.484485	1.97701	0.647033	2.65816	0.726032	2.98675	0.844254	3.47248			0.630268	2.58978	0.724681	2.97359	0.884792	3.63461		
0.649033	2.6579	0.486499	1.9777	0.649435	2.65785	0.727765	2.98244	0.846008	3.46641			0.632264	2.58807	0.726625	2.97021	0.886123	3.62619		
0.651434	2.65759	0.488512	1.9784	0.651835	2.65754	0.7295	2.97818	0.847765	3.46039			0.634259	2.58637	0.728572	2.96687	0.887457	3.61786		
0.653835	2.65729	0.490525	1.97908	0.654236	2.65724	0.731238	2.97396	0.849523	3.45443			0.636253	2.58468	0.730522	2.96357	0.888796	3.60961		
0.656235	2.65698	0.492538	1.97976	0.656637	2.65693	0.732979	2.96979	0.851284	3.44853			0.638246	2.583	0.732475	2.9603	0.890138	3.60143		
0.658635	2.65668	0.49455	1.98043	0.659037	2.65663	0.734722	2.96566	0.853047	3.44268			0.640238	2.58133	0.734431	2.95707	0.891484	3.59333		
0.661035	2.65638	0.496562	1.9811	0.661437	2.65633	0.736469	2.96157	0.854812	3.43688			0.642229	2.57967	0.73639	2.95388	0.892834	3.58531		
0.663435	2.65608	0.498574	1.98176	0.663836	2.65602	0.738218	2.95752	0.856579	3.43113			0.644219	2.57801	0.738353	2.95073	0.894187	3.57736		
0.665834	2.65577	0.500585	1.98241	0.666235	2.65572	0.73997	2.95352	0.858348	3.42543			0.646208	2.57637	0.740318	2.9476	0.895544	3.56948		
0.668233	2.65547	0.502597	1.98306	0.668634	2.65542	0.741724	2.94955	0.86012	3.41978			0.648196	2.57473	0.742287	2.94452	0.896906	3.56168		
0.670631	2.65517	0.504607	1.9837	0.671032	2.65512	0.743481	2.94563	0.861893	3.41419			0.650183	2.5731	0.744258	2.94147	0.898271	3.55395		
0.673029	2.65488	0.506618	1.98434	0.67343	2.65483	0.745242	2.94174	0.863669	3.40864			0.652169	2.57148	0.746232	2.93845	0.899639	3.5463		
0.675427	2.65458	0.508628	1.98497	0.675828	2.65453	0.747004	2.93789	0.865446	3.40314			0.654154	2.56986	0.748209	2.93547	0.901012	3.53871		
0.677824	2.65428	0.510638	1.98559	0.678225	2.65423	0.74877	2.93409	0.867226	3.39769			0.656138	2.56826	0.750189	2.93251	0.902388	3.53119		
0.680221	2.65398	0.512648	1.98621	0.680621	2.65393	0.750538	2.93032	0.869008	3.39229			0.658121	2.56666	0.752172	2.9296	0.903768	3.52375		
0.682617	2.65368	0.514658	1.98682	0.683017	2.65363	0.75231	2.92659	0.870791	3.38694			0.660103	2.56507	0.754158	2.92671	0.905152	3.51637		
0.685012	2.65339	0.516667	1.98743	0.685413	2.65334	0.754083	2.92289	0.872577	3.38163			0.662085	2.56349	0.756146	2.92385	0.906539	3.50906		
0.687407	2.65309	0.518676	1.98803	0.687808	2.65304	0.75586	2.91924	0.874364	3.37636			0.664065	2.56191	0.758137	2.92103	0.90793	3.50181		
0.689801	2.65279	0.520684	1.98863	0.690202	2.65274	0.75764	2.91562	0.876154	3.37114			0.666044	2.56035	0.760131	2.91824	0.909325	3.49463		
0.692195	2.65249	0.522693	1.98922	0.692595	2.65244	0.759422	2.91204	0.877945	3.36597			0.668023	2.55879	0.762127	2.91547	0.910724	3.48752		
0.694588	2.65219	0.524701	1.98981	0.694988	2.65214	0.761207	2.90849	0.879739	3.36084			0.670001	2.55724	0.764126	2.91274	0.912126	3.48047		
0.69698	2.65189	0.526708	1.99039	0.69738	2.65184	0.762995	2.90498	0.881534	3.35575			0.671978	2.55569	0.766128	2.91003	0.913532	3.47349		
0.699371	2.65159	0.528716	1.99097	0.699771	2.65154	0.764786	2.90151	0.883331	3.35071			0.673954	2.55416	0.768132	2.90736	0.914942	3.46657		
0.701762	2.65129	0.530723	1.99154	0.702162	2.65124	0.766579	2.89807	0.88513	3.34571			0.675929	2.55263	0.770139	2.90471	0.916355	3.45971		
0.704152	2.65098	0.53273	1.9921	0.704551	2.65093	0.768376	2.89466	0.88693	3.34075			0.677903	2.55111	0.772148	2.90209	0.917772	3.45292		
0.706541	2.65068	0.534736	1.99267	0.70694	2.65063	0.770175	2.8913	0.888733	3.33583			0.679877	2.5496	0.77416	2.89949	0.919193	3.44618		
0.708929	2.65038	0.536743	1.99322	0.709328	2.65033	0.771977	2.88796	0.890537	3.33096			0.681849	2.54809	0.776174	2.89693	0.920617	3.43951		
0.711316	2.65007	0.538749	1.99377	0.711715	2.65002	0.773782	2.88466	0.892343	3.32612			0.683821	2.5466	0.77819	2.89439	0.922045	3.43289		
0.713702	2.64976	0.540754	1.99432	0.714101	2.64971	0.77559	2.88139	0.894151	3.32133			0.685792	2.54511	0.780209	2.89188	0.923477	3.42634		
0.716087	2.64945	0.54276	1.99486	0.716486	2.6494	0.777401	2.87816	0.89596	3.31657			0.687763	2.54362	0.78223	2.88939	0.924912	3.41984		
0.718472	2.64914	0.544765	1.9954	0.71887	2.64909	0.779215	2.87495	0.897772	3.31185			0.689732	2.54215	0.784254	2.88693	0.926351	3.4134		
0.720855	2.64883	0.54677	1.99593	0.721253	2.64878	0.781032	2.87179	0.899585	3.30717			0.691701	2.54068	0.786279	2.88449	0.927794	3.40702		
0.723237	2.64852	0.548774	1.99646	0.723635	2.64846	0.782852	2.86865	0.901399	3.30253			0.693669	2.53922	0.788307	2.88208	0.92924	3.4007		
0.725618	2.6482	0.550778	1.99698	0.726016	2.64815	0.784675	2.86555	0.903216	3.29793			0.695636	2.53776	0.790338	2.8797	0.93069	3.39443		
0.727998	2.64788	0.552782	1.9975	0.728396	2.64783	0.786501	2.86247	0.905034	3.29336			0.697603	2.53632	0.79237	2.87733	0.932143	3.38822		
0.730376	2.64756	0.554786	1.99801	0.730774	2.64751	0.788329	2.85943	0.906853	3.28884			0.699569	2.53488	0.794404	2.875	0.9336	3.38206		
0.732754	2.64724	0.556789	1.99852	0.733151	2.64718	0.790161	2.85643	0.908674	3.28434			0.701534	2.53345	0.796441	2.87268	0.935061	3.37595		
0.735129	2.64691	0.558792	1.99902	0.735527	2.64686	0.791996	2.85345	0.910497	3.27989			0.703498	2.53202	0.79848	2.87039	0.936525	3.3699		
0.737504	2.64658	0.560795	1.99952	0.737901	2.64653	0.793834	2.8505	0.912321	3.27546			0.705462	2.5306	0.800521	2.86812	0.937992	3.36391		
0.739877	2.64625	0.562798	2.00002	0.740274	2.6462	0.795676	2.84759	0.914147	3.27108			0.707425	2.52919	0.802563	2.86587	0.939464	3.35796		
0.742249	2.64592	0.5648	2.00051	0.742646	2.64586	0.79752	2.8447	0.915975	3.26673			0.709387	2.52779	0.804608	2.86364	0.940938	3.35207		
0.74462	2.64558	0.566802	2.001	0.745016	2.64553	0.799368	2.84185	0.917804	3.26241			0.711349	2.52639	0.806655	2.86144	0.942417	3.34623		
0.746989	2.64524	0.568804	2.00148	0.747385	2.64519	0.801219	2.83903	0.919634	3.25813			0.71331	2.525	0.808703	2.85926	0.943899	3.34044		
0.749356	2.6449	0.570805	2.00196	0.749752	2.64484	0.803073	2.83623	0.921466	3.25388			0.715271	2.52362	0.810754	2.85709	0.945384	3.33471		
0.751722	2.64455	0.572806	2.00244	0.752117	2.6445	0.80493	2.83347	0.9233	3.24966			0.717231	2.52224	0.812806	2.85495	0.946873	3.32902		
0.754086	2.6442	0.574807	2.00291	0.754481	2.64414	0.806791	2.83073	0.925135	3.24547			0.71919	2.52087	0.81486	2.85283	0.948366	3.32338		
0.756448	2.64385	0.576807	2.00337	0.756843	2.64379	0.808655	2.82803	0.926971	3.24132			0.721149	2.51951	0.816916	2.85073	0.949862	3.31779		
0.758809	2.64349	0.578807	2.00384	0.759204	2.64343	0.810522	2.82535	0.928809	3.2372			0.723107	2.51815	0.818974	2.84865	0.951361	3.31225		
0.761168	2.64313	0.580807	2.00429	0.761562	2.64307	0.812393	2.82271	0.930648	3.23311			0.725065	2.51681	0.821033	2.84659	0.952864	3.30675		
0.763525	2.64277	0.582807	2.00475	0.763919	2.6427	0.814267	2.82009	0.932489	3.22906			0.727022	2.51546	0.823095	2.84455	0.954371	3.30131		
0.76588	2.6424	0.584806	2.0052	0.766273	2.64233	0.816145	2.8175	0.934331	3.22503			0.728978	2.51413	0.825157	2.84252	0.955881	3.29591		
0.768233	2.64202	0.586805	2.00565	0.768626	2.64196	0.818026	2.81494	0.936175	3.22104			0.730934	2.5128	0.827222	2.84052	0.957395	3.29056		
0.770584	2.64164	0.588804	2.00609	0.770977	2.64158	0.819911	2.81241	0.938019	3.21707			0.732889	2.51148	0.829288	2.83853	0.958912	3.28525		
0.772933	2.64126	0.590802	2.00653	0.773326	2.64119	0.821799	2.80991	0.939866	3.21313			0.734844	2.51016	0.831356	2.83656	0.960432	3.27999		
0.77528	2.64087	0.5928	2.00697	0.775672	2.64081	0.823692	2.80744	0.941713	3.20923			0.736799	2.50885	0.833425	2.83461	0.961956	3.27478		
0.777625	2.64048	0.594798	2.0074	0.778016	2.64041	0.825587	2.80499	0.943562	3.20535			0.738752	2.50755	0.835496	2.83268	0.963484	3.26961		
0.779967	2.64008	0.596796	2.00783	0.780358	2.64001	0.827487	2.80257	0.945412	3.2015			0.740706	2.50626	0.837568	2.83076	0.965015	3.26448		
0.782307	2.63968	0.598793	2.00825	0.782698	2.63961	0.82939	2.80018	0.947263	3.19769			0.742659	2.50497	0.839642	2.82886	0.96655	3.2594		
0.784645	2.63927	0.60079	2.00867	0.785036	2.6392	0.831298	2.79782	0.949116	3.19389			0.744611	2.50368	0.841717	2.82698	0.968087	3.25436		
0.78698	2.63885	0.602787	2.00909	0.78737	2.63878	0.833209	2.79549	0.95097	3.19013			0.746563	2.50241	0.843793	2.82511	0.969629	3.24937		
0.789313	2.63843	0.604783	2.0095	0.789703	2.63836	0.835124	2.79318	0.952825	3.1864			0.748515	2.50114	0.845871	2.82326	0.971174	3.24441		
0.791643	2.638	0.606779	2.00991	0.792032	2.63793	0.837043	2.7909	0.954682	3.18269			0.750466	2.49988	0.84795	2.82143	0.972722	3.2395		
0.793971	2.63757	0.608775	2.01032	0.79436	2.6375	0.838966	2.78865	0.956539	3.17901			0.752417	2.49862	0.850031	2.81961	0.974274	3.23463		
0.796295	2.63713	0.610771	2.01072	0.796684	2.63706	0.840893	2.78643	0.958398	3.17535			0.754367	2.49737	0.852113	2.81781	0.975829	3.22981		
0.798618	2.63669	0.612766	2.01112	0.799006	2.63661	0.842825	2.78423	0.960258	3.17172			0.756317	2.49613	0.854196	2.81602	0.977388	3.22502		
0.800937	2.63624	0.614761	2.01152	0.801324	2.63616	0.84476	2.78207	0.962119	3.16812			0.758266	2.49489	0.85628	2.81425	0.97895	3.22027		
0.803253	2.63578	0.616756	2.01191	0.80364	2.6357	0.8467	2.77992	0.963982	3.16455			0.760215	2.49366	0.858365	2.81249	0.980515	3.21557		
0.805567	2.63531	0.61875	2.0123	0.805953	2.63523	0.848644	2.77781	0.965845	3.16099			0.762164	2.49243	0.860452	2.81075	0.982084	3.2109		
0.807877	2.63484	0.620744	2.01269	0.808263	2.63476	0.850593	2.77572	0.96771	3.15747			0.764113	2.49121	0.86254	2.80902	0.983656	3.20628		
0.810184	2.63436	0.622738	2.01307	0.81057	2.63428	0.852546	2.77366	0.969576	3.15397			0.766061	2.49	0.864629	2.8073	0.985232	3.20169		
0.812488	2.63387	0.624732	2.01345	0.812873	2.63379	0.854503	2.77163	0.971443	3.15049			0.768008	2.48879	0.866718	2.8056	0.986811	3.19714		
0.814789	2.63337	0.626725	2.01383	0.815173	2.63329	0.856465	2.76962	0.973311	3.14704			0.769956	2.48759	0.868809	2.80391	0.988394	3.19263		
0.817086	2.63287	0.628718	2.0142	0.81747	2.63279	0.858432	2.76765	0.97518	3.14362			0.771903	2.4864	0.870901	2.80224	0.98998	3.18816		
0.81938	2.63236	0.630711	2.01458	0.819764	2.63228	0.860403	2.76569	0.97705	3.14021			0.773849	2.48521	0.872994	2.80058	0.991569	3.18373		
0.821671	2.63184	0.632703	2.01494	0.822054	2.63175	0.86238	2.76377	0.978921	3.13683			0.775796	2.48403	0.875088	2.79893	0.993162	3.17933		
0.823958	2.63132	0.634695	2.01531	0.82434	2.63123	0.86436	2.76187	0.980794	3.13348			0.777742	2.48286	0.877183	2.79729	0.994758	3.17497		
0.826241	2.63078	0.636687	2.01567	0.826623	2.63069	0.866346	2.76	0.982667	3.13015			0.779688	2.48169	0.879279	2.79567	0.996358	3.17065		
0.828521	2.63024	0.638679	2.01603	0.828902	2.63014	0.868337	2.75815	0.984541	3.12684			0.781633	2.48052	0.881376	2.79406	0.997961	3.16636		
0.830797	2.62968	0.64067	2.01638	0.831177	2.62959	0.870332	2.75634	0.986417	3.12355			0.783579	2.47936	0.883473	2.79246	0.999567	3.16211		
0.833069	2.62912	0.642661	2.01674	0.833449	2.62903	0.872333	2.75454	0.988293	3.12029			0.785524	2.47821	0.885572	2.79088	1.00118	3.15789		
0.835337	2.62855	0.644652	2.01709	0.835716	2.62846	0.874339	2.75278	0.99017	3.11705			0.787468	2.47707	0.887671	2.7893				
0.837602	2.62797	0.646642	2.01743	0.83798	2.62787	0.87635	2.75104	0.992049	3.11383			0.789413	2.47593	0.889771	2.78774				
0.839862	2.62738	0.648632	2.01778	0.84024	2.62728	0.878366	2.74933	0.993928	3.11063			0.791357	2.47479	0.891871	2.78619				
0.842118	2.62679	0.650622	2.01812	0.842495	2.62668	0.880387	2.74764	0.995808	3.10745			0.793301	2.47367	0.893973	2.78465				
0.84437	2.62618	0.652612	2.01846	0.844747	2.62608	0.882414	2.74598	0.997689	3.1043			0.795245	2.47255	0.896075	2.78312				
0.846618	2.62556	0.654601	2.01879	0.846994	2.62546	0.884446	2.74435	0.999571	3.10116			0.797189	2.47143	0.898177	2.7816				
0.848862	2.62493	0.65659	2.01912	0.849237	2.62483	0.886483	2.74274	1.00145	3.09805			0.799132	2.47032	0.900281	2.78009				
0.851101	2.6243	0.658579	2.01945	0.851475	2.62419	0.888526	2.74116					0.801076	2.46921	0.902385	2.77859				
0.853336	2.62365	0.660567	2.01978	0.853709	2.62354	0.890574	2.7396					0.803019	2.46812	0.904489	2.77711				
0.855567	2.623	0.662556	2.0201	0.855939	2.62289	0.892628	2.73807					0.804962	2.46702	0.906594	2.77563				
0.857793	2.62233	0.664544	2.02043	0.858164	2.62222	0.894687	2.73657					0.806905	2.46594	0.9087	2.77416				
0.860014	2.62165	0.666531	2.02075	0.860385	2.62154	0.896752	2.73509					0.808847	2.46485	0.910806	2.77271				
0.862231	2.62097	0.668519	2.02106	0.862601	2.62085	0.898822	2.73364					0.81079	2.46378	0.912912	2.77126				
0.864443	2.62027	0.670506	2.02138	0.864813	2.62016	0.900899	2.73221					0.812732	2.46271	0.915019	2.76982				
0.866651	2.61957	0.672493	2.02169	0.86702	2.61945	0.90298	2.73081					0.814674	2.46164	0.917127	2.76839				
0.868854	2.61885	0.674479	2.022	0.869222	2.61873	0.905068	2.72943					0.816616	2.46058	0.919235	2.76697				
0.871053	2.61813	0.676465	2.0223	0.87142	2.618	0.907161	2.72808					0.818558	2.45953	0.921343	2.76556				
0.873247	2.61739	0.678451	2.02261	0.873613	2.61727	0.90926	2.72675					0.8205	2.45848	0.923451	2.76416				
0.875436	2.61664	0.680437	2.02291	0.875801	2.61652	0.911365	2.72545					0.822442	2.45744	0.92556	2.76277				
0.87762	2.61589	0.682423	2.02321	0.877985	2.61576	0.913475	2.72417					0.824383	2.4564	0.927669	2.76139				
0.8798	2.61512	0.684408	2.0235	0.880164	2.61499	0.915591	2.72291					0.826325	2.45537	0.929779	2.76001				
0.881974	2.61435	0.686393	2.0238	0.882338	2.61422	0.917713	2.72168					0.828266	2.45435	0.931889	2.75864				
0.884145	2.61356	0.688377	2.02409	0.884507	2.61343	0.919841	2.72048					0.830207	2.45333	0.933998	2.75728				
0.88631	2.61277	0.690362	2.02438	0.886672	2.61263	0.921974	2.71929					0.832149	2.45231	0.936109	2.75593				
0.888471	2.61196	0.692346	2.02466	0.888832	2.61183	0.924113	2.71813					0.83409	2.4513	0.938219	2.75459				
0.890626	2.61115	0.69433	2.02495	0.890987	2.61101	0.926258	2.71699					0.836031	2.4503	0.940329	2.75325				
0.892778	2.61032	0.696313	2.02523	0.893137	2.61019	0.928408	2.71588					0.837972	2.4493	0.94244	2.75193				
0.894924	2.60949	0.698297	2.02551	0.895283	2.60935	0.930564	2.71479					0.839913	2.4483	0.94455	2.75061				
0.897066	2.60865	0.70028	2.02579	0.897424	2.60851	0.932726	2.71372					0.841854	2.44731	0.946661	2.74929				
0.899203	2.6078	0.702263	2.02606	0.899561	2.60766	0.934893	2.71267					0.843795	2.44633	0.948772	2.74799				
0.901336	2.60694	0.704245	2.02633	0.901692	2.6068	0.937065	2.71164					0.845736	2.44535	0.950883	2.74669				
0.903464	2.60607	0.706227	2.0266	0.90382	2.60593	0.939243	2.71064					0.847677	2.44438	0.952993	2.7454				
0.905588	2.6052	0.708209	2.02687	0.905943	2.60505	0.941427	2.70965					0.849618	2.44341	0.955104	2.74411				
0.907707	2.60431	0.710191	2.02714	0.908061	2.60417	0.943615	2.70869					0.851558	2.44245	0.957215	2.74284				
0.909822	2.60342	0.712172	2.0274	0.910175	2.60327	0.945809	2.70774					0.853499	2.44149	0.959326	2.74156				
0.911932	2.60252	0.714154	2.02767	0.912285	2.60237	0.948009	2.70682					0.85544	2.44054	0.961436	2.7403				
0.914038	2.60162	0.716134	2.02792	0.91439	2.60146	0.950213	2.70592					0.857381	2.43959	0.963547	2.73904				
0.91614	2.6007	0.718115	2.02818	0.916491	2.60055	0.952423	2.70503					0.859322	2.43865	0.965657	2.73779				
0.918238	2.59978	0.720095	2.02844	0.918588	2.59963	0.954637	2.70416					0.861263	2.43771	0.967767	2.73654				
0.920331	2.59885	0.722076	2.02869	0.920681	2.5987	0.956857	2.70332					0.863204	2.43678	0.969877	2.7353				
0.922421	2.59792	0.724055	2.02894	0.92277	2.59776	0.959081	2.70249					0.865145	2.43585	0.971987	2.73407				
0.924506	2.59698	0.726035	2.02919	0.924855	2.59682	0.96131	2.70168					0.867086	2.43493	0.974096	2.73284				
0.926588	2.59603	0.728014	2.02944	0.926936	2.59587	0.963544	2.70088					0.869027	2.43401	0.976206	2.73162				
0.928666	2.59508	0.729993	2.02969	0.929013	2.59492	0.965783	2.70011					0.870968	2.4331	0.978315	2.7304				
0.93074	2.59412	0.731972	2.02993	0.931086	2.59396	0.968026	2.69935					0.872909	2.43219	0.980424	2.72919				
0.93281	2.59315	0.733951	2.03017	0.933156	2.59299	0.970274	2.6986					0.87485	2.43129	0.982532	2.72799				
0.934876	2.59219	0.735929	2.03041	0.935222	2.59202	0.972526	2.69788					0.876791	2.43039	0.98464	2.72679				
0.936939	2.59121	0.737907	2.03065	0.937284	2.59105	0.974783	2.69716					0.878732	2.4295	0.986748	2.72559				
0.938999	2.59023	0.739885	2.03088	0.939343	2.59007	0.977043	2.69647					0.880674	2.42861	0.988855	2.7244				
0.941055	2.58925	0.741862	2.03112	0.941399	2.58909	0.979308	2.69579					0.882615	2.42772	0.990963	2.72321				
0.943108	2.58826	0.74384	2.03135	0.943451	2.5881	0.981577	2.69512					0.884557	2.42685	0.993069	2.72203				
0.945157	2.58727	0.745817	2.03158	0.9455	2.58711	0.98385	2.69447					0.886498	2.42597	0.995175	2.72086				
0.947204	2.58628	0.747794	2.03181	0.947546	2.58611	0.986127	2.69383					0.88844	2.4251	0.997281	2.71969				
0.949247	2.58528	0.74977	2.03203	0.949589	2.58511	0.988407	2.69321					0.890382	2.42424	0.999386	2.71852				
0.951287	2.58428	0.751746	2.03226	0.951628	2.58411	0.990691	2.69259					0.892323	2.42338	1.00149	2.71736				
0.953325	2.58328	0.753722	2.03248	0.953665	2.58311	0.992979	2.692					0.894265	2.42252						
0.955359	2.58227	0.755698	2.0327	0.955699	2.5821	0.995271	2.69141					0.896207	2.42167						
0.957391	2.58126	0.757674	2.03292	0.95773	2.58109	0.997566	2.69084					0.898149	2.42082						
0.95942	2.58025	0.759649	2.03314	0.959759	2.58008	0.999864	2.69027					0.900092	2.41998						
0.961446	2.57924	0.761624	2.03335	0.961785	2.57907	1.00217	2.68972					0.902034	2.41914						
0.96347	2.57822	0.763599	2.03357	0.963808	2.57805							0.903976	2.41831						
0.965491	2.57721	0.765573	2.03378	0.965829	2.57704							0.905919	2.41748						
0.96751	2.57619	0.767547	2.03399	0.967848	2.57602							0.907862	2.41666						
0.969527	2.57517	0.769521	2.0342	0.969864	2.575							0.909805	2.41584						
0.971541	2.57415	0.771495	2.0344	0.971878	2.57398							0.911747	2.41502						
0.973553	2.57313	0.773468	2.03461	0.973889	2.57296							0.913691	2.41421						
0.975563	2.57211	0.775442	2.03481	0.975899	2.57193							0.915634	2.4134						
0.977571	2.57108	0.777415	2.03502	0.977906	2.57091							0.917577	2.4126						
0.979577	2.57006	0.779387	2.03522	0.979912	2.56989							0.919521	2.4118						
0.98158	2.56904	0.78136	2.03541	0.981915	2.56887							0.921464	2.41101						
0.983582	2.56802	0.783332	2.03561	0.983917	2.56785							0.923408	2.41022						
0.985583	2.56699	0.785304	2.03581	0.985917	2.56682							0.925352	2.40943						
0.987581	2.56597	0.787276	2.036	0.987915	2.5658							0.927296	2.40865						
0.989578	2.56495	0.789248	2.03619	0.989911	2.56478							0.92924	2.40787						
0.991573	2.56393	0.791219	2.03638	0.991906	2.56376							0.931185	2.4071						
0.993566	2.56291	0.79319	2.03657	0.993899	2.56274							0.933129	2.40633						
0.995558	2.56189	0.795161	2.03676	0.995891	2.56172							0.935074	2.40557						
0.997548	2.56087	0.797131	2.03695	0.997881	2.5607							0.937019	2.40481						
0.999537	2.55986	0.799102	2.03713	0.99987	2.55969							0.938964	2.40405						
1.00152	2.55884	0.801072	2.03732	1.00186	2.55867							0.940909	2.4033						
		0.803042	2.0375									0.942855	2.40255						
		0.805011	2.03768									0.944801	2.40181						
		0.806981	2.03786									0.946746	2.40107						
		0.80895	2.03804									0.948692	2.40033						
		0.810919	2.03821									0.950639	2.3996						
		0.812887	2.03839									0.952585	2.39887						
		0.814856	2.03856									0.954531	2.39814						
		0.816824	2.03873									0.956478	2.39742						
		0.818792	2.0389									0.958425	2.39671						
		0.82076	2.03907									0.960372	2.39599						
		0.822727	2.03924									0.96232	2.39528						
		0.824695	2.03941									0.964267	2.39458						
		0.826662	2.03957									0.966215	2.39388						
		0.828628	2.03974									0.968163	2.39318						
		0.830595	2.0399									0.970111	2.39248						
		0.832561	2.04006									0.97206	2.39179						
		0.834528	2.04022									0.974008	2.39111						
		0.836494	2.04038									0.975957	2.39042						
		0.838459	2.04053									0.977906	2.38974						
		0.840425	2.04069									0.979855	2.38907						
		0.84239	2.04085									0.981805	2.3884						
		0.844355	2.041									0.983755	2.38773						
		0.84632	2.04115									0.985705	2.38706						
		0.848284	2.0413									0.987655	2.3864						
		0.850249	2.04145									0.989605	2.38574						
		0.852213	2.0416									0.991556	2.38509						
		0.854177	2.04175									0.993507	2.38444						
		0.85614	2.0419									0.995458	2.38379						
		0.858104	2.04204									0.997409	2.38314						
		0.860067	2.04219									0.999361	2.3825						
		0.86203	2.04233									1.00131	2.38187						
		0.863993	2.04247																
		0.865956	2.04261																
		0.867918	2.04275																
		0.86988	2.04289																
		0.871842	2.04303																
		0.873804	2.04316																
		0.875765	2.0433																
		0.877727	2.04343																
		0.879688	2.04356																
		0.881649	2.0437																
		0.883609	2.04383																
		0.88557	2.04396																
		0.88753	2.04409																
		0.88949	2.04421																
		0.89145	2.04434																
		0.89341	2.04447																
		0.895369	2.04459																
		0.897328	2.04472																
		0.899287	2.04484																
		0.901246	2.04496																
		0.903205	2.04508																
		0.905163	2.0452																
		0.907122	2.04532																
		0.90908	2.04544																
		0.911037	2.04555																
		0.912995	2.04567																
		0.914952	2.04579																
		0.91691	2.0459																
		0.918867	2.04601																
		0.920824	2.04613																
		0.92278	2.04624																
		0.924737	2.04635																
		0.926693	2.04646																
		0.928649	2.04657																
		0.930605	2.04667																
		0.93256	2.04678																
		0.934516	2.04689																
		0.936471	2.04699																
		0.938426	2.0471																
		0.940381	2.0472																
		0.942336	2.0473																
		0.94429	2.04741																
		0.946245	2.04751																
		0.948199	2.04761																
		0.950153	2.04771																
		0.952107	2.04781																
		0.95406	2.0479																
		0.956014	2.048																
		0.957967	2.0481																
		0.95992	2.04819																
		0.961873	2.04829																
		0.963825	2.04838																
		0.965778	2.04848																
		0.96773	2.04857																
		0.969682	2.04866																
		0.971634	2.04875																
		0.973586	2.04884																
		0.975538	2.04893																
		0.977489	2.04902																
		0.97944	2.04911																
		0.981392	2.0492																
		0.983343	2.04928																
		0.985293	2.04937																
		0.987244	2.04945																
		0.989194	2.04954																
		0.991144	2.04962																
		0.993094	2.04971																
		0.995044	2.04979																
		0.996994	2.04987																
		0.998944	2.04995																
		1.00089	2.05003																
