Sym0		Asym0		Sym1		Sym2		Sym3		Sym4		Asym1		Asym2		Asym3		Asym4	
426  Points		528  Points		426  Points		406  Points		353  Points		254  Points		457  Points		401  Points		346  Points		216  Points	
Freq (MHz)	Vph (m/ms)	Freq (MHz)	Vph (m/ms)	Freq (MHz)	Vph (m/ms)	Freq (MHz)	Vph (m/ms)	Freq (MHz)	Vph (m/ms)	Freq (MHz)	Vph (m/ms)	Freq (MHz)	Vph (m/ms)	Freq (MHz)	Vph (m/ms)	Freq (MHz)	Vph (m/ms)	Freq (MHz)	Vph (m/ms)
0.279509	797.648	0.000194453	0.085885	0.27951	537.226	0.441167	2306.29	0.559017	2398.52	0.838526	16300	0.139763	285.536	0.419267	516.636	0.698772	1291.11	0.882335	1143.56
0.279518	218.014	0.000386914	0.121069	0.279521	192.51	0.441175	392.86	0.559026	479.948	0.838529	852.91	0.139832	98.3919	0.419283	240.521	0.698779	474.419	0.882342	518.031
0.279537	126.27	0.000644148	0.156063	0.279542	117.273	0.441195	214.727	0.559045	266.662	0.838538	437.917	0.139967	59.4877	0.41931	156.756	0.698791	290.605	0.882356	334.866
0.279566	88.8781	0.000965556	0.190852	0.279573	84.3262	0.441226	147.747	0.559075	184.626	0.838552	294.588	0.140168	42.6746	0.419349	116.272	0.698809	209.456	0.882375	247.396
0.279605	68.5779	0.00135021	0.225377	0.279614	65.8369	0.441269	112.624	0.559116	141.196	0.838573	221.949	0.140434	33.3077	0.419399	92.4129	0.698833	163.738	0.8824	196.161
0.279655	55.8317	0.00179707	0.259596	0.279665	54.0023	0.441324	90.9992	0.559168	114.313	0.838599	178.05	0.140765	27.3439	0.41946	76.6837	0.698863	134.405	0.882431	162.509
0.279714	47.0853	0.00230503	0.293475	0.279726	45.7783	0.441391	76.3459	0.559231	96.0344	0.838631	148.651	0.14116	23.2185	0.419533	65.5347	0.698898	113.987	0.882468	138.715
0.279784	40.7119	0.00287267	0.326961	0.279797	39.7318	0.441469	65.7618	0.559305	82.7996	0.838668	127.587	0.141618	20.1985	0.419618	57.2201	0.69894	98.9567	0.88251	121.001
0.279863	35.8616	0.00349867	0.360032	0.279879	35.0996	0.441559	57.759	0.559391	72.7745	0.838712	111.754	0.142138	17.8947	0.419714	50.7815	0.698987	87.4304	0.882558	107.3
0.279953	32.0471	0.00418146	0.392649	0.279971	31.4378	0.44166	51.4963	0.559487	64.9183	0.838761	99.4181	0.142718	16.0814	0.419821	45.6487	0.69904	78.3109	0.882612	96.3885
0.280053	28.9689	0.00491958	0.424796	0.280072	28.4706	0.441773	46.4622	0.559593	58.5961	0.838815	89.5367	0.143357	14.6187	0.41994	41.4613	0.699099	70.9157	0.882672	87.4927
0.280163	26.4328	0.0057113	0.456438	0.280184	26.0178	0.441898	42.3277	0.559711	53.3988	0.838876	81.4436	0.144053	13.4151	0.42007	37.9804	0.699164	64.7982	0.882737	80.1017
0.280283	24.3074	0.00655494	0.487558	0.280306	23.9565	0.442034	38.8717	0.55984	49.0511	0.838942	74.6936	0.144805	12.4085	0.420212	35.0414	0.699235	59.6538	0.882808	73.8634
0.280413	22.5007	0.00744879	0.518136	0.280438	22.2001	0.442182	35.94	0.55998	45.3605	0.839014	68.9781	0.145612	11.5551	0.420365	32.527	0.699312	55.2673	0.882886	68.5279
0.280554	20.946	0.00839106	0.548154	0.28058	20.6856	0.442341	33.422	0.56013	42.1887	0.839092	64.0764	0.146471	10.8231	0.420529	30.3516	0.699394	51.483	0.882968	63.9124
0.280704	19.5943	0.00938008	0.577608	0.280733	19.3666	0.442512	31.236	0.560292	39.4336	0.839175	59.8263	0.147261	10.2656	0.420705	28.4511	0.699482	48.1849	0.883057	59.8805
0.280865	18.4083	0.010414	0.60648	0.280895	18.2075	0.442695	29.3206	0.560464	37.0183	0.839264	56.106	0.147964	9.83983	0.420892	26.7766	0.699577	45.2849	0.883151	56.3281
0.281035	17.3594	0.0114911	0.634765	0.281067	17.1811	0.442888	27.6285	0.560648	34.8838	0.839359	52.8223	0.148565	9.51757	0.421091	25.2902	0.699677	42.7152	0.883251	53.1747
0.281216	16.4253	0.0126097	0.662463	0.28125	16.2659	0.443094	26.123	0.560842	32.9838	0.83946	49.9026	0.149053	9.27981	0.421301	23.962	0.699782	40.4224	0.883357	50.3565
0.281407	15.5881	0.0137682	0.689571	0.281443	15.4448	0.443311	24.775	0.561047	31.2818	0.839566	47.2898	0.149419	9.11377	0.421522	22.7681	0.699894	38.3642	0.883469	47.8229
0.281608	14.8337	0.0149647	0.716082	0.281645	14.7041	0.443539	23.5609	0.561263	29.7484	0.839678	44.9378	0.149656	9.01118	0.421754	21.6891	0.700012	36.5063	0.883586	45.5329
0.281819	14.1504	0.0161978	0.742006	0.281858	14.0326	0.443779	22.462	0.56149	28.36	0.839796	42.8095	0.150001	8.86849	0.421998	20.7094	0.700135	34.8208	0.883709	43.4529
0.28204	13.5286	0.0174657	0.76734	0.282081	13.4212	0.44403	21.4626	0.561727	27.0968	0.839919	40.8745	0.150381	8.71944	0.422253	19.8159	0.700264	33.2849	0.883838	41.5555
0.282271	12.9604	0.0187671	0.792092	0.282314	12.8621	0.444292	20.5498	0.561975	25.9428	0.840049	39.1076	0.150908	8.52624	0.422519	18.9977	0.7004	31.8795	0.883973	39.8176
0.282512	12.4394	0.0201004	0.816267	0.282557	12.349	0.444566	19.713	0.562234	24.8845	0.840183	37.4879	0.151588	8.29639	0.422797	18.2459	0.70054	30.5887	0.884113	38.2199
0.282763	11.9598	0.0214642	0.839874	0.28281	11.8764	0.444851	18.943	0.562504	23.9105	0.840324	35.9977	0.152431	8.03808	0.423086	17.5526	0.700687	29.3991	0.884259	36.7462
0.283024	11.517	0.0228571	0.862919	0.283073	11.4399	0.445148	18.2323	0.562785	23.0111	0.84047	34.6221	0.15345	7.75955	0.423386	16.9113	0.70084	28.2993	0.884411	35.3826
0.283295	11.1069	0.0242779	0.885412	0.283346	11.0354	0.445456	17.5743	0.563076	22.1781	0.840622	33.3485	0.154654	7.46861	0.423697	16.3165	0.700998	27.2794	0.884569	34.1172
0.283577	10.7262	0.0257251	0.907361	0.283629	10.6596	0.445774	16.9633	0.563378	21.4045	0.84078	32.1658	0.155897	7.20446	0.424019	15.7634	0.701162	26.3311	0.884732	32.9398
0.283868	10.3717	0.0271976	0.928778	0.283922	10.3097	0.446105	16.3946	0.563691	20.6842	0.840943	31.0648	0.157175	6.96371	0.424352	15.2476	0.701333	25.4471	0.884901	31.8416
0.284169	10.0409	0.0286943	0.949673	0.284186	10.0237	0.446446	15.864	0.564014	20.0119	0.841112	30.0373	0.158488	6.74351	0.424697	14.7657	0.701508	24.6212	0.885076	30.8148
0.284481	9.73151	0.0302141	0.970059	0.284417	9.7928	0.446798	15.3677	0.564348	19.383	0.841287	29.0761	0.159834	6.54145	0.425052	14.3144	0.70169	23.8477	0.885256	29.8527
0.284802	9.44159	0.0317558	0.989944	0.284612	9.61013	0.447162	14.9026	0.564693	18.7935	0.841468	28.1751	0.161211	6.35548	0.425419	13.8909	0.701878	23.122	0.885442	28.9495
0.285134	9.16936	0.0333184	1.00934	0.284769	9.47071	0.447536	14.4659	0.565048	18.2397	0.841654	27.3287	0.162619	6.18384	0.425797	13.4927	0.702071	22.4396	0.885634	28.0998
0.285475	8.91328	0.034901	1.02826	0.284885	9.3709	0.447922	14.0551	0.565414	17.7186	0.841846	26.5323	0.164055	6.02499	0.426185	13.1178	0.70227	21.7969	0.885832	27.299
0.285827	8.67199	0.0365028	1.04672	0.284961	9.30818	0.448318	13.668	0.56579	17.2274	0.842043	25.7815	0.165519	5.87763	0.426585	12.764	0.702475	21.1905	0.886035	26.5432
0.286188	8.44425	0.0381227	1.06473	0.28507	9.21956	0.448726	13.3026	0.566177	16.7636	0.842246	25.0725	0.167009	5.74061	0.426996	12.4298	0.702686	20.6174	0.886244	25.8285
0.286559	8.22899	0.03976	1.08229	0.28519	9.12524	0.449144	12.9571	0.566574	16.3251	0.842455	24.4019	0.168524	5.61294	0.427417	12.1135	0.702903	20.0749	0.886458	25.1518
0.286941	8.02523	0.0414138	1.09943	0.285356	9.00021	0.449574	12.63	0.566982	15.9097	0.842669	23.7667	0.170063	5.49372	0.42785	11.8138	0.703125	19.5608	0.886679	24.5102
0.287332	7.83208	0.0430834	1.11615	0.285568	8.84721	0.450014	12.3199	0.5674	15.5158	0.84289	23.1642	0.171625	5.38218	0.428293	11.5295	0.703353	19.0728	0.886905	23.9008
0.287733	7.64877	0.0447682	1.13246	0.28583	8.66944	0.450465	12.0255	0.567829	15.1418	0.843115	22.592	0.173209	5.27764	0.428747	11.2593	0.703587	18.609	0.887136	23.3215
0.288144	7.47458	0.0464673	1.14837	0.286145	8.47039	0.450926	11.7457	0.568268	14.7861	0.843347	22.0477	0.174813	5.1795	0.429212	11.0023	0.703827	18.1676	0.887374	22.7701
0.288566	7.30886	0.0481802	1.16391	0.286515	8.25371	0.451399	11.4794	0.568717	14.4476	0.843584	21.5295	0.176438	5.0872	0.429687	10.7576	0.704073	17.7472	0.887616	22.2445
0.288997	7.15103	0.0499063	1.17907	0.286895	8.04864	0.451881	11.2257	0.569177	14.1249	0.843827	21.0355	0.178081	5.00027	0.430174	10.5243	0.704324	17.3461	0.887865	21.743
0.289438	7.00055	0.0516449	1.19386	0.287285	7.85429	0.452375	10.9837	0.569647	13.8171	0.844075	20.5641	0.179743	4.91826	0.430671	10.3016	0.704581	16.9632	0.888119	21.2641
0.289889	6.85694	0.0533955	1.20831	0.287685	7.66986	0.452879	10.7527	0.570128	13.5232	0.844329	20.1137	0.181422	4.8408	0.431113	10.1157	0.704844	16.5973	0.888379	20.8062
0.290349	6.71975	0.0551576	1.22241	0.288095	7.49463	0.453394	10.532	0.570618	13.2422	0.844589	19.6831	0.183118	4.76753	0.431496	9.96294	0.705113	16.2471	0.888644	20.368
0.29082	6.58857	0.0569307	1.23618	0.288515	7.32794	0.453919	10.3208	0.571119	12.9733	0.844854	19.2708	0.18483	4.69813	0.431817	9.84032	0.705387	15.9119	0.888916	19.9482
0.291301	6.46304	0.0587142	1.24962	0.288945	7.16921	0.454385	10.1441	0.57163	12.7158	0.845125	18.8759	0.186557	4.63233	0.432074	9.74567	0.705667	15.5905	0.889192	19.5457
0.291791	6.34281	0.0605078	1.26276	0.289385	7.01789	0.454789	9.99866	0.572151	12.4689	0.845401	18.4971	0.188298	4.56985	0.432265	9.67733	0.705953	15.2823	0.889475	19.1595
0.292292	6.22756	0.062311	1.27559	0.289835	6.87349	0.455127	9.88176	0.572682	12.2321	0.845683	18.1336	0.190054	4.51046	0.432387	9.63414	0.706245	14.9863	0.889762	18.7887
0.292802	6.11701	0.0641234	1.28812	0.290295	6.73557	0.455397	9.79141	0.573223	12.0048	0.845971	17.7845	0.191823	4.45396	0.432564	9.5728	0.706543	14.702	0.890056	18.4322
0.293322	6.01087	0.0659445	1.30037	0.290764	6.60371	0.455597	9.72613	0.573775	11.7864	0.846264	17.4489	0.193604	4.40013	0.432758	9.50708	0.706846	14.4286	0.890355	18.0894
0.293852	5.90892	0.0677741	1.31233	0.291244	6.47753	0.455726	9.68485	0.574336	11.5763	0.846563	17.1261	0.195398	4.34882	0.433024	9.41928	0.707155	14.1655	0.890659	17.7594
0.294392	5.8109	0.0696118	1.32403	0.291733	6.35669	0.455912	9.62618	0.574908	11.3743	0.846868	16.8153	0.197203	4.29984	0.433364	9.31075	0.70747	13.9121	0.89097	17.4416
0.294941	5.71662	0.0714571	1.33546	0.292232	6.24087	0.456115	9.56329	0.575489	11.1797	0.847178	16.5159	0.19902	4.25305	0.43378	9.18314	0.70779	13.668	0.891285	17.1352
0.295501	5.62587	0.07331	1.34664	0.292741	6.12978	0.456394	9.47919	0.57608	10.9922	0.847494	16.2273	0.200848	4.20831	0.434276	9.03828	0.708117	13.4326	0.891607	16.8398
0.29607	5.53846	0.0751699	1.35757	0.29326	6.02314	0.45675	9.37515	0.576681	10.8115	0.847815	15.9489	0.202685	4.1655	0.434854	8.87817	0.708448	13.2055	0.891934	16.5546
0.296649	5.45423	0.0770366	1.36826	0.293789	5.9207	0.457186	9.25264	0.577292	10.6371	0.848142	15.6803	0.204533	4.1245	0.435443	8.72424	0.708786	12.9863	0.892266	16.2793
0.297238	5.37302	0.0789099	1.37872	0.294328	5.82224	0.457704	9.11339	0.577913	10.4688	0.848474	15.4208	0.20639	4.0852	0.436042	8.57616	0.70913	12.7745	0.892604	16.0133
0.297836	5.29467	0.0807894	1.38895	0.294876	5.72753	0.458309	8.95921	0.578461	10.3269	0.848812	15.1701	0.208256	4.04749	0.436652	8.4336	0.709479	12.5698	0.892947	15.7561
0.298444	5.21904	0.082675	1.39896	0.295434	5.63637	0.458923	8.81075	0.578935	10.2092	0.849156	14.9276	0.210131	4.0113	0.437272	8.29628	0.709834	12.3719	0.893296	15.5073
0.299063	5.146	0.0845663	1.40875	0.296002	5.54858	0.459547	8.66769	0.579331	10.1141	0.849505	14.6931	0.212015	3.97653	0.437902	8.16392	0.710194	12.1804	0.893651	15.2665
0.29969	5.07544	0.0864632	1.41834	0.29658	5.46399	0.460181	8.52976	0.579646	10.0403	0.849859	14.4661	0.213906	3.9431	0.438542	8.03627	0.71056	11.995	0.894011	15.0334
0.300328	5.00723	0.0883654	1.42772	0.297168	5.38242	0.460826	8.39669	0.57988	9.98679	0.850219	14.2463	0.215806	3.91094	0.439193	7.91309	0.710932	11.8155	0.894376	14.8075
0.300975	4.94127	0.0902727	1.43691	0.297765	5.30374	0.461479	8.26824	0.58003	9.95287	0.850585	14.0334	0.217712	3.87998	0.439853	7.79416	0.71131	11.6415	0.894747	14.5886
0.301632	4.87745	0.092185	1.4459	0.298372	5.2278	0.462143	8.14419	0.580246	9.90456	0.850956	13.8269	0.219626	3.85016	0.440524	7.67926	0.711693	11.4728	0.895123	14.3764
0.302299	4.81568	0.0941019	1.45471	0.298989	5.15447	0.462817	8.0243	0.580483	9.85263	0.851333	13.6268	0.221547	3.82142	0.441205	7.56822	0.712082	11.3092	0.895505	14.1705
0.302976	4.75587	0.0960234	1.46334	0.299616	5.08362	0.4635	7.9084	0.580807	9.78298	0.851715	13.4326	0.223475	3.7937	0.441896	7.46083	0.712477	11.1505	0.895892	13.9706
0.303573	4.70528	0.0979493	1.47179	0.300252	5.01514	0.464193	7.79628	0.581219	9.69646	0.852103	13.2441	0.225408	3.76695	0.442597	7.35693	0.712877	10.9964	0.896285	13.7766
0.304089	4.66324	0.0998793	1.48007	0.300899	4.94891	0.464895	7.68778	0.581723	9.59409	0.852496	13.061	0.227348	3.74112	0.443308	7.25637	0.713283	10.8468	0.896683	13.5881
0.304519	4.62921	0.101813	1.48819	0.301555	4.88485	0.465607	7.58272	0.582321	9.47704	0.852894	12.8833	0.229294	3.71616	0.444028	7.15899	0.713695	10.7014	0.897087	13.405
0.304861	4.60275	0.103751	1.49614	0.30222	4.82284	0.466328	7.48096	0.583016	9.34663	0.853299	12.7105	0.231246	3.69204	0.444759	7.06465	0.714058	10.5781	0.897495	13.2269
0.305115	4.58355	0.105693	1.50393	0.302896	4.76281	0.467059	7.38235	0.58372	9.2202	0.853708	12.5425	0.233203	3.66872	0.445499	6.97321	0.714371	10.4753	0.89791	13.0538
0.305277	4.57137	0.107638	1.51157	0.303581	4.70466	0.467799	7.28674	0.584434	9.09759	0.854123	12.3792	0.235165	3.64615	0.446249	6.88455	0.714632	10.3919	0.898329	12.8854
0.305512	4.55401	0.109587	1.51906	0.304276	4.64831	0.468549	7.19401	0.585157	8.97863	0.854544	12.2202	0.237133	3.6243	0.447009	6.79855	0.714841	10.327	0.898755	12.7215
0.305769	4.53534	0.111539	1.52641	0.30498	4.59369	0.469307	7.10403	0.585889	8.86316	0.85497	12.0656	0.239105	3.60313	0.447779	6.7151	0.714994	10.2798	0.899185	12.5619
0.30612	4.51027	0.113494	1.53361	0.305695	4.54073	0.470075	7.0167	0.586631	8.75104	0.855401	11.915	0.241082	3.58263	0.448558	6.6341	0.715093	10.2499	0.899621	12.4065
0.306567	4.47909	0.115453	1.54068	0.306419	4.48935	0.470852	6.93189	0.587382	8.64213	0.855838	11.7684	0.243064	3.56275	0.449347	6.55543	0.715236	10.2071	0.900062	12.2551
0.307113	4.44214	0.117162	1.54673	0.307152	4.4395	0.471638	6.84951	0.588142	8.5363	0.85628	11.6255	0.24505	3.54347	0.450146	6.47902	0.715392	10.1611	0.900508	12.1076
0.307759	4.39983	0.11862	1.5518	0.307896	4.39111	0.472433	6.76946	0.588912	8.43342	0.856728	11.4863	0.24704	3.52476	0.450953	6.40476	0.715605	10.0992	0.90096	11.9638
0.308511	4.35259	0.119828	1.55595	0.308649	4.34413	0.473237	6.69165	0.58969	8.33338	0.857181	11.3506	0.249035	3.5066	0.451771	6.33257	0.715876	10.0221	0.901417	11.8236
0.309272	4.30672	0.120783	1.55919	0.309411	4.2985	0.47405	6.61598	0.590478	8.23607	0.85764	11.2182	0.251033	3.48897	0.452598	6.26237	0.716206	9.93048	0.90188	11.6868
0.310042	4.26215	0.121486	1.56156	0.310184	4.25417	0.474872	6.54238	0.591274	8.14138	0.858104	11.0892	0.253036	3.47184	0.453434	6.1941	0.716598	9.82531	0.902348	11.5534
0.310823	4.21885	0.121936	1.56306	0.310966	4.21108	0.475703	6.47077	0.59208	8.04922	0.858573	10.9632	0.255042	3.4552	0.45428	6.12766	0.717053	9.70754	0.902821	11.4232
0.311613	4.17675	0.122583	1.56521	0.311758	4.16921	0.476542	6.40106	0.592894	7.95947	0.858987	10.856	0.257051	3.43901	0.455135	6.06299	0.717514	9.59278	0.903299	11.2961
0.312413	4.13583	0.123287	1.56754	0.31256	4.12849	0.47739	6.3332	0.593718	7.87206	0.859342	10.7663	0.259064	3.42327	0.455999	6.00004	0.71798	9.48091	0.903782	11.172
0.313222	4.09602	0.124244	1.57068	0.313371	4.08888	0.478247	6.2671	0.59455	7.78691	0.859639	10.6933	0.26108	3.40796	0.456872	5.93872	0.718452	9.37184	0.904271	11.0507
0.314042	4.0573	0.125456	1.57461	0.314192	4.05036	0.479112	6.20271	0.595391	7.70392	0.859874	10.6364	0.2631	3.39306	0.457755	5.879	0.718929	9.26546	0.904701	10.9474
0.314871	4.01963	0.126923	1.5793	0.315023	4.01287	0.479986	6.13996	0.596241	7.62301	0.860048	10.5949	0.265122	3.37855	0.458646	5.8208	0.719412	9.16168	0.905071	10.8609
0.31571	3.98297	0.128645	1.58472	0.315864	3.97639	0.480868	6.0788	0.5971	7.54413	0.86016	10.5686	0.267148	3.36441	0.459547	5.76407	0.719901	9.0604	0.905379	10.7905
0.316558	3.94727	0.130624	1.59083	0.316714	3.94087	0.481759	6.01916	0.597967	7.46718	0.860322	10.531	0.269177	3.35065	0.460457	5.70877	0.720395	8.96153	0.905624	10.7355
0.317417	3.91252	0.132605	1.59684	0.317574	3.90629	0.482658	5.961	0.598843	7.39212	0.860497	10.4904	0.271208	3.33723	0.461376	5.65484	0.720895	8.865	0.905805	10.6955
0.318285	3.87868	0.134588	1.60273	0.318444	3.87261	0.483565	5.90427	0.599728	7.31887	0.860738	10.4357	0.273242	3.32415	0.462304	5.60224	0.7214	8.77073	0.905921	10.67
0.319163	3.84572	0.136573	1.60853	0.319324	3.8398	0.484481	5.84891	0.600621	7.24736	0.861043	10.3675	0.275278	3.31139	0.46324	5.55092	0.721911	8.67863	0.906089	10.6336
0.320051	3.8136	0.13856	1.61422	0.320214	3.80784	0.485405	5.79488	0.601522	7.17755	0.861416	10.2863	0.277318	3.29895	0.464186	5.50084	0.722427	8.58864	0.906271	10.5944
0.320949	3.78231	0.140549	1.61981	0.321113	3.77669	0.486336	5.74214	0.602432	7.10937	0.861856	10.1927	0.279359	3.2868	0.46514	5.45195	0.722949	8.50069	0.906521	10.5415
0.321856	3.75181	0.14254	1.6253	0.322023	3.74634	0.487276	5.69064	0.603351	7.04277	0.862367	10.0876	0.281403	3.27495	0.466103	5.40422	0.723476	8.4147	0.906838	10.4755
0.322774	3.72208	0.144532	1.6307	0.322942	3.71674	0.488224	5.64034	0.604278	6.97771	0.862883	9.98481	0.283449	3.26338	0.467075	5.35762	0.724009	8.33063	0.907224	10.3969
0.323701	3.6931	0.146526	1.636	0.323871	3.6879	0.48918	5.5912	0.605213	6.91412	0.863404	9.88428	0.285498	3.25208	0.468056	5.31209	0.724548	8.2484	0.907681	10.3062
0.324639	3.66484	0.148523	1.64121	0.324811	3.65977	0.490144	5.54318	0.606156	6.85197	0.863931	9.78593	0.287548	3.24104	0.469045	5.26762	0.725092	8.16795	0.908209	10.2042
0.325586	3.63728	0.15052	1.64634	0.32576	3.63233	0.491116	5.49626	0.607108	6.7912	0.864463	9.68969	0.289601	3.23025	0.470043	5.22416	0.725641	8.08924	0.908743	10.1045
0.326544	3.6104	0.152519	1.65137	0.32672	3.60557	0.492095	5.45039	0.608068	6.73178	0.865	9.59551	0.291655	3.21971	0.471049	5.18169	0.726196	8.01221	0.909282	10.0068
0.327512	3.58418	0.15452	1.65633	0.327689	3.57947	0.493082	5.40554	0.609036	6.67366	0.865542	9.5033	0.293712	3.2094	0.472064	5.14017	0.726756	7.93681	0.909827	9.91116
0.32849	3.5586	0.156522	1.6612	0.328669	3.554	0.494077	5.36168	0.610012	6.6168	0.86609	9.41303	0.29577	3.19932	0.473087	5.09958	0.727322	7.86298	0.910376	9.81751
0.329478	3.53364	0.158525	1.66599	0.329659	3.52915	0.495079	5.31879	0.610996	6.56117	0.866643	9.32461	0.29783	3.18946	0.474119	5.05989	0.727893	7.79069	0.91093	9.72577
0.330476	3.50928	0.16053	1.6707	0.330659	3.5049	0.496089	5.27682	0.611988	6.50672	0.867201	9.23801	0.299892	3.17981	0.475159	5.02106	0.72847	7.71988	0.91149	9.63589
0.331485	3.48551	0.162536	1.67533	0.33167	3.48123	0.497107	5.23575	0.612988	6.45343	0.867765	9.15317	0.301955	3.17037	0.476208	4.98308	0.729052	7.65051	0.912055	9.54782
0.332504	3.4623	0.164543	1.67989	0.332691	3.45813	0.498132	5.19557	0.613996	6.40125	0.868333	9.07003	0.30402	3.16113	0.477264	4.94592	0.72964	7.58254	0.912624	9.4615
0.333534	3.43966	0.166552	1.68437	0.333723	3.43558	0.499164	5.15623	0.615012	6.35016	0.868907	8.98855	0.306087	3.15208	0.47833	4.90955	0.730233	7.51594	0.913199	9.37688
0.334574	3.41755	0.168562	1.68878	0.334765	3.41357	0.500204	5.11772	0.616035	6.30012	0.869487	8.90868	0.308155	3.14322	0.479403	4.87396	0.730832	7.45065	0.913779	9.29392
0.335625	3.39596	0.170572	1.69312	0.335818	3.39208	0.501251	5.08	0.617067	6.2511	0.870071	8.83037	0.310224	3.13454	0.480484	4.83912	0.731436	7.38664	0.914363	9.21257
0.336686	3.37489	0.172584	1.69739	0.336881	3.3711	0.502306	5.04307	0.618106	6.20308	0.87066	8.75359	0.312295	3.12604	0.481574	4.805	0.732045	7.32389	0.914953	9.13278
0.337759	3.35431	0.174597	1.7016	0.337956	3.35061	0.503367	5.00689	0.619153	6.15603	0.871255	8.67827	0.314367	3.1177	0.482671	4.7716	0.73266	7.26234	0.915548	9.05451
0.338842	3.33422	0.176611	1.70574	0.339041	3.33061	0.504436	4.97145	0.620207	6.10991	0.871855	8.6044	0.316441	3.10953	0.483777	4.73888	0.73328	7.20198	0.916148	8.97772
0.339937	3.3146	0.178625	1.70981	0.340138	3.31108	0.505512	4.93672	0.621269	6.06471	0.87246	8.53192	0.318515	3.10152	0.484891	4.70683	0.733906	7.14276	0.916753	8.90237
0.341042	3.29544	0.180641	1.71382	0.341245	3.292	0.506594	4.90269	0.622338	6.02039	0.873071	8.4608	0.320591	3.09367	0.486012	4.67543	0.734537	7.08466	0.917362	8.82841
0.342159	3.27674	0.182658	1.71777	0.342364	3.27337	0.507684	4.86933	0.623415	5.97694	0.873686	8.391	0.322668	3.08597	0.487142	4.64467	0.735173	7.02765	0.917977	8.75582
0.343288	3.25847	0.184675	1.72165	0.343495	3.25519	0.508781	4.83663	0.624499	5.93433	0.874307	8.32249	0.324746	3.07841	0.488279	4.61452	0.735815	6.97169	0.918597	8.68456
0.344428	3.24063	0.186693	1.72548	0.344637	3.23742	0.509885	4.80457	0.625591	5.89253	0.874932	8.25523	0.326825	3.071	0.489424	4.58498	0.736462	6.91676	0.919221	8.61458
0.345579	3.22321	0.188712	1.72925	0.345791	3.22008	0.510995	4.77313	0.62669	5.85153	0.875563	8.1892	0.328905	3.06372	0.490577	4.55601	0.737114	6.86283	0.919851	8.54586
0.346743	3.2062	0.190732	1.73296	0.346956	3.20315	0.512112	4.74229	0.627797	5.81131	0.876199	8.12435	0.330986	3.05658	0.491738	4.52761	0.737772	6.80989	0.920485	8.47837
0.347918	3.18959	0.192753	1.73662	0.348134	3.18661	0.513236	4.71205	0.62891	5.77184	0.87684	8.06066	0.333068	3.04956	0.492906	4.49977	0.738435	6.75789	0.921124	8.41206
0.349106	3.17338	0.194774	1.74022	0.349324	3.17046	0.514367	4.68237	0.630031	5.7331	0.877486	7.99809	0.335151	3.04268	0.494083	4.47247	0.739103	6.70682	0.921768	8.34693
0.350306	3.15755	0.196796	1.74377	0.350527	3.1547	0.515505	4.65326	0.631159	5.69508	0.878138	7.93663	0.337235	3.03592	0.495266	4.44569	0.739777	6.65665	0.922417	8.28292
0.351519	3.14209	0.198818	1.74727	0.351742	3.13931	0.516648	4.62469	0.632294	5.65776	0.878794	7.87624	0.339319	3.02927	0.496457	4.41942	0.740456	6.60737	0.923071	8.22002
0.352745	3.127	0.200841	1.75071	0.35297	3.12429	0.517799	4.59666	0.633436	5.62112	0.879455	7.81689	0.341404	3.02274	0.497656	4.39365	0.74114	6.55895	0.92373	8.1582
0.353984	3.11228	0.202865	1.75411	0.354211	3.10963	0.518956	4.56914	0.634585	5.58514	0.880122	7.75857	0.34349	3.01633	0.498863	4.36837	0.741829	6.51136	0.924393	8.09743
0.355236	3.09791	0.204889	1.75745	0.355465	3.09533	0.520119	4.54212	0.635741	5.5498	0.880793	7.70123	0.345576	3.01003	0.500076	4.34356	0.742524	6.46459	0.925061	8.03768
0.356501	3.08389	0.206914	1.76075	0.356733	3.08137	0.521289	4.51559	0.636905	5.5151	0.88147	7.64487	0.347664	3.00383	0.501298	4.31921	0.743224	6.41862	0.925734	7.97894
0.35778	3.07021	0.208939	1.764	0.358015	3.06775	0.522465	4.48955	0.638074	5.48101	0.882151	7.58946	0.349751	2.99774	0.502526	4.29532	0.74393	6.37343	0.926412	7.92117
0.359073	3.05687	0.210965	1.7672	0.359311	3.05447	0.523648	4.46397	0.639251	5.44752	0.882838	7.53497	0.35184	2.99174	0.503762	4.27186	0.74464	6.329	0.927095	7.86436
0.360381	3.04385	0.212991	1.77036	0.360621	3.04152	0.524836	4.43885	0.640435	5.41462	0.88353	7.48138	0.353929	2.98585	0.505005	4.24884	0.745356	6.28531	0.927782	7.80848
0.361703	3.03117	0.215018	1.77347	0.361945	3.02889	0.526031	4.41417	0.641625	5.38228	0.884226	7.42867	0.356018	2.98005	0.506256	4.22623	0.746077	6.24235	0.928474	7.7535
0.36304	3.0188	0.217045	1.77654	0.363285	3.01658	0.527232	4.38993	0.642822	5.35051	0.884928	7.37682	0.358108	2.97435	0.507513	4.20403	0.746803	6.20009	0.929171	7.69942
0.364392	3.00675	0.219073	1.77956	0.36464	3.00459	0.528439	4.36611	0.644025	5.31927	0.885634	7.32581	0.360198	2.96874	0.508778	4.18223	0.747535	6.15853	0.929873	7.6462
0.365759	2.99501	0.221101	1.78254	0.36601	2.9929	0.529652	4.3427	0.645236	5.28857	0.886346	7.27563	0.362289	2.96322	0.51005	4.16082	0.748272	6.11764	0.930579	7.59383
0.367142	2.98357	0.223129	1.78549	0.367396	2.98152	0.530872	4.3197	0.646452	5.25839	0.887062	7.22624	0.36438	2.95778	0.511329	4.13979	0.749013	6.07741	0.93129	7.54229
0.368542	2.97244	0.225158	1.78839	0.368799	2.97044	0.532097	4.29709	0.647676	5.22871	0.887784	7.17764	0.366471	2.95243	0.512615	4.11913	0.74976	6.03783	0.932005	7.49155
0.369958	2.9616	0.227187	1.79125	0.370218	2.95966	0.533328	4.27487	0.648905	5.19953	0.88851	7.12981	0.368563	2.94716	0.513909	4.09884	0.750513	5.99888	0.932726	7.44161
0.37139	2.95106	0.229216	1.79407	0.371653	2.94917	0.534565	4.25302	0.650141	5.17083	0.889242	7.08273	0.370655	2.94197	0.515209	4.0789	0.75127	5.96054	0.933451	7.39245
0.37284	2.94081	0.231246	1.79685	0.373106	2.93897	0.535808	4.23154	0.651384	5.14261	0.889978	7.03637	0.372747	2.93686	0.516516	4.0593	0.752033	5.92281	0.93418	7.34404
0.374307	2.93084	0.233276	1.7996	0.374577	2.92906	0.537056	4.21042	0.652633	5.11485	0.890719	6.99074	0.37484	2.93182	0.51783	4.04005	0.7528	5.88567	0.934914	7.29636
0.375792	2.92116	0.235306	1.8023	0.376065	2.91943	0.538311	4.18965	0.653888	5.08753	0.891465	6.9458	0.376933	2.92686	0.519151	4.02112	0.753573	5.84911	0.935653	7.24942
0.377295	2.91176	0.237337	1.80498	0.377571	2.91007	0.539571	4.16923	0.655149	5.06066	0.892216	6.90155	0.379026	2.92197	0.520479	4.00253	0.754351	5.81311	0.936396	7.20318
0.378817	2.90263	0.239368	1.80761	0.379096	2.90099	0.540836	4.14914	0.656417	5.03422	0.892972	6.85797	0.381119	2.91716	0.521813	3.98424	0.755134	5.77766	0.937144	7.15763
0.380357	2.89377	0.241399	1.81021	0.38064	2.89219	0.542108	4.12938	0.65769	5.00821	0.893732	6.81505	0.383212	2.91241	0.523155	3.96627	0.755922	5.74275	0.937897	7.11277
0.381917	2.88519	0.24343	1.81278	0.382203	2.88365	0.543385	4.10993	0.65897	4.9826	0.894498	6.77277	0.385305	2.90773	0.524503	3.9486	0.756716	5.70837	0.938654	7.06856
0.383495	2.87686	0.245461	1.81531	0.383785	2.87537	0.544667	4.09081	0.660256	4.9574	0.895268	6.73112	0.387398	2.90311	0.525858	3.93122	0.757514	5.67451	0.939416	7.02501
0.385094	2.8688	0.247493	1.81781	0.385387	2.86736	0.545955	4.07199	0.661548	4.93259	0.896043	6.69008	0.389491	2.89856	0.527219	3.91414	0.758318	5.64116	0.940182	6.98209
0.386712	2.861	0.249525	1.82028	0.387009	2.8596	0.547248	4.05346	0.662846	4.90818	0.896823	6.64965	0.391585	2.89407	0.528587	3.89734	0.759126	5.60831	0.940952	6.9398
0.38835	2.85345	0.251556	1.82271	0.388651	2.8521	0.548547	4.03524	0.66415	4.88413	0.897608	6.60981	0.393678	2.88965	0.529962	3.88082	0.75994	5.57594	0.941727	6.89812
0.390009	2.84615	0.253589	1.82512	0.390313	2.84485	0.549851	4.0173	0.665459	4.86046	0.898398	6.57054	0.395771	2.88528	0.531344	3.86456	0.760758	5.54404	0.942507	6.85703
0.391687	2.8391	0.255621	1.82749	0.391996	2.83784	0.551161	3.99964	0.666775	4.83716	0.899192	6.53185	0.397865	2.88097	0.532731	3.84858	0.761582	5.51261	0.943291	6.81653
0.393387	2.83229	0.257653	1.82983	0.393699	2.83108	0.552476	3.98226	0.668096	4.8142	0.899991	6.4937	0.399958	2.87672	0.534126	3.83285	0.762411	5.48165	0.94408	6.7766
0.395107	2.82572	0.259686	1.83214	0.395423	2.82455	0.553796	3.96514	0.669423	4.7916	0.900795	6.4561	0.402051	2.87253	0.535526	3.81738	0.763244	5.45112	0.944873	6.73724
0.396848	2.81938	0.261718	1.83442	0.397167	2.81825	0.555121	3.94829	0.670756	4.76933	0.901604	6.41904	0.404144	2.86839	0.536934	3.80216	0.764083	5.42104	0.94567	6.69842
0.398609	2.81328	0.263751	1.83668	0.398932	2.81219	0.556451	3.9317	0.672095	4.7474	0.902418	6.38249	0.406237	2.8643	0.538347	3.78719	0.764927	5.39139	0.946472	6.66015
0.400391	2.80739	0.265784	1.8389	0.400718	2.80634	0.557787	3.91536	0.673439	4.72579	0.903236	6.34646	0.408329	2.86026	0.539767	3.77245	0.765775	5.36216	0.947278	6.6224
0.402194	2.80173	0.267817	1.8411	0.402524	2.80072	0.559127	3.89927	0.674789	4.7045	0.904059	6.31092	0.410421	2.85628	0.541194	3.75795	0.766629	5.33334	0.948089	6.58518
0.404016	2.79628	0.26985	1.84327	0.404351	2.79531	0.560473	3.88342	0.676144	4.68353	0.904886	6.27589	0.412514	2.85234	0.542626	3.74368	0.767488	5.30493	0.948903	6.54846
0.40586	2.79104	0.271882	1.84541	0.406198	2.7901	0.561824	3.86781	0.677505	4.66286	0.905719	6.24133	0.414605	2.84846	0.544065	3.72963	0.768351	5.27692	0.949723	6.51224
0.407723	2.786	0.273915	1.84753	0.408065	2.7851	0.563179	3.85243	0.678871	4.6425	0.906556	6.20724	0.416697	2.84462	0.54551	3.7158	0.76922	5.24929	0.950546	6.47652
0.409606	2.78116	0.275949	1.84962	0.409951	2.7803	0.56454	3.83729	0.680243	4.62243	0.907397	6.17362	0.418788	2.84083	0.546961	3.70219	0.770093	5.22205	0.951374	6.44127
0.411508	2.77651	0.277982	1.85168	0.411857	2.77569	0.565905	3.82236	0.68162	4.60265	0.908244	6.14046	0.420879	2.83708	0.548419	3.6888	0.770972	5.19518	0.952207	6.40649
0.41343	2.77205	0.280015	1.85372	0.413782	2.77126	0.567276	3.80766	0.683002	4.58315	0.909095	6.10774	0.42297	2.83338	0.549883	3.67561	0.771855	5.16869	0.953043	6.37218
0.41537	2.76777	0.282048	1.85573	0.415726	2.76701	0.568651	3.79316	0.68439	4.56393	0.909951	6.07546	0.425061	2.82972	0.551352	3.66262	0.772743	5.14255	0.953884	6.33831
0.417329	2.76367	0.284081	1.85772	0.417688	2.76294	0.570031	3.77888	0.685783	4.54498	0.910811	6.04361	0.42715	2.82611	0.552828	3.64983	0.773636	5.11677	0.95473	6.3049
0.419305	2.75973	0.286114	1.85968	0.419668	2.75903	0.571416	3.76481	0.687182	4.5263	0.911676	6.01218	0.42924	2.82253	0.55431	3.63724	0.774534	5.09133	0.955579	6.27192
0.4213	2.75595	0.288147	1.86163	0.421665	2.75528	0.572805	3.75094	0.688585	4.50788	0.912546	5.98116	0.431329	2.819	0.555798	3.62485	0.775437	5.06624	0.956433	6.23937
0.423311	2.75233	0.29018	1.86354	0.423679	2.75169	0.574199	3.73727	0.689994	4.48971	0.91342	5.95056	0.433418	2.81551	0.557292	3.61264	0.776345	5.04148	0.957291	6.20724
0.425338	2.74887	0.292213	1.86544	0.42571	2.74825	0.575598	3.72379	0.691407	4.4718	0.914299	5.92035	0.435506	2.81205	0.558791	3.60061	0.777257	5.01705	0.958153	6.17552
0.427382	2.74554	0.294246	1.86731	0.427756	2.74495	0.577002	3.71051	0.692826	4.45414	0.915182	5.89053	0.437594	2.80864	0.560297	3.58877	0.778175	4.99295	0.959019	6.14421
0.429441	2.74236	0.296279	1.86916	0.429818	2.74179	0.57841	3.69741	0.69425	4.43672	0.91607	5.8611	0.439681	2.80526	0.561809	3.57711	0.779097	4.96916	0.95989	6.11329
0.431515	2.7393	0.298312	1.87099	0.431895	2.73876	0.579822	3.68449	0.695679	4.41953	0.916963	5.83204	0.441768	2.80192	0.563326	3.56562	0.780024	4.94568	0.960764	6.08277
0.433604	2.73638	0.300345	1.87279	0.433986	2.73586	0.581239	3.67176	0.697113	4.40258	0.91786	5.80336	0.443854	2.79861	0.564849	3.5543	0.780956	4.92251	0.961643	6.05263
0.435707	2.73358	0.302378	1.87458	0.436091	2.73308	0.582661	3.6592	0.698551	4.38586	0.918761	5.77504	0.44594	2.79534	0.566379	3.54315	0.781893	4.89964	0.962526	6.02287
0.437823	2.73089	0.304411	1.87634	0.43821	2.73041	0.584087	3.64682	0.699995	4.36937	0.919667	5.74708	0.448025	2.7921	0.567913	3.53216	0.782834	4.87707	0.963414	5.99348
0.439952	2.72831	0.306444	1.87809	0.440341	2.72785	0.585517	3.63461	0.701443	4.35309	0.920578	5.71947	0.45011	2.7889	0.569454	3.52134	0.78378	4.85478	0.964305	5.96445
0.442093	2.72584	0.308476	1.87981	0.442485	2.7254	0.586952	3.62256	0.702896	4.33703	0.921493	5.69221	0.452194	2.78573	0.571	3.51067	0.784731	4.83278	0.9652	5.93579
0.444246	2.72347	0.310509	1.88151	0.44464	2.72305	0.588391	3.61068	0.704354	4.32119	0.922413	5.66528	0.454277	2.7826	0.572552	3.50017	0.785687	4.81107	0.9661	5.90747
0.446411	2.7212	0.312541	1.8832	0.446807	2.7208	0.589835	3.59896	0.705817	4.30555	0.923337	5.63869	0.45636	2.77949	0.57411	3.48981	0.786648	4.78962	0.967004	5.8795
0.448587	2.71902	0.314573	1.88486	0.448985	2.71863	0.591282	3.5874	0.707285	4.29012	0.924266	5.61243	0.458442	2.77642	0.575674	3.47961	0.787613	4.76845	0.967911	5.85187
0.450773	2.71693	0.316606	1.88651	0.451173	2.71656	0.592735	3.576	0.708757	4.27489	0.925199	5.58649	0.460523	2.77337	0.577243	3.46955	0.788583	4.74754	0.968823	5.82457
0.452969	2.71492	0.318638	1.88813	0.453371	2.71456	0.594191	3.56475	0.710233	4.25986	0.926137	5.56087	0.462604	2.77036	0.578817	3.45964	0.789558	4.7269	0.969739	5.7976
0.455175	2.71299	0.32067	1.88974	0.455578	2.71265	0.595651	3.55365	0.711715	4.24502	0.927079	5.53556	0.464684	2.76738	0.580397	3.44988	0.790537	4.70651	0.970659	5.77096
0.45739	2.71114	0.322702	1.89133	0.457795	2.71081	0.597116	3.54269	0.7132	4.23037	0.928025	5.51055	0.466764	2.76442	0.581983	3.44025	0.791521	4.68637	0.971582	5.74463
0.459614	2.70936	0.324734	1.8929	0.46002	2.70904	0.598585	3.53188	0.714691	4.21592	0.928976	5.48585	0.468842	2.76149	0.583574	3.43076	0.79251	4.66648	0.97251	5.71861
0.461846	2.70765	0.326765	1.89446	0.462254	2.70734	0.600058	3.52122	0.716185	4.20164	0.929931	5.46144	0.47092	2.75859	0.58517	3.4214	0.793503	4.64684	0.973442	5.6929
0.464086	2.706	0.328797	1.89599	0.464496	2.70571	0.601535	3.51069	0.717685	4.18755	0.930891	5.43733	0.472997	2.75572	0.586772	3.41218	0.794501	4.62744	0.974378	5.6675
0.466334	2.70441	0.330828	1.89751	0.466745	2.70413	0.603016	3.5003	0.719188	4.17363	0.931855	5.4135	0.475073	2.75287	0.58838	3.40309	0.795504	4.60827	0.975318	5.64238
0.46859	2.70289	0.332859	1.89902	0.469001	2.70262	0.604501	3.49005	0.720696	4.15989	0.932824	5.38995	0.477149	2.75005	0.589993	3.39413	0.796511	4.58934	0.976262	5.61757
0.470852	2.70142	0.33489	1.9005	0.471265	2.70116	0.60599	3.47992	0.722209	4.14632	0.933796	5.36668	0.479224	2.74726	0.591611	3.3853	0.797523	4.57063	0.977209	5.59303
0.473121	2.7	0.336921	1.90197	0.473535	2.69975	0.607483	3.46993	0.723725	4.13292	0.934774	5.34368	0.481297	2.74449	0.593234	3.37658	0.79854	4.55215	0.978161	5.56878
0.475396	2.69864	0.338952	1.90342	0.475811	2.6984	0.60898	3.46007	0.725246	4.11969	0.935755	5.32095	0.483371	2.74175	0.594863	3.36799	0.799561	4.53389	0.979116	5.54481
0.477677	2.69732	0.340983	1.90486	0.478093	2.69709	0.61048	3.45033	0.726771	4.10662	0.936741	5.29849	0.485443	2.73902	0.596497	3.35952	0.800587	4.51585	0.980076	5.52112
0.479964	2.69605	0.343013	1.90628	0.480381	2.69583	0.611985	3.44072	0.728301	4.09371	0.937731	5.27628	0.487514	2.73633	0.598136	3.35117	0.801617	4.49802	0.981039	5.49769
0.482257	2.69483	0.345044	1.90769	0.482675	2.69461	0.613494	3.43123	0.729834	4.08096	0.938726	5.25433	0.489585	2.73365	0.599781	3.34294	0.802652	4.48041	0.982006	5.47452
0.484554	2.69364	0.347074	1.90908	0.484974	2.69343	0.615006	3.42185	0.731372	4.06836	0.939724	5.23264	0.491654	2.731	0.601431	3.33481	0.803692	4.463	0.982977	5.45162
0.486857	2.6925	0.349104	1.91045	0.487278	2.6923	0.616522	3.4126	0.732913	4.05591	0.940728	5.21119	0.493723	2.72837	0.603086	3.3268	0.804736	4.4458	0.983952	5.42898
0.489165	2.69139	0.351134	1.91181	0.489586	2.6912	0.618042	3.40346	0.734459	4.04362	0.941735	5.18998	0.495791	2.72576	0.604746	3.3189	0.805784	4.42879	0.984931	5.40658
0.491477	2.69033	0.353163	1.91316	0.491899	2.69013	0.619566	3.39444	0.736009	4.03147	0.942747	5.16902	0.497857	2.72318	0.606411	3.31111	0.806838	4.41199	0.985914	5.38444
0.493794	2.68929	0.355193	1.91449	0.494217	2.68911	0.621094	3.38552	0.737563	4.01947	0.943763	5.14829	0.499923	2.72061	0.608081	3.30343	0.807895	4.39538	0.9869	5.36254
0.496114	2.68829	0.357222	1.91581	0.496538	2.68811	0.622625	3.37672	0.73912	4.00761	0.944783	5.12779	0.501988	2.71807	0.609756	3.29584	0.808957	4.37896	0.98789	5.34088
0.498439	2.68732	0.359251	1.91711	0.498864	2.68715	0.62416	3.36803	0.740682	3.99589	0.945807	5.10752	0.504052	2.71555	0.611437	3.28837	0.810024	4.36273	0.988884	5.31946
0.500768	2.68638	0.36128	1.9184	0.501193	2.68621	0.625698	3.35944	0.742248	3.98431	0.946836	5.08748	0.506115	2.71304	0.613122	3.28099	0.811095	4.34669	0.989882	5.29827
0.5031	2.68547	0.363309	1.91967	0.503526	2.68531	0.62724	3.35096	0.743817	3.97287	0.947869	5.06766	0.508178	2.71056	0.614812	3.27371	0.812171	4.33083	0.990883	5.27731
0.505436	2.68459	0.365337	1.92094	0.505862	2.68443	0.628786	3.34258	0.74539	3.96156	0.948906	5.04806	0.510239	2.7081	0.616508	3.26654	0.813251	4.31515	0.991888	5.25658
0.507775	2.68373	0.367365	1.92218	0.508202	2.68357	0.630335	3.3343	0.746967	3.95038	0.949947	5.02867	0.512299	2.70565	0.618208	3.25945	0.814335	4.29965	0.992897	5.23608
0.510117	2.6829	0.369393	1.92342	0.510544	2.68275	0.631888	3.32612	0.748548	3.93933	0.950992	5.0095	0.514358	2.70322	0.619913	3.25247	0.815424	4.28432	0.99391	5.21579
0.512462	2.68209	0.371421	1.92464	0.51289	2.68194	0.633445	3.31804	0.750133	3.9284	0.952042	4.99054	0.516416	2.70081	0.621623	3.24557	0.816518	4.26917	0.994926	5.19572
0.51481	2.6813	0.373449	1.92585	0.515239	2.68116	0.635005	3.31006	0.751721	3.91761	0.953096	4.97178	0.518473	2.69842	0.623338	3.23877	0.817616	4.25419	0.995946	5.17586
0.517161	2.68054	0.375476	1.92705	0.51759	2.6804	0.636568	3.30217	0.753313	3.90693	0.954153	4.95322	0.520529	2.69605	0.625058	3.23206	0.818718	4.23937	0.99697	5.15622
0.519515	2.6798	0.377504	1.92823	0.519944	2.67966	0.638135	3.29438	0.754909	3.89638	0.955216	4.93487	0.522584	2.6937	0.626782	3.22544	0.819825	4.22472	0.997997	5.13678
0.521871	2.67907	0.379531	1.9294	0.5223	2.67894	0.639706	3.28668	0.756508	3.88595	0.956282	4.91671	0.524638	2.69136	0.628511	3.21891	0.820936	4.21023	0.999028	5.11755
0.524229	2.67837	0.381557	1.93056	0.524659	2.67824	0.641279	3.27906	0.758111	3.87563	0.957352	4.89875	0.526691	2.68904	0.630245	3.21246	0.822051	4.1959	1.00006	5.09851
0.52659	2.67769	0.383584	1.93171	0.52702	2.67756	0.642856	3.27154	0.759717	3.86543	0.958426	4.88098	0.528742	2.68673	0.631984	3.20609	0.823171	4.18173		
0.528953	2.67702	0.38561	1.93285	0.529384	2.6769	0.644437	3.26411	0.761327	3.85535	0.959505	4.86339	0.530793	2.68444	0.633728	3.19981	0.824295	4.16771		
0.531318	2.67637	0.387637	1.93397	0.531749	2.67625	0.646021	3.25676	0.76294	3.84538	0.960588	4.846	0.532843	2.68217	0.635476	3.19362	0.825423	4.15385		
0.533685	2.67573	0.389662	1.93508	0.534117	2.67562	0.647608	3.2495	0.764557	3.83551	0.961674	4.82878	0.534891	2.67991	0.637228	3.1875	0.826556	4.14014		
0.536054	2.67511	0.391688	1.93618	0.536486	2.675	0.649199	3.24233	0.766177	3.82576	0.962765	4.81175	0.536939	2.67767	0.638986	3.18146	0.827693	4.12658		
0.538425	2.67451	0.393714	1.93727	0.538857	2.6744	0.650793	3.23523	0.767801	3.81611	0.96386	4.79489	0.538985	2.67545	0.640748	3.17551	0.828835	4.11316		
0.540797	2.67392	0.395739	1.93835	0.54123	2.67381	0.65239	3.22822	0.769428	3.80657	0.964959	4.77821	0.54103	2.67324	0.642514	3.16962	0.829981	4.09989		
0.543171	2.67334	0.397764	1.93942	0.543604	2.67324	0.65399	3.22129	0.771059	3.79714	0.966061	4.7617	0.543074	2.67104	0.644285	3.16382	0.831131	4.08677		
0.545547	2.67278	0.399788	1.94048	0.54598	2.67268	0.655594	3.21444	0.772692	3.7878	0.967168	4.74537	0.545117	2.66886	0.64606	3.15809	0.832285	4.07378		
0.547924	2.67223	0.401813	1.94152	0.548358	2.67213	0.657201	3.20766	0.774329	3.77857	0.968279	4.7292	0.547159	2.66669	0.64784	3.15243	0.833444	4.06093		
0.550303	2.67169	0.403837	1.94256	0.550737	2.6716	0.658811	3.20097	0.77597	3.76944	0.969394	4.7132	0.5492	2.66454	0.649625	3.14685	0.834606	4.04822		
0.552683	2.67117	0.405861	1.94359	0.553117	2.67107	0.660425	3.19434	0.777613	3.7604	0.970513	4.69736	0.55124	2.6624	0.651414	3.14134	0.835774	4.03564		
0.555065	2.67065	0.407885	1.9446	0.555499	2.67056	0.662041	3.1878	0.77926	3.75146	0.971636	4.68168	0.553278	2.66027	0.653207	3.13589	0.836945	4.0232		
0.557448	2.67014	0.409908	1.94561	0.557882	2.67005	0.663661	3.18132	0.78091	3.74262	0.972763	4.66616	0.555316	2.65816	0.655004	3.13052	0.83812	4.01089		
0.559832	2.66965	0.411932	1.9466	0.560266	2.66956	0.665284	3.17492	0.782563	3.73387	0.973894	4.6508	0.557352	2.65606	0.656806	3.12522	0.8393	3.9987		
0.562217	2.66916	0.413955	1.94759	0.562652	2.66908	0.666909	3.16859	0.784219	3.72521	0.975028	4.6356	0.559387	2.65398	0.658612	3.11998	0.840484	3.98665		
0.564603	2.66869	0.415978	1.94856	0.565038	2.6686	0.668539	3.16234	0.785879	3.71665	0.976167	4.62054	0.561421	2.65191	0.660423	3.11481	0.841672	3.97472		
0.56699	2.66822	0.418	1.94953	0.567425	2.66814	0.670171	3.15615	0.787541	3.70817	0.97731	4.60564	0.563454	2.64985	0.662238	3.1097	0.842865	3.96291		
0.569378	2.66776	0.420022	1.95048	0.569814	2.66768	0.671806	3.15003	0.789207	3.69978	0.978456	4.59089	0.565485	2.6478	0.664057	3.10466	0.844061	3.95123		
0.571767	2.66731	0.422044	1.95143	0.572203	2.66723	0.673444	3.14397	0.790875	3.69148	0.979607	4.57628	0.567516	2.64576	0.66588	3.09968	0.845262	3.93967		
0.574157	2.66687	0.424066	1.95237	0.574593	2.66679	0.675085	3.13799	0.792547	3.68326	0.980761	4.56182	0.569545	2.64374	0.667707	3.09477	0.846467	3.92823		
0.576548	2.66644	0.426088	1.95329	0.576984	2.66636	0.67673	3.13207	0.794221	3.67513	0.98192	4.5475	0.571574	2.64173	0.669539	3.08991	0.847676	3.9169		
0.57894	2.66601	0.428109	1.95421	0.579376	2.66593	0.678377	3.12621	0.795899	3.66708	0.983082	4.53332	0.573601	2.63973	0.671374	3.08512	0.848889	3.90569		
0.581332	2.66559	0.43013	1.95512	0.581769	2.66552	0.680027	3.12042	0.797579	3.65912	0.984248	4.51928	0.575626	2.63775	0.673214	3.08038	0.850107	3.8946		
0.583725	2.66518	0.43215	1.95603	0.584162	2.6651	0.681681	3.11469	0.799262	3.65123	0.985418	4.50538	0.577651	2.63577	0.675058	3.07571	0.851328	3.88362		
0.586119	2.66477	0.434171	1.95692	0.586556	2.6647	0.683337	3.10902	0.800948	3.64343	0.986591	4.49161	0.579675	2.63381	0.676905	3.07109	0.852554	3.87275		
0.588514	2.66437	0.436191	1.9578	0.58895	2.6643	0.684996	3.10341	0.802637	3.6357	0.987769	4.47798	0.581697	2.63186	0.678757	3.06653	0.853783	3.86199		
0.590908	2.66398	0.438211	1.95868	0.591345	2.66391	0.686659	3.09787	0.804329	3.62806	0.98895	4.46448	0.583719	2.62992	0.680613	3.06202	0.855017	3.85134		
0.593304	2.66359	0.44023	1.95954	0.593741	2.66352	0.688324	3.09238	0.806023	3.62048	0.990136	4.45111	0.585739	2.62799	0.682472	3.05757	0.856255	3.8408		
0.5957	2.66321	0.44225	1.9604	0.596137	2.66314	0.689992	3.08696	0.807721	3.61299	0.991325	4.43786	0.587758	2.62607	0.684336	3.05318	0.857497	3.83036		
0.598097	2.66283	0.444269	1.96125	0.598534	2.66276	0.691663	3.08159	0.809421	3.60557	0.992517	4.42475	0.589776	2.62416	0.686203	3.04884	0.858743	3.82003		
0.600494	2.66246	0.446288	1.96209	0.600931	2.66239	0.693337	3.07627	0.811124	3.59822	0.993714	4.41176	0.591792	2.62226	0.688074	3.04455	0.859992	3.8098		
0.602891	2.66209	0.448306	1.96293	0.603328	2.66202	0.695014	3.07102	0.812829	3.59094	0.994914	4.39889	0.593808	2.62037	0.68995	3.04031	0.861246	3.79967		
0.605289	2.66173	0.450325	1.96375	0.605726	2.66166	0.696693	3.06582	0.814537	3.58374	0.996119	4.38615	0.595822	2.6185	0.691828	3.03612	0.862504	3.78964		
0.607687	2.66137	0.452343	1.96457	0.608124	2.6613	0.698376	3.06067	0.816248	3.5766	0.997327	4.37353	0.597836	2.61663	0.693711	3.03199	0.863767	3.77971		
0.610085	2.66101	0.45436	1.96538	0.610522	2.66095	0.700061	3.05558	0.817962	3.56954	0.998538	4.36102	0.599848	2.61478	0.695597	3.0279	0.865033	3.76988		
0.612484	2.66066	0.456378	1.96619	0.612921	2.6606	0.701749	3.05055	0.819678	3.56254	0.999754	4.34863	0.601859	2.61293	0.697487	3.02387	0.866303	3.76015		
0.614883	2.66032	0.458395	1.96698	0.61532	2.66026	0.70344	3.04556	0.821396	3.55561	1.00097	4.33636	0.603869	2.6111	0.699381	3.01988	0.867577	3.75051		
0.617282	2.65998	0.460412	1.96777	0.617719	2.65991	0.705134	3.04063	0.823117	3.54875			0.605878	2.60927	0.701278	3.01594	0.868855	3.74097		
0.619681	2.65964	0.462429	1.96855	0.620119	2.65957	0.706831	3.03575	0.824841	3.54196			0.607885	2.60745	0.703179	3.01205	0.870137	3.73152		
0.62208	2.6593	0.464445	1.96932	0.622518	2.65924	0.708531	3.03092	0.826567	3.53522			0.609892	2.60565	0.705084	3.0082	0.871423	3.72216		
0.62448	2.65897	0.466461	1.97009	0.624918	2.65891	0.710233	3.02615	0.828296	3.52856			0.611897	2.60385	0.706992	3.0044	0.872712	3.7129		
0.62688	2.65864	0.468477	1.97085	0.627317	2.65858	0.711938	3.02142	0.830027	3.52195			0.613902	2.60206	0.708904	3.00064	0.874006	3.70372		
0.629279	2.65831	0.470492	1.9716	0.629717	2.65825	0.713646	3.01674	0.831761	3.51541			0.615905	2.60029	0.710819	2.99693	0.875304	3.69463		
0.631679	2.65799	0.472507	1.97234	0.632117	2.65793	0.715357	3.01211	0.833497	3.50893			0.617907	2.59852	0.712737	2.99326	0.876606	3.68563		
0.634079	2.65767	0.474522	1.97308	0.634517	2.65761	0.717071	3.00752	0.835235	3.50251			0.619909	2.59676	0.714659	2.98963	0.877911	3.67672		
0.636479	2.65735	0.476537	1.97381	0.636916	2.65729	0.718787	3.00299	0.836976	3.49615			0.621909	2.59501	0.716584	2.98605	0.879221	3.66789		
0.638879	2.65703	0.478551	1.97453	0.639316	2.65697	0.720506	2.9985	0.838719	3.48985			0.623908	2.59327	0.718513	2.9825	0.880534	3.65915		
0.641278	2.65672	0.480566	1.97525	0.641716	2.65666	0.722228	2.99405	0.840465	3.48361			0.625906	2.59154	0.720445	2.979	0.881852	3.65049		
0.643678	2.65641	0.482579	1.97596	0.644115	2.65635	0.723952	2.98966	0.842212	3.47743			0.627902	2.58981	0.72238	2.97554	0.883173	3.64191		
0.646077	2.65609	0.484593	1.97666	0.646515	2.65604	0.72568	2.9853	0.843962	3.4713			0.629898	2.5881	0.724319	2.97212	0.884498	3.63342		
0.648477	2.65579	0.486606	1.97736	0.648914	2.65573	0.72741	2.98099	0.845715	3.46523			0.631893	2.5864	0.72626	2.96874	0.885827	3.625		
0.650876	2.65548	0.488619	1.97805	0.651313	2.65542	0.729143	2.97673	0.847469	3.45921			0.633887	2.5847	0.728205	2.96539	0.887159	3.61667		
0.653275	2.65517	0.490632	1.97874	0.653712	2.65512	0.730878	2.97251	0.849226	3.45325			0.63588	2.58301	0.730154	2.96209	0.888496	3.60841		
0.655673	2.65487	0.492644	1.97941	0.656111	2.65481	0.732617	2.96833	0.850985	3.44734			0.637871	2.58133	0.732105	2.95882	0.889836	3.60023		
0.658072	2.65457	0.494656	1.98009	0.658509	2.65451	0.734358	2.9642	0.852746	3.44149			0.639862	2.57966	0.734059	2.95559	0.89118	3.59213		
0.66047	2.65426	0.496668	1.98075	0.660907	2.65421	0.736102	2.9601	0.85451	3.43568			0.641852	2.578	0.736017	2.9524	0.892529	3.5841		
0.662868	2.65396	0.49868	1.98141	0.663305	2.65391	0.737848	2.95605	0.856275	3.42993			0.64384	2.57635	0.737977	2.94924	0.89388	3.57615		
0.665265	2.65366	0.500691	1.98207	0.665702	2.65361	0.739598	2.95204	0.858043	3.42423			0.645828	2.5747	0.739941	2.94612	0.895236	3.56827		
0.667662	2.65336	0.502702	1.98271	0.668099	2.65331	0.74135	2.94807	0.859813	3.41859			0.647815	2.57307	0.741907	2.94303	0.896595	3.56047		
0.670059	2.65307	0.504712	1.98336	0.670496	2.65301	0.743105	2.94414	0.861584	3.41299			0.649801	2.57144	0.743876	2.93997	0.897959	3.55274		
0.672455	2.65277	0.506723	1.98399	0.672892	2.65271	0.744863	2.94025	0.863358	3.40744			0.651785	2.56982	0.745849	2.93696	0.899326	3.54508		
0.674851	2.65247	0.508733	1.98462	0.675288	2.65242	0.746623	2.9364	0.865134	3.40194			0.653769	2.56821	0.747824	2.93397	0.900696	3.53749		
0.677247	2.65217	0.510743	1.98525	0.677683	2.65212	0.748386	2.93259	0.866912	3.39649			0.655752	2.5666	0.749802	2.93102	0.902071	3.52997		
0.679641	2.65188	0.512752	1.98587	0.680078	2.65182	0.750152	2.92882	0.868692	3.39108			0.657734	2.56501	0.751783	2.92809	0.903449	3.52252		
0.682036	2.65158	0.514761	1.98648	0.682472	2.65152	0.751921	2.92508	0.870474	3.38572			0.659716	2.56342	0.753767	2.92521	0.904831	3.51514		
0.68443	2.65128	0.51677	1.98709	0.684866	2.65123	0.753692	2.92139	0.872258	3.38041			0.661696	2.56184	0.755753	2.92235	0.906217	3.50783		
0.686823	2.65098	0.518779	1.98769	0.687259	2.65093	0.755466	2.91773	0.874044	3.37515			0.663675	2.56027	0.757742	2.91952	0.907606	3.50058		
0.689215	2.65069	0.520787	1.98829	0.689651	2.65063	0.757243	2.9141	0.875832	3.36993			0.665653	2.5587	0.759734	2.91673	0.908999	3.4934		
0.691607	2.65039	0.522795	1.98888	0.692043	2.65034	0.759023	2.91052	0.877621	3.36475			0.667631	2.55714	0.761728	2.91396	0.910396	3.48629		
0.693999	2.65009	0.524803	1.98947	0.694434	2.65004	0.760806	2.90697	0.879413	3.35962			0.669608	2.5556	0.763725	2.91122	0.911797	3.47924		
0.696389	2.64979	0.52681	1.99005	0.696825	2.64974	0.762591	2.90345	0.881206	3.35453			0.671584	2.55405	0.765725	2.90852	0.913201	3.47225		
0.698779	2.64949	0.528818	1.99062	0.699215	2.64944	0.76438	2.89998	0.883002	3.34948			0.673559	2.55252	0.767727	2.90584	0.914609	3.46533		
0.701168	2.64919	0.530824	1.99119	0.701603	2.64914	0.766171	2.89653	0.884799	3.34448			0.675533	2.551	0.769732	2.90319	0.916021	3.45847		
0.703556	2.64889	0.532831	1.99176	0.703991	2.64884	0.767965	2.89312	0.886598	3.33952			0.677506	2.54948	0.771739	2.90056	0.917436	3.45167		
0.705944	2.64859	0.534837	1.99232	0.706379	2.64853	0.769762	2.88975	0.888399	3.3346			0.679479	2.54797	0.773749	2.89797	0.918855	3.44493		
0.70833	2.64829	0.536843	1.99288	0.708765	2.64823	0.771561	2.88641	0.890201	3.32972			0.68145	2.54646	0.775761	2.8954	0.920277	3.43826		
0.710716	2.64798	0.538849	1.99343	0.711151	2.64793	0.773364	2.88311	0.892005	3.32488			0.683421	2.54497	0.777775	2.89286	0.921704	3.43164		
0.7131	2.64768	0.540854	1.99397	0.713535	2.64762	0.77517	2.87983	0.893811	3.32009			0.685391	2.54348	0.779792	2.89035	0.923134	3.42508		
0.715484	2.64737	0.54286	1.99452	0.715919	2.64731	0.776978	2.87659	0.895619	3.31533			0.687361	2.542	0.781811	2.88786	0.924567	3.41858		
0.717867	2.64706	0.544864	1.99505	0.718301	2.647	0.778789	2.87339	0.897429	3.31061			0.689329	2.54053	0.783833	2.8854	0.926004	3.41214		
0.720248	2.64675	0.546869	1.99558	0.720683	2.64669	0.780603	2.87022	0.89924	3.30593			0.691297	2.53906	0.785857	2.88296	0.927445	3.40576		
0.722629	2.64643	0.548873	1.99611	0.723063	2.64638	0.782421	2.86708	0.901053	3.30128			0.693264	2.5376	0.787883	2.88054	0.928889	3.39943		
0.725008	2.64612	0.550877	1.99663	0.725442	2.64606	0.784241	2.86397	0.902867	3.29668			0.695231	2.53615	0.789911	2.87816	0.930337	3.39316		
0.727387	2.6458	0.552881	1.99715	0.72782	2.64575	0.786064	2.86089	0.904684	3.29211			0.697196	2.53471	0.791941	2.87579	0.931789	3.38695		
0.729764	2.64548	0.554884	1.99767	0.730197	2.64543	0.787891	2.85785	0.906501	3.28758			0.699161	2.53327	0.793974	2.87345	0.933244	3.38079		
0.73214	2.64516	0.556887	1.99817	0.732573	2.6451	0.78972	2.85484	0.908321	3.28308			0.701125	2.53184	0.796008	2.87113	0.934703	3.37468		
0.734514	2.64484	0.55889	1.99868	0.734947	2.64478	0.791552	2.85186	0.910142	3.27862			0.703089	2.53042	0.798045	2.86884	0.936165	3.36863		
0.736888	2.64451	0.560893	1.99918	0.73732	2.64445	0.793388	2.84891	0.911964	3.2742			0.705052	2.529	0.800084	2.86657	0.937631	3.36263		
0.73926	2.64418	0.562895	1.99967	0.739692	2.64412	0.795226	2.84599	0.913788	3.26981			0.707014	2.52759	0.802125	2.86432	0.939101	3.35669		
0.74163	2.64385	0.564897	2.00017	0.742062	2.64379	0.797068	2.8431	0.915614	3.26546			0.708976	2.52619	0.804167	2.86209	0.940574	3.35079		
0.743999	2.64352	0.566898	2.00065	0.744431	2.64346	0.798913	2.84024	0.917441	3.26114			0.710937	2.5248	0.806212	2.85988	0.94205	3.34495		
0.746367	2.64318	0.5689	2.00114	0.746798	2.64312	0.800761	2.83741	0.91927	3.25685			0.712897	2.52341	0.808259	2.8577	0.94353	3.33916		
0.748733	2.64284	0.570901	2.00162	0.749164	2.64278	0.802613	2.83461	0.9211	3.2526			0.714857	2.52203	0.810307	2.85553	0.945014	3.33342		
0.751097	2.6425	0.572901	2.00209	0.751528	2.64243	0.804467	2.83185	0.922932	3.24838			0.716816	2.52065	0.812357	2.85339	0.946501	3.32773		
0.75346	2.64215	0.574902	2.00256	0.753891	2.64208	0.806325	2.82911	0.924765	3.2442			0.718774	2.51929	0.81441	2.85127	0.947992	3.32209		
0.755821	2.6418	0.576902	2.00303	0.756251	2.64173	0.808187	2.8264	0.9266	3.24004			0.720732	2.51793	0.816464	2.84916	0.949486	3.31649		
0.758181	2.64144	0.578902	2.00349	0.758611	2.64138	0.810051	2.82372	0.928436	3.23592			0.72269	2.51657	0.818519	2.84708	0.950984	3.31095		
0.760538	2.64108	0.580901	2.00395	0.760968	2.64102	0.811919	2.82107	0.930273	3.23183			0.724647	2.51523	0.820577	2.84502	0.952485	3.30546		
0.762894	2.64072	0.582901	2.0044	0.763323	2.64065	0.813791	2.81845	0.932112	3.22777			0.726603	2.51389	0.822636	2.84297	0.95399	3.30001		
0.765248	2.64035	0.5849	2.00485	0.765677	2.64028	0.815666	2.81586	0.933952	3.22374			0.728559	2.51256	0.824697	2.84095	0.955498	3.29461		
0.7676	2.63998	0.586898	2.0053	0.768028	2.63991	0.817545	2.81329	0.935794	3.21974			0.730514	2.51123	0.826759	2.83894	0.95701	3.28925		
0.76995	2.6396	0.588897	2.00574	0.770378	2.63953	0.819427	2.81076	0.937637	3.21578			0.732469	2.50991	0.828823	2.83695	0.958525	3.28395		
0.772298	2.63922	0.590895	2.00618	0.772725	2.63915	0.821312	2.80825	0.939481	3.21184			0.734423	2.5086	0.830889	2.83498	0.960044	3.27868		
0.774643	2.63884	0.592893	2.00662	0.775071	2.63877	0.823202	2.80577	0.941327	3.20793			0.736376	2.50729	0.832956	2.83303	0.961566	3.27347		
0.776987	2.63845	0.59489	2.00705	0.777414	2.63838	0.825095	2.80332	0.943174	3.20405			0.73833	2.50599	0.835025	2.83109	0.963092	3.26829		
0.779328	2.63805	0.596887	2.00748	0.779755	2.63798	0.826991	2.8009	0.945022	3.2002			0.740282	2.5047	0.837095	2.82918	0.964621	3.26317		
0.781668	2.63765	0.598884	2.0079	0.782094	2.63758	0.828892	2.79851	0.946872	3.19638			0.742235	2.50341	0.839167	2.82728	0.966154	3.25808		
0.784004	2.63724	0.600881	2.00832	0.78443	2.63717	0.830796	2.79614	0.948722	3.19259			0.744186	2.50213	0.84124	2.82539	0.96769	3.25304		
0.786339	2.63683	0.602877	2.00874	0.786764	2.63676	0.832704	2.7938	0.950575	3.18882			0.746138	2.50086	0.843314	2.82352	0.96923	3.24804		
0.78867	2.63642	0.604874	2.00915	0.789095	2.63634	0.834616	2.79149	0.952428	3.18508			0.748089	2.49959	0.84539	2.82167	0.970773	3.24309		
0.791	2.63599	0.606869	2.00957	0.791424	2.63591	0.836533	2.78921	0.954282	3.18137			0.750039	2.49833	0.847467	2.81984	0.972319	3.23818		
0.793326	2.63556	0.608865	2.00997	0.79375	2.63548	0.838453	2.78695	0.956138	3.17769			0.751989	2.49708	0.849546	2.81802	0.973869	3.23331		
0.79565	2.63513	0.61086	2.01038	0.796074	2.63505	0.840377	2.78473	0.957995	3.17403			0.753939	2.49583	0.851625	2.81621	0.975422	3.22848		
0.797972	2.63468	0.612855	2.01078	0.798395	2.6346	0.842305	2.78252	0.959853	3.1704			0.755888	2.49459	0.853706	2.81442	0.976979	3.22369		
0.80029	2.63424	0.61485	2.01117	0.800713	2.63415	0.844238	2.78035	0.961713	3.1668			0.757837	2.49336	0.855789	2.81265	0.978539	3.21894		
0.802606	2.63378	0.616844	2.01156	0.803028	2.6337	0.846175	2.77821	0.963573	3.16322			0.759786	2.49213	0.857872	2.81089	0.980103	3.21423		
0.804918	2.63332	0.618838	2.01195	0.80534	2.63323	0.848116	2.77609	0.965435	3.15967			0.761734	2.49091	0.859957	2.80914	0.98167	3.20957		
0.807228	2.63285	0.620832	2.01234	0.807649	2.63276	0.850061	2.77399	0.967298	3.15614			0.763682	2.48969	0.862042	2.80741	0.983241	3.20494		
0.809534	2.63237	0.622825	2.01272	0.809955	2.63229	0.852011	2.77193	0.969161	3.15264			0.765629	2.48848	0.864129	2.80569	0.984815	3.20035		
0.811838	2.63189	0.624819	2.0131	0.812257	2.6318	0.853966	2.76989	0.971026	3.14916			0.767577	2.48728	0.866217	2.80399	0.986392	3.1958		
0.814138	2.6314	0.626812	2.01348	0.814557	2.63131	0.855925	2.76788	0.972893	3.14571			0.769523	2.48608	0.868306	2.8023	0.987973	3.19129		
0.816435	2.6309	0.628804	2.01386	0.816853	2.63081	0.857888	2.7659	0.97476	3.14228			0.77147	2.48489	0.870396	2.80062	0.989557	3.18681		
0.818728	2.63039	0.630797	2.01423	0.819146	2.6303	0.859856	2.76394	0.976628	3.13887			0.773416	2.48371	0.872487	2.79896	0.991144	3.18238		
0.821018	2.62988	0.632789	2.01459	0.821435	2.62978	0.861829	2.76201	0.978497	3.13549			0.775362	2.48253	0.874579	2.79731	0.992735	3.17798		
0.823305	2.62936	0.63478	2.01496	0.823721	2.62926	0.863807	2.76011	0.980368	3.13213			0.777308	2.48135	0.876672	2.79567	0.99433	3.17362		
0.825588	2.62882	0.636772	2.01532	0.826004	2.62873	0.865789	2.75823	0.982239	3.1288			0.779253	2.48019	0.878766	2.79405	0.995927	3.16929		
0.827867	2.62828	0.638763	2.01568	0.828282	2.62819	0.867777	2.75638	0.984111	3.12549			0.781198	2.47903	0.88086	2.79244	0.997528	3.165		
0.830143	2.62774	0.640754	2.01603	0.830557	2.62764	0.869769	2.75456	0.985985	3.1222			0.783143	2.47787	0.882956	2.79084	0.999133	3.16075		
0.832414	2.62718	0.642745	2.01639	0.832828	2.62708	0.871766	2.75276	0.987859	3.11893			0.785088	2.47672	0.885052	2.78925	1.00074	3.15653		
0.834682	2.62661	0.644735	2.01673	0.835095	2.62651	0.873768	2.75099	0.989735	3.11569			0.787032	2.47558	0.887149	2.78767				
0.836946	2.62604	0.646725	2.01708	0.837359	2.62593	0.875776	2.74924	0.991611	3.11247			0.788976	2.47445	0.889247	2.78611				
0.839206	2.62545	0.648715	2.01743	0.839618	2.62535	0.877789	2.74753	0.993488	3.10927			0.79092	2.47332	0.891346	2.78456				
0.841462	2.62486	0.650705	2.01777	0.841873	2.62475	0.879806	2.74584	0.995367	3.10609			0.792864	2.47219	0.893445	2.78301				
0.843714	2.62426	0.652694	2.0181	0.844124	2.62415	0.88183	2.74417	0.997246	3.10293			0.794807	2.47107	0.895545	2.78148				
0.845962	2.62365	0.654683	2.01844	0.846371	2.62353	0.883858	2.74253	0.999126	3.0998			0.79675	2.46996	0.897646	2.77996				
0.848205	2.62302	0.656672	2.01877	0.848614	2.62291	0.885892	2.74092	1.00101	3.09668			0.798694	2.46885	0.899747	2.77845				
0.850444	2.62239	0.65866	2.0191	0.850852	2.62228	0.887931	2.73933					0.800637	2.46775	0.901849	2.77695				
0.852679	2.62175	0.660648	2.01943	0.853086	2.62163	0.889976	2.73777					0.802579	2.46665	0.903951	2.77547				
0.854909	2.6211	0.662636	2.01975	0.855316	2.62098	0.892026	2.73623					0.804522	2.46557	0.906055	2.77399				
0.857135	2.62044	0.664624	2.02007	0.857541	2.62032	0.894082	2.73472					0.806464	2.46448	0.908158	2.77252				
0.859357	2.61977	0.666611	2.02039	0.859761	2.61965	0.896143	2.73324					0.808406	2.4634	0.910262	2.77106				
0.861574	2.61909	0.668598	2.02071	0.861978	2.61896	0.89821	2.73178					0.810349	2.46233	0.912367	2.76961				
0.863786	2.6184	0.670585	2.02102	0.864189	2.61827	0.900283	2.73035					0.812291	2.46126	0.914472	2.76817				
0.865994	2.6177	0.672571	2.02133	0.866396	2.61757	0.902361	2.72894					0.814232	2.4602	0.916577	2.76674				
0.868197	2.61699	0.674557	2.02164	0.868598	2.61686	0.904445	2.72756					0.816174	2.45915	0.918683	2.76532				
0.870396	2.61627	0.676543	2.02195	0.870796	2.61613	0.906535	2.7262					0.818116	2.4581	0.920789	2.76391				
0.872589	2.61554	0.678529	2.02225	0.872989	2.6154	0.90863	2.72487					0.820057	2.45705	0.922896	2.76251				
0.874779	2.6148	0.680514	2.02255	0.875177	2.61466	0.910731	2.72356					0.821999	2.45601	0.925003	2.76112				
0.876963	2.61405	0.682499	2.02285	0.877361	2.61391	0.912838	2.72227					0.82394	2.45498	0.92711	2.75973				
0.879143	2.61329	0.684484	2.02315	0.879539	2.61315	0.91495	2.72101					0.825881	2.45395	0.929217	2.75835				
0.881317	2.61251	0.686469	2.02344	0.881714	2.61237	0.917068	2.71978					0.827822	2.45293	0.931325	2.75699				
0.883488	2.61173	0.688453	2.02373	0.883883	2.61159	0.919192	2.71856					0.829763	2.45191	0.933433	2.75563				
0.885653	2.61095	0.690437	2.02402	0.886047	2.6108	0.921322	2.71737					0.831704	2.4509	0.935541	2.75427				
0.887814	2.61015	0.692421	2.02431	0.888207	2.61	0.923457	2.71621					0.833645	2.44989	0.93765	2.75293				
0.88997	2.60934	0.694404	2.02459	0.890363	2.60919	0.925598	2.71506					0.835586	2.44889	0.939758	2.75159				
0.892121	2.60852	0.696387	2.02487	0.892513	2.60837	0.927745	2.71394					0.837527	2.44789	0.941867	2.75026				
0.894268	2.60769	0.69837	2.02515	0.894659	2.60754	0.929897	2.71285					0.839468	2.4469	0.943975	2.74894				
0.89641	2.60686	0.700353	2.02543	0.8968	2.6067	0.932055	2.71177					0.841409	2.44592	0.946084	2.74763				
0.898547	2.60601	0.702335	2.0257	0.898937	2.60586	0.934219	2.71072					0.843349	2.44494	0.948193	2.74632				
0.90068	2.60516	0.704317	2.02598	0.901069	2.605	0.936388	2.70969					0.84529	2.44396	0.950302	2.74502				
0.902808	2.60429	0.706299	2.02625	0.903196	2.60414	0.938562	2.70867					0.847231	2.44299	0.952411	2.74373				
0.904932	2.60342	0.708281	2.02651	0.905319	2.60326	0.940742	2.70769					0.849172	2.44203	0.954519	2.74244				
0.907051	2.60254	0.710262	2.02678	0.907437	2.60238	0.942927	2.70672					0.851112	2.44107	0.956628	2.74117				
0.909166	2.60166	0.712243	2.02704	0.909551	2.6015	0.945118	2.70577					0.853053	2.44011	0.958737	2.73989				
0.911277	2.60076	0.714224	2.02731	0.911661	2.6006	0.947313	2.70484					0.854994	2.43916	0.960846	2.73863				
0.913383	2.59986	0.716204	2.02757	0.913766	2.5997	0.949514	2.70393					0.856934	2.43822	0.962954	2.73737				
0.915485	2.59895	0.718185	2.02782	0.915868	2.59878	0.95172	2.70304					0.858875	2.43728	0.965063	2.73611				
0.917582	2.59803	0.720165	2.02808	0.917964	2.59787	0.953931	2.70217					0.860816	2.43635	0.967171	2.73487				
0.919676	2.59711	0.722144	2.02833	0.920057	2.59694	0.956147	2.70132					0.862757	2.43542	0.969279	2.73363				
0.921765	2.59618	0.724124	2.02858	0.922146	2.59601	0.958368	2.70048					0.864698	2.43449	0.971387	2.73239				
0.923851	2.59524	0.726103	2.02883	0.924231	2.59507	0.960594	2.69967					0.866638	2.43357	0.973495	2.73116				
0.925932	2.5943	0.728082	2.02908	0.926311	2.59413	0.962825	2.69887					0.868579	2.43266	0.975602	2.72994				
0.92801	2.59335	0.730061	2.02932	0.928388	2.59318	0.96506	2.69809					0.87052	2.43175	0.977709	2.72872				
0.930084	2.5924	0.732039	2.02957	0.930462	2.59222	0.9673	2.69733					0.872461	2.43085	0.979816	2.72751				
0.932154	2.59144	0.734017	2.02981	0.932531	2.59126	0.969544	2.69658					0.874402	2.42995	0.981923	2.7263				
0.93422	2.59047	0.735995	2.03005	0.934597	2.5903	0.971793	2.69585					0.876343	2.42905	0.984029	2.7251				
0.936283	2.5895	0.737973	2.03029	0.936659	2.58933	0.974046	2.69513					0.878285	2.42816	0.986135	2.72391				
0.938343	2.58853	0.73995	2.03052	0.938718	2.58835	0.976304	2.69443					0.880226	2.42728	0.988241	2.72272				
0.940399	2.58755	0.741927	2.03075	0.940773	2.58737	0.978565	2.69375					0.882167	2.4264	0.990346	2.72153				
0.942451	2.58657	0.743904	2.03099	0.942825	2.58639	0.980831	2.69308					0.884109	2.42552	0.992451	2.72035				
0.944501	2.58558	0.74588	2.03121	0.944874	2.5854	0.983101	2.69242					0.88605	2.42465	0.994555	2.71917				
0.946547	2.58459	0.747857	2.03144	0.94692	2.58441	0.985374	2.69178					0.887992	2.42378	0.996659	2.718				
0.94859	2.5836	0.749833	2.03167	0.948962	2.58341	0.987652	2.69115					0.889934	2.42292	0.998762	2.71683				
0.95063	2.5826	0.751809	2.03189	0.951001	2.58242	0.989933	2.69054					0.891875	2.42206	1.00087	2.71567				
0.952667	2.5816	0.753784	2.03212	0.953038	2.58142	0.992218	2.68994					0.893817	2.42121						
0.954701	2.5806	0.75576	2.03234	0.955072	2.58041	0.994506	2.68935					0.895759	2.42036						
0.956732	2.57959	0.757735	2.03255	0.957102	2.57941	0.996798	2.68877					0.897701	2.41952						
0.958761	2.57858	0.759709	2.03277	0.959131	2.5784	0.999094	2.68821					0.899643	2.41868						
0.960787	2.57757	0.761684	2.03299	0.961156	2.57739	1.00139	2.68765					0.901586	2.41785						
0.96281	2.57656	0.763658	2.0332	0.963179	2.57638							0.903528	2.41702						
0.964831	2.57555	0.765632	2.03341	0.9652	2.57536							0.905471	2.41619						
0.96685	2.57453	0.767606	2.03362	0.967218	2.57435							0.907414	2.41537						
0.968866	2.57352	0.76958	2.03383	0.969233	2.57333							0.909356	2.41455						
0.97088	2.5725	0.771553	2.03404	0.971247	2.57231							0.911299	2.41374						
0.972891	2.57148	0.773526	2.03424	0.973258	2.57129							0.913243	2.41293						
0.974901	2.57046	0.775499	2.03445	0.975267	2.57027							0.915186	2.41213						
0.976908	2.56944	0.777471	2.03465	0.977274	2.56926							0.917129	2.41133						
0.978913	2.56842	0.779444	2.03485	0.979279	2.56824							0.919073	2.41054						
0.980917	2.5674	0.781416	2.03505	0.981282	2.56722							0.921016	2.40975						
0.982918	2.56638	0.783388	2.03524	0.983283	2.5662							0.92296	2.40896						
0.984918	2.56536	0.785359	2.03544	0.985282	2.56518							0.924904	2.40818						
0.986915	2.56434	0.787331	2.03563	0.987279	2.56416							0.926848	2.4074						
0.988911	2.56332	0.789302	2.03582	0.989275	2.56314							0.928793	2.40662						
0.990906	2.56231	0.791272	2.03601	0.991269	2.56212							0.930737	2.40586						
0.992899	2.56129	0.793243	2.0362	0.993262	2.5611							0.932682	2.40509						
0.99489	2.56027	0.795213	2.03639	0.995253	2.56009							0.934627	2.40433						
0.99688	2.55926	0.797184	2.03658	0.997242	2.55907							0.936572	2.40357						
0.998868	2.55824	0.799153	2.03676	0.99923	2.55806							0.938517	2.40282						
1.00085	2.55723	0.801123	2.03694	1.00122	2.55704							0.940462	2.40207						
		0.803093	2.03713									0.942408	2.40132						
		0.805062	2.03731									0.944354	2.40058						
		0.807031	2.03748									0.9463	2.39985						
		0.808999	2.03766									0.948246	2.39911						
		0.810968	2.03784									0.950192	2.39838						
		0.812936	2.03801									0.952139	2.39766						
		0.814904	2.03819									0.954085	2.39694						
		0.816872	2.03836									0.956032	2.39622						
		0.818839	2.03853									0.957979	2.3955						
		0.820806	2.0387									0.959927	2.3948						
		0.822774	2.03886									0.961874	2.39409						
		0.82474	2.03903									0.963822	2.39339						
		0.826707	2.03919									0.96577	2.39269						
		0.828673	2.03936									0.967718	2.39199						
		0.830639	2.03952									0.969667	2.3913						
		0.832605	2.03968									0.971615	2.39061						
		0.834571	2.03984									0.973564	2.38993						
		0.836536	2.04									0.975513	2.38925						
		0.838502	2.04016									0.977462	2.38857						
		0.840467	2.04031									0.979412	2.3879						
		0.842431	2.04047									0.981362	2.38723						
		0.844396	2.04062									0.983311	2.38657						
		0.84636	2.04077									0.985262	2.38591						
		0.848324	2.04092									0.987212	2.38525						
		0.850288	2.04107									0.989163	2.38459						
		0.852252	2.04122									0.991114	2.38394						
		0.854215	2.04137									0.993065	2.38329						
		0.856178	2.04151									0.995016	2.38265						
		0.858141	2.04166									0.996967	2.38201						
		0.860104	2.0418									0.998919	2.38137						
		0.862067	2.04195									1.00087	2.38073						
		0.864029	2.04209																
		0.865991	2.04223																
		0.867953	2.04237																
		0.869915	2.0425																
		0.871876	2.04264																
		0.873838	2.04278																
		0.875799	2.04291																
		0.877759	2.04305																
		0.87972	2.04318																
		0.88168	2.04331																
		0.883641	2.04344																
		0.885601	2.04357																
		0.88756	2.0437																
		0.88952	2.04383																
		0.891479	2.04395																
		0.893438	2.04408																
		0.895397	2.0442																
		0.897356	2.04433																
		0.899315	2.04445																
		0.901273	2.04457																
		0.903231	2.04469																
		0.905189	2.04481																
		0.907147	2.04493																
		0.909104	2.04505																
		0.911061	2.04516																
		0.913019	2.04528																
		0.914975	2.04539																
		0.916932	2.04551																
		0.918889	2.04562																
		0.920845	2.04573																
		0.922801	2.04584																
		0.924757	2.04595																
		0.926713	2.04606																
		0.928668	2.04617																
		0.930624	2.04628																
		0.932579	2.04639																
		0.934534	2.04649																
		0.936489	2.0466																
		0.938443	2.0467																
		0.940397	2.0468																
		0.942352	2.04691																
		0.944306	2.04701																
		0.94626	2.04711																
		0.948213	2.04721																
		0.950167	2.04731																
		0.95212	2.04741																
		0.954073	2.0475																
		0.956026	2.0476																
		0.957978	2.0477																
		0.959931	2.04779																
		0.961883	2.04789																
		0.963836	2.04798																
		0.965788	2.04807																
		0.967739	2.04817																
		0.969691	2.04826																
		0.971642	2.04835																
		0.973594	2.04844																
		0.975545	2.04853																
		0.977496	2.04862																
		0.979446	2.0487																
		0.981397	2.04879																
		0.983347	2.04888																
		0.985297	2.04896																
		0.987248	2.04905																
		0.989197	2.04913																
		0.991147	2.04922																
		0.993097	2.0493																
		0.995046	2.04938																
		0.996995	2.04947																
		0.998944	2.04955																
		1.00089	2.04963																
