Sym0		Asym0		Sym1		Sym2		Sym3		Sym4		Asym1		Asym2		Asym3		Asym4	
424  Points		529  Points		424  Points		404  Points		352  Points		253  Points		456  Points		399  Points		345  Points		216  Points	
Freq (MHz)	Vph (m/ms)	Freq (MHz)	Vph (m/ms)	Freq (MHz)	Vph (m/ms)	Freq (MHz)	Vph (m/ms)	Freq (MHz)	Vph (m/ms)	Freq (MHz)	Vph (m/ms)	Freq (MHz)	Vph (m/ms)	Freq (MHz)	Vph (m/ms)	Freq (MHz)	Vph (m/ms)	Freq (MHz)	Vph (m/ms)
0.27951	642.38	2.36729e-005	0.0300693	0.27951	532.083	0.441235	2262.56	0.559017	2313.26	0.838526	13942.6	0.139763	292.198	0.419267	512.09	0.698772	1271.75	0.882471	1135.85
0.27952	204.505	0.000112691	0.0655572	0.279521	191.846	0.441243	391.62	0.559026	476.435	0.838529	845.431	0.139831	99.1702	0.419283	239.531	0.698779	471.78	0.882478	516.485
0.27954	121.618	0.000267622	0.100964	0.279542	117.027	0.441263	214.371	0.559045	265.574	0.838538	435.937	0.139966	59.7709	0.419311	156.335	0.698791	289.612	0.882492	334.237
0.27957	86.5489	0.000488051	0.136237	0.279574	84.1989	0.441294	147.585	0.559076	184.104	0.838553	293.69	0.140167	42.82	0.41935	116.041	0.698809	208.94	0.882511	247.063
0.279611	67.1836	0.000773281	0.171305	0.279616	65.7595	0.441338	112.535	0.559117	140.891	0.838573	221.439	0.140434	33.3962	0.419401	92.2669	0.698834	163.422	0.882536	195.958
0.279662	54.9047	0.00112261	0.206143	0.279668	53.9504	0.441393	90.9434	0.55917	114.113	0.8386	177.722	0.140767	27.4036	0.419463	76.5833	0.698864	134.192	0.882567	162.374
0.279724	46.4249	0.00153502	0.240695	0.27973	45.7413	0.441459	76.3086	0.559234	95.8934	0.838632	148.422	0.141163	23.2617	0.419537	65.4615	0.6989	113.834	0.882604	138.62
0.279795	40.2179	0.00200946	0.274924	0.279803	39.7042	0.441538	65.7355	0.559309	82.6949	0.83867	127.419	0.141623	20.2313	0.419622	57.1645	0.698942	98.8417	0.882646	120.93
0.279877	35.4783	0.00254464	0.308784	0.279886	35.0783	0.441628	57.7399	0.559394	72.6938	0.838714	111.625	0.142145	17.9207	0.419719	50.7379	0.69899	87.3408	0.882695	107.247
0.279969	31.7412	0.0031392	0.342239	0.279979	31.421	0.441729	51.482	0.559491	64.8542	0.838763	99.3161	0.142727	16.1027	0.419828	45.6136	0.699044	78.2391	0.882749	96.347
0.280072	28.7192	0.00379177	0.375266	0.280082	28.4571	0.441843	46.4512	0.559599	58.544	0.838819	89.4541	0.143369	14.6366	0.419948	41.4326	0.699104	70.8569	0.882809	87.4598
0.280184	26.2253	0.00450073	0.407826	0.280196	26.0068	0.441967	42.3192	0.559718	53.3558	0.83888	81.3752	0.144068	13.4305	0.420079	37.9565	0.699169	64.7493	0.882874	80.0751
0.280307	24.1323	0.00526448	0.439893	0.28032	23.9474	0.442104	38.8651	0.559848	49.0149	0.838947	74.6362	0.144824	12.422	0.420222	35.0212	0.699241	59.6124	0.882946	73.8418
0.280441	22.3509	0.00608128	0.471442	0.280454	22.1925	0.442252	35.9348	0.559989	45.3297	0.83902	68.9293	0.145634	11.5671	0.420377	32.5098	0.699319	55.2319	0.883023	68.51
0.280584	20.8166	0.00694947	0.502456	0.280599	20.6793	0.442412	33.4179	0.560141	42.1622	0.839098	64.0344	0.146497	10.8339	0.420543	30.3368	0.699402	51.4524	0.883106	63.8975
0.280738	19.4814	0.00786734	0.53292	0.280753	19.3613	0.442583	31.2328	0.560304	39.4106	0.839183	59.7897	0.147291	10.2757	0.420721	28.4383	0.699491	48.1581	0.883194	59.868
0.280902	18.3091	0.008833	0.562812	0.280918	18.2031	0.442766	29.3181	0.560478	36.9982	0.839273	56.0739	0.147997	9.84935	0.42091	26.7655	0.699587	45.2614	0.883289	56.3177
0.281076	17.2716	0.00984483	0.592131	0.281094	17.1774	0.44296	27.6266	0.560663	34.8661	0.839369	52.7939	0.148601	9.52669	0.421111	25.2805	0.699688	42.6944	0.883389	53.1658
0.281261	16.347	0.0109009	0.62086	0.281279	16.2628	0.443166	26.1215	0.560859	32.9681	0.83947	49.8775	0.149091	9.28865	0.421323	23.9534	0.699795	40.4039	0.883495	50.349
0.281456	15.518	0.0119996	0.648997	0.281475	15.4423	0.443383	24.7738	0.561065	31.2678	0.839578	47.2673	0.149459	9.12242	0.421546	22.7605	0.699908	38.3476	0.883607	47.8165
0.281661	14.7706	0.0131392	0.676541	0.281681	14.7021	0.443612	23.5601	0.561283	29.736	0.839691	44.9176	0.149697	9.01973	0.421781	21.6825	0.700027	36.4914	0.883725	45.5274
0.281876	14.0933	0.014318	0.703487	0.281897	14.0311	0.443852	22.4614	0.561512	28.3488	0.83981	42.7912	0.150044	8.87687	0.422027	20.7035	0.700152	34.8074	0.883848	43.4483
0.282101	13.4768	0.0155342	0.729834	0.282124	13.42	0.444103	21.4623	0.561751	27.0868	0.839935	40.858	0.150426	8.72767	0.422285	19.8107	0.700283	33.2727	0.883977	41.5516
0.282337	12.9133	0.0167864	0.755589	0.28236	12.8613	0.444366	20.5497	0.562002	25.9338	0.840065	39.0926	0.150955	8.53427	0.422554	18.9931	0.70042	31.8685	0.884112	39.8143
0.282583	12.3963	0.0180728	0.780752	0.282607	12.3485	0.444641	19.713	0.562263	24.8763	0.840201	37.4742	0.151638	8.30421	0.422834	18.2418	0.700562	30.5787	0.884253	38.2171
0.282839	11.9203	0.0193922	0.805334	0.282864	11.8762	0.444927	18.9432	0.562535	23.903	0.840343	35.9851	0.152486	8.04567	0.423126	17.549	0.700711	29.39	0.884399	36.7439
0.283105	11.4807	0.0207428	0.829337	0.283131	11.4399	0.445224	18.2326	0.562818	23.0043	0.840491	34.6106	0.153508	7.76691	0.423429	16.9082	0.700865	28.2909	0.884551	35.3806
0.283381	11.0735	0.0221234	0.852769	0.283409	11.0357	0.445532	17.5747	0.563112	22.172	0.840645	33.3379	0.154719	7.47575	0.423743	16.3138	0.701025	27.2717	0.884709	34.1156
0.283668	10.6953	0.0235326	0.875641	0.283696	10.6602	0.445851	16.9638	0.563416	21.399	0.840804	32.1561	0.155967	7.21142	0.424068	15.761	0.701192	26.3241	0.884872	32.9385
0.283965	10.3432	0.0249691	0.897962	0.283994	10.3104	0.446182	16.3952	0.563732	20.6792	0.840969	31.0558	0.157252	6.97053	0.424405	15.2456	0.701364	25.4407	0.885042	31.8405
0.284272	10.0145	0.0264316	0.919738	0.284262	10.0246	0.446524	15.8646	0.564058	20.0074	0.84114	30.0289	0.15857	6.75021	0.424753	14.764	0.701542	24.6152	0.885217	30.814
0.284589	9.70708	0.0279189	0.940986	0.284496	9.79383	0.446877	15.3685	0.564394	19.3789	0.841316	29.0684	0.159922	6.54806	0.425112	14.3129	0.701726	23.8423	0.885397	29.8521
0.284916	9.41891	0.0294299	0.961713	0.284694	9.61129	0.447242	14.9035	0.564742	18.7897	0.841499	28.1679	0.161306	6.36201	0.425483	13.8897	0.701915	23.1169	0.885584	28.949
0.285253	9.14829	0.0309634	0.98193	0.284853	9.47195	0.447617	14.4668	0.5651	18.2363	0.841687	27.3221	0.16272	6.1903	0.425864	13.4918	0.702111	22.435	0.885776	28.0995
0.285601	8.89369	0.0325185	1.00165	0.284972	9.3722	0.448003	14.056	0.565469	17.7156	0.84188	26.5261	0.164163	6.03141	0.426256	13.117	0.702312	21.7926	0.885974	27.2989
0.285958	8.65375	0.0340941	1.02089	0.285049	9.30952	0.448401	13.6689	0.565848	17.2247	0.84208	25.7757	0.165633	5.88402	0.42666	12.7635	0.70252	21.1865	0.886177	26.5432
0.286326	8.42728	0.0356893	1.03965	0.28516	9.22095	0.448809	13.3036	0.566238	16.7612	0.842285	25.0671	0.16713	5.74697	0.427075	12.4295	0.702733	20.6138	0.886387	25.8287
0.286704	8.21317	0.0373032	1.05795	0.285282	9.1267	0.449229	12.9581	0.566639	16.3229	0.842496	24.3969	0.168652	5.61928	0.4275	12.1134	0.702952	20.0716	0.886602	25.1521
0.287092	8.01049	0.0389349	1.0758	0.28545	9.00174	0.449659	12.6311	0.56705	15.9078	0.842713	23.7621	0.170197	5.50004	0.427937	11.8139	0.703177	19.5578	0.886822	24.5105
0.28749	7.81834	0.0405836	1.09321	0.285665	8.84884	0.4501	12.321	0.567471	15.5141	0.842935	23.1599	0.171766	5.3885	0.428385	11.5297	0.703408	19.07	0.887049	23.9013
0.287898	7.63596	0.0422486	1.1102	0.285931	8.67118	0.450552	12.0266	0.567903	15.1403	0.843163	22.588	0.173357	5.28397	0.428843	11.2597	0.703645	18.6064	0.887281	23.322
0.288316	7.46264	0.043929	1.12677	0.286251	8.47226	0.451015	11.7469	0.568346	14.7848	0.843397	22.044	0.174969	5.18583	0.429313	11.0029	0.703887	18.1653	0.887518	22.7707
0.288744	7.29773	0.0456242	1.14293	0.286626	8.25572	0.451488	11.4806	0.568799	14.4465	0.843636	21.5261	0.176601	5.09354	0.429793	10.7583	0.704136	17.7451	0.887762	22.2451
0.289183	7.14066	0.0473334	1.15871	0.287012	8.05079	0.451973	11.2269	0.569262	14.124	0.843881	21.0323	0.178251	5.00661	0.430284	10.5251	0.70439	17.3442	0.888011	21.7438
0.289631	6.9909	0.0490562	1.1741	0.287408	7.85657	0.452468	10.985	0.569736	13.8164	0.844132	20.5612	0.179921	4.92462	0.430786	10.3026	0.70465	16.9615	0.888266	21.2649
0.290089	6.84796	0.0507919	1.18913	0.287814	7.67227	0.452973	10.754	0.57022	13.5226	0.844389	20.111	0.181607	4.84717	0.431232	10.1168	0.704916	16.5957	0.888526	20.807
0.290557	6.7114	0.0525397	1.20379	0.28823	7.49716	0.453489	10.5333	0.570715	13.2418	0.844651	19.6805	0.18331	4.77392	0.431619	9.96412	0.705188	16.2458	0.888792	20.3688
0.291036	6.58083	0.0542994	1.21811	0.288657	7.33059	0.454016	10.3221	0.57122	12.973	0.844919	19.2685	0.18503	4.70454	0.431944	9.84158	0.705465	15.9107	0.889063	19.9491
0.291524	6.45586	0.0560703	1.23208	0.289093	7.17197	0.454483	10.1455	0.571734	12.7157	0.845193	18.8737	0.186764	4.63876	0.432203	9.74699	0.705749	15.5895	0.889341	19.5467
0.292022	6.33616	0.0578519	1.24573	0.289539	7.02076	0.454888	10	0.57226	12.469	0.845472	18.4951	0.188513	4.5763	0.432395	9.67869	0.706038	15.2814	0.889623	19.1605
0.29253	6.22142	0.0596438	1.25905	0.289995	6.87647	0.455227	9.88313	0.572795	12.2323	0.845757	18.1318	0.190276	4.51694	0.432519	9.63553	0.706333	14.9856	0.889912	18.7897
0.293048	6.11134	0.0614454	1.27206	0.290461	6.73865	0.455498	9.79279	0.573341	12.0051	0.846048	17.7829	0.192053	4.46046	0.432698	9.57422	0.706634	14.7014	0.890206	18.4333
0.293576	6.00567	0.0632566	1.28478	0.290938	6.60689	0.455698	9.72752	0.573896	11.7868	0.846344	17.4474	0.193842	4.40666	0.432894	9.50855	0.706941	14.4281	0.890505	18.0905
0.294115	5.90414	0.0650766	1.2972	0.291424	6.48081	0.455828	9.68624	0.574462	11.5769	0.846646	17.1247	0.195644	4.35536	0.433162	9.4208	0.707254	14.1651	0.890811	17.7605
0.294662	5.80654	0.0669053	1.30933	0.29192	6.36007	0.456014	9.62758	0.575038	11.3749	0.846953	16.8141	0.197457	4.30641	0.433505	9.31234	0.707572	13.9119	0.891121	17.4427
0.29522	5.71265	0.0687422	1.32119	0.292426	6.24435	0.456218	9.5647	0.575623	11.1804	0.847266	16.5148	0.199281	4.25965	0.433925	9.18481	0.707896	13.6679	0.891438	17.1364
0.295788	5.62227	0.070587	1.33278	0.292942	6.13334	0.456498	9.48061	0.576219	10.9931	0.847585	16.2264	0.201117	4.21494	0.434425	9.04004	0.708226	13.4326	0.89176	16.841
0.296366	5.53523	0.0724394	1.34411	0.293468	6.02679	0.456855	9.37658	0.576825	10.8124	0.84791	15.9481	0.202963	4.17215	0.435009	8.88003	0.708562	13.2056	0.892087	16.5558
0.296953	5.45134	0.074299	1.35519	0.294004	5.92444	0.457292	9.25409	0.57744	10.6382	0.84824	15.6796	0.204818	4.13118	0.435604	8.7262	0.708903	12.9865	0.89242	16.2805
0.29755	5.37045	0.0761655	1.36602	0.29455	5.82606	0.457812	9.11485	0.578066	10.47	0.848575	15.4202	0.206683	4.0919	0.436209	8.57822	0.709251	12.7748	0.892759	16.0145
0.298158	5.29241	0.0780387	1.37661	0.295106	5.73144	0.458418	8.9607	0.578619	10.3281	0.848917	15.1696	0.208558	4.05423	0.436824	8.43576	0.709604	12.5702	0.893103	15.7573
0.298775	5.21708	0.0799183	1.38697	0.295672	5.64036	0.459034	8.81226	0.579096	10.2105	0.849264	14.9272	0.210441	4.01806	0.43745	8.29853	0.709962	12.3724	0.893453	15.5086
0.299402	5.14434	0.0818041	1.39711	0.296247	5.55265	0.459661	8.66922	0.579495	10.1155	0.849616	14.6928	0.212332	3.98331	0.438086	8.16626	0.710327	12.181	0.893808	15.2678
0.300038	5.07405	0.0836957	1.40703	0.296833	5.46814	0.460297	8.53131	0.579813	10.0417	0.849974	14.4659	0.214232	3.94991	0.438732	8.0387	0.710697	11.9957	0.894169	15.0347
0.300685	5.00611	0.0855929	1.41673	0.297428	5.38665	0.460943	8.39827	0.580048	9.9882	0.850338	14.2462	0.216139	3.91778	0.439389	7.9156	0.711073	11.8162	0.894535	14.8089
0.301341	4.9404	0.0874956	1.42623	0.298033	5.30804	0.461599	8.26984	0.580199	9.9543	0.850707	14.0334	0.218054	3.88685	0.440056	7.79675	0.711455	11.6423	0.894907	14.59
0.302007	4.87683	0.0894035	1.43553	0.298648	5.23218	0.462265	8.1458	0.580417	9.90602	0.851082	13.827	0.219977	3.85706	0.440733	7.68194	0.711843	11.4737	0.895284	14.3777
0.302683	4.8153	0.0913163	1.44463	0.299273	5.15892	0.462941	8.02594	0.580655	9.85412	0.851462	13.627	0.221906	3.82834	0.44142	7.57097	0.712236	11.3102	0.895666	14.1718
0.303369	4.75571	0.093234	1.45354	0.299908	5.08814	0.463627	7.91006	0.580982	9.78451	0.851848	13.4328	0.223841	3.80065	0.442117	7.46366	0.712635	11.1515	0.896055	13.972
0.303974	4.70532	0.0951562	1.46227	0.300553	5.01973	0.464322	7.79796	0.581397	9.69804	0.85224	13.2444	0.225784	3.77392	0.442825	7.35984	0.71304	10.9975	0.896448	13.778
0.304496	4.66344	0.0970829	1.47082	0.301207	4.95357	0.465027	7.68948	0.581905	9.59572	0.852637	13.0615	0.227732	3.74812	0.443542	7.25935	0.713451	10.848	0.896847	13.5895
0.304932	4.62953	0.0990138	1.4792	0.301871	4.88958	0.465741	7.58445	0.582507	9.47875	0.853039	12.8838	0.229686	3.72319	0.444269	7.16204	0.713867	10.7027	0.897252	13.4064
0.305279	4.60318	0.100949	1.4874	0.302545	4.82764	0.466465	7.48271	0.583207	9.34841	0.853448	12.711	0.231646	3.6991	0.445007	7.06777	0.714234	10.5794	0.897661	13.2283
0.305536	4.58405	0.102888	1.49544	0.303229	4.76767	0.467199	7.38412	0.583917	9.22205	0.853861	12.5432	0.233612	3.6758	0.445754	6.9764	0.714551	10.4767	0.898077	13.0552
0.305701	4.57192	0.104831	1.50332	0.303922	4.70958	0.467942	7.28853	0.584636	9.09951	0.85428	12.3799	0.235583	3.65325	0.446511	6.88782	0.714815	10.3934	0.898497	12.8868
0.305939	4.55462	0.106777	1.51104	0.304625	4.6533	0.468694	7.19583	0.585364	8.98062	0.854705	12.221	0.237559	3.63143	0.447278	6.80189	0.715025	10.3285	0.898923	12.7229
0.306199	4.53602	0.108727	1.51862	0.305339	4.59874	0.469456	7.10588	0.586102	8.86522	0.855135	12.0664	0.23954	3.61029	0.448054	6.7185	0.715181	10.2813	0.899355	12.5633
0.306554	4.51105	0.11068	1.52604	0.306061	4.54584	0.470227	7.01857	0.586849	8.75316	0.855571	11.9159	0.241526	3.58981	0.44884	6.63756	0.715281	10.2513	0.899792	12.4079
0.307007	4.47998	0.112637	1.53332	0.306794	4.49452	0.471007	6.93379	0.587605	8.64432	0.856012	11.7693	0.243516	3.56996	0.449636	6.55896	0.715425	10.2086	0.900234	12.2566
0.30756	4.44317	0.114596	1.54046	0.307536	4.44473	0.471796	6.85143	0.588371	8.53855	0.856459	11.6265	0.245511	3.5507	0.450442	6.48261	0.715582	10.1626	0.900682	12.1091
0.308215	4.40101	0.116306	1.54657	0.308288	4.3964	0.472595	6.77141	0.589146	8.43574	0.856911	11.4874	0.24751	3.53202	0.451257	6.40841	0.715798	10.1007	0.901135	11.9653
0.308976	4.35395	0.117766	1.55169	0.30905	4.34947	0.473402	6.69362	0.58993	8.33576	0.857368	11.3517	0.249513	3.51389	0.452082	6.33629	0.716072	10.0237	0.901593	11.8251
0.309747	4.30825	0.118974	1.55588	0.309822	4.3039	0.474219	6.61799	0.590723	8.23851	0.857831	11.2195	0.25152	3.49629	0.452916	6.26615	0.716406	9.93212	0.902057	11.6883
0.310527	4.26385	0.11993	1.55915	0.310603	4.25962	0.475044	6.54441	0.591525	8.14388	0.8583	11.0905	0.253531	3.47918	0.45376	6.19793	0.716802	9.827	0.902526	11.5549
0.311317	4.2207	0.120633	1.56154	0.311394	4.21659	0.475878	6.47282	0.592337	8.05177	0.858774	10.9646	0.255546	3.46256	0.454613	6.13156	0.717262	9.70928	0.903	11.4247
0.312117	4.17877	0.121084	1.56306	0.312195	4.17477	0.476721	6.40315	0.593157	7.96208	0.859191	10.8574	0.257565	3.4464	0.455475	6.06695	0.717728	9.59458	0.903479	11.2976
0.312927	4.13799	0.121731	1.56524	0.313006	4.1341	0.477573	6.33531	0.593986	7.87473	0.85955	10.7677	0.259587	3.43069	0.456347	6.00405	0.718199	9.48278	0.903964	11.1735
0.313746	4.09833	0.122436	1.56758	0.313826	4.09455	0.478434	6.26924	0.594824	7.78962	0.859849	10.6948	0.261612	3.4154	0.457228	5.94279	0.718676	9.37376	0.904454	11.0523
0.314575	4.05976	0.123394	1.57075	0.314656	4.05608	0.479303	6.20487	0.595671	7.70668	0.860087	10.6379	0.26364	3.40052	0.458118	5.88312	0.719159	9.26743	0.904886	10.9489
0.315414	4.02222	0.124607	1.57472	0.315496	4.01864	0.480181	6.14216	0.596527	7.62583	0.860263	10.5964	0.265672	3.38603	0.459018	5.82498	0.719647	9.1637	0.905256	10.8624
0.316263	3.98569	0.126074	1.57945	0.316346	3.98221	0.481067	6.08102	0.597392	7.547	0.860376	10.5701	0.267707	3.37192	0.459926	5.76831	0.720141	9.06248	0.905565	10.792
0.317122	3.95013	0.127798	1.58492	0.317206	3.94674	0.481962	6.02142	0.598265	7.4701	0.860539	10.5325	0.269744	3.35818	0.460844	5.71306	0.72064	8.96367	0.905811	10.737
0.31799	3.91551	0.129778	1.5911	0.318075	3.9122	0.482865	5.96329	0.599147	7.39509	0.860716	10.4919	0.271785	3.34478	0.461771	5.65918	0.721145	8.86719	0.905992	10.697
0.318869	3.88179	0.13176	1.59716	0.318954	3.87857	0.483777	5.90659	0.600038	7.32188	0.860959	10.4373	0.273828	3.33173	0.462706	5.60663	0.721656	8.77296	0.906109	10.6715
0.319757	3.84895	0.133745	1.60311	0.319843	3.84581	0.484697	5.85126	0.600937	7.25042	0.861268	10.3691	0.275874	3.31899	0.463651	5.55536	0.722172	8.68092	0.906277	10.6352
0.320655	3.81695	0.135732	1.60895	0.320742	3.8139	0.485625	5.79726	0.601845	7.18066	0.861644	10.2879	0.277922	3.30657	0.464605	5.50533	0.722694	8.59097	0.90646	10.5959
0.321563	3.78577	0.13772	1.61469	0.321651	3.7828	0.486562	5.74455	0.602761	7.11252	0.862089	10.1944	0.279973	3.29445	0.465567	5.45649	0.723222	8.50307	0.90671	10.5431
0.322481	3.75539	0.139711	1.62033	0.32257	3.75249	0.487506	5.69308	0.603685	7.04597	0.862604	10.0893	0.282026	3.28263	0.466538	5.40882	0.723755	8.41713	0.907028	10.4771
0.323409	3.72577	0.141703	1.62587	0.323499	3.72294	0.488459	5.64281	0.604619	6.98095	0.863125	9.98661	0.284081	3.27108	0.467518	5.36226	0.724293	8.3331	0.907415	10.3984
0.324347	3.6969	0.143697	1.63131	0.324438	3.69414	0.48942	5.5937	0.60556	6.91741	0.863651	9.88612	0.286139	3.2598	0.468507	5.31678	0.724837	8.25092	0.907873	10.3078
0.325295	3.66874	0.145693	1.63666	0.325387	3.66605	0.490389	5.54572	0.60651	6.8553	0.864183	9.78782	0.288199	3.24878	0.469505	5.27235	0.725387	8.17052	0.908403	10.2058
0.326253	3.64128	0.147691	1.64191	0.326346	3.63866	0.491365	5.49883	0.607468	6.79457	0.86472	9.69163	0.290261	3.23802	0.470511	5.22894	0.725942	8.09186	0.908939	10.106
0.327221	3.61451	0.14969	1.64708	0.327316	3.61195	0.49235	5.45299	0.608434	6.73519	0.865262	9.59749	0.292325	3.2275	0.471525	5.18652	0.726503	8.01487	0.90948	10.0084
0.3282	3.58838	0.151691	1.65215	0.328295	3.58589	0.493342	5.40817	0.609408	6.67711	0.86581	9.50533	0.294391	3.21721	0.472549	5.14505	0.727069	7.93951	0.910026	9.91275
0.329188	3.5629	0.153693	1.65714	0.329285	3.56046	0.494343	5.36435	0.610391	6.62029	0.866363	9.4151	0.296458	3.20715	0.47358	5.1045	0.727641	7.86573	0.910576	9.8191
0.330187	3.53803	0.155696	1.66205	0.330285	3.53566	0.495351	5.32149	0.611381	6.5647	0.866921	9.32673	0.298528	3.19732	0.474621	5.06485	0.728219	7.79348	0.911133	9.72737
0.331197	3.51377	0.157702	1.66688	0.331295	3.51145	0.496366	5.27955	0.61238	6.51029	0.867484	9.24017	0.300599	3.18769	0.475669	5.02607	0.728801	7.72271	0.911694	9.6375
0.332216	3.49009	0.159708	1.67162	0.332316	3.48783	0.497389	5.23852	0.613386	6.45704	0.868053	9.15537	0.302672	3.17827	0.476726	4.98813	0.72939	7.65339	0.91226	9.54943
0.333247	3.46698	0.161716	1.67629	0.333347	3.46477	0.49842	5.19837	0.614401	6.4049	0.868627	9.07228	0.304747	3.16905	0.477792	4.95101	0.729983	7.58546	0.912832	9.46312
0.334288	3.44442	0.163725	1.68088	0.334389	3.44227	0.499458	5.15907	0.615423	6.35384	0.869207	8.99084	0.306823	3.16002	0.478865	4.91469	0.730583	7.5189	0.913408	9.37851
0.335339	3.4224	0.165735	1.6854	0.335441	3.4203	0.500504	5.12059	0.616453	6.30384	0.869791	8.91101	0.3089	3.15118	0.479947	4.87914	0.731188	7.45365	0.91399	9.29556
0.336401	3.4009	0.167746	1.68984	0.336505	3.39885	0.501557	5.08291	0.617491	6.25486	0.870381	8.83274	0.31098	3.14253	0.481037	4.84434	0.731798	7.38969	0.914576	9.21422
0.337474	3.37992	0.169758	1.69421	0.337579	3.37791	0.502618	5.04601	0.618537	6.20688	0.870976	8.756	0.31306	3.13404	0.482136	4.81026	0.732413	7.32697	0.915168	9.13444
0.338558	3.35943	0.171772	1.69851	0.338664	3.35747	0.503685	5.00987	0.619591	6.15986	0.871577	8.68072	0.315142	3.12573	0.483242	4.7769	0.733035	7.26546	0.915765	9.05618
0.339654	3.33942	0.173786	1.70274	0.33976	3.33751	0.50476	4.97447	0.620652	6.11378	0.872182	8.60689	0.317225	3.11758	0.484356	4.74422	0.733661	7.20514	0.916367	8.97939
0.34076	3.31988	0.175801	1.70691	0.340868	3.31802	0.505843	4.93977	0.62172	6.06861	0.872793	8.53445	0.319309	3.10959	0.485479	4.71221	0.734293	7.14596	0.916973	8.90405
0.341877	3.30081	0.177818	1.71101	0.341986	3.29899	0.506932	4.90578	0.622796	6.02432	0.873409	8.46337	0.321395	3.10176	0.486609	4.68085	0.734931	7.0879	0.917585	8.8301
0.343006	3.28219	0.179835	1.71504	0.343116	3.28041	0.508028	4.87245	0.62388	5.98091	0.87403	8.39361	0.323482	3.09408	0.487747	4.65013	0.735573	7.03092	0.918202	8.75752
0.344147	3.264	0.181853	1.71901	0.344258	3.26226	0.509132	4.83979	0.624971	5.93833	0.874657	8.32514	0.325569	3.08654	0.488894	4.62002	0.736222	6.975	0.918824	8.68626
0.345299	3.24624	0.183872	1.72293	0.345411	3.24455	0.510242	4.80776	0.62607	5.89656	0.875288	8.25792	0.327658	3.07915	0.490048	4.59051	0.736875	6.92011	0.91945	8.61629
0.346463	3.22891	0.185892	1.72678	0.346577	3.22725	0.511359	4.77636	0.627176	5.8556	0.875925	8.19192	0.329748	3.07189	0.49121	4.56158	0.737534	6.86622	0.920082	8.54758
0.34764	3.21198	0.187913	1.73057	0.347754	3.21036	0.512483	4.74556	0.628289	5.8154	0.876567	8.1271	0.331839	3.06477	0.492379	4.53322	0.738199	6.81331	0.920718	8.4801
0.348828	3.19545	0.189934	1.7343	0.348944	3.19387	0.513614	4.71535	0.629409	5.77596	0.877214	8.06345	0.333931	3.05778	0.493557	4.50541	0.738868	6.76135	0.92136	8.41381
0.350029	3.17932	0.191956	1.73798	0.350146	3.17778	0.514752	4.68572	0.630537	5.73726	0.877866	8.00092	0.336024	3.05091	0.494742	4.47814	0.739543	6.71031	0.922006	8.34868
0.351242	3.16357	0.193979	1.7416	0.351361	3.16206	0.515897	4.65665	0.631672	5.69927	0.878524	7.93949	0.338117	3.04417	0.495935	4.4514	0.740224	6.66018	0.922658	8.28468
0.352469	3.14819	0.196002	1.74517	0.352588	3.14673	0.517048	4.62811	0.632814	5.66198	0.879186	7.87914	0.340211	3.03754	0.497135	4.42517	0.74091	6.61094	0.923314	8.22179
0.353708	3.13319	0.198027	1.74869	0.353829	3.13176	0.518206	4.60011	0.633963	5.62536	0.879854	7.81983	0.342307	3.03103	0.498343	4.39943	0.741601	6.56255	0.923975	8.15998
0.354961	3.11855	0.200051	1.75215	0.355082	3.11715	0.51937	4.57263	0.635119	5.58941	0.880526	7.76154	0.344402	3.02464	0.499558	4.37418	0.742297	6.51499	0.924641	8.09922
0.356227	3.10426	0.202076	1.75556	0.35635	3.1029	0.520541	4.54565	0.636282	5.55411	0.881204	7.70424	0.346499	3.01836	0.500781	4.34941	0.742999	6.46826	0.925312	8.03948
0.357506	3.09032	0.204102	1.75893	0.357631	3.08899	0.521718	4.51917	0.637452	5.51943	0.881887	7.64791	0.348596	3.01218	0.502011	4.3251	0.743706	6.42233	0.925987	7.98075
0.3588	3.07673	0.206129	1.76224	0.358926	3.07543	0.522902	4.49316	0.638629	5.48537	0.882575	7.59253	0.350694	3.0061	0.503249	4.30123	0.744418	6.37717	0.926667	7.92299
0.360108	3.06347	0.208155	1.76551	0.360236	3.0622	0.524092	4.46762	0.639813	5.45191	0.883268	7.53807	0.352792	3.00013	0.504494	4.27781	0.745136	6.33277	0.927353	7.86619
0.361431	3.05054	0.210183	1.76872	0.36156	3.04931	0.525289	4.44254	0.641004	5.41903	0.883965	7.48452	0.354892	2.99426	0.505746	4.25481	0.745859	6.28912	0.928043	7.81032
0.362768	3.03794	0.212211	1.7719	0.362899	3.03674	0.526492	4.4179	0.642201	5.38673	0.884668	7.43184	0.356991	2.98848	0.507006	4.23224	0.746587	6.24619	0.928737	7.75535
0.364121	3.02566	0.214239	1.77502	0.364253	3.02449	0.527701	4.39369	0.643405	5.35498	0.885377	7.38003	0.359091	2.98279	0.508273	4.21007	0.747321	6.20396	0.929437	7.70128
0.365489	3.0137	0.216268	1.77811	0.365623	3.01256	0.528916	4.36991	0.644616	5.32377	0.88609	7.32905	0.361191	2.9772	0.509547	4.1883	0.748059	6.16243	0.930141	7.64807
0.366873	3.00205	0.218297	1.78114	0.367008	3.00094	0.530137	4.34654	0.645833	5.2931	0.886808	7.2789	0.363292	2.9717	0.510828	4.16692	0.748803	6.12158	0.93085	7.59571
0.368273	2.99071	0.220326	1.78414	0.36841	2.98962	0.531365	4.32358	0.647057	5.26294	0.887531	7.22955	0.365394	2.96628	0.512117	4.14592	0.749552	6.08138	0.931564	7.54418
0.36969	2.97966	0.222356	1.78709	0.369828	2.97861	0.532598	4.30101	0.648287	5.23329	0.888259	7.18098	0.367495	2.96094	0.513412	4.12529	0.750307	6.04183	0.932283	7.49346
0.371123	2.96892	0.224386	1.79001	0.371263	2.9679	0.533838	4.27883	0.649524	5.20413	0.888992	7.13318	0.369597	2.95569	0.514715	4.10503	0.751066	6.00291	0.933006	7.44353
0.372574	2.95848	0.226417	1.79288	0.372715	2.95748	0.535083	4.25702	0.650768	5.17546	0.88973	7.08612	0.371699	2.95052	0.516024	4.08512	0.751831	5.96461	0.933734	7.39437
0.374042	2.94832	0.228448	1.79572	0.374185	2.94735	0.536335	4.23558	0.652017	5.14726	0.890473	7.0398	0.373802	2.94543	0.517341	4.06555	0.752601	5.9269	0.934466	7.34597
0.375528	2.93845	0.230479	1.79851	0.375673	2.93751	0.537592	4.2145	0.653273	5.11952	0.89122	6.9942	0.375905	2.94041	0.518664	4.04633	0.753376	5.88979	0.935203	7.29831
0.377032	2.92887	0.23251	1.80127	0.377179	2.92796	0.538855	4.19377	0.654536	5.09223	0.891973	6.94929	0.378008	2.93546	0.519994	4.02743	0.754157	5.85326	0.935945	7.25138
0.378554	2.91957	0.234542	1.80398	0.378703	2.91868	0.540124	4.17339	0.655804	5.06539	0.892731	6.90507	0.380111	2.93059	0.521331	4.00886	0.754942	5.81729	0.936692	7.20515
0.380096	2.91054	0.236574	1.80667	0.380246	2.90968	0.541399	4.15333	0.657079	5.03897	0.893494	6.86153	0.382214	2.92579	0.522675	3.9906	0.755733	5.78187	0.937443	7.15962
0.381656	2.90179	0.238606	1.80931	0.381808	2.90095	0.542679	4.13361	0.65836	5.01298	0.894261	6.81863	0.384318	2.92106	0.524026	3.97266	0.756528	5.747	0.938198	7.11476
0.383236	2.8933	0.240639	1.81192	0.38339	2.8925	0.543965	4.11421	0.659647	4.9874	0.895034	6.77638	0.386421	2.9164	0.525384	3.95501	0.757329	5.71265	0.938959	7.07057
0.384836	2.88509	0.242671	1.8145	0.384992	2.8843	0.545257	4.09512	0.66094	4.96222	0.895811	6.73476	0.388525	2.9118	0.526748	3.93766	0.758135	5.67882	0.939724	7.02703
0.386455	2.87713	0.244704	1.81704	0.386613	2.87638	0.546554	4.07634	0.66224	4.93744	0.896593	6.69375	0.390628	2.90726	0.528119	3.92061	0.758946	5.64549	0.940493	6.98413
0.388095	2.86944	0.246737	1.81955	0.388255	2.8687	0.547856	4.05786	0.663545	4.91304	0.89738	6.65335	0.392732	2.90279	0.529496	3.90383	0.759763	5.61267	0.941267	6.94185
0.389755	2.86199	0.248771	1.82202	0.389917	2.86129	0.549165	4.03967	0.664856	4.88902	0.898172	6.61354	0.394836	2.89838	0.53088	3.88733	0.760584	5.58033	0.942046	6.90018
0.391436	2.8548	0.250804	1.82447	0.3916	2.85412	0.550478	4.02177	0.666173	4.86537	0.898968	6.5743	0.39694	2.89403	0.532271	3.87111	0.76141	5.54846	0.942829	6.8591
0.393137	2.84786	0.252837	1.82688	0.393303	2.8472	0.551797	4.00415	0.667496	4.84209	0.89977	6.53563	0.399043	2.88974	0.533668	3.85515	0.762242	5.51706	0.943616	6.81861
0.394859	2.84116	0.254871	1.82926	0.395027	2.84052	0.553122	3.98681	0.668825	4.81915	0.900576	6.49751	0.401147	2.8855	0.535072	3.83945	0.763078	5.48612	0.944408	6.7787
0.396602	2.8347	0.256905	1.83161	0.396772	2.83408	0.554451	3.96973	0.670159	4.79657	0.901387	6.45994	0.40325	2.88132	0.536482	3.824	0.76392	5.45563	0.945205	6.73935
0.398366	2.82847	0.258939	1.83393	0.398538	2.82788	0.555786	3.95292	0.6715	4.77432	0.902203	6.4229	0.405354	2.8772	0.537899	3.8088	0.764766	5.42557	0.946006	6.70055
0.400151	2.82247	0.260973	1.83621	0.400324	2.8219	0.557126	3.93637	0.672846	4.75241	0.903024	6.38639	0.407457	2.87313	0.539322	3.79385	0.765618	5.39595	0.946811	6.66229
0.401956	2.81669	0.263007	1.83847	0.402132	2.81614	0.558472	3.92007	0.674197	4.73083	0.903849	6.35038	0.40956	2.86911	0.540751	3.77914	0.766474	5.36674	0.947621	6.62456
0.403782	2.81113	0.265041	1.84071	0.40396	2.81061	0.559822	3.90402	0.675555	4.70956	0.90468	6.31488	0.411662	2.86514	0.542187	3.76466	0.767336	5.33795	0.948436	6.58735
0.405628	2.80579	0.267075	1.84291	0.405808	2.80528	0.561178	3.88821	0.676917	4.68861	0.905515	6.27986	0.413765	2.86122	0.543629	3.75041	0.768203	5.30957	0.949255	6.55064
0.407495	2.80065	0.269109	1.84508	0.407676	2.80016	0.562539	3.87264	0.678286	4.66796	0.906354	6.24533	0.415867	2.85735	0.545077	3.73639	0.769074	5.28158	0.950078	6.51444
0.409381	2.79571	0.271144	1.84723	0.409565	2.79525	0.563905	3.8573	0.679659	4.64762	0.907199	6.21128	0.417969	2.85352	0.546532	3.72258	0.769951	5.25398	0.950905	6.47872
0.411287	2.79097	0.273178	1.84935	0.411473	2.79053	0.565275	3.84219	0.681039	4.62757	0.908048	6.17768	0.420071	2.84974	0.547993	3.70899	0.770832	5.22677	0.951737	6.44349
0.413213	2.78642	0.275213	1.85145	0.4134	2.78599	0.566651	3.8273	0.682423	4.6078	0.908902	6.14454	0.422173	2.84601	0.54946	3.69562	0.771719	5.19993	0.952574	6.40873
0.415158	2.78206	0.277247	1.85352	0.415347	2.78165	0.568032	3.81263	0.683813	4.58832	0.90976	6.11185	0.424274	2.84233	0.550933	3.68245	0.77261	5.17346	0.953414	6.37443
0.417121	2.77787	0.279281	1.85556	0.417312	2.77747	0.569417	3.79818	0.685209	4.56912	0.910623	6.0796	0.426375	2.83868	0.552412	3.66949	0.773506	5.14735	0.954259	6.34058
0.419102	2.77385	0.281316	1.85758	0.419295	2.77347	0.570808	3.78394	0.686609	4.55019	0.911491	6.04777	0.428475	2.83508	0.553897	3.65672	0.774408	5.12159	0.955109	6.30718
0.421101	2.77	0.28335	1.85957	0.421296	2.76964	0.572203	3.76991	0.688015	4.53153	0.912364	6.01637	0.430575	2.83152	0.555389	3.64415	0.775314	5.09618	0.955962	6.27421
0.423118	2.76631	0.285385	1.86154	0.423314	2.76596	0.573603	3.75607	0.689426	4.51313	0.913241	5.98538	0.432675	2.828	0.556886	3.63177	0.776225	5.07111	0.95682	6.24168
0.425151	2.76278	0.287419	1.86349	0.425348	2.76244	0.575008	3.74244	0.690843	4.49499	0.914123	5.9548	0.434774	2.82452	0.558389	3.61959	0.777141	5.04638	0.957682	6.20956
0.4272	2.75939	0.289454	1.86541	0.427399	2.75907	0.576417	3.729	0.692264	4.47709	0.915009	5.92461	0.436873	2.82108	0.559899	3.60758	0.778062	5.02198	0.958549	6.17786
0.429265	2.75614	0.291488	1.86731	0.429466	2.75583	0.577831	3.71575	0.69369	4.45945	0.9159	5.89482	0.438971	2.81768	0.561414	3.59576	0.778987	4.9979	0.95942	6.14656
0.431345	2.75303	0.293522	1.86918	0.431548	2.75273	0.57925	3.70269	0.695122	4.44205	0.916796	5.86542	0.441069	2.81431	0.562935	3.58411	0.779918	4.97413	0.960295	6.11566
0.43344	2.75005	0.295557	1.87104	0.433644	2.74976	0.580674	3.68982	0.696558	4.42488	0.917696	5.83639	0.443166	2.81098	0.564462	3.57264	0.780853	4.95068	0.961174	6.08516
0.435549	2.74719	0.297591	1.87287	0.435754	2.74692	0.582102	3.67712	0.698	4.40795	0.918601	5.80773	0.445263	2.80769	0.565995	3.56134	0.781794	4.92754	0.962057	6.05503
0.437672	2.74445	0.299625	1.87468	0.437878	2.74419	0.583534	3.6646	0.699446	4.39125	0.91951	5.77943	0.447359	2.80443	0.567534	3.55021	0.782739	4.90469	0.962945	6.02529
0.439808	2.74182	0.301659	1.87646	0.440016	2.74158	0.584971	3.65226	0.700898	4.37477	0.920424	5.7515	0.449454	2.80121	0.569078	3.53925	0.783688	4.88214	0.963837	5.99591
0.441957	2.73931	0.303693	1.87823	0.442165	2.73907	0.586413	3.64008	0.702354	4.35851	0.921343	5.72391	0.451549	2.79802	0.570628	3.52844	0.784643	4.85988	0.964733	5.9669
0.444117	2.73689	0.305727	1.87998	0.444327	2.73667	0.587859	3.62808	0.703815	4.34247	0.922266	5.69667	0.453644	2.79486	0.572184	3.5178	0.785603	4.8379	0.965633	5.93825
0.446289	2.73458	0.307761	1.8817	0.4465	2.73436	0.589309	3.61623	0.705281	4.32664	0.923193	5.66977	0.455738	2.79173	0.573746	3.50731	0.786567	4.81621	0.966537	5.90995
0.448473	2.73236	0.309795	1.88341	0.448685	2.73215	0.590764	3.60455	0.706751	4.31102	0.924126	5.64321	0.457831	2.78864	0.575313	3.49697	0.787536	4.79479	0.967446	5.882
0.450667	2.73023	0.311829	1.8851	0.45088	2.73003	0.592223	3.59303	0.708226	4.29561	0.925062	5.61697	0.459923	2.78558	0.576886	3.48678	0.788509	4.77364	0.968358	5.85438
0.452871	2.72818	0.313862	1.88676	0.453085	2.72799	0.593686	3.58166	0.709706	4.2804	0.926003	5.59105	0.462015	2.78254	0.578464	3.47675	0.789488	4.75275	0.969275	5.8271
0.455085	2.72622	0.315896	1.88841	0.4553	2.72603	0.595154	3.57045	0.711191	4.26538	0.926949	5.56545	0.464106	2.77954	0.580049	3.46685	0.790471	4.73213	0.970196	5.80015
0.457308	2.72433	0.317929	1.89004	0.457524	2.72415	0.596625	3.55938	0.71268	4.25056	0.927899	5.54017	0.466197	2.77657	0.581638	3.4571	0.791459	4.71177	0.971121	5.77352
0.45954	2.72252	0.319962	1.89165	0.459757	2.72235	0.598102	3.54846	0.714173	4.23593	0.928853	5.51518	0.468286	2.77362	0.583233	3.44749	0.792452	4.69165	0.97205	5.74721
0.461781	2.72078	0.321995	1.89324	0.461998	2.72061	0.599582	3.53769	0.715671	4.22149	0.929812	5.4905	0.470375	2.77071	0.584834	3.43802	0.793449	4.67179	0.972982	5.72121
0.46403	2.7191	0.324029	1.89482	0.464248	2.71894	0.601066	3.52706	0.717174	4.20723	0.930775	5.46612	0.472463	2.76782	0.58644	3.42868	0.794451	4.65217	0.97392	5.69552
0.466287	2.71749	0.326061	1.89637	0.466505	2.71733	0.602555	3.51657	0.718681	4.19315	0.931743	5.44203	0.474551	2.76495	0.588052	3.41948	0.795458	4.63279	0.97486	5.67012
0.468551	2.71593	0.328094	1.89791	0.46877	2.71579	0.604047	3.50621	0.720193	4.17925	0.932715	5.41822	0.476637	2.76212	0.589669	3.41041	0.796469	4.61364	0.975806	5.64503
0.470822	2.71444	0.330127	1.89943	0.471042	2.7143	0.605544	3.496	0.721709	4.16553	0.933692	5.3947	0.478723	2.7593	0.591291	3.40146	0.797485	4.59473	0.976755	5.62023
0.4731	2.713	0.332159	1.90093	0.47332	2.71286	0.607045	3.48591	0.723229	4.15198	0.934673	5.37145	0.480808	2.75652	0.592919	3.39264	0.798506	4.57605	0.977708	5.59571
0.475384	2.71161	0.334192	1.90242	0.475605	2.71148	0.60855	3.47595	0.724754	4.13859	0.935658	5.34847	0.482892	2.75376	0.594552	3.38395	0.799531	4.55759	0.978665	5.57148
0.477674	2.71027	0.336224	1.90389	0.477896	2.71014	0.610058	3.46613	0.726282	4.12537	0.936648	5.32577	0.484975	2.75102	0.596191	3.37537	0.800561	4.53935	0.979626	5.54753
0.479971	2.70898	0.338256	1.90535	0.480193	2.70886	0.611571	3.45642	0.727815	4.11232	0.937642	5.30332	0.487058	2.74831	0.597834	3.36692	0.801596	4.52133	0.980591	5.52385
0.482273	2.70773	0.340288	1.90679	0.482496	2.70761	0.613088	3.44685	0.729353	4.09942	0.93864	5.28114	0.489139	2.74562	0.599483	3.35858	0.802635	4.50353	0.981559	5.50044
0.48458	2.70653	0.34232	1.90821	0.484804	2.70642	0.614608	3.43739	0.730894	4.08669	0.939643	5.25921	0.49122	2.74295	0.601137	3.35036	0.803679	4.48593	0.982532	5.47729
0.486892	2.70537	0.344351	1.90961	0.487116	2.70526	0.616133	3.42805	0.73244	4.07411	0.94065	5.23754	0.4933	2.74031	0.602797	3.34225	0.804727	4.46854	0.983509	5.45441
0.489209	2.70424	0.346382	1.91101	0.489434	2.70414	0.617661	3.41883	0.73399	4.06168	0.941662	5.21611	0.495378	2.73769	0.604461	3.33426	0.80578	4.45136	0.984489	5.43178
0.491531	2.70316	0.348414	1.91238	0.491756	2.70305	0.619193	3.40973	0.735543	4.0494	0.942677	5.19493	0.497456	2.73509	0.606131	3.32637	0.806837	4.43438	0.985474	5.4094
0.493858	2.7021	0.350445	1.91374	0.494083	2.702	0.620729	3.40074	0.737101	4.03727	0.943697	5.17398	0.499533	2.73251	0.607806	3.3186	0.807899	4.4176	0.986462	5.38728
0.496188	2.70109	0.352476	1.91509	0.496414	2.70099	0.622268	3.39186	0.738663	4.02528	0.944722	5.15327	0.501609	2.72995	0.609486	3.31093	0.808966	4.40101	0.987454	5.36539
0.498523	2.7001	0.354506	1.91642	0.498749	2.70001	0.623812	3.38309	0.740229	4.01344	0.94575	5.1328	0.503684	2.72742	0.611171	3.30336	0.810037	4.38461	0.98845	5.34375
0.500861	2.69915	0.356537	1.91774	0.501088	2.69905	0.625359	3.37443	0.741799	4.00173	0.946783	5.11255	0.505758	2.7249	0.612861	3.2959	0.811113	4.3684	0.98945	5.32235
0.503203	2.69822	0.358567	1.91904	0.50343	2.69813	0.626909	3.36588	0.743372	3.99017	0.94782	5.09253	0.507831	2.7224	0.614556	3.28854	0.812193	4.35238	0.990454	5.30118
0.505549	2.69732	0.360597	1.92033	0.505776	2.69724	0.628464	3.35743	0.74495	3.97874	0.948861	5.07273	0.509903	2.71993	0.616256	3.28127	0.813277	4.33654	0.991461	5.28024
0.507898	2.69645	0.362627	1.92161	0.508126	2.69637	0.630022	3.34908	0.746531	3.96744	0.949907	5.05315	0.511974	2.71747	0.617961	3.27411	0.814366	4.32088	0.992473	5.25953
0.51025	2.69561	0.364657	1.92287	0.510478	2.69553	0.631583	3.34083	0.748117	3.95628	0.950956	5.03379	0.514044	2.71503	0.619671	3.26704	0.81546	4.3054	0.993488	5.23904
0.512606	2.69479	0.366686	1.92412	0.512834	2.69471	0.633149	3.33269	0.749706	3.94524	0.95201	5.01463	0.516113	2.71261	0.621386	3.26007	0.816558	4.29009	0.994506	5.21877
0.514964	2.69399	0.368715	1.92535	0.515192	2.69391	0.634718	3.32464	0.751299	3.93433	0.953068	4.99569	0.518181	2.7102	0.623106	3.25319	0.81766	4.27496	0.995529	5.19872
0.517325	2.69321	0.370745	1.92658	0.517554	2.69314	0.63629	3.31669	0.752895	3.92355	0.95413	4.97695	0.520248	2.70782	0.62483	3.2464	0.818767	4.25999	0.996555	5.17889
0.519689	2.69246	0.372773	1.92779	0.519918	2.69239	0.637866	3.30884	0.754495	3.91289	0.955197	4.95842	0.522314	2.70545	0.62656	3.23971	0.819878	4.2452	0.997585	5.15926
0.522055	2.69172	0.374802	1.92898	0.522284	2.69165	0.639445	3.30108	0.756099	3.90235	0.956267	4.94008	0.524378	2.7031	0.628294	3.2331	0.820994	4.23057	0.998619	5.13984
0.524424	2.69101	0.376831	1.93017	0.524653	2.69094	0.641028	3.29341	0.757707	3.89193	0.957342	4.92194	0.526442	2.70077	0.630033	3.22658	0.822114	4.2161	0.999656	5.12062
0.526795	2.69031	0.378859	1.93134	0.527024	2.69025	0.642614	3.28583	0.759318	3.88163	0.958421	4.904	0.528504	2.69845	0.631777	3.22014	0.823239	4.20179	1.0007	5.10161
0.529168	2.68964	0.380887	1.9325	0.529398	2.68957	0.644204	3.27834	0.760932	3.87145	0.959504	4.88625	0.530566	2.69615	0.633525	3.21379	0.824368	4.18763		
0.531543	2.68898	0.382915	1.93365	0.531773	2.68891	0.645797	3.27094	0.762551	3.86138	0.960591	4.86868	0.532626	2.69386	0.635279	3.20753	0.825501	4.17364		
0.533921	2.68833	0.384942	1.93478	0.534151	2.68827	0.647394	3.26362	0.764172	3.85142	0.961682	4.85131	0.534685	2.6916	0.637037	3.20135	0.826638	4.15979		
0.5363	2.6877	0.38697	1.93591	0.53653	2.68764	0.648993	3.25639	0.765798	3.84157	0.962778	4.83411	0.536743	2.68934	0.638799	3.19524	0.82778	4.1461		
0.538681	2.68709	0.388997	1.93702	0.538912	2.68703	0.650597	3.24925	0.767426	3.83183	0.963877	4.8171	0.5388	2.6871	0.640566	3.18922	0.828927	4.13256		
0.541064	2.68649	0.391024	1.93812	0.541295	2.68643	0.652203	3.24219	0.769058	3.8222	0.96498	4.80026	0.540856	2.68488	0.642338	3.18327	0.830077	4.11916		
0.543449	2.68591	0.39305	1.93921	0.54368	2.68585	0.653813	3.2352	0.770694	3.81267	0.966088	4.7836	0.54291	2.68267	0.644114	3.17741	0.831232	4.10591		
0.545835	2.68533	0.395077	1.94029	0.546066	2.68528	0.655426	3.2283	0.772333	3.80325	0.9672	4.76711	0.544964	2.68048	0.645895	3.17161	0.832392	4.0928		
0.548223	2.68478	0.397103	1.94136	0.548454	2.68472	0.657043	3.22148	0.773975	3.79393	0.968315	4.75079	0.547016	2.6783	0.647681	3.1659	0.833555	4.07983		
0.550612	2.68423	0.399129	1.94242	0.550843	2.68418	0.658662	3.21474	0.775621	3.78471	0.969435	4.73464	0.549067	2.67614	0.649471	3.16025	0.834723	4.067		
0.553002	2.68369	0.401155	1.94346	0.553234	2.68364	0.660285	3.20807	0.777269	3.7756	0.970558	4.71866	0.551117	2.67398	0.651265	3.15468	0.835895	4.05431		
0.555394	2.68317	0.40318	1.9445	0.555626	2.68312	0.661911	3.20148	0.778922	3.76657	0.971686	4.70284	0.553166	2.67185	0.653064	3.14918	0.837071	4.04175		
0.557788	2.68266	0.405205	1.94552	0.558019	2.68261	0.663541	3.19496	0.780577	3.75765	0.972818	4.68718	0.555214	2.66972	0.654867	3.14376	0.838252	4.02932		
0.560182	2.68215	0.40723	1.94654	0.560414	2.68211	0.665173	3.18852	0.782235	3.74882	0.973953	4.67168	0.55726	2.66761	0.656675	3.1384	0.839437	4.01703		
0.562578	2.68166	0.409255	1.94754	0.56281	2.68161	0.666809	3.18215	0.783897	3.74008	0.975093	4.65634	0.559306	2.66552	0.658486	3.1331	0.840626	4.00486		
0.564974	2.68118	0.41128	1.94854	0.565207	2.68113	0.668448	3.17585	0.785562	3.73144	0.976237	4.64115	0.56135	2.66343	0.660303	3.12788	0.841819	3.99283		
0.567372	2.6807	0.413304	1.94952	0.567604	2.68066	0.67009	3.16962	0.78723	3.72289	0.977384	4.62611	0.563393	2.66136	0.662123	3.12272	0.843017	3.98091		
0.569771	2.68024	0.415328	1.9505	0.570003	2.6802	0.671735	3.16346	0.788901	3.71442	0.978536	4.61123	0.565434	2.6593	0.663948	3.11763	0.844219	3.96913		
0.572171	2.67978	0.417352	1.95146	0.572403	2.67974	0.673383	3.15736	0.790575	3.70605	0.979691	4.59649	0.567475	2.65725	0.665777	3.1126	0.845425	3.95746		
0.574571	2.67933	0.419375	1.95242	0.574804	2.67929	0.675034	3.15134	0.792252	3.69776	0.98085	4.5819	0.569514	2.65522	0.66761	3.10764	0.846635	3.94591		
0.576973	2.67889	0.421398	1.95337	0.577205	2.67885	0.676688	3.14538	0.793932	3.68956	0.982014	4.56746	0.571552	2.65319	0.669448	3.10273	0.847849	3.93449		
0.579375	2.67846	0.423421	1.9543	0.579607	2.67842	0.678346	3.13949	0.795616	3.68144	0.983181	4.55316	0.573589	2.65118	0.67129	3.09789	0.849067	3.92318		
0.581778	2.67803	0.425444	1.95523	0.58201	2.67799	0.680006	3.13366	0.797302	3.6734	0.984352	4.539	0.575625	2.64918	0.673135	3.09311	0.85029	3.91199		
0.584181	2.67762	0.427467	1.95615	0.584414	2.67758	0.681669	3.1279	0.798991	3.66545	0.985527	4.52497	0.577659	2.6472	0.674985	3.08839	0.851517	3.90091		
0.586586	2.6772	0.429489	1.95706	0.586818	2.67716	0.683336	3.1222	0.800683	3.65758	0.986706	4.51109	0.579692	2.64522	0.676839	3.08372	0.852748	3.88995		
0.588991	2.6768	0.431511	1.95796	0.589223	2.67676	0.685005	3.11656	0.802378	3.64979	0.987888	4.49734	0.581725	2.64326	0.678697	3.07912	0.853983	3.87909		
0.591396	2.6764	0.433533	1.95885	0.591629	2.67636	0.686677	3.11098	0.804075	3.64208	0.989075	4.48372	0.583755	2.6413	0.680559	3.07457	0.855222	3.86835		
0.593802	2.676	0.435554	1.95974	0.594035	2.67596	0.688353	3.10546	0.805776	3.63444	0.990265	4.47024	0.585785	2.63936	0.682425	3.07008	0.856465	3.85772		
0.596209	2.67561	0.437575	1.96061	0.596442	2.67558	0.690031	3.1	0.807479	3.62688	0.991459	4.45688	0.587814	2.63743	0.684295	3.06564	0.857712	3.84719		
0.598616	2.67523	0.439596	1.96148	0.598849	2.67519	0.691712	3.0946	0.809186	3.6194	0.992657	4.44366	0.589841	2.63551	0.686169	3.06126	0.858963	3.83677		
0.601023	2.67485	0.441617	1.96234	0.601256	2.67481	0.693396	3.08926	0.810895	3.61199	0.993859	4.43056	0.591867	2.63359	0.688046	3.05693	0.860219	3.82645		
0.603431	2.67448	0.443637	1.96319	0.603664	2.67444	0.695083	3.08397	0.812606	3.60466	0.995065	4.41758	0.593892	2.63169	0.689928	3.05265	0.861478	3.81624		
0.605839	2.67411	0.445657	1.96403	0.606073	2.67407	0.696773	3.07874	0.814321	3.59739	0.996274	4.40473	0.595916	2.6298	0.691813	3.04843	0.862742	3.80613		
0.608248	2.67374	0.447677	1.96486	0.608481	2.67371	0.698466	3.07357	0.816038	3.5902	0.997487	4.39201	0.597938	2.62792	0.693703	3.04425	0.864009	3.79612		
0.610657	2.67338	0.449697	1.96569	0.61089	2.67335	0.700162	3.06845	0.817758	3.58308	0.998704	4.3794	0.599959	2.62606	0.695596	3.04013	0.865281	3.7862		
0.613066	2.67303	0.451716	1.96651	0.613299	2.67299	0.70186	3.06339	0.81948	3.57603	0.999925	4.36691	0.601979	2.6242	0.697492	3.03606	0.866557	3.77639		
0.615476	2.67268	0.453735	1.96732	0.615709	2.67264	0.703562	3.05838	0.821205	3.56905	1.00115	4.35454	0.603998	2.62235	0.699393	3.03203	0.867836	3.76667		
0.617885	2.67233	0.455754	1.96812	0.618118	2.6723	0.705266	3.05342	0.822933	3.56213			0.606016	2.62051	0.701297	3.02806	0.86912	3.75705		
0.620295	2.67198	0.457772	1.96891	0.620528	2.67195	0.706974	3.04851	0.824663	3.55528			0.608033	2.61868	0.703205	3.02413	0.870407	3.74752		
0.622705	2.67164	0.459791	1.9697	0.622938	2.67161	0.708684	3.04366	0.826396	3.5485			0.610048	2.61686	0.705116	3.02025	0.871699	3.73809		
0.625115	2.67131	0.461809	1.97048	0.625348	2.67127	0.710396	3.03886	0.828131	3.54178			0.612062	2.61504	0.707031	3.01641	0.872995	3.72875		
0.627525	2.67097	0.463826	1.97125	0.627758	2.67094	0.712112	3.0341	0.829869	3.53513			0.614075	2.61324	0.70895	3.01262	0.874294	3.7195		
0.629935	2.67064	0.465844	1.97202	0.630169	2.67061	0.713831	3.0294	0.831609	3.52854			0.616087	2.61145	0.710872	3.00888	0.875598	3.71034		
0.632345	2.67031	0.467861	1.97278	0.632579	2.67028	0.715552	3.02474	0.833352	3.52201			0.618098	2.60967	0.712798	3.00518	0.876905	3.70126		
0.634756	2.66998	0.469878	1.97353	0.634989	2.66995	0.717276	3.02014	0.835097	3.51554			0.620108	2.60789	0.714727	3.00152	0.878216	3.69228		
0.637166	2.66966	0.471894	1.97427	0.637399	2.66963	0.719003	3.01558	0.836845	3.50913			0.622116	2.60613	0.716659	2.99791	0.879532	3.68338		
0.639576	2.66934	0.473911	1.97501	0.639809	2.6693	0.720733	3.01107	0.838595	3.50279			0.624124	2.60437	0.718595	2.99434	0.880851	3.67457		
0.641986	2.66902	0.475927	1.97574	0.642219	2.66898	0.722465	3.0066	0.840347	3.4965			0.62613	2.60263	0.720535	2.99081	0.882174	3.66584		
0.644396	2.6687	0.477942	1.97646	0.644629	2.66867	0.7242	3.00218	0.842102	3.49027			0.628135	2.60089	0.722477	2.98732	0.883501	3.65719		
0.646806	2.66838	0.479958	1.97718	0.647039	2.66835	0.725938	2.99781	0.843859	3.4841			0.630139	2.59916	0.724423	2.98387	0.884832	3.64863		
0.649215	2.66807	0.481973	1.97789	0.649449	2.66804	0.727679	2.99348	0.845618	3.47798			0.632142	2.59744	0.726372	2.98046	0.886166	3.64015		
0.651625	2.66775	0.483988	1.9786	0.651858	2.66772	0.729423	2.9892	0.84738	3.47193			0.634143	2.59573	0.728325	2.97709	0.887505	3.63175		
0.654034	2.66744	0.486003	1.97929	0.654267	2.66741	0.731169	2.98496	0.849144	3.46592			0.636144	2.59402	0.730281	2.97376	0.888848	3.62343		
0.656443	2.66713	0.488017	1.97998	0.656676	2.6671	0.732918	2.98076	0.85091	3.45997			0.638144	2.59233	0.73224	2.97047	0.890194	3.61518		
0.658852	2.66683	0.490031	1.98067	0.659085	2.6668	0.73467	2.97661	0.852678	3.45408			0.640142	2.59064	0.734202	2.96721	0.891544	3.60702		
0.66126	2.66652	0.492045	1.98135	0.661493	2.66649	0.736425	2.9725	0.854449	3.44824			0.64214	2.58896	0.736167	2.96399	0.892898	3.59893		
0.663668	2.66621	0.494058	1.98202	0.663902	2.66618	0.738183	2.96843	0.856222	3.44245			0.644136	2.58729	0.738135	2.96081	0.894256	3.59092		
0.666076	2.66591	0.496071	1.98268	0.666309	2.66588	0.739943	2.9644	0.857997	3.43671			0.646131	2.58563	0.740107	2.95766	0.895617	3.58298		
0.668484	2.6656	0.498084	1.98334	0.668717	2.66557	0.741706	2.96041	0.859774	3.43102			0.648126	2.58398	0.742081	2.95455	0.896983	3.57512		
0.67089	2.6653	0.500097	1.984	0.671123	2.66527	0.743472	2.95647	0.861553	3.42539			0.650119	2.58233	0.744058	2.95148	0.898352	3.56733		
0.673297	2.66499	0.502109	1.98465	0.67353	2.66496	0.74524	2.95256	0.863334	3.4198			0.652111	2.5807	0.746039	2.94844	0.899725	3.55961		
0.675703	2.66469	0.504122	1.98529	0.675936	2.66466	0.747012	2.94869	0.865118	3.41427			0.654102	2.57907	0.748022	2.94543	0.901102	3.55197		
0.678108	2.66439	0.506133	1.98592	0.678341	2.66436	0.748786	2.94487	0.866903	3.40878			0.656092	2.57744	0.750008	2.94245	0.902483	3.54439		
0.680513	2.66408	0.508145	1.98655	0.680746	2.66405	0.750563	2.94108	0.868691	3.40334			0.658082	2.57583	0.751997	2.93951	0.903867	3.53689		
0.682918	2.66378	0.510156	1.98718	0.683151	2.66375	0.752342	2.93733	0.87048	3.39795			0.66007	2.57423	0.753989	2.9366	0.905255	3.52945		
0.685322	2.66348	0.512167	1.9878	0.685554	2.66345	0.754125	2.93362	0.872272	3.3926			0.662057	2.57263	0.755984	2.93373	0.906647	3.52208		
0.687725	2.66317	0.514178	1.98841	0.687958	2.66314	0.75591	2.92994	0.874065	3.3873			0.664043	2.57104	0.757981	2.93088	0.908043	3.51478		
0.690128	2.66287	0.516188	1.98902	0.69036	2.66284	0.757698	2.9263	0.875861	3.38205			0.666029	2.56946	0.759981	2.92807	0.909442	3.50755		
0.692529	2.66257	0.518198	1.98962	0.692762	2.66254	0.759489	2.9227	0.877658	3.37684			0.668013	2.56788	0.761984	2.92528	0.910845	3.50038		
0.694931	2.66226	0.520208	1.99022	0.695163	2.66223	0.761283	2.91914	0.879458	3.37168			0.669996	2.56631	0.76399	2.92253	0.912252	3.49328		
0.697331	2.66196	0.522218	1.99081	0.697563	2.66193	0.76308	2.91561	0.881259	3.36656			0.671979	2.56475	0.765998	2.9198	0.913662	3.48625		
0.699731	2.66165	0.524227	1.9914	0.699963	2.66162	0.764879	2.91212	0.883062	3.36148			0.67396	2.5632	0.768008	2.91711	0.915076	3.47927		
0.70213	2.66134	0.526236	1.99198	0.702362	2.66131	0.766681	2.90867	0.884867	3.35645			0.675941	2.56166	0.770022	2.91444	0.916494	3.47236		
0.704528	2.66104	0.528245	1.99256	0.70476	2.66101	0.768487	2.90525	0.886674	3.35146			0.677921	2.56012	0.772038	2.9118	0.917916	3.46552		
0.706925	2.66073	0.530253	1.99313	0.707157	2.6607	0.770295	2.90186	0.888483	3.34651			0.679899	2.55859	0.774056	2.90919	0.919341	3.45873		
0.709321	2.66042	0.532261	1.99369	0.709553	2.66039	0.772106	2.89851	0.890294	3.34161			0.681877	2.55707	0.776077	2.90661	0.92077	3.45201		
0.711717	2.6601	0.534269	1.99425	0.711948	2.66007	0.77392	2.89519	0.892106	3.33674			0.683855	2.55556	0.7781	2.90406	0.922203	3.44534		
0.714111	2.65979	0.536277	1.99481	0.714343	2.65976	0.775736	2.89191	0.89392	3.33191			0.685831	2.55405	0.780126	2.90153	0.923639	3.43874		
0.716504	2.65948	0.538284	1.99536	0.716736	2.65945	0.777556	2.88866	0.895736	3.32713			0.687806	2.55255	0.782154	2.89902	0.925079	3.43219		
0.718897	2.65916	0.540291	1.99591	0.719128	2.65913	0.779379	2.88544	0.897554	3.32238			0.689781	2.55106	0.784185	2.89655	0.926522	3.42571		
0.721288	2.65884	0.542298	1.99645	0.721519	2.65881	0.781205	2.88226	0.899373	3.31768			0.691755	2.54957	0.786217	2.8941	0.927969	3.41928		
0.723678	2.65852	0.544304	1.99699	0.723909	2.65849	0.783033	2.87911	0.901194	3.31301			0.693728	2.54809	0.788252	2.89167	0.92942	3.41291		
0.726067	2.6582	0.54631	1.99752	0.726298	2.65817	0.784865	2.87599	0.903017	3.30838			0.6957	2.54662	0.79029	2.88927	0.930875	3.4066		
0.728455	2.65788	0.548316	1.99805	0.728686	2.65784	0.7867	2.87291	0.904842	3.30378			0.697671	2.54516	0.792329	2.88689	0.932333	3.40034		
0.730841	2.65755	0.550322	1.99857	0.731072	2.65752	0.788538	2.86986	0.906668	3.29923			0.699642	2.5437	0.794371	2.88454	0.933794	3.39414		
0.733226	2.65722	0.552327	1.99909	0.733457	2.65719	0.790378	2.86683	0.908496	3.29471			0.701611	2.54225	0.796415	2.88221	0.93526	3.38799		
0.73561	2.65689	0.554332	1.9996	0.735841	2.65686	0.792222	2.86385	0.910325	3.29023			0.703581	2.54081	0.798461	2.8799	0.936728	3.38189		
0.737993	2.65655	0.556336	2.00011	0.738223	2.65652	0.79407	2.86089	0.912157	3.28578			0.705549	2.53937	0.800509	2.87762	0.938201	3.37585		
0.740374	2.65622	0.558341	2.00062	0.740604	2.65618	0.79592	2.85796	0.913989	3.28137			0.707516	2.53794	0.802559	2.87536	0.939677	3.36987		
0.742754	2.65588	0.560345	2.00112	0.742984	2.65584	0.797773	2.85506	0.915823	3.27699			0.709483	2.53652	0.804611	2.87312	0.941157	3.36394		
0.745132	2.65553	0.562349	2.00161	0.745362	2.6555	0.79963	2.8522	0.917659	3.27265			0.711449	2.53511	0.806665	2.8709	0.94264	3.35805		
0.747508	2.65519	0.564352	2.0021	0.747738	2.65515	0.80149	2.84936	0.919497	3.26834			0.713415	2.5337	0.808721	2.86871	0.944126	3.35222		
0.749883	2.65484	0.566356	2.00259	0.750113	2.6548	0.803353	2.84656	0.921336	3.26407			0.71538	2.5323	0.810779	2.86654	0.945617	3.34644		
0.752257	2.65448	0.568359	2.00308	0.752486	2.65445	0.80522	2.84378	0.923176	3.25983			0.717344	2.5309	0.812839	2.86438	0.947111	3.34072		
0.754628	2.65413	0.570361	2.00355	0.754858	2.65409	0.807089	2.84104	0.925018	3.25563			0.719307	2.52951	0.814901	2.86225	0.948608	3.33504		
0.756998	2.65377	0.572364	2.00403	0.757228	2.65373	0.808963	2.83832	0.926861	3.25145			0.72127	2.52813	0.816964	2.86014	0.950109	3.32941		
0.759367	2.6534	0.574366	2.0045	0.759596	2.65337	0.810839	2.83564	0.928706	3.24731			0.723232	2.52676	0.81903	2.85805	0.951613	3.32383		
0.761733	2.65303	0.576368	2.00497	0.761962	2.653	0.812719	2.83298	0.930553	3.2432			0.725194	2.52539	0.821097	2.85598	0.953121	3.3183		
0.764097	2.65266	0.578369	2.00543	0.764326	2.65262	0.814603	2.83036	0.9324	3.23912			0.727155	2.52403	0.823166	2.85392	0.954633	3.31281		
0.76646	2.65228	0.580371	2.00589	0.766688	2.65225	0.81649	2.82776	0.93425	3.23508			0.729115	2.52268	0.825236	2.85189	0.956148	3.30738		
0.76882	2.6519	0.582372	2.00635	0.769049	2.65186	0.818381	2.82519	0.9361	3.23106			0.731075	2.52133	0.827308	2.84988	0.957667	3.30199		
0.771179	2.65152	0.584372	2.0068	0.771407	2.65148	0.820275	2.82265	0.937952	3.22707			0.733034	2.51999	0.829382	2.84788	0.959189	3.29665		
0.773535	2.65112	0.586373	2.00724	0.773763	2.65109	0.822173	2.82014	0.939806	3.22312			0.734992	2.51865	0.831458	2.8459	0.960714	3.29135		
0.775889	2.65073	0.588373	2.00769	0.776117	2.65069	0.824074	2.81766	0.94166	3.21919			0.73695	2.51733	0.833535	2.84394	0.962243	3.2861		
0.778241	2.65033	0.590373	2.00813	0.778468	2.65029	0.82598	2.81521	0.943517	3.2153			0.738908	2.51601	0.835614	2.842	0.963776	3.2809		
0.78059	2.64992	0.592373	2.00856	0.780817	2.64988	0.827889	2.81278	0.945374	3.21143			0.740864	2.51469	0.837694	2.84007	0.965312	3.27573		
0.782937	2.64951	0.594372	2.009	0.783164	2.64947	0.829802	2.81038	0.947233	3.20759			0.742821	2.51338	0.839776	2.83817	0.966851	3.27062		
0.785282	2.64909	0.596371	2.00943	0.785509	2.64905	0.831719	2.80802	0.949093	3.20378			0.744777	2.51208	0.841859	2.83628	0.968394	3.26555		
0.787624	2.64867	0.59837	2.00985	0.787851	2.64862	0.833639	2.80567	0.950954	3.2			0.746732	2.51079	0.843943	2.8344	0.969941	3.26052		
0.789964	2.64824	0.600368	2.01027	0.79019	2.64819	0.835564	2.80336	0.952817	3.19625			0.748687	2.5095	0.846029	2.83254	0.971491	3.25553		
0.792301	2.6478	0.602366	2.01069	0.792527	2.64776	0.837493	2.80108	0.954681	3.19253			0.750641	2.50822	0.848116	2.8307	0.973044	3.25059		
0.794635	2.64736	0.604364	2.0111	0.794861	2.64732	0.839426	2.79882	0.956546	3.18883			0.752595	2.50694	0.850205	2.82888	0.974601	3.24569		
0.796967	2.64691	0.606362	2.01152	0.797192	2.64687	0.841363	2.79659	0.958412	3.18516			0.754548	2.50567	0.852295	2.82707	0.976161	3.24083		
0.799295	2.64646	0.608359	2.01192	0.799521	2.64641	0.843304	2.79439	0.96028	3.18151			0.756501	2.50441	0.854386	2.82527	0.977725	3.23601		
0.801621	2.64599	0.610356	2.01233	0.801846	2.64595	0.84525	2.79222	0.962149	3.17789			0.758454	2.50315	0.856479	2.82349	0.979292	3.23123		
0.803944	2.64553	0.612353	2.01273	0.804169	2.64548	0.847199	2.79007	0.964019	3.1743			0.760406	2.5019	0.858573	2.82173	0.980863	3.2265		
0.806264	2.64505	0.61435	2.01313	0.806488	2.645	0.849153	2.78795	0.96589	3.17074			0.762358	2.50066	0.860667	2.81998	0.982437	3.2218		
0.80858	2.64457	0.616346	2.01352	0.808805	2.64452	0.851112	2.78586	0.967762	3.1672			0.764309	2.49942	0.862764	2.81824	0.984015	3.21714		
0.810894	2.64408	0.618342	2.01391	0.811118	2.64403	0.853075	2.7838	0.969636	3.16368			0.76626	2.49819	0.864861	2.81652	0.985596	3.21253		
0.813204	2.64358	0.620337	2.0143	0.813428	2.64353	0.855043	2.78176	0.971511	3.16019			0.76821	2.49696	0.866959	2.81482	0.98718	3.20795		
0.815511	2.64307	0.622333	2.01468	0.815734	2.64302	0.857015	2.77975	0.973386	3.15673			0.77016	2.49574	0.869058	2.81312	0.988768	3.20341		
0.817815	2.64256	0.624328	2.01506	0.818038	2.64251	0.858992	2.77777	0.975263	3.15328			0.77211	2.49453	0.871159	2.81144	0.990359	3.19891		
0.820115	2.64204	0.626323	2.01544	0.820337	2.64199	0.860973	2.77581	0.977141	3.14987			0.774059	2.49332	0.87326	2.80977	0.991954	3.19445		
0.822411	2.64151	0.628317	2.01582	0.822633	2.64146	0.86296	2.77388	0.97902	3.14648			0.776008	2.49212	0.875363	2.80812	0.993552	3.19002		
0.824704	2.64097	0.630312	2.01619	0.824926	2.64092	0.864951	2.77198	0.9809	3.14311			0.777957	2.49092	0.877466	2.80648	0.995153	3.18563		
0.826993	2.64042	0.632306	2.01656	0.827215	2.64037	0.866947	2.77011	0.982782	3.13976			0.779905	2.48973	0.87957	2.80485	0.996758	3.18128		
0.829279	2.63987	0.634299	2.01692	0.8295	2.63981	0.868948	2.76826	0.984664	3.13644			0.781853	2.48855	0.881676	2.80324	0.998367	3.17697		
0.831561	2.6393	0.636293	2.01728	0.831781	2.63925	0.870954	2.76644	0.986547	3.13314			0.7838	2.48737	0.883782	2.80163	0.999978	3.17269		
0.833838	2.63873	0.638286	2.01764	0.834059	2.63867	0.872965	2.76465	0.988432	3.12986			0.785748	2.4862	0.885889	2.80004	1.00159	3.16845		
0.836112	2.63814	0.640279	2.018	0.836332	2.63809	0.874982	2.76288	0.990317	3.12661			0.787695	2.48504	0.887996	2.79846				
0.838382	2.63755	0.642272	2.01835	0.838601	2.63749	0.877003	2.76114	0.992203	3.12338			0.789641	2.48388	0.890105	2.7969				
0.840648	2.63695	0.644264	2.0187	0.840867	2.63689	0.87903	2.75943	0.994091	3.12017			0.791588	2.48272	0.892214	2.79534				
0.842909	2.63634	0.646256	2.01905	0.843128	2.63628	0.881062	2.75774	0.995979	3.11698			0.793534	2.48158	0.894324	2.7938				
0.845166	2.63572	0.648248	2.0194	0.845385	2.63566	0.883099	2.75608	0.997869	3.11381			0.79548	2.48043	0.896435	2.79226				
0.84742	2.63509	0.650239	2.01974	0.847637	2.63503	0.885142	2.75445	0.999759	3.11067			0.797426	2.4793	0.898546	2.79074				
0.849668	2.63445	0.652231	2.02008	0.849886	2.63439	0.88719	2.75284	1.00165	3.10754			0.799371	2.47817	0.900658	2.78923				
0.851913	2.6338	0.654222	2.02041	0.85213	2.63374	0.889244	2.75126					0.801316	2.47704	0.902771	2.78773				
0.854153	2.63314	0.656212	2.02075	0.854369	2.63308	0.891303	2.7497					0.803261	2.47593	0.904884	2.78624				
0.856388	2.63247	0.658203	2.02108	0.856604	2.63241	0.893367	2.74817					0.805206	2.47481	0.906998	2.78476				
0.858619	2.63179	0.660193	2.02141	0.858835	2.63173	0.895438	2.74667					0.80715	2.47371	0.909112	2.78329				
0.860845	2.6311	0.662183	2.02173	0.861061	2.63103	0.897514	2.74519					0.809095	2.4726	0.911227	2.78183				
0.863067	2.6304	0.664172	2.02205	0.863282	2.63033	0.899595	2.74374					0.811039	2.47151	0.913343	2.78038				
0.865284	2.62969	0.666162	2.02237	0.865499	2.62962	0.901683	2.74231					0.812983	2.47042	0.915458	2.77894				
0.867497	2.62897	0.668151	2.02269	0.867711	2.6289	0.903776	2.74091					0.814926	2.46933	0.917575	2.77751				
0.869704	2.62824	0.67014	2.02301	0.869918	2.62817	0.905874	2.73953					0.81687	2.46825	0.919691	2.77608				
0.871907	2.6275	0.672128	2.02332	0.87212	2.62743	0.907979	2.73818					0.818813	2.46718	0.921808	2.77467				
0.874106	2.62675	0.674117	2.02363	0.874318	2.62668	0.910089	2.73686					0.820756	2.46611	0.923926	2.77327				
0.876299	2.62599	0.676105	2.02393	0.876511	2.62592	0.912205	2.73556					0.8227	2.46505	0.926044	2.77187				
0.878488	2.62522	0.678092	2.02424	0.8787	2.62514	0.914326	2.73428					0.824643	2.46399	0.928162	2.77048				
0.880672	2.62444	0.68008	2.02454	0.880883	2.62436	0.916454	2.73303					0.826585	2.46294	0.93028	2.76911				
0.882851	2.62365	0.682067	2.02484	0.883062	2.62357	0.918587	2.7318					0.828528	2.4619	0.932398	2.76774				
0.885025	2.62285	0.684054	2.02514	0.885236	2.62277	0.920726	2.73059					0.830471	2.46085	0.934517	2.76638				
0.887195	2.62204	0.686041	2.02543	0.887405	2.62196	0.92287	2.72941					0.832413	2.45982	0.936636	2.76502				
0.88936	2.62122	0.688027	2.02573	0.889569	2.62114	0.925021	2.72825					0.834355	2.45879	0.938756	2.76368				
0.89152	2.62039	0.690013	2.02602	0.891729	2.62031	0.927177	2.72712					0.836298	2.45777	0.940875	2.76234				
0.893676	2.61955	0.691999	2.0263	0.893884	2.61947	0.929338	2.726					0.83824	2.45675	0.942994	2.76101				
0.895826	2.6187	0.693985	2.02659	0.896034	2.61862	0.931505	2.72491					0.840182	2.45573	0.945114	2.75969				
0.897972	2.61785	0.69597	2.02687	0.89818	2.61776	0.933678	2.72385					0.842124	2.45472	0.947234	2.75837				
0.900114	2.61698	0.697955	2.02715	0.900321	2.6169	0.935857	2.7228					0.844066	2.45372	0.949353	2.75707				
0.902251	2.61611	0.69994	2.02743	0.902457	2.61602	0.93804	2.72178					0.846007	2.45272	0.951473	2.75577				
0.904383	2.61523	0.701925	2.02771	0.904589	2.61514	0.94023	2.72077					0.847949	2.45173	0.953593	2.75447				
0.906511	2.61434	0.703909	2.02798	0.906716	2.61425	0.942424	2.71979					0.849891	2.45074	0.955713	2.75319				
0.908634	2.61344	0.705893	2.02825	0.908839	2.61335	0.944624	2.71883					0.851832	2.44976	0.957832	2.75191				
0.910753	2.61253	0.707877	2.02852	0.910958	2.61244	0.94683	2.71789					0.853774	2.44878	0.959952	2.75063				
0.912867	2.61162	0.70986	2.02879	0.913072	2.61153	0.94904	2.71697					0.855716	2.44781	0.962072	2.74937				
0.914977	2.61069	0.711844	2.02906	0.915181	2.6106	0.951256	2.71607					0.857657	2.44684	0.964191	2.74811				
0.917083	2.60976	0.713827	2.02932	0.917287	2.60967	0.953476	2.71518					0.859599	2.44588	0.96631	2.74685				
0.919185	2.60883	0.71581	2.02958	0.919388	2.60874	0.955702	2.71432					0.86154	2.44492	0.968429	2.7456				
0.921283	2.60789	0.717792	2.02984	0.921486	2.60779	0.957933	2.71348					0.863481	2.44397	0.970548	2.74436				
0.923376	2.60694	0.719774	2.0301	0.923579	2.60684	0.960168	2.71265					0.865423	2.44302	0.972667	2.74313				
0.925466	2.60598	0.721756	2.03035	0.925668	2.60589	0.962409	2.71184					0.867364	2.44208	0.974786	2.7419				
0.927551	2.60502	0.723738	2.0306	0.927753	2.60493	0.964654	2.71105					0.869306	2.44114	0.976904	2.74067				
0.929633	2.60405	0.72572	2.03085	0.929835	2.60396	0.966903	2.71027					0.871247	2.44021	0.979022	2.73946				
0.931711	2.60308	0.727701	2.0311	0.931912	2.60299	0.969157	2.70952					0.873189	2.43928	0.98114	2.73824				
0.933786	2.6021	0.729682	2.03135	0.933986	2.60201	0.971416	2.70878					0.87513	2.43836	0.983257	2.73704				
0.935856	2.60112	0.731662	2.03159	0.936057	2.60102	0.973679	2.70805					0.877072	2.43744	0.985375	2.73583				
0.937924	2.60013	0.733643	2.03184	0.938124	2.60004	0.975946	2.70734					0.879013	2.43653	0.987491	2.73464				
0.939987	2.59914	0.735623	2.03208	0.940187	2.59904	0.978218	2.70665					0.880955	2.43562	0.989608	2.73344				
0.942048	2.59814	0.737603	2.03232	0.942247	2.59805	0.980493	2.70597					0.882896	2.43472	0.991724	2.73226				
0.944105	2.59714	0.739583	2.03255	0.944304	2.59705	0.982773	2.7053					0.884838	2.43382	0.993839	2.73108				
0.946158	2.59614	0.741562	2.03279	0.946357	2.59604	0.985057	2.70465					0.88678	2.43292	0.995954	2.7299				
0.948209	2.59513	0.743541	2.03302	0.948407	2.59503	0.987344	2.70402					0.888721	2.43203	0.998069	2.72873				
0.950257	2.59412	0.74552	2.03325	0.950455	2.59402	0.989635	2.70339					0.890663	2.43115	1.00018	2.72756				
0.952301	2.59311	0.747499	2.03348	0.952499	2.59301	0.99193	2.70278					0.892605	2.43027						
0.954343	2.59209	0.749478	2.03371	0.95454	2.59199	0.994229	2.70219					0.894547	2.42939						
0.956382	2.59107	0.751456	2.03394	0.956579	2.59097	0.996531	2.7016					0.896489	2.42852						
0.958418	2.59005	0.753434	2.03416	0.958615	2.58995	0.998836	2.70103					0.898431	2.42766						
0.960451	2.58902	0.755412	2.03438	0.960648	2.58893	1.00115	2.70047					0.900373	2.42679						
0.962482	2.588	0.757389	2.0346	0.962678	2.5879							0.902315	2.42594						
0.96451	2.58697	0.759366	2.03482	0.964706	2.58687							0.904258	2.42508						
0.966535	2.58594	0.761343	2.03504	0.966731	2.58584							0.9062	2.42424						
0.968559	2.58491	0.76332	2.03525	0.968754	2.58481							0.908142	2.42339						
0.97058	2.58388	0.765296	2.03547	0.970775	2.58378							0.910085	2.42255						
0.972598	2.58285	0.767273	2.03568	0.972793	2.58275							0.912028	2.42172						
0.974615	2.58181	0.769249	2.03589	0.97481	2.58171							0.91397	2.42089						
0.976629	2.58078	0.771224	2.0361	0.976824	2.58068							0.915913	2.42006						
0.978641	2.57975	0.7732	2.0363	0.978836	2.57965							0.917856	2.41924						
0.980652	2.57871	0.775175	2.03651	0.980846	2.57861							0.919799	2.41842						
0.98266	2.57768	0.77715	2.03671	0.982854	2.57758							0.921742	2.41761						
0.984666	2.57664	0.779125	2.03691	0.98486	2.57654							0.923686	2.4168						
0.986671	2.57561	0.7811	2.03711	0.986865	2.57551							0.925629	2.416						
0.988674	2.57458	0.783074	2.03731	0.988868	2.57448							0.927573	2.41519						
0.990675	2.57354	0.785048	2.03751	0.990868	2.57344							0.929516	2.4144						
0.992674	2.57251	0.787022	2.03771	0.992868	2.57241							0.93146	2.41361						
0.994672	2.57148	0.788996	2.0379	0.994866	2.57138							0.933404	2.41282						
0.996669	2.57045	0.790969	2.03809	0.996862	2.57035							0.935348	2.41203						
0.998663	2.56942	0.792942	2.03828	0.998856	2.56932							0.937293	2.41126						
1.00066	2.56839	0.794915	2.03847	1.00085	2.56829							0.939237	2.41048						
		0.796888	2.03866									0.941182	2.40971						
		0.79886	2.03885									0.943126	2.40894						
		0.800832	2.03903									0.945071	2.40818						
		0.802804	2.03921									0.947016	2.40742						
		0.804776	2.0394									0.948961	2.40666						
		0.806747	2.03958									0.950907	2.40591						
		0.808719	2.03976									0.952852	2.40517						
		0.81069	2.03993									0.954798	2.40442						
		0.812661	2.04011									0.956744	2.40368						
		0.814631	2.04028									0.95869	2.40295						
		0.816602	2.04046									0.960636	2.40221						
		0.818572	2.04063									0.962582	2.40149						
		0.820542	2.0408									0.964529	2.40076						
		0.822511	2.04097									0.966476	2.40004						
		0.824481	2.04114									0.968422	2.39933						
		0.82645	2.04131									0.97037	2.39861						
		0.828419	2.04147									0.972317	2.3979						
		0.830388	2.04164									0.974264	2.3972						
		0.832356	2.0418									0.976212	2.3965						
		0.834325	2.04196									0.97816	2.3958						
		0.836293	2.04212									0.980108	2.39511						
		0.838261	2.04228									0.982056	2.39441						
		0.840228	2.04244									0.984005	2.39373						
		0.842196	2.04259									0.985953	2.39304						
		0.844163	2.04275									0.987902	2.39236						
		0.84613	2.0429									0.989851	2.39169						
		0.848097	2.04306									0.991801	2.39102						
		0.850063	2.04321									0.99375	2.39035						
		0.85203	2.04336									0.9957	2.38968						
		0.853996	2.04351									0.99765	2.38902						
		0.855962	2.04365									0.9996	2.38836						
		0.857927	2.0438									1.00155	2.3877						
		0.859893	2.04395																
		0.861858	2.04409																
		0.863823	2.04423																
		0.865788	2.04438																
		0.867753	2.04452																
		0.869717	2.04466																
		0.871681	2.0448																
		0.873645	2.04493																
		0.875609	2.04507																
		0.877573	2.04521																
		0.879536	2.04534																
		0.881499	2.04548																
		0.883462	2.04561																
		0.885425	2.04574																
		0.887388	2.04587																
		0.88935	2.046																
		0.891312	2.04613																
		0.893274	2.04625																
		0.895236	2.04638																
		0.897197	2.04651																
		0.899159	2.04663																
		0.90112	2.04675																
		0.903081	2.04688																
		0.905042	2.047																
		0.907002	2.04712																
		0.908963	2.04724																
		0.910923	2.04736																
		0.912883	2.04747																
		0.914842	2.04759																
		0.916802	2.04771																
		0.918761	2.04782																
		0.920721	2.04794																
		0.92268	2.04805																
		0.924638	2.04816																
		0.926597	2.04827																
		0.928555	2.04838																
		0.930514	2.04849																
		0.932472	2.0486																
		0.93443	2.04871																
		0.936387	2.04882																
		0.938345	2.04892																
		0.940302	2.04903																
		0.942259	2.04913																
		0.944216	2.04924																
		0.946173	2.04934																
		0.948129	2.04944																
		0.950086	2.04954																
		0.952042	2.04964																
		0.953998	2.04974																
		0.955954	2.04984																
		0.957909	2.04994																
		0.959865	2.05004																
		0.96182	2.05013																
		0.963775	2.05023																
		0.96573	2.05032																
		0.967685	2.05042																
		0.969639	2.05051																
		0.971594	2.0506																
		0.973548	2.05069																
		0.975502	2.05079																
		0.977456	2.05088																
		0.97941	2.05097																
		0.981363	2.05106																
		0.983316	2.05114																
		0.98527	2.05123																
		0.987223	2.05132																
		0.989175	2.05141																
		0.991128	2.05149																
		0.993081	2.05158																
		0.995033	2.05166																
		0.996985	2.05174																
		0.998937	2.05183																
		1.00089	2.05191																
