Sym0		Asym0		Sym1		Sym2		Sym3		Sym4		Asym1		Asym2		Asym3		Asym4	
420  Points		526  Points		420  Points		400  Points		349  Points		250  Points		453  Points		396  Points		341  Points		214  Points	
Freq (MHz)	Vph (m/ms)	Freq (MHz)	Vph (m/ms)	Freq (MHz)	Vph (m/ms)	Freq (MHz)	Vph (m/ms)	Freq (MHz)	Vph (m/ms)	Freq (MHz)	Vph (m/ms)	Freq (MHz)	Vph (m/ms)	Freq (MHz)	Vph (m/ms)	Freq (MHz)	Vph (m/ms)	Freq (MHz)	Vph (m/ms)
0.279511	440.607	0.000211369	0.0902141	0.27951	520.996	0.441405	2166.21	0.559017	2145.32	0.838526	10647.3	0.139764	286.712	0.419268	502.306	0.698772	1231.75	0.882812	1118.2
0.279524	178.487	0.000412331	0.125915	0.279522	190.386	0.441413	388.752	0.559026	468.875	0.838529	829.857	0.139833	98.5319	0.419284	237.369	0.698779	466.165	0.882819	512.912
0.279547	111.919	0.00067902	0.161427	0.279544	116.482	0.441434	213.546	0.559046	263.209	0.838538	431.759	0.13997	59.54	0.419312	155.412	0.698792	287.487	0.882833	332.782
0.279581	81.5232	0.0010107	0.196708	0.279577	83.9172	0.441465	147.211	0.559078	182.965	0.838554	291.789	0.140175	42.703	0.419353	115.531	0.698811	207.832	0.882852	246.292
0.279625	64.1173	0.00140643	0.231712	0.27962	65.5882	0.441509	112.328	0.55912	140.223	0.838575	220.357	0.140446	33.3265	0.419405	91.9452	0.698836	162.744	0.882878	195.488
0.279681	52.8412	0.00186519	0.266401	0.279674	53.8356	0.441564	90.8149	0.559174	113.675	0.838602	177.024	0.140784	27.3582	0.419469	76.362	0.698867	133.735	0.882909	162.062
0.279747	44.9425	0.0023857	0.300725	0.279739	45.6593	0.441631	76.223	0.559239	95.5843	0.838635	147.936	0.141186	23.2304	0.419544	65.3002	0.698904	113.505	0.882946	138.4
0.279823	39.102	0.00296666	0.334655	0.279815	39.643	0.44171	65.6756	0.559316	82.4653	0.838674	127.06	0.141652	20.2091	0.419632	57.042	0.698947	98.5937	0.882988	120.769
0.279911	34.6084	0.00360657	0.368147	0.279901	35.0312	0.4418	57.6964	0.559403	72.5167	0.838719	111.349	0.142182	17.9047	0.419732	50.6418	0.698997	87.1474	0.883037	107.125
0.280009	31.0444	0.0043039	0.401176	0.279998	31.3837	0.441902	51.4497	0.559502	64.7136	0.83877	99.0984	0.142772	16.0911	0.419843	45.5364	0.699052	78.0841	0.883091	96.2523
0.280117	28.1487	0.00505701	0.433709	0.280105	28.4272	0.442016	46.4268	0.559613	58.4298	0.838827	89.2777	0.143423	14.6284	0.419966	41.3693	0.699114	70.7301	0.883151	87.3849
0.280236	25.7499	0.00586419	0.465722	0.280223	25.9824	0.442142	42.3004	0.559734	53.2612	0.83889	81.2295	0.144132	13.425	0.420101	37.9038	0.699181	64.6436	0.883217	80.015
0.280366	23.7303	0.0067237	0.497194	0.280352	23.9273	0.442279	38.8505	0.559867	48.9355	0.838958	74.5138	0.144898	12.4186	0.420247	34.9768	0.699255	59.523	0.883289	73.7929
0.280507	22.0067	0.00763383	0.52811	0.280492	22.1758	0.442427	35.9236	0.560011	45.2621	0.839033	68.8251	0.145719	11.5654	0.420406	32.472	0.699335	55.1555	0.883366	68.4699
0.280658	20.5188	0.00859266	0.558447	0.280642	20.6655	0.442588	33.4092	0.560166	42.1041	0.839113	63.9447	0.146593	10.8337	0.420576	30.3043	0.699421	51.3863	0.88345	63.8643
0.28082	19.2213	0.00959852	0.588202	0.280802	19.3498	0.44276	31.226	0.560332	39.3602	0.8392	59.7117	0.147397	10.2765	0.420758	28.4102	0.699513	48.1005	0.883539	59.8404
0.280992	18.0801	0.0106496	0.617363	0.280974	18.1935	0.442943	29.3128	0.560509	36.9542	0.839292	56.0055	0.148112	9.85101	0.420952	26.741	0.699611	45.2108	0.883634	56.2945
0.281175	17.0687	0.0117439	0.645917	0.281156	17.1695	0.443138	27.6226	0.560698	34.8273	0.83939	52.7336	0.148724	9.52897	0.421157	25.2591	0.699715	42.6496	0.883734	53.1464
0.281369	16.1661	0.01288	0.67387	0.281348	16.2563	0.443345	26.1186	0.560898	32.9338	0.839494	49.8238	0.14922	9.29138	0.421374	23.9346	0.699825	40.3641	0.883841	50.3326
0.281573	15.3558	0.014056	0.701214	0.281551	15.437	0.443563	24.7718	0.561109	31.2373	0.839604	47.2193	0.149592	9.12548	0.421603	22.744	0.699941	38.312	0.883953	47.8027
0.281788	14.6245	0.0152701	0.727949	0.281765	14.6979	0.443793	23.5588	0.561331	29.7087	0.83972	44.8745	0.149834	9.02298	0.421843	21.6679	0.700063	36.4594	0.884071	45.5158
0.282013	13.9611	0.0165208	0.75408	0.281989	14.0279	0.444034	22.4607	0.561564	28.3244	0.839842	42.7523	0.150185	8.8804	0.422095	20.6907	0.700192	34.7785	0.884195	43.4385
0.282249	13.3567	0.0178065	0.779611	0.282224	13.4177	0.444287	21.462	0.561808	27.0648	0.83997	40.8227	0.150572	8.73149	0.422359	19.7993	0.700326	33.2466	0.884325	41.5434
0.282496	12.8038	0.0191256	0.804546	0.28247	12.8597	0.444551	20.5499	0.562064	25.914	0.840103	39.0605	0.151107	8.53847	0.422635	18.9831	0.700467	31.8448	0.88446	39.8074
0.282753	12.2963	0.0204766	0.828889	0.282725	12.3476	0.444827	19.7136	0.56233	24.8585	0.840243	37.4449	0.151799	8.30885	0.422922	18.233	0.700613	30.5571	0.884601	38.2114
0.283021	11.8286	0.0218581	0.852654	0.282992	11.876	0.445114	18.9441	0.562608	23.8869	0.840388	35.9584	0.152657	8.05081	0.42322	17.5413	0.700766	29.3703	0.884748	36.7392
0.283299	11.3965	0.0232686	0.875844	0.283269	11.4403	0.445412	18.2338	0.562896	22.9898	0.84054	34.5861	0.153692	7.7726	0.42353	16.9015	0.700925	28.2729	0.884901	35.3768
0.283587	10.996	0.0247068	0.898471	0.283557	11.0367	0.445722	17.5761	0.563195	22.1588	0.840697	33.3154	0.154917	7.48203	0.423852	16.308	0.701089	27.2553	0.885059	34.1126
0.283887	10.6238	0.0261715	0.920546	0.283855	10.6616	0.446043	16.9655	0.563506	21.387	0.84086	32.1353	0.15618	7.21823	0.424185	15.756	0.70126	26.309	0.885223	32.9361
0.284196	10.277	0.0276614	0.942078	0.284163	10.3123	0.446375	16.397	0.563827	20.6684	0.841029	31.0367	0.15748	6.97782	0.424529	15.2413	0.701437	25.4269	0.885393	31.8388
0.284516	9.95326	0.0291753	0.963077	0.284441	10.027	0.446719	15.8666	0.56416	19.9976	0.841204	30.0113	0.158814	6.75796	0.424886	14.7604	0.70162	24.6026	0.885569	30.8127
0.284847	9.65029	0.0307121	0.983559	0.284683	9.79651	0.447074	15.3706	0.564503	19.37	0.841385	29.052	0.160182	6.55624	0.425253	14.31	0.701809	23.8306	0.885751	29.8514
0.285188	9.3662	0.0322708	1.00353	0.284888	9.61422	0.44744	14.9057	0.564857	18.7817	0.841571	28.1528	0.161582	6.37059	0.425632	13.8873	0.702004	23.1063	0.885938	28.9487
0.285539	9.09932	0.0338504	1.02301	0.285053	9.47508	0.447817	14.4692	0.565222	18.2291	0.841764	27.3081	0.163012	6.19925	0.426022	13.49	0.702205	22.4252	0.886131	28.0995
0.285901	8.84814	0.0354497	1.04201	0.285176	9.37547	0.448206	14.0585	0.565598	17.7091	0.841962	26.5132	0.164471	6.04071	0.426424	13.1158	0.702411	21.7836	0.886329	27.2993
0.286274	8.61136	0.037068	1.06053	0.285256	9.31288	0.448605	13.6715	0.565984	17.2189	0.842166	25.7637	0.165958	5.89364	0.426837	12.7627	0.702625	21.1783	0.886534	26.5439
0.286656	8.3878	0.0387044	1.0786	0.285371	9.22444	0.449016	13.3062	0.566382	16.7561	0.842376	25.056	0.167471	5.75691	0.427261	12.4292	0.702844	20.6062	0.886744	25.8296
0.287049	8.17639	0.0403578	1.09621	0.285497	9.13032	0.449437	12.9609	0.56679	16.3183	0.842592	24.3866	0.16901	5.62951	0.427696	12.1135	0.703069	20.0647	0.88696	25.1533
0.287453	7.97621	0.0420278	1.1134	0.285671	9.00554	0.44987	12.6339	0.567209	15.9038	0.842814	23.7525	0.170573	5.51056	0.428143	11.8144	0.7033	19.5515	0.887181	24.5119
0.287867	7.78639	0.0437134	1.13016	0.285894	8.85286	0.450314	12.3239	0.567638	15.5106	0.843042	23.151	0.172159	5.39928	0.428601	11.5306	0.703537	19.0643	0.887409	23.9029
0.288291	7.60618	0.0454139	1.1465	0.28617	8.67546	0.450768	12.0296	0.568079	15.1373	0.843275	22.5797	0.173767	5.295	0.42907	11.2609	0.70378	18.6012	0.887641	23.3238
0.288725	7.43488	0.0471287	1.16245	0.2865	8.47683	0.451234	11.7499	0.568529	14.7823	0.843514	22.0364	0.175397	5.19709	0.42955	11.0045	0.704029	18.1606	0.88788	22.7726
0.28917	7.27187	0.048857	1.17801	0.286889	8.26062	0.45171	11.4837	0.568991	14.4444	0.843759	21.519	0.177046	5.10503	0.430041	10.7602	0.704284	17.7408	0.888125	22.2472
0.289625	7.11657	0.0505984	1.19319	0.287288	8.056	0.452197	11.2301	0.569463	14.1224	0.84401	21.0258	0.178715	5.01833	0.430544	10.5274	0.704545	17.3404	0.888375	21.746
0.29009	6.96848	0.0523521	1.20801	0.287698	7.86208	0.452695	10.9882	0.569946	13.8151	0.844267	20.5551	0.180402	4.93655	0.431057	10.3052	0.704812	16.9581	0.88863	21.2672
0.290566	6.8271	0.0541177	1.22247	0.288118	7.67806	0.453204	10.7573	0.570439	13.5217	0.84453	20.1054	0.182106	4.85931	0.431513	10.1196	0.705086	16.5928	0.888892	20.8095
0.291052	6.69203	0.0558946	1.23658	0.288548	7.50324	0.453723	10.5366	0.570942	13.2412	0.844798	19.6754	0.183828	4.78625	0.431909	9.96713	0.705365	16.2432	0.889159	20.3714
0.291548	6.56284	0.0576823	1.25036	0.288989	7.33694	0.454253	10.3255	0.571456	12.9728	0.845072	19.2638	0.185565	4.71706	0.43224	9.84476	0.70565	15.9084	0.889432	19.9517
0.292054	6.43919	0.0594803	1.26381	0.28944	7.17858	0.454723	10.1489	0.571981	12.7158	0.845352	18.8694	0.187318	4.65145	0.432505	9.7503	0.705941	15.5876	0.88971	19.5494
0.292571	6.32074	0.0612882	1.27694	0.289901	7.02763	0.455131	10.0034	0.572515	12.4694	0.845638	18.4912	0.189085	4.58917	0.432702	9.68211	0.706238	15.2798	0.889994	19.1633
0.293097	6.20717	0.0631055	1.28977	0.290372	6.88359	0.455472	9.88657	0.57306	12.233	0.84593	18.1283	0.190867	4.52997	0.432829	9.63901	0.706541	14.9843	0.890284	18.7926
0.293634	6.09822	0.0649319	1.3023	0.290854	6.74601	0.455745	9.79626	0.573616	12.0061	0.846227	17.7797	0.192662	4.47365	0.433011	9.57778	0.70685	14.7004	0.890579	18.4362
0.294181	5.9936	0.0667669	1.31454	0.291346	6.61448	0.455947	9.731	0.574182	11.7881	0.84653	17.4446	0.19447	4.42001	0.433212	9.5122	0.707164	14.4274	0.89088	18.0935
0.294738	5.89309	0.0686102	1.3265	0.291848	6.48863	0.456077	9.68974	0.574758	11.5784	0.846839	17.1222	0.19629	4.36886	0.433486	9.42458	0.707485	14.1647	0.891187	17.7636
0.295305	5.79645	0.0704613	1.33818	0.29236	6.36811	0.456265	9.63109	0.575344	11.3767	0.847154	16.8118	0.198122	4.32006	0.433837	9.31628	0.707812	13.9117	0.891499	17.4458
0.295883	5.70347	0.0723201	1.3496	0.292883	6.2526	0.45647	9.56822	0.57594	11.1825	0.847474	16.5129	0.199966	4.27344	0.434266	9.18893	0.708145	13.668	0.891817	17.1395
0.29647	5.61397	0.0741861	1.36077	0.293415	6.14181	0.456752	9.48416	0.576546	10.9953	0.847801	16.2247	0.20182	4.22886	0.434778	9.04437	0.708483	13.4329	0.89214	16.8441
0.297067	5.52776	0.076059	1.37168	0.293958	6.03547	0.457111	9.38015	0.577163	10.8149	0.848132	15.9467	0.203685	4.18621	0.435375	8.8846	0.708828	13.2062	0.892469	16.5591
0.297675	5.44467	0.0779387	1.38235	0.294511	5.93332	0.457551	9.2577	0.577789	10.6409	0.84847	15.6784	0.20556	4.14536	0.435982	8.73099	0.709179	12.9873	0.892804	16.2838
0.298292	5.36455	0.0798247	1.39279	0.295074	5.83514	0.458075	9.1185	0.578426	10.4729	0.848814	15.4193	0.207444	4.10622	0.436601	8.58323	0.709535	12.7758	0.893144	16.0178
0.29892	5.28724	0.0817168	1.40299	0.295648	5.74071	0.458686	8.9644	0.578988	10.3312	0.849163	15.1689	0.209338	4.06866	0.437229	8.44098	0.709897	12.5715	0.89349	15.7606
0.299557	5.21262	0.0836149	1.41298	0.296231	5.64982	0.459306	8.816	0.579474	10.2138	0.849518	14.9268	0.21124	4.03262	0.437869	8.30397	0.710266	12.3738	0.893841	15.5119
0.300205	5.14054	0.0855185	1.42275	0.296824	5.5623	0.459937	8.67301	0.57988	10.1188	0.849878	14.6926	0.213151	3.99799	0.438519	8.1719	0.71064	12.1826	0.894198	15.2712
0.300863	5.0709	0.0874275	1.4323	0.297428	5.47796	0.460578	8.53515	0.580203	10.0452	0.850245	14.466	0.21507	3.9647	0.439179	8.04454	0.71102	11.9975	0.894561	15.0381
0.30153	5.00358	0.0893417	1.44166	0.298041	5.39666	0.46123	8.40215	0.580443	9.99175	0.850617	14.2465	0.216997	3.93268	0.43985	7.92164	0.711406	11.8182	0.894929	14.8123
0.302207	4.93847	0.0912609	1.45082	0.298665	5.31823	0.461891	8.27377	0.580596	9.95789	0.850994	14.0338	0.218932	3.90186	0.440532	7.80298	0.711797	11.6445	0.895303	14.5934
0.302895	4.87547	0.0931849	1.45978	0.299298	5.24253	0.462562	8.14978	0.580818	9.90967	0.851378	13.8277	0.220874	3.87217	0.441223	7.68835	0.712195	11.4761	0.895682	14.3812
0.303592	4.81449	0.0951134	1.46856	0.299941	5.16944	0.463244	8.02997	0.581061	9.85784	0.851767	13.6278	0.222823	3.84356	0.441926	7.57756	0.712599	11.3127	0.896066	14.1753
0.304299	4.75545	0.0970464	1.47715	0.300595	5.09883	0.463935	7.91413	0.581393	9.78832	0.852162	13.4338	0.224778	3.81596	0.442638	7.47043	0.713008	11.1542	0.896456	13.9755
0.304924	4.7055	0.0989835	1.48557	0.301258	5.03058	0.464636	7.80209	0.581816	9.70196	0.852562	13.2456	0.226741	3.78934	0.44336	7.36679	0.713423	11.0004	0.896852	13.7815
0.305462	4.66399	0.100925	1.49382	0.301932	4.96458	0.465347	7.69366	0.582332	9.59978	0.852968	13.0628	0.228709	3.76363	0.444093	7.26647	0.713844	10.851	0.897253	13.5931
0.305911	4.63039	0.10287	1.5019	0.302615	4.90074	0.466067	7.58868	0.582945	9.48295	0.85338	12.8853	0.230683	3.7388	0.444836	7.16933	0.714271	10.7059	0.89766	13.4099
0.306269	4.60426	0.104819	1.50981	0.303308	4.83896	0.466798	7.48699	0.583657	9.35278	0.853798	12.7127	0.232664	3.7148	0.445589	7.07523	0.714648	10.5827	0.898072	13.2319
0.306533	4.5853	0.106771	1.51757	0.304012	4.77914	0.467538	7.38845	0.584379	9.2266	0.854221	12.545	0.234649	3.69159	0.446352	6.98402	0.714973	10.4801	0.898489	13.0588
0.306703	4.57328	0.108727	1.52518	0.304725	4.7212	0.468287	7.29292	0.58511	9.10422	0.854649	12.3819	0.236641	3.66914	0.447125	6.89559	0.715244	10.3969	0.898912	12.8904
0.306949	4.55614	0.110687	1.53263	0.305448	4.66506	0.469046	7.20027	0.585851	8.98548	0.855084	12.2232	0.238637	3.6474	0.447908	6.80982	0.71546	10.3321	0.899341	12.7265
0.307217	4.5377	0.112649	1.53994	0.306181	4.61065	0.469815	7.11037	0.586601	8.87023	0.855524	12.0687	0.240639	3.62635	0.448701	6.72659	0.715619	10.2849	0.899775	12.567
0.307583	4.51295	0.114362	1.54619	0.306924	4.55788	0.470593	7.02312	0.587361	8.75833	0.855969	11.9184	0.242645	3.60596	0.449504	6.6458	0.715722	10.255	0.900214	12.4116
0.308049	4.48215	0.115824	1.55143	0.307676	4.50671	0.471381	6.9384	0.58813	8.64963	0.85642	11.7719	0.244656	3.58619	0.450316	6.56735	0.71587	10.2124	0.900659	12.2603
0.308618	4.44566	0.117034	1.55572	0.308439	4.45705	0.472178	6.8561	0.588909	8.54401	0.856877	11.6293	0.246671	3.56702	0.451139	6.49115	0.716031	10.1664	0.901109	12.1128
0.309293	4.40388	0.117991	1.55906	0.309211	4.40886	0.472984	6.77614	0.589697	8.44134	0.85734	11.4903	0.248691	3.54842	0.451971	6.4171	0.716252	10.1046	0.901565	11.969
0.310076	4.35723	0.118696	1.56151	0.309994	4.36206	0.473799	6.69841	0.590494	8.3415	0.857807	11.3548	0.250715	3.53037	0.452813	6.34511	0.716533	10.0276	0.902026	11.8288
0.310869	4.31192	0.119147	1.56306	0.310786	4.31662	0.474624	6.62283	0.5913	8.24438	0.858281	11.2226	0.252743	3.51284	0.453664	6.27512	0.716876	9.93617	0.902492	11.6921
0.311673	4.2679	0.119795	1.56529	0.311588	4.27247	0.475458	6.54932	0.592116	8.14988	0.85876	11.0937	0.254775	3.49581	0.454525	6.20704	0.717282	9.83117	0.902964	11.5587
0.312486	4.22513	0.120501	1.56769	0.3124	4.22957	0.4763	6.47779	0.592941	8.0579	0.859245	10.968	0.256811	3.47927	0.455396	6.14079	0.717754	9.71359	0.903441	11.4285
0.313308	4.18355	0.12146	1.57092	0.313221	4.18787	0.477152	6.40818	0.593774	7.96834	0.859671	10.8609	0.258851	3.46319	0.456276	6.07632	0.718231	9.59902	0.903924	11.3014
0.314141	4.14313	0.122675	1.57498	0.314053	4.14732	0.478013	6.3404	0.594617	7.88112	0.860039	10.7713	0.260894	3.44755	0.457165	6.01355	0.718715	9.48734	0.904411	11.1773
0.314984	4.10382	0.124145	1.57981	0.314895	4.10789	0.478883	6.2744	0.595469	7.79613	0.860345	10.6985	0.26294	3.43233	0.458064	5.95243	0.719204	9.37846	0.904905	11.0561
0.315836	4.06557	0.125872	1.5854	0.315746	4.06954	0.479761	6.2101	0.59633	7.71332	0.860588	10.6416	0.26499	3.41752	0.458973	5.89289	0.719698	9.27226	0.905339	10.9527
0.316699	4.02836	0.127855	1.59171	0.316607	4.03222	0.480649	6.14745	0.5972	7.63258	0.860768	10.6002	0.267043	3.40311	0.45989	5.83487	0.720199	9.16865	0.905712	10.8662
0.317571	3.99214	0.129841	1.59789	0.317479	3.9959	0.481545	6.08639	0.598078	7.55386	0.860883	10.5739	0.269099	3.38907	0.460817	5.77832	0.720705	9.06754	0.906023	10.7958
0.318453	3.95689	0.131829	1.60397	0.31836	3.96055	0.482449	6.02685	0.598966	7.47709	0.86105	10.5363	0.271158	3.3754	0.461753	5.7232	0.721217	8.96885	0.90627	10.7409
0.319345	3.92257	0.133819	1.60993	0.319251	3.92613	0.483363	5.96879	0.599862	7.40218	0.861231	10.4958	0.27322	3.36207	0.462698	5.66944	0.721735	8.87249	0.906453	10.7008
0.320247	3.88914	0.135811	1.61578	0.320152	3.89261	0.484285	5.91216	0.600767	7.32909	0.861479	10.4413	0.275285	3.34908	0.463653	5.61701	0.722258	8.77838	0.90657	10.6754
0.321159	3.85658	0.137805	1.62153	0.321063	3.85996	0.485216	5.8569	0.60168	7.25774	0.861795	10.3731	0.277353	3.33642	0.464616	5.56586	0.722788	8.68645	0.906739	10.639
0.322082	3.82486	0.139801	1.62718	0.321984	3.82815	0.486155	5.80297	0.602603	7.18808	0.862179	10.292	0.279423	3.32406	0.465588	5.51595	0.723322	8.59662	0.906923	10.5998
0.323014	3.79395	0.141799	1.63273	0.322915	3.79716	0.487102	5.75033	0.603533	7.12005	0.862634	10.1986	0.281495	3.31201	0.46657	5.46723	0.723863	8.50882	0.907175	10.547
0.323956	3.76383	0.143798	1.63818	0.323857	3.76696	0.488058	5.69893	0.604473	7.0536	0.863161	10.0937	0.28357	3.30025	0.46756	5.41966	0.724409	8.423	0.907495	10.4809
0.324909	3.73447	0.145799	1.64353	0.324808	3.73752	0.489022	5.64874	0.60542	6.98868	0.863694	9.99103	0.285648	3.28876	0.46856	5.37322	0.724961	8.33908	0.907885	10.4023
0.325871	3.70585	0.147802	1.64879	0.325769	3.70882	0.489994	5.59971	0.606377	6.92524	0.864232	9.89066	0.287727	3.27755	0.469568	5.32785	0.725519	8.257	0.908346	10.3116
0.326844	3.67794	0.149806	1.65396	0.326741	3.68084	0.490975	5.5518	0.607341	6.86322	0.864775	9.79246	0.289809	3.2666	0.470584	5.28354	0.726082	8.17671	0.90888	10.2097
0.327827	3.65073	0.151812	1.65904	0.327723	3.65356	0.491964	5.50499	0.608314	6.8026	0.865324	9.69638	0.291893	3.2559	0.47161	5.24023	0.726651	8.09815	0.909419	10.11
0.32882	3.62419	0.15382	1.66403	0.328715	3.62695	0.492961	5.45922	0.609295	6.74331	0.865878	9.60234	0.293979	3.24544	0.472644	5.19792	0.727226	8.02127	0.909963	10.0123
0.329824	3.5983	0.155828	1.66894	0.329718	3.60099	0.493966	5.41449	0.610285	6.68533	0.866438	9.51029	0.296068	3.23521	0.473687	5.15655	0.727806	7.94601	0.910513	9.9167
0.330838	3.57304	0.157838	1.67377	0.330731	3.57567	0.494978	5.37074	0.611282	6.6286	0.867004	9.42016	0.298158	3.22522	0.474739	5.11611	0.728392	7.87233	0.911068	9.82307
0.331862	3.5484	0.15985	1.67851	0.331754	3.55096	0.495999	5.32795	0.612288	6.5731	0.867574	9.33189	0.30025	3.21544	0.475799	5.07656	0.728983	7.80017	0.911628	9.73135
0.332897	3.52436	0.161862	1.68318	0.332788	3.52686	0.497028	5.2861	0.613302	6.51878	0.86815	9.24543	0.302343	3.20587	0.476867	5.03788	0.72958	7.7295	0.912193	9.64149
0.333943	3.5009	0.163876	1.68777	0.333832	3.50334	0.498065	5.24515	0.614324	6.46562	0.868732	9.16073	0.304439	3.19651	0.477944	5.00004	0.730183	7.66028	0.912764	9.55344
0.334999	3.478	0.165891	1.69228	0.334888	3.48038	0.499109	5.20508	0.615354	6.41356	0.869318	9.07773	0.306536	3.18735	0.47903	4.96302	0.730791	7.59245	0.913339	9.46715
0.336066	3.45565	0.167907	1.69672	0.335954	3.45798	0.500161	5.16586	0.616391	6.3626	0.869911	8.99639	0.308635	3.17838	0.480124	4.9268	0.731405	7.52598	0.91392	9.38256
0.337144	3.43384	0.169924	1.70109	0.337031	3.43611	0.501221	5.12746	0.617437	6.31268	0.870508	8.91665	0.310735	3.1696	0.481226	4.89134	0.732024	7.46082	0.914506	9.29962
0.338233	3.41255	0.171942	1.70539	0.338119	3.41476	0.502288	5.08986	0.618491	6.26378	0.871111	8.83848	0.312837	3.161	0.482336	4.85664	0.732649	7.39695	0.915097	9.21829
0.339334	3.39177	0.173961	1.70961	0.339218	3.39393	0.503363	5.05305	0.619552	6.21588	0.871719	8.76182	0.31494	3.15257	0.483455	4.82266	0.73328	7.33433	0.915693	9.13853
0.340445	3.37148	0.175981	1.71377	0.340328	3.37359	0.504445	5.01699	0.620621	6.16894	0.872333	8.68664	0.317045	3.14432	0.484582	4.78939	0.733916	7.27291	0.916294	9.06029
0.341568	3.35167	0.178002	1.71787	0.341449	3.35373	0.505535	4.98167	0.621698	6.12294	0.872952	8.6129	0.319151	3.13622	0.485717	4.7568	0.734557	7.21268	0.916901	8.98352
0.342702	3.33234	0.180024	1.7219	0.342582	3.33435	0.506632	4.94706	0.622782	6.07785	0.873576	8.54055	0.321258	3.12829	0.48686	4.72488	0.735205	7.15359	0.917512	8.90819
0.343848	3.31346	0.182047	1.72586	0.343727	3.31542	0.507737	4.91315	0.623875	6.03365	0.874205	8.46955	0.323367	3.12051	0.488011	4.69362	0.735857	7.09561	0.918129	8.83427
0.345005	3.29503	0.18407	1.72977	0.344883	3.29695	0.508848	4.87991	0.624974	5.99031	0.87484	8.39988	0.325476	3.11288	0.48917	4.66298	0.736515	7.03872	0.91875	8.7617
0.346175	3.27704	0.186094	1.73361	0.346051	3.27891	0.509967	4.84733	0.626081	5.9478	0.87548	8.3315	0.327587	3.1054	0.490337	4.63296	0.737179	6.98289	0.919377	8.69046
0.347356	3.25948	0.18812	1.7374	0.347232	3.2613	0.511094	4.81539	0.627196	5.90612	0.876126	8.26436	0.329699	3.09806	0.491512	4.60353	0.737848	6.92809	0.920009	8.62051
0.34855	3.24233	0.190145	1.74112	0.348424	3.24411	0.512227	4.78408	0.628318	5.86522	0.876776	8.19845	0.331812	3.09086	0.492695	4.57469	0.738523	6.87428	0.920646	8.55182
0.349756	3.2256	0.192171	1.74479	0.349629	3.22734	0.513368	4.75337	0.629447	5.8251	0.877432	8.13372	0.333926	3.08379	0.493886	4.54642	0.739203	6.82145	0.921287	8.48435
0.350975	3.20926	0.194199	1.74841	0.350847	3.21096	0.514515	4.72324	0.630584	5.78574	0.878093	8.07015	0.336042	3.07685	0.495084	4.51869	0.739888	6.76958	0.921934	8.41808
0.352207	3.19332	0.196226	1.75196	0.352077	3.19498	0.51567	4.6937	0.631728	5.7471	0.87876	8.0077	0.338158	3.07003	0.49629	4.49151	0.740579	6.71863	0.922586	8.35297
0.353452	3.17777	0.198254	1.75547	0.353321	3.17938	0.516831	4.66471	0.632879	5.70919	0.879431	7.94636	0.340275	3.06334	0.497504	4.46485	0.741276	6.66858	0.923243	8.289
0.35471	3.16259	0.200283	1.75892	0.354578	3.16417	0.517999	4.63627	0.634037	5.67196	0.880108	7.88608	0.342392	3.05676	0.498726	4.4387	0.741978	6.61941	0.923904	8.22613
0.355982	3.14778	0.202313	1.76233	0.355848	3.14932	0.519175	4.60836	0.635203	5.63542	0.88079	7.82685	0.344511	3.05031	0.499955	4.41304	0.742685	6.5711	0.924571	8.16434
0.357268	3.13334	0.204342	1.76568	0.357132	3.13484	0.520357	4.58096	0.636375	5.59954	0.881477	7.76864	0.34663	3.04396	0.501191	4.38787	0.743398	6.52363	0.925243	8.1036
0.358568	3.11925	0.206373	1.76898	0.358431	3.12071	0.521545	4.55408	0.637555	5.5643	0.882169	7.71142	0.34875	3.03772	0.502436	4.36317	0.744116	6.47698	0.925919	8.04388
0.359882	3.10551	0.208404	1.77224	0.359743	3.10694	0.522741	4.52768	0.638742	5.52969	0.882867	7.65517	0.350871	3.0316	0.503687	4.33894	0.744839	6.43112	0.926601	7.98517
0.361211	3.09212	0.210435	1.77544	0.361071	3.09351	0.523942	4.50176	0.639935	5.4957	0.883569	7.59987	0.352993	3.02557	0.504946	4.31515	0.745568	6.38604	0.927287	7.92744
0.362555	3.07906	0.212467	1.7786	0.362413	3.08042	0.525151	4.47631	0.641135	5.4623	0.884277	7.54549	0.355115	3.01964	0.506213	4.2918	0.746302	6.34172	0.927978	7.87066
0.363914	3.06634	0.214499	1.78172	0.36377	3.06766	0.526366	4.45132	0.642343	5.42949	0.88499	7.49201	0.357238	3.01382	0.507487	4.26888	0.747042	6.29814	0.928674	7.81481
0.365288	3.05395	0.216531	1.78479	0.365143	3.05524	0.527588	4.42677	0.643557	5.39724	0.885708	7.43941	0.359361	3.00809	0.508768	4.24638	0.747787	6.25529	0.929376	7.75987
0.366679	3.04188	0.218564	1.78782	0.366532	3.04313	0.528816	4.40265	0.644777	5.36556	0.886431	7.38767	0.361485	3.00245	0.510057	4.22429	0.748537	6.21314	0.930081	7.70582
0.368086	3.03013	0.220597	1.7908	0.367937	3.03135	0.53005	4.37897	0.646005	5.33441	0.88716	7.33677	0.363609	2.9969	0.511352	4.20259	0.749293	6.17168	0.930792	7.65263
0.369509	3.0187	0.222631	1.79374	0.369359	3.01988	0.531291	4.35569	0.647239	5.3038	0.887893	7.28669	0.365734	2.99144	0.512655	4.18128	0.750054	6.1309	0.931508	7.6003
0.37095	3.00757	0.224665	1.79664	0.370798	3.00873	0.532538	4.33282	0.64848	5.2737	0.888631	7.23742	0.367859	2.98607	0.513965	4.16035	0.75082	6.09078	0.932228	7.54879
0.372408	2.99675	0.226699	1.7995	0.372254	2.99788	0.533791	4.31034	0.649727	5.24411	0.889375	7.18892	0.369984	2.98078	0.515282	4.13979	0.751591	6.0513	0.932953	7.49809
0.373883	2.98624	0.228734	1.80232	0.373727	2.98733	0.535051	4.28825	0.650981	5.21501	0.890124	7.14119	0.37211	2.97557	0.516607	4.11959	0.752368	6.01246	0.933683	7.44819
0.375377	2.97602	0.230768	1.8051	0.375219	2.97708	0.536316	4.26653	0.652241	5.1864	0.890877	7.09421	0.374237	2.97044	0.517938	4.09975	0.75315	5.97422	0.934418	7.39906
0.376888	2.9661	0.232803	1.80785	0.376729	2.96713	0.537588	4.24518	0.653508	5.15826	0.891636	7.04796	0.376363	2.96539	0.519276	4.08025	0.753938	5.9366	0.935158	7.35068
0.378419	2.95647	0.234839	1.81055	0.378257	2.95747	0.538866	4.2242	0.654781	5.13058	0.892399	7.00243	0.37849	2.96042	0.520621	4.06109	0.75473	5.89956	0.935902	7.30305
0.379969	2.94712	0.236874	1.81322	0.379805	2.94809	0.540149	4.20356	0.65606	5.10335	0.893168	6.95759	0.380617	2.95552	0.521974	4.04226	0.755528	5.86309	0.936651	7.25614
0.381538	2.93806	0.23891	1.81585	0.381372	2.939	0.541439	4.18326	0.657346	5.07656	0.893942	6.91344	0.382745	2.95069	0.523333	4.02375	0.756331	5.82719	0.937405	7.20994
0.383127	2.92928	0.240946	1.81845	0.382959	2.93019	0.542735	4.1633	0.658638	5.0502	0.89472	6.86996	0.384872	2.94593	0.524699	4.00556	0.757139	5.79185	0.938164	7.16444
0.384735	2.92077	0.242982	1.82101	0.384565	2.92165	0.544036	4.14367	0.659936	5.02426	0.895504	6.82714	0.387	2.94124	0.526071	3.98768	0.757953	5.75704	0.938927	7.11961
0.386364	2.91254	0.245018	1.82354	0.386192	2.91339	0.545344	4.12436	0.661241	4.99873	0.896293	6.78496	0.389127	2.93662	0.527451	3.9701	0.758772	5.72276	0.939695	7.07545
0.388014	2.90457	0.247055	1.82603	0.387839	2.9054	0.546657	4.10537	0.662551	4.97361	0.897086	6.74341	0.391255	2.93206	0.528837	3.95281	0.759596	5.68899	0.940467	7.03193
0.389684	2.89687	0.249091	1.82849	0.389507	2.89767	0.547976	4.08668	0.663868	4.94888	0.897885	6.70247	0.393383	2.92757	0.53023	3.93581	0.760425	5.65574	0.941245	6.98906
0.391375	2.88943	0.251128	1.83092	0.391196	2.8902	0.5493	4.06829	0.66519	4.92453	0.898688	6.66213	0.395511	2.92314	0.531629	3.9191	0.761259	5.62298	0.942027	6.9468
0.393087	2.88224	0.253164	1.83332	0.392906	2.88299	0.550631	4.05019	0.666519	4.90057	0.899497	6.62238	0.397639	2.91877	0.533036	3.90266	0.762098	5.5907	0.942813	6.90516
0.39482	2.87531	0.255201	1.83568	0.394637	2.87603	0.551967	4.03238	0.667853	4.87697	0.90031	6.58321	0.399767	2.91445	0.534448	3.88649	0.762943	5.55891	0.943604	6.86412
0.396575	2.86862	0.257238	1.83802	0.396389	2.86931	0.553308	4.01486	0.669194	4.85373	0.901128	6.54461	0.401895	2.9102	0.535868	3.87059	0.763792	5.52757	0.9444	6.82366
0.398351	2.86218	0.259276	1.84032	0.398163	2.86284	0.554655	3.9976	0.67054	4.83085	0.901951	6.50656	0.404023	2.906	0.537294	3.85495	0.764647	5.4967	0.945201	6.78378
0.400147	2.85597	0.261313	1.8426	0.399958	2.85661	0.556007	3.98062	0.671892	4.80832	0.902779	6.46905	0.406151	2.90186	0.538726	3.83956	0.765507	5.46627	0.946006	6.74445
0.401965	2.84999	0.26335	1.84484	0.401773	2.85061	0.557365	3.9639	0.67325	4.78612	0.903612	6.43208	0.408279	2.89777	0.540165	3.82442	0.766372	5.43628	0.946815	6.70568
0.403804	2.84424	0.265387	1.84706	0.40361	2.84484	0.558729	3.94744	0.674613	4.76426	0.904449	6.39562	0.410406	2.89374	0.54161	3.80952	0.767242	5.40672	0.94763	6.66745
0.405664	2.83872	0.267425	1.84925	0.405468	2.83929	0.560097	3.93123	0.675983	4.74273	0.905292	6.35968	0.412533	2.88975	0.543061	3.79486	0.768117	5.37758	0.948448	6.62975
0.407545	2.8334	0.269462	1.85141	0.407346	2.83395	0.561471	3.91527	0.677358	4.72151	0.906139	6.32424	0.414661	2.88582	0.544519	3.78043	0.768998	5.34885	0.949271	6.59257
0.409446	2.8283	0.271499	1.85354	0.409245	2.82883	0.56285	3.89956	0.678738	4.7006	0.906991	6.28929	0.416788	2.88194	0.545984	3.76624	0.769883	5.32053	0.950099	6.5559
0.411367	2.8234	0.273537	1.85565	0.411164	2.8239	0.564235	3.88408	0.680124	4.68001	0.907848	6.25482	0.418914	2.8781	0.547454	3.75227	0.770773	5.2926	0.950932	6.51973
0.413308	2.81869	0.275574	1.85773	0.413103	2.81918	0.565624	3.86883	0.681516	4.65971	0.90871	6.22083	0.421041	2.87431	0.548931	3.73852	0.771669	5.26507	0.951768	6.48405
0.415268	2.81418	0.277612	1.85978	0.415061	2.81465	0.567019	3.85381	0.682913	4.6397	0.909576	6.1873	0.423167	2.87057	0.550414	3.72498	0.772569	5.23791	0.95261	6.44885
0.417248	2.80985	0.279649	1.86181	0.417039	2.8103	0.568419	3.83902	0.684315	4.61999	0.910448	6.15422	0.425293	2.86687	0.551903	3.71165	0.773475	5.21113	0.953455	6.41412
0.419246	2.80571	0.281686	1.86381	0.419035	2.80613	0.569824	3.82444	0.685723	4.60055	0.911324	6.12159	0.427419	2.86322	0.553399	3.69854	0.774385	5.18472	0.954306	6.37985
0.421262	2.80173	0.283724	1.86579	0.421049	2.80214	0.571234	3.81008	0.687136	4.5814	0.912204	6.0894	0.429544	2.8596	0.5549	3.68562	0.7753	5.15867	0.95516	6.34604
0.423295	2.79792	0.285761	1.86774	0.423081	2.79831	0.572649	3.79593	0.688555	4.56251	0.91309	6.05763	0.431669	2.85604	0.556408	3.67291	0.776221	5.13298	0.956019	6.31267
0.425346	2.79426	0.287799	1.86967	0.42513	2.79464	0.574069	3.78198	0.689979	4.5439	0.91398	6.02629	0.433793	2.85251	0.557921	3.66039	0.777146	5.10763	0.956883	6.27974
0.427413	2.79076	0.289836	1.87158	0.427195	2.79112	0.575494	3.76824	0.691408	4.52554	0.914875	5.99536	0.435917	2.84902	0.559441	3.64806	0.778076	5.08262	0.957751	6.24723
0.429497	2.78741	0.291873	1.87347	0.429277	2.78776	0.576924	3.7547	0.692842	4.50744	0.915775	5.96484	0.438041	2.84557	0.560967	3.63592	0.779012	5.05794	0.958623	6.21515
0.431596	2.7842	0.29391	1.87533	0.431375	2.78453	0.578358	3.74135	0.694281	4.48959	0.916679	5.93471	0.440164	2.84216	0.562498	3.62396	0.779952	5.0336	0.9595	6.18348
0.43371	2.78112	0.295947	1.87717	0.433487	2.78144	0.579798	3.72819	0.695726	4.47199	0.917588	5.90498	0.442286	2.83879	0.564036	3.61218	0.780897	5.00958	0.960381	6.15222
0.435839	2.77817	0.297984	1.87898	0.435614	2.77848	0.581242	3.71522	0.697175	4.45463	0.918502	5.87563	0.444408	2.83545	0.56558	3.60058	0.781847	4.98587	0.961266	6.12136
0.437981	2.77535	0.300021	1.88078	0.437756	2.77564	0.582691	3.70243	0.69863	4.43751	0.91942	5.84666	0.44653	2.83215	0.567129	3.58916	0.782802	4.96247	0.962156	6.09089
0.440137	2.77264	0.302058	1.88255	0.43991	2.77292	0.584145	3.68982	0.70009	4.42062	0.920343	5.81806	0.448651	2.82889	0.568684	3.5779	0.783762	4.93939	0.96305	6.0608
0.442306	2.77004	0.304095	1.8843	0.442078	2.77031	0.585603	3.67739	0.701554	4.40396	0.921271	5.78982	0.450771	2.82566	0.570245	3.56682	0.784726	4.9166	0.963948	6.03109
0.444487	2.76756	0.306132	1.88604	0.444258	2.76781	0.587066	3.66513	0.703024	4.38752	0.922203	5.76194	0.452891	2.82247	0.571812	3.5559	0.785696	4.8941	0.964851	6.00175
0.44668	2.76517	0.308169	1.88775	0.44645	2.76542	0.588533	3.65305	0.704498	4.3713	0.92314	5.73441	0.455011	2.8193	0.573385	3.54514	0.78667	4.8719	0.965758	5.97278
0.448885	2.76288	0.310205	1.88944	0.448653	2.76312	0.590005	3.64113	0.705977	4.3553	0.924081	5.70723	0.457129	2.81617	0.574963	3.53453	0.787649	4.84998	0.966669	5.94416
0.4511	2.76069	0.312241	1.89111	0.450867	2.76091	0.591482	3.62937	0.707462	4.33952	0.925027	5.68038	0.459247	2.81307	0.576547	3.52409	0.788633	4.82834	0.967585	5.9159
0.453326	2.75858	0.314278	1.89276	0.453092	2.7588	0.592963	3.61778	0.70895	4.32394	0.925978	5.65387	0.461365	2.81001	0.578137	3.51379	0.789622	4.80697	0.968504	5.88798
0.455562	2.75656	0.316314	1.8944	0.455327	2.75676	0.594449	3.60634	0.710444	4.30857	0.926933	5.62769	0.463481	2.80697	0.579732	3.50365	0.790616	4.78587	0.969428	5.86041
0.457807	2.75461	0.31835	1.89601	0.457571	2.75481	0.595939	3.59506	0.711942	4.29339	0.927893	5.60183	0.465597	2.80396	0.581333	3.49365	0.791614	4.76504	0.970357	5.83316
0.460061	2.75274	0.320386	1.89761	0.459824	2.75294	0.597433	3.58393	0.713445	4.27842	0.928857	5.57629	0.467712	2.80098	0.58294	3.4838	0.792618	4.74448	0.971289	5.80625
0.462325	2.75095	0.322422	1.89918	0.462086	2.75114	0.598932	3.57295	0.714953	4.26364	0.929825	5.55105	0.469827	2.79804	0.584552	3.47409	0.793626	4.72416	0.972226	5.77966
0.464596	2.74922	0.324457	1.90074	0.464357	2.7494	0.600435	3.56212	0.716465	4.24905	0.930799	5.52613	0.47194	2.79511	0.58617	3.46452	0.794638	4.7041	0.973166	5.75338
0.466875	2.74756	0.326493	1.90229	0.466635	2.74774	0.601942	3.55143	0.717982	4.23464	0.931776	5.5015	0.474053	2.79222	0.587793	3.45509	0.795656	4.68429	0.974111	5.72742
0.469162	2.74597	0.328528	1.90381	0.468922	2.74613	0.603454	3.54089	0.719503	4.22042	0.932759	5.47717	0.476165	2.78935	0.589421	3.44579	0.796678	4.66472	0.975061	5.70177
0.471456	2.74443	0.330564	1.90532	0.471215	2.74459	0.604969	3.53048	0.721029	4.20638	0.933745	5.45313	0.478277	2.78651	0.591056	3.43663	0.797705	4.64539	0.976014	5.67642
0.473757	2.74295	0.332599	1.90681	0.473515	2.7431	0.606489	3.52021	0.722559	4.19252	0.934736	5.42937	0.480387	2.7837	0.592695	3.42759	0.798737	4.6263	0.976971	5.65136
0.476065	2.74152	0.334634	1.90828	0.475822	2.74166	0.608014	3.51008	0.724094	4.17884	0.935732	5.4059	0.482497	2.78091	0.59434	3.41869	0.799773	4.60744	0.977933	5.6266
0.478379	2.74014	0.336668	1.90974	0.478135	2.74028	0.609542	3.50007	0.725633	4.16532	0.936732	5.38271	0.484605	2.77814	0.595991	3.40991	0.800814	4.58881	0.978898	5.60212
0.480698	2.73881	0.338703	1.91118	0.480454	2.73895	0.611074	3.4902	0.727176	4.15198	0.937737	5.35978	0.486713	2.7754	0.597646	3.40125	0.80186	4.5704	0.979868	5.57793
0.483024	2.73753	0.340738	1.9126	0.482779	2.73766	0.612611	3.48045	0.728724	4.1388	0.938746	5.33713	0.48882	2.77269	0.599307	3.39271	0.802911	4.55221	0.980842	5.55402
0.485355	2.73629	0.342772	1.91401	0.48511	2.73642	0.614151	3.47083	0.730276	4.12578	0.939759	5.31474	0.490926	2.76999	0.600974	3.38429	0.803966	4.53424	0.981819	5.53038
0.487691	2.7351	0.344806	1.91541	0.487445	2.73522	0.615696	3.46134	0.731832	4.11292	0.940776	5.29261	0.493031	2.76732	0.602645	3.376	0.805025	4.51649	0.982801	5.50701
0.490032	2.73394	0.34684	1.91678	0.489786	2.73406	0.617244	3.45196	0.733392	4.10022	0.941799	5.27073	0.495135	2.76468	0.604322	3.36781	0.80609	4.49894	0.983787	5.4839
0.492378	2.73282	0.348874	1.91815	0.492131	2.73294	0.618797	3.44271	0.734957	4.08768	0.942825	5.2491	0.497239	2.76205	0.606004	3.35974	0.807159	4.4816	0.984777	5.46106
0.494728	2.73174	0.350907	1.91949	0.494481	2.73185	0.620353	3.43357	0.736525	4.07528	0.943856	5.22773	0.499341	2.75945	0.607692	3.35178	0.808232	4.46447	0.985771	5.43847
0.497083	2.73069	0.352941	1.92083	0.496835	2.7308	0.621914	3.42454	0.738098	4.06304	0.944891	5.20659	0.501442	2.75686	0.609384	3.34393	0.809311	4.44754	0.986769	5.41614
0.499442	2.72968	0.354974	1.92215	0.499194	2.72979	0.623478	3.41563	0.739675	4.05094	0.945931	5.1857	0.503542	2.7543	0.611082	3.33619	0.810393	4.4308	0.987771	5.39405
0.501804	2.7287	0.357007	1.92345	0.501556	2.7288	0.625046	3.40683	0.741256	4.03899	0.946974	5.16504	0.505641	2.75176	0.612784	3.32856	0.811481	4.41426	0.988777	5.37221
0.504171	2.72775	0.35904	1.92474	0.503922	2.72785	0.626618	3.39815	0.742841	4.02719	0.948022	5.14461	0.507739	2.74924	0.614492	3.32103	0.812573	4.39791	0.989786	5.35061
0.506541	2.72682	0.361072	1.92602	0.506292	2.72692	0.628193	3.38956	0.74443	4.01552	0.949075	5.12441	0.509836	2.74674	0.616205	3.3136	0.813669	4.38175	0.9908	5.32925
0.508914	2.72593	0.363105	1.92728	0.508665	2.72602	0.629773	3.38109	0.746023	4.00399	0.950132	5.10444	0.511932	2.74426	0.617923	3.30627	0.81477	4.36577	0.991818	5.30813
0.511291	2.72506	0.365137	1.92853	0.511041	2.72515	0.631356	3.37272	0.74762	3.99259	0.951193	5.08469	0.514027	2.74179	0.619646	3.29905	0.815876	4.34998	0.99284	5.28723
0.513671	2.72422	0.367169	1.92977	0.513421	2.7243	0.632943	3.36445	0.749221	3.98133	0.952258	5.06516	0.516121	2.73935	0.621374	3.29192	0.816986	4.33437	0.993865	5.26656
0.516054	2.7234	0.369201	1.93099	0.515803	2.72348	0.634533	3.35628	0.750825	3.9702	0.953327	5.04584	0.518214	2.73692	0.623107	3.28488	0.8181	4.31893	0.994894	5.24611
0.518439	2.7226	0.371232	1.9322	0.518188	2.72268	0.636127	3.34821	0.752434	3.9592	0.954401	5.02673	0.520306	2.73451	0.624845	3.27794	0.819219	4.30367	0.995928	5.22589
0.520827	2.72182	0.373264	1.9334	0.520576	2.7219	0.637725	3.34024	0.754046	3.94833	0.955479	5.00784	0.522396	2.73212	0.626587	3.2711	0.820343	4.28858	0.996965	5.20588
0.523218	2.72107	0.375295	1.93458	0.522967	2.72115	0.639326	3.33237	0.755662	3.93758	0.956561	4.98915	0.524485	2.72974	0.628335	3.26434	0.821471	4.27367	0.998006	5.18609
0.525612	2.72034	0.377326	1.93575	0.52536	2.72041	0.640931	3.32459	0.757282	3.92695	0.957648	4.97066	0.526574	2.72739	0.630088	3.25768	0.822603	4.25891	0.999051	5.1665
0.528007	2.71962	0.379356	1.93691	0.527755	2.71969	0.64254	3.3169	0.758905	3.91645	0.958738	4.95237	0.528661	2.72505	0.631845	3.25111	0.82374	4.24433	1.0001	5.14712
0.530405	2.71892	0.381387	1.93806	0.530153	2.719	0.644152	3.30931	0.760532	3.90607	0.959833	4.93428	0.530746	2.72272	0.633607	3.24462	0.824882	4.2299		
0.532805	2.71824	0.383417	1.9392	0.532553	2.71831	0.645768	3.30181	0.762163	3.8958	0.960932	4.91638	0.532831	2.72041	0.635374	3.23822	0.826028	4.21564		
0.535207	2.71758	0.385447	1.94032	0.534955	2.71765	0.647387	3.29439	0.763797	3.88565	0.962035	4.89867	0.534915	2.71812	0.637146	3.2319	0.827178	4.20153		
0.537611	2.71694	0.387477	1.94144	0.537359	2.717	0.64901	3.28706	0.765435	3.87561	0.963143	4.88115	0.536997	2.71585	0.638922	3.22567	0.828332	4.18758		
0.540017	2.7163	0.389507	1.94254	0.539765	2.71637	0.650636	3.27982	0.767076	3.86569	0.964254	4.86382	0.539078	2.71358	0.640703	3.21951	0.829491	4.17378		
0.542425	2.71569	0.391536	1.94363	0.542172	2.71575	0.652265	3.27267	0.768721	3.85587	0.96537	4.84667	0.541158	2.71134	0.642489	3.21344	0.830655	4.16013		
0.544835	2.71509	0.393565	1.94471	0.544581	2.71515	0.653898	3.26559	0.77037	3.84617	0.966489	4.8297	0.543236	2.70911	0.64428	3.20745	0.831823	4.14663		
0.547246	2.7145	0.395594	1.94577	0.546992	2.71456	0.655534	3.2586	0.772022	3.83657	0.967613	4.81291	0.545314	2.70689	0.646075	3.20154	0.832995	4.13327		
0.549658	2.71392	0.397623	1.94683	0.549405	2.71398	0.657174	3.25169	0.773677	3.82708	0.968741	4.79629	0.54739	2.70468	0.647875	3.1957	0.834171	4.12006		
0.552072	2.71336	0.399652	1.94788	0.551819	2.71342	0.658817	3.24486	0.775336	3.81769	0.969873	4.77985	0.549465	2.7025	0.649679	3.18994	0.835352	4.107		
0.554488	2.71281	0.40168	1.94891	0.554234	2.71287	0.660463	3.23811	0.776998	3.8084	0.971009	4.76357	0.551538	2.70032	0.651488	3.18426	0.836537	4.09407		
0.556905	2.71227	0.403708	1.94994	0.556651	2.71233	0.662113	3.23144	0.778664	3.79921	0.972149	4.74747	0.553611	2.69816	0.653301	3.17865	0.837727	4.08128		
0.559323	2.71174	0.405736	1.95095	0.559069	2.7118	0.663765	3.22484	0.780333	3.79013	0.973293	4.73153	0.555682	2.69601	0.655119	3.17311	0.838921	4.06863		
0.561742	2.71123	0.407763	1.95196	0.561488	2.71128	0.665422	3.21832	0.782005	3.78114	0.974441	4.71575	0.557751	2.69388	0.656941	3.16764	0.840119	4.05611		
0.564163	2.71072	0.40979	1.95295	0.563908	2.71077	0.667081	3.21187	0.783681	3.77225	0.975593	4.70013	0.55982	2.69175	0.658768	3.16224	0.841321	4.04373		
0.566584	2.71022	0.411817	1.95393	0.56633	2.71027	0.668744	3.2055	0.785359	3.76345	0.97675	4.68468	0.561887	2.68964	0.660599	3.15691	0.842528	4.03147		
0.569007	2.70973	0.413844	1.95491	0.568752	2.70978	0.670409	3.19919	0.787041	3.75474	0.97791	4.66937	0.563953	2.68755	0.662435	3.15165	0.843739	4.01935		
0.57143	2.70925	0.415871	1.95587	0.571176	2.7093	0.672078	3.19296	0.788726	3.74613	0.979074	4.65423	0.566017	2.68546	0.664275	3.14646	0.844954	4.00735		
0.573855	2.70878	0.417897	1.95683	0.5736	2.70883	0.673751	3.1868	0.790415	3.73761	0.980242	4.63923	0.568081	2.68339	0.666119	3.14133	0.846173	3.99548		
0.57628	2.70832	0.419923	1.95778	0.576025	2.70837	0.675426	3.18071	0.792106	3.72918	0.981415	4.62439	0.570143	2.68133	0.667968	3.13627	0.847397	3.98373		
0.578707	2.70787	0.421949	1.95871	0.578452	2.70791	0.677104	3.17468	0.793801	3.72084	0.982591	4.6097	0.572203	2.67928	0.669821	3.13127	0.848625	3.97211		
0.581134	2.70742	0.423974	1.95964	0.580879	2.70747	0.678786	3.16873	0.795498	3.71258	0.983771	4.59515	0.574263	2.67724	0.671678	3.12634	0.849857	3.9606		
0.583561	2.70698	0.426	1.96056	0.583306	2.70703	0.680471	3.16283	0.797199	3.70441	0.984955	4.58074	0.576321	2.67522	0.673539	3.12146	0.851093	3.94922		
0.58599	2.70655	0.428025	1.96147	0.585735	2.70659	0.682158	3.15701	0.798903	3.69632	0.986143	4.56648	0.578377	2.6732	0.675405	3.11665	0.852333	3.93795		
0.588419	2.70612	0.43005	1.96237	0.588164	2.70617	0.683849	3.15124	0.800609	3.68832	0.987335	4.55236	0.580433	2.6712	0.677275	3.1119	0.853578	3.92679		
0.590849	2.7057	0.432074	1.96326	0.590593	2.70575	0.685543	3.14555	0.802319	3.6804	0.98853	4.53838	0.582487	2.66921	0.679149	3.10721	0.854827	3.91576		
0.593279	2.70529	0.434099	1.96414	0.593024	2.70533	0.68724	3.13991	0.804032	3.67256	0.98973	4.52453	0.58454	2.66723	0.681027	3.10258	0.85608	3.90483		
0.59571	2.70488	0.436123	1.96502	0.595454	2.70493	0.68894	3.13433	0.805747	3.6648	0.990934	4.51082	0.586591	2.66526	0.682909	3.098	0.857337	3.89402		
0.598141	2.70448	0.438146	1.96588	0.597886	2.70452	0.690643	3.12882	0.807466	3.65712	0.992141	4.49724	0.588641	2.6633	0.684795	3.09348	0.858598	3.88331		
0.600573	2.70409	0.44017	1.96674	0.600317	2.70413	0.692349	3.12336	0.809187	3.64952	0.993353	4.4838	0.59069	2.66135	0.686685	3.08902	0.859864	3.87272		
0.603005	2.7037	0.442193	1.96759	0.60275	2.70374	0.694058	3.11797	0.810912	3.64199	0.994568	4.47048	0.592737	2.65941	0.688579	3.08461	0.861133	3.86223		
0.605438	2.70331	0.444216	1.96843	0.605182	2.70335	0.69577	3.11263	0.812639	3.63454	0.995787	4.4573	0.594783	2.65748	0.690478	3.08026	0.862407	3.85184		
0.607871	2.70293	0.446239	1.96926	0.607615	2.70297	0.697485	3.10735	0.814369	3.62716	0.99701	4.44424	0.596828	2.65556	0.69238	3.07596	0.863684	3.84156		
0.610304	2.70255	0.448262	1.97009	0.610048	2.70259	0.699203	3.10213	0.816101	3.61986	0.998236	4.4313	0.598871	2.65365	0.694286	3.07172	0.864966	3.83139		
0.612737	2.70218	0.450284	1.97091	0.612482	2.70222	0.700924	3.09696	0.817837	3.61263	0.999467	4.41849	0.600913	2.65175	0.696196	3.06752	0.866252	3.82131		
0.615171	2.70181	0.452306	1.97172	0.614915	2.70185	0.702647	3.09185	0.819575	3.60547	1.0007	4.4058	0.602954	2.64986	0.698109	3.06338	0.867542	3.81134		
0.617605	2.70145	0.454327	1.97252	0.617349	2.70148	0.704374	3.08679	0.821316	3.59838			0.604993	2.64798	0.700027	3.05929	0.868836	3.80146		
0.620039	2.70109	0.456349	1.97331	0.619784	2.70112	0.706104	3.08179	0.82306	3.59135			0.607031	2.64611	0.701949	3.05524	0.870134	3.79168		
0.622474	2.70073	0.45837	1.9741	0.622218	2.70077	0.707836	3.07684	0.824806	3.5844			0.609068	2.64425	0.703874	3.05125	0.871436	3.782		
0.624908	2.70038	0.460391	1.97488	0.624652	2.70041	0.709572	3.07194	0.826555	3.57752			0.611103	2.6424	0.705803	3.0473	0.872742	3.77242		
0.627342	2.70003	0.462412	1.97565	0.627087	2.70006	0.71131	3.0671	0.828306	3.5707			0.613137	2.64056	0.707735	3.0434	0.874052	3.76293		
0.629777	2.69968	0.464432	1.97641	0.629521	2.69971	0.713051	3.0623	0.830061	3.56395			0.61517	2.63872	0.709671	3.03955	0.875366	3.75353		
0.632212	2.69933	0.466452	1.97717	0.631956	2.69937	0.714795	3.05756	0.831817	3.55726			0.617202	2.6369	0.711611	3.03575	0.876684	3.74422		
0.634646	2.69899	0.468472	1.97792	0.63439	2.69903	0.716542	3.05286	0.833577	3.55064			0.619232	2.63508	0.713555	3.03199	0.878006	3.73501		
0.637081	2.69865	0.470492	1.97867	0.636825	2.69869	0.718292	3.04822	0.835338	3.54408			0.62126	2.63328	0.715502	3.02827	0.879332	3.72588		
0.639515	2.69832	0.472511	1.9794	0.639259	2.69835	0.720044	3.04362	0.837103	3.53758			0.623288	2.63148	0.717453	3.0246	0.880662	3.71684		
0.64195	2.69798	0.47453	1.98013	0.641694	2.69802	0.7218	3.03907	0.83887	3.53114			0.625314	2.62969	0.719407	3.02097	0.881996	3.70789		
0.644384	2.69765	0.476549	1.98086	0.644128	2.69768	0.723558	3.03457	0.840639	3.52477			0.627339	2.62791	0.721365	3.01739	0.883334	3.69903		
0.646818	2.69732	0.478568	1.98157	0.646562	2.69735	0.725319	3.03012	0.842411	3.51845			0.629363	2.62614	0.723326	3.01385	0.884676	3.69025		
0.649252	2.69699	0.480586	1.98228	0.648996	2.69702	0.727083	3.02571	0.844185	3.51219			0.631385	2.62437	0.72529	3.01035	0.886022	3.68156		
0.651686	2.69666	0.482604	1.98298	0.65143	2.6967	0.72885	3.02135	0.845961	3.50599			0.633406	2.62262	0.727258	3.00689	0.887372	3.67295		
0.654119	2.69634	0.484622	1.98368	0.653863	2.69637	0.73062	3.01703	0.84774	3.49985			0.635426	2.62087	0.72923	3.00347	0.888726	3.66442		
0.656552	2.69601	0.486639	1.98437	0.656297	2.69605	0.732392	3.01276	0.849522	3.49377			0.637445	2.61913	0.731204	3.00009	0.890083	3.65597		
0.658985	2.69569	0.488656	1.98506	0.65873	2.69572	0.734167	3.00853	0.851305	3.48774			0.639462	2.6174	0.733182	2.99675	0.891444	3.6476		
0.661418	2.69537	0.490673	1.98573	0.661162	2.6954	0.735945	3.00435	0.853091	3.48177			0.641478	2.61568	0.735163	2.99345	0.89281	3.63932		
0.66385	2.69505	0.49269	1.98641	0.663595	2.69508	0.737726	3.00021	0.854879	3.47585			0.643493	2.61396	0.737148	2.99018	0.894179	3.63111		
0.666282	2.69473	0.494706	1.98707	0.666026	2.69476	0.73951	2.99611	0.85667	3.46998			0.645507	2.61226	0.739136	2.98696	0.895552	3.62297		
0.668713	2.69441	0.496723	1.98773	0.668458	2.69444	0.741297	2.99205	0.858463	3.46417			0.647519	2.61056	0.741126	2.98377	0.896929	3.61492		
0.671144	2.69409	0.498738	1.98838	0.670889	2.69412	0.743086	2.98804	0.860258	3.45841			0.649531	2.60887	0.74312	2.98062	0.89831	3.60694		
0.673575	2.69377	0.500754	1.98903	0.67332	2.6938	0.744878	2.98407	0.862055	3.4527			0.651541	2.60718	0.745117	2.9775	0.899694	3.59904		
0.676005	2.69345	0.502769	1.98967	0.67575	2.69349	0.746673	2.98013	0.863854	3.44705			0.653549	2.60551	0.747118	2.97442	0.901083	3.59121		
0.678434	2.69313	0.504785	1.99031	0.678179	2.69317	0.748471	2.97624	0.865656	3.44144			0.655557	2.60384	0.749121	2.97137	0.902475	3.58345		
0.680863	2.69282	0.506799	1.99094	0.680608	2.69285	0.750272	2.97239	0.86746	3.43589			0.657564	2.60218	0.751127	2.96836	0.903871	3.57576		
0.683292	2.6925	0.508814	1.99156	0.683037	2.69253	0.752075	2.96858	0.869266	3.43038			0.659569	2.60053	0.753136	2.96538	0.905271	3.56815		
0.685719	2.69218	0.510828	1.99218	0.685464	2.69222	0.753882	2.9648	0.871074	3.42492			0.661573	2.59888	0.755148	2.96244	0.906675	3.56061		
0.688146	2.69186	0.512842	1.9928	0.687891	2.6919	0.755691	2.96107	0.872884	3.41951			0.663576	2.59724	0.757163	2.95952	0.908082	3.55313		
0.690573	2.69155	0.514856	1.9934	0.690318	2.69158	0.757503	2.95737	0.874696	3.41415			0.665578	2.59561	0.759181	2.95664	0.909494	3.54573		
0.692998	2.69123	0.516869	1.99401	0.692743	2.69126	0.759318	2.95372	0.87651	3.40884			0.667579	2.59399	0.761202	2.95379	0.910909	3.53839		
0.695423	2.69091	0.518882	1.9946	0.695168	2.69094	0.761136	2.9501	0.878327	3.40357			0.669578	2.59238	0.763225	2.95098	0.912328	3.53113		
0.697847	2.69059	0.520895	1.9952	0.697593	2.69062	0.762957	2.94651	0.880145	3.39834			0.671577	2.59077	0.765252	2.94819	0.91375	3.52392		
0.700271	2.69027	0.522908	1.99578	0.700016	2.6903	0.76478	2.94297	0.881965	3.39317			0.673574	2.58917	0.767281	2.94544	0.915176	3.51679		
0.702693	2.68995	0.52492	1.99637	0.702438	2.68998	0.766607	2.93946	0.883787	3.38803			0.67557	2.58757	0.769312	2.94271	0.916606	3.50972		
0.705114	2.68962	0.526933	1.99694	0.70486	2.68966	0.768436	2.93598	0.885612	3.38294			0.677566	2.58599	0.771347	2.94002	0.91804	3.50271		
0.707535	2.6893	0.528944	1.99751	0.707281	2.68933	0.770269	2.93254	0.887438	3.3779			0.67956	2.58441	0.773384	2.93735	0.919478	3.49577		
0.709955	2.68897	0.530956	1.99808	0.709701	2.68901	0.772104	2.92914	0.889266	3.37289			0.681553	2.58284	0.775423	2.93471	0.920919	3.48889		
0.712373	2.68864	0.532967	1.99864	0.712119	2.68868	0.773942	2.92577	0.891096	3.36793			0.683545	2.58127	0.777466	2.9321	0.922364	3.48208		
0.714791	2.68832	0.534978	1.9992	0.714537	2.68835	0.775784	2.92244	0.892928	3.36301			0.685536	2.57971	0.779511	2.92952	0.923813	3.47532		
0.717207	2.68799	0.536989	1.99975	0.716954	2.68802	0.777628	2.91914	0.894762	3.35814			0.687526	2.57816	0.781558	2.92696	0.925265	3.46863		
0.719623	2.68765	0.538999	2.0003	0.719369	2.68769	0.779475	2.91588	0.896597	3.3533			0.689515	2.57662	0.783608	2.92444	0.926721	3.46199		
0.722037	2.68732	0.54101	2.00084	0.721783	2.68735	0.781325	2.91265	0.898435	3.34851			0.691503	2.57508	0.78566	2.92194	0.928181	3.45542		
0.72445	2.68698	0.54302	2.00137	0.724197	2.68702	0.783179	2.90945	0.900274	3.34375			0.69349	2.57355	0.787714	2.91946	0.929644	3.44891		
0.726862	2.68664	0.545029	2.00191	0.726609	2.68668	0.785035	2.90629	0.902115	3.33903			0.695476	2.57203	0.789771	2.91701	0.931111	3.44245		
0.729272	2.6863	0.547039	2.00244	0.729019	2.68634	0.786895	2.90316	0.903958	3.33436			0.697461	2.57051	0.791831	2.91459	0.932582	3.43605		
0.731682	2.68596	0.549048	2.00296	0.731429	2.686	0.788757	2.90006	0.905803	3.32972			0.699445	2.56901	0.793892	2.91219	0.934057	3.42971		
0.734089	2.68561	0.551057	2.00348	0.733837	2.68565	0.790623	2.897	0.907649	3.32512			0.701428	2.5675	0.795956	2.90982	0.935535	3.42343		
0.736496	2.68526	0.553065	2.00399	0.736243	2.6853	0.792492	2.89397	0.909497	3.32055			0.70341	2.56601	0.798022	2.90747	0.937016	3.4172		
0.738901	2.68491	0.555074	2.0045	0.738648	2.68495	0.794364	2.89097	0.911347	3.31603			0.705392	2.56452	0.800091	2.90514	0.938502	3.41102		
0.741304	2.68456	0.557082	2.00501	0.741052	2.68459	0.79624	2.888	0.913199	3.31154			0.707372	2.56304	0.802161	2.90284	0.939991	3.40491		
0.743706	2.6842	0.55909	2.00551	0.743454	2.68424	0.798118	2.88507	0.915052	3.30708			0.709351	2.56156	0.804234	2.90056	0.941483	3.39884		
0.746107	2.68384	0.561097	2.00601	0.745855	2.68388	0.8	2.88216	0.916907	3.30267			0.71133	2.56009	0.806309	2.8983	0.94298	3.39283		
0.748505	2.68347	0.563104	2.0065	0.748254	2.68351	0.801885	2.87929	0.918763	3.29829			0.713308	2.55863	0.808386	2.89607	0.944479	3.38687		
0.750902	2.6831	0.565111	2.00699	0.750651	2.68314	0.803774	2.87645	0.920621	3.29394			0.715285	2.55718	0.810465	2.89386	0.945983	3.38097		
0.753298	2.68273	0.567118	2.00747	0.753046	2.68277	0.805666	2.87364	0.922481	3.28963			0.717261	2.55573	0.812546	2.89167	0.94749	3.37512		
0.755691	2.68236	0.569125	2.00795	0.75544	2.68239	0.807561	2.87086	0.924343	3.28535			0.719236	2.55429	0.814628	2.8895	0.949	3.36932		
0.758083	2.68197	0.571131	2.00843	0.757832	2.68201	0.80946	2.86811	0.926206	3.2811			0.72121	2.55285	0.816713	2.88735	0.950515	3.36357		
0.760473	2.68159	0.573137	2.0089	0.760222	2.68163	0.811362	2.86539	0.92807	3.27689			0.723184	2.55142	0.8188	2.88523	0.952032	3.35787		
0.76286	2.6812	0.575142	2.00937	0.762609	2.68124	0.813268	2.8627	0.929936	3.27272			0.725157	2.55	0.820889	2.88312	0.953554	3.35222		
0.765246	2.68081	0.577148	2.00983	0.764995	2.68085	0.815177	2.86004	0.931804	3.26857			0.727129	2.54859	0.822979	2.88104	0.955079	3.34662		
0.76763	2.68041	0.579153	2.01029	0.767379	2.68045	0.81709	2.85741	0.933673	3.26446			0.7291	2.54718	0.825071	2.87897	0.956607	3.34106		
0.770011	2.68001	0.581158	2.01075	0.769761	2.68005	0.819007	2.85481	0.935543	3.26038			0.73107	2.54577	0.827165	2.87692	0.958139	3.33556		
0.77239	2.6796	0.583162	2.0112	0.772141	2.67964	0.820927	2.85224	0.937416	3.25633			0.73304	2.54438	0.829261	2.8749	0.959675	3.33011		
0.774768	2.67918	0.585167	2.01165	0.774518	2.67923	0.822851	2.8497	0.939289	3.25231			0.735009	2.54299	0.831359	2.87289	0.961214	3.3247		
0.777142	2.67877	0.587171	2.01209	0.776893	2.67881	0.824779	2.84719	0.941164	3.24833			0.736977	2.54161	0.833458	2.8709	0.962757	3.31934		
0.779515	2.67834	0.589175	2.01254	0.779265	2.67839	0.826711	2.84471	0.943041	3.24437			0.738944	2.54023	0.835559	2.86893	0.964303	3.31402		
0.781884	2.67791	0.591178	2.01297	0.781636	2.67796	0.828646	2.84226	0.944919	3.24044			0.740911	2.53886	0.837661	2.86698	0.965853	3.30875		
0.784252	2.67748	0.593181	2.01341	0.784003	2.67752	0.830585	2.83984	0.946798	3.23655			0.742877	2.53749	0.839765	2.86504	0.967406	3.30353		
0.786617	2.67703	0.595184	2.01384	0.786368	2.67708	0.832529	2.83744	0.948679	3.23268			0.744843	2.53614	0.841871	2.86313	0.968963	3.29835		
0.788979	2.67659	0.597187	2.01426	0.788731	2.67663	0.834476	2.83508	0.950561	3.22884			0.746807	2.53478	0.843978	2.86123	0.970523	3.29322		
0.791338	2.67613	0.59919	2.01469	0.791091	2.67618	0.836428	2.83274	0.952444	3.22503			0.748771	2.53344	0.846087	2.85934	0.972087	3.28813		
0.793695	2.67567	0.601192	2.01511	0.793447	2.67572	0.838383	2.83043	0.954329	3.22125			0.750735	2.5321	0.848197	2.85748	0.973654	3.28309		
0.796049	2.6752	0.603194	2.01552	0.795802	2.67525	0.840343	2.82815	0.956215	3.2175			0.752698	2.53077	0.850308	2.85563	0.975225	3.27809		
0.7984	2.67473	0.605195	2.01593	0.798153	2.67478	0.842307	2.8259	0.958103	3.21378			0.75466	2.52944	0.852421	2.85379	0.9768	3.27313		
0.800748	2.67425	0.607197	2.01634	0.800501	2.6743	0.844276	2.82368	0.959992	3.21008			0.756621	2.52812	0.854536	2.85198	0.978378	3.26821		
0.803092	2.67376	0.609198	2.01675	0.802846	2.67381	0.846249	2.82149	0.961882	3.20641			0.758582	2.52681	0.856651	2.85017	0.979959	3.26334		
0.805434	2.67326	0.611199	2.01715	0.805188	2.67332	0.848226	2.81932	0.963773	3.20277			0.760543	2.5255	0.858768	2.84839	0.981544	3.2585		
0.807773	2.67276	0.6132	2.01755	0.807527	2.67281	0.850207	2.81718	0.965666	3.19916			0.762502	2.5242	0.860886	2.84662	0.983132	3.25371		
0.810108	2.67225	0.6152	2.01795	0.809863	2.6723	0.852194	2.81507	0.96756	3.19557			0.764461	2.5229	0.863006	2.84486	0.984724	3.24896		
0.81244	2.67173	0.6172	2.01834	0.812195	2.67179	0.854184	2.81299	0.969455	3.192			0.76642	2.52161	0.865126	2.84312	0.986319	3.24425		
0.814768	2.6712	0.6192	2.01873	0.814524	2.67126	0.85618	2.81094	0.971351	3.18847			0.768378	2.52033	0.867248	2.84139	0.987918	3.23958		
0.817093	2.67067	0.6212	2.01911	0.816849	2.67072	0.85818	2.80891	0.973249	3.18495			0.770336	2.51905	0.869371	2.83968	0.98952	3.23496		
0.819414	2.67012	0.623199	2.0195	0.819171	2.67018	0.860185	2.80692	0.975148	3.18147			0.772293	2.51778	0.871495	2.83798	0.991126	3.23037		
0.821732	2.66957	0.625198	2.01988	0.821489	2.66963	0.862195	2.80495	0.977048	3.17801			0.774249	2.51651	0.87362	2.8363	0.992735	3.22581		
0.824046	2.66901	0.627197	2.02025	0.823803	2.66907	0.864209	2.803	0.978949	3.17457			0.776205	2.51526	0.875747	2.83463	0.994348	3.2213		
0.826356	2.66844	0.629195	2.02063	0.826113	2.6685	0.866229	2.80109	0.980851	3.17116			0.778161	2.514	0.877874	2.83297	0.995964	3.21683		
0.828662	2.66786	0.631194	2.021	0.82842	2.66792	0.868254	2.7992	0.982754	3.16777			0.780116	2.51275	0.880002	2.83132	0.997583	3.21239		
0.830965	2.66727	0.633192	2.02136	0.830723	2.66733	0.870283	2.79735	0.984659	3.1644			0.78207	2.51151	0.882131	2.82969	0.999206	3.20799		
0.833263	2.66667	0.635189	2.02173	0.833022	2.66674	0.872318	2.79551	0.986565	3.16106			0.784025	2.51028	0.884262	2.82807	1.00083	3.20363		
0.835557	2.66607	0.637187	2.02209	0.835316	2.66613	0.874358	2.79371	0.988472	3.15775			0.785978	2.50905	0.886393	2.82646				
0.837847	2.66545	0.639184	2.02245	0.837607	2.66552	0.876404	2.79193	0.990379	3.15445			0.787931	2.50782	0.888525	2.82487				
0.840133	2.66482	0.641181	2.0228	0.839893	2.66489	0.878454	2.79019	0.992288	3.15118			0.789884	2.50661	0.890657	2.82329				
0.842415	2.66419	0.643178	2.02316	0.842175	2.66426	0.88051	2.78846	0.994198	3.14793			0.791837	2.5054	0.892791	2.82172				
0.844692	2.66354	0.645174	2.02351	0.844453	2.66361	0.882571	2.78677	0.99611	3.14471			0.793788	2.50419	0.894925	2.82016				
0.846965	2.66289	0.647171	2.02385	0.846727	2.66296	0.884638	2.7851	0.998022	3.1415			0.79574	2.50299	0.897061	2.81861				
0.849234	2.66222	0.649167	2.0242	0.848996	2.66229	0.886711	2.78346	0.999935	3.13832			0.797691	2.50179	0.899196	2.81708				
0.851498	2.66154	0.651162	2.02454	0.85126	2.66162	0.888788	2.78185	1.00185	3.13516			0.799642	2.50061	0.901333	2.81555				
0.853757	2.66086	0.653158	2.02488	0.85352	2.66093	0.890872	2.78026					0.801592	2.49942	0.90347	2.81404				
0.856012	2.66016	0.655153	2.02521	0.855775	2.66023	0.892961	2.7787					0.803542	2.49824	0.905608	2.81254				
0.858262	2.65945	0.657148	2.02555	0.858026	2.65953	0.895056	2.77717					0.805492	2.49707	0.907747	2.81104				
0.860508	2.65873	0.659143	2.02588	0.860272	2.65881	0.897156	2.77566					0.807441	2.49591	0.909886	2.80956				
0.862748	2.65801	0.661137	2.02621	0.862513	2.65808	0.899262	2.77418					0.80939	2.49475	0.912026	2.80809				
0.864984	2.65727	0.663131	2.02653	0.86475	2.65735	0.901374	2.77273					0.811339	2.49359	0.914166	2.80663				
0.867216	2.65652	0.665125	2.02685	0.866981	2.6566	0.903491	2.7713					0.813287	2.49244	0.916306	2.80518				
0.869442	2.65576	0.667119	2.02717	0.869208	2.65584	0.905615	2.76989					0.815235	2.4913	0.918448	2.80373				
0.871664	2.65499	0.669113	2.02749	0.871431	2.65507	0.907744	2.76852					0.817183	2.49016	0.920589	2.8023				
0.87388	2.65421	0.671106	2.02781	0.873648	2.65429	0.909879	2.76717					0.81913	2.48903	0.922731	2.80088				
0.876092	2.65342	0.673099	2.02812	0.87586	2.6535	0.91202	2.76584					0.821078	2.4879	0.924874	2.79946				
0.878299	2.65262	0.675091	2.02843	0.878068	2.6527	0.914166	2.76454					0.823024	2.48678	0.927017	2.79806				
0.880501	2.65181	0.677084	2.02873	0.88027	2.65189	0.916319	2.76326					0.824971	2.48567	0.92916	2.79666				
0.882699	2.65099	0.679076	2.02904	0.882468	2.65107	0.918477	2.76201					0.826917	2.48456	0.931303	2.79528				
0.884891	2.65015	0.681068	2.02934	0.884661	2.65024	0.920641	2.76078					0.828863	2.48345	0.933447	2.7939				
0.887079	2.64931	0.68306	2.02964	0.886849	2.6494	0.92281	2.75958					0.830809	2.48235	0.935591	2.79253				
0.889261	2.64846	0.685051	2.02994	0.889032	2.64855	0.924986	2.7584					0.832755	2.48126	0.937735	2.79117				
0.891439	2.6476	0.687042	2.03024	0.89121	2.64769	0.927167	2.75724					0.8347	2.48017	0.93988	2.78981				
0.893612	2.64673	0.689033	2.03053	0.893384	2.64682	0.929354	2.75611					0.836645	2.47908	0.942024	2.78847				
0.89578	2.64585	0.691024	2.03082	0.895552	2.64594	0.931546	2.755					0.83859	2.47801	0.944169	2.78713				
0.897944	2.64496	0.693015	2.03111	0.897716	2.64506	0.933744	2.75391					0.840535	2.47693	0.946314	2.7858				
0.900102	2.64407	0.695005	2.03139	0.899876	2.64416	0.935948	2.75285					0.84248	2.47587	0.948459	2.78448				
0.902256	2.64316	0.696995	2.03168	0.90203	2.64325	0.938157	2.7518					0.844424	2.4748	0.950604	2.78316				
0.904406	2.64224	0.698985	2.03196	0.90418	2.64234	0.940372	2.75078					0.846368	2.47375	0.952749	2.78185				
0.90655	2.64132	0.700974	2.03224	0.906325	2.64142	0.942592	2.74978					0.848312	2.4727	0.954894	2.78055				
0.908691	2.64039	0.702963	2.03251	0.908466	2.64049	0.944817	2.7488					0.850256	2.47165	0.957039	2.77926				
0.910826	2.63945	0.704952	2.03279	0.910602	2.63955	0.947048	2.74784					0.8522	2.47061	0.959184	2.77797				
0.912958	2.6385	0.706941	2.03306	0.912734	2.6386	0.949284	2.74691					0.854143	2.46957	0.961329	2.77669				
0.915085	2.63755	0.708929	2.03333	0.914861	2.63765	0.951525	2.74599					0.856086	2.46854	0.963474	2.77542				
0.917207	2.63658	0.710918	2.0336	0.916984	2.63669	0.953771	2.74509					0.85803	2.46752	0.965619	2.77415				
0.919325	2.63561	0.712906	2.03387	0.919103	2.63572	0.956023	2.74421					0.859973	2.46649	0.967764	2.77289				
0.92144	2.63464	0.714894	2.03413	0.921218	2.63474	0.958279	2.74335					0.861916	2.46548	0.969908	2.77164				
0.92355	2.63366	0.716881	2.03439	0.923328	2.63376	0.96054	2.74251					0.863859	2.46447	0.972053	2.77039				
0.925656	2.63267	0.718868	2.03465	0.925435	2.63277	0.962806	2.74168					0.865801	2.46346	0.974197	2.76915				
0.927758	2.63167	0.720855	2.03491	0.927537	2.63178	0.965077	2.74088					0.867744	2.46246	0.976341	2.76791				
0.929856	2.63067	0.722842	2.03517	0.929635	2.63078	0.967352	2.74009					0.869686	2.46147	0.978485	2.76668				
0.93195	2.62966	0.724829	2.03542	0.93173	2.62977	0.969632	2.73932					0.871629	2.46048	0.980628	2.76545				
0.93404	2.62865	0.726815	2.03567	0.933821	2.62876	0.971916	2.73856					0.873571	2.45949	0.982771	2.76424				
0.936127	2.62763	0.728801	2.03592	0.935908	2.62774	0.974205	2.73782					0.875513	2.45851	0.984914	2.76302				
0.938211	2.62661	0.730787	2.03617	0.937992	2.62672	0.976498	2.7371					0.877455	2.45753	0.987057	2.76181				
0.94029	2.62559	0.732773	2.03642	0.940072	2.62569	0.978795	2.73639					0.879398	2.45656	0.989199	2.76061				
0.942367	2.62456	0.734758	2.03666	0.942149	2.62466	0.981096	2.7357					0.881339	2.4556	0.991341	2.75941				
0.944439	2.62352	0.736743	2.0369	0.944222	2.62363	0.983401	2.73502					0.883281	2.45464	0.993482	2.75822				
0.946509	2.62248	0.738728	2.03714	0.946292	2.62259	0.985711	2.73436					0.885223	2.45368	0.995623	2.75703				
0.948575	2.62144	0.740713	2.03738	0.948358	2.62155	0.988024	2.73371					0.887165	2.45273	0.997763	2.75585				
0.950639	2.6204	0.742698	2.03762	0.950422	2.62051	0.990341	2.73308					0.889107	2.45178	0.999903	2.75467				
0.952699	2.61935	0.744682	2.03785	0.952482	2.61946	0.992661	2.73246					0.891049	2.45084	1.00204	2.7535				
0.954756	2.6183	0.746666	2.03809	0.95454	2.61841	0.994985	2.73185					0.89299	2.4499						
0.95681	2.61724	0.74865	2.03832	0.956595	2.61736	0.997313	2.73125					0.894932	2.44897						
0.958862	2.61619	0.750633	2.03855	0.958646	2.6163	0.999644	2.73067					0.896874	2.44804						
0.960911	2.61513	0.752616	2.03877	0.960695	2.61524	1.00198	2.7301					0.898815	2.44712						
0.962957	2.61407	0.754599	2.039	0.962742	2.61418							0.900757	2.4462						
0.965	2.61301	0.756582	2.03922	0.964786	2.61312							0.902699	2.44528						
0.967041	2.61195	0.758565	2.03945	0.966827	2.61206							0.90464	2.44437						
0.96908	2.61088	0.760547	2.03967	0.968866	2.61099							0.906582	2.44347						
0.971116	2.60982	0.762529	2.03989	0.970902	2.60993							0.908523	2.44257						
0.973149	2.60875	0.764511	2.0401	0.972936	2.60886							0.910465	2.44167						
0.975181	2.60768	0.766493	2.04032	0.974968	2.6078							0.912407	2.44078						
0.97721	2.60662	0.768474	2.04053	0.976997	2.60673							0.914348	2.43989						
0.979238	2.60555	0.770456	2.04074	0.979025	2.60566							0.91629	2.43901						
0.981263	2.60448	0.772437	2.04096	0.98105	2.60459							0.918232	2.43813						
0.983286	2.60341	0.774417	2.04116	0.983073	2.60352							0.920173	2.43726						
0.985307	2.60234	0.776398	2.04137	0.985095	2.60246							0.922115	2.43639						
0.987326	2.60128	0.778378	2.04158	0.987114	2.60139							0.924057	2.43552						
0.989344	2.60021	0.780358	2.04178	0.989132	2.60032							0.925999	2.43466						
0.99136	2.59914	0.782338	2.04198	0.991148	2.59925							0.927941	2.43381						
0.993374	2.59808	0.784318	2.04218	0.993162	2.59819							0.929883	2.43296						
0.995386	2.59701	0.786297	2.04238	0.995175	2.59712							0.931824	2.43211						
0.997397	2.59595	0.788277	2.04258	0.997186	2.59606							0.933767	2.43126						
0.999406	2.59488	0.790256	2.04278	0.999195	2.595							0.935709	2.43042						
1.00141	2.59382	0.792234	2.04297	1.0012	2.59393							0.937651	2.42959						
		0.794213	2.04317									0.939593	2.42876						
		0.796191	2.04336									0.941535	2.42793						
		0.798169	2.04355									0.943478	2.42711						
		0.800147	2.04374									0.94542	2.42629						
		0.802125	2.04392									0.947363	2.42548						
		0.804102	2.04411									0.949305	2.42467						
		0.80608	2.04429									0.951248	2.42386						
		0.808057	2.04448									0.953191	2.42306						
		0.810033	2.04466									0.955134	2.42226						
		0.81201	2.04484									0.957077	2.42147						
		0.813986	2.04502									0.95902	2.42068						
		0.815963	2.0452									0.960963	2.41989						
		0.817938	2.04537									0.962907	2.41911						
		0.819914	2.04555									0.96485	2.41833						
		0.82189	2.04572									0.966794	2.41756						
		0.823865	2.04589									0.968737	2.41679						
		0.82584	2.04606									0.970681	2.41602						
		0.827815	2.04623									0.972625	2.41526						
		0.82979	2.0464									0.974569	2.4145						
		0.831764	2.04657									0.976513	2.41374						
		0.833738	2.04673									0.978458	2.41299						
		0.835712	2.0469									0.980402	2.41225						
		0.837686	2.04706									0.982347	2.4115						
		0.83966	2.04722									0.984291	2.41076						
		0.841633	2.04738									0.986236	2.41003						
		0.843606	2.04754									0.988181	2.40929						
		0.845579	2.0477									0.990126	2.40857						
		0.847552	2.04786									0.992072	2.40784						
		0.849525	2.04801									0.994017	2.40712						
		0.851497	2.04817									0.995963	2.4064						
		0.853469	2.04832									0.997908	2.40569						
		0.855441	2.04847									0.999854	2.40498						
		0.857413	2.04862									1.0018	2.40427						
		0.859385	2.04877																
		0.861356	2.04892																
		0.863327	2.04907																
		0.865298	2.04922																
		0.867269	2.04936																
		0.869239	2.04951																
		0.87121	2.04965																
		0.87318	2.04979																
		0.87515	2.04993																
		0.87712	2.05007																
		0.879089	2.05021																
		0.881058	2.05035																
		0.883028	2.05049																
		0.884997	2.05062																
		0.886965	2.05076																
		0.888934	2.05089																
		0.890902	2.05102																
		0.892871	2.05115																
		0.894839	2.05128																
		0.896806	2.05141																
		0.898774	2.05154																
		0.900741	2.05167																
		0.902709	2.0518																
		0.904676	2.05192																
		0.906643	2.05205																
		0.908609	2.05217																
		0.910576	2.05229																
		0.912542	2.05242																
		0.914508	2.05254																
		0.916474	2.05266																
		0.91844	2.05278																
		0.920406	2.05289																
		0.922371	2.05301																
		0.924336	2.05313																
		0.926301	2.05324																
		0.928266	2.05336																
		0.930231	2.05347																
		0.932195	2.05358																
		0.934159	2.0537																
		0.936123	2.05381																
		0.938087	2.05392																
		0.940051	2.05403																
		0.942015	2.05414																
		0.943978	2.05424																
		0.945941	2.05435																
		0.947904	2.05446																
		0.949867	2.05456																
		0.95183	2.05467																
		0.953792	2.05477																
		0.955755	2.05487																
		0.957717	2.05498																
		0.959679	2.05508																
		0.961641	2.05518																
		0.963602	2.05528																
		0.965564	2.05538																
		0.967525	2.05548																
		0.969486	2.05557																
		0.971447	2.05567																
		0.973408	2.05577																
		0.975369	2.05586																
		0.977329	2.05596																
		0.979289	2.05605																
		0.981249	2.05614																
		0.983209	2.05624																
		0.985169	2.05633																
		0.987129	2.05642																
		0.989088	2.05651																
		0.991048	2.0566																
		0.993007	2.05669																
		0.994966	2.05678																
		0.996925	2.05687																
		0.998883	2.05695																
		1.00084	2.05704																
