Sym0		Asym0		Sym1		Sym2		Sym3		Sym4		Asym1		Asym2		Asym3		Asym4	
426  Points		529  Points		426  Points		406  Points		353  Points		254  Points		457  Points		401  Points		346  Points		216  Points	
Freq (MHz)	Vph (m/ms)	Freq (MHz)	Vph (m/ms)	Freq (MHz)	Vph (m/ms)	Freq (MHz)	Vph (m/ms)	Freq (MHz)	Vph (m/ms)	Freq (MHz)	Vph (m/ms)	Freq (MHz)	Vph (m/ms)	Freq (MHz)	Vph (m/ms)	Freq (MHz)	Vph (m/ms)	Freq (MHz)	Vph (m/ms)
0.279509	813.643	7.20075e-005	0.0522879	0.27951	537.66	0.441161	2309.9	0.559017	2406.09	0.838526	16541	0.139763	285.736	0.419267	517.026	0.698772	1292.79	0.882324	1144.2
0.279518	219.191	0.000202147	0.0875537	0.279521	192.566	0.44117	392.96	0.559026	480.25	0.838529	853.561	0.139832	98.4156	0.419283	240.606	0.698779	474.646	0.882332	518.159
0.279537	126.664	0.000397639	0.122708	0.279542	117.294	0.441189	214.756	0.559045	266.755	0.838538	438.088	0.139966	59.4963	0.41931	156.792	0.698791	290.69	0.882345	334.917
0.279566	89.0731	0.000657918	0.15769	0.279572	84.3369	0.441221	147.76	0.559075	184.67	0.838552	294.665	0.140167	42.679	0.419349	116.292	0.698809	209.5	0.882365	247.423
0.279605	68.6938	0.00098226	0.192452	0.279613	65.8434	0.441264	112.632	0.559116	141.223	0.838573	221.993	0.140434	33.3103	0.419399	92.4254	0.698833	163.765	0.88239	196.178
0.279654	55.9084	0.00136976	0.226947	0.279665	54.0066	0.441319	91.0037	0.559168	114.33	0.838599	178.078	0.140765	27.3456	0.41946	76.6922	0.698862	134.423	0.88242	162.52
0.279713	47.1398	0.00181945	0.261141	0.279726	45.7814	0.441386	76.349	0.559231	96.0465	0.838631	148.671	0.141159	23.2197	0.419533	65.5409	0.698898	114	0.882457	138.723
0.279783	40.7526	0.00233004	0.294978	0.279797	39.7342	0.441464	65.764	0.559305	82.8085	0.838668	127.601	0.141617	20.1993	0.419618	57.2249	0.698939	98.9666	0.882499	121.006
0.279862	35.8932	0.00290032	0.328436	0.279879	35.1014	0.441553	57.7606	0.55939	72.7814	0.838711	111.765	0.142137	17.8953	0.419713	50.7852	0.698987	87.4381	0.882548	107.305
0.279952	32.0723	0.00352886	0.361475	0.27997	31.4392	0.441655	51.4975	0.559486	64.9237	0.83876	99.4269	0.142716	16.0818	0.419821	45.6517	0.69904	78.317	0.882601	96.3919
0.280052	28.9894	0.00421414	0.394063	0.280072	28.4718	0.441768	46.4631	0.559593	58.6005	0.838815	89.5439	0.143355	14.619	0.419939	41.4637	0.699099	70.9208	0.882661	87.4955
0.280161	26.4499	0.00495462	0.426175	0.280183	26.0188	0.441892	42.3284	0.559711	53.4025	0.838876	81.4495	0.144051	13.4153	0.420069	37.9825	0.699164	64.8024	0.882727	80.1039
0.280281	24.3218	0.00574858	0.457781	0.280305	23.9573	0.442029	38.8722	0.559839	49.0542	0.838942	74.6985	0.144803	12.4087	0.420211	35.0431	0.699234	59.6573	0.882798	73.8652
0.280411	22.5129	0.00659437	0.488864	0.280437	22.2007	0.442176	35.9405	0.559979	45.3631	0.839014	68.9824	0.145609	11.5552	0.420364	32.5285	0.699311	55.2704	0.882875	68.5294
0.280551	20.9566	0.00749032	0.519409	0.280579	20.6862	0.442336	33.4224	0.56013	42.1909	0.839091	64.0801	0.146468	10.8231	0.420528	30.3529	0.699393	51.4856	0.882958	63.9136
0.280701	19.6035	0.00843459	0.549393	0.280731	19.3671	0.442507	31.2363	0.560291	39.4356	0.839175	59.8294	0.147257	10.2656	0.420704	28.4522	0.699482	48.1871	0.883046	59.8815
0.280862	18.4164	0.00942543	0.578806	0.280893	18.2079	0.442689	29.3208	0.560463	37.0201	0.839264	56.1087	0.14796	9.83979	0.420891	26.7776	0.699576	45.2869	0.883141	56.329
0.281032	17.3666	0.0104612	0.607646	0.281065	17.1814	0.442883	27.6287	0.560646	34.8853	0.839359	52.8247	0.148561	9.51751	0.421089	25.291	0.699676	42.717	0.883241	53.1754
0.281212	16.4317	0.01154	0.635897	0.281248	16.2661	0.443088	26.1232	0.560841	32.9851	0.839459	49.9048	0.149049	9.27972	0.421299	23.9627	0.699781	40.424	0.883346	50.3571
0.281403	15.5939	0.0126602	0.663558	0.28144	15.445	0.443305	24.7751	0.561045	31.283	0.839565	47.2917	0.149414	9.11368	0.42152	22.7687	0.699893	38.3656	0.883458	47.8234
0.281603	14.8389	0.0138202	0.690629	0.281642	14.7043	0.443533	23.561	0.561261	29.7495	0.839677	44.9396	0.149651	9.01109	0.421752	21.6897	0.70001	36.5075	0.883576	45.5333
0.281814	14.155	0.0150182	0.717106	0.281855	14.0328	0.443773	22.462	0.561488	28.3609	0.839795	42.8111	0.149996	8.86838	0.421996	20.7099	0.700134	34.8219	0.883699	43.4533
0.282035	13.5328	0.0162525	0.742992	0.282077	13.4213	0.444024	21.4626	0.561725	27.0977	0.839918	40.8759	0.150376	8.71932	0.422251	19.8163	0.700263	33.2859	0.883827	41.5559
0.282265	12.9643	0.0175218	0.768295	0.28231	12.8622	0.444287	20.5498	0.561973	25.9436	0.840047	39.1089	0.150902	8.5261	0.422517	18.9981	0.700398	31.8805	0.883962	39.8179
0.282506	12.4429	0.0188243	0.793011	0.282553	12.349	0.44456	19.713	0.562232	24.8852	0.840182	37.4891	0.151582	8.29624	0.422794	18.2462	0.700539	30.5896	0.884102	38.2202
0.282757	11.963	0.0201588	0.817156	0.282805	11.8765	0.444846	18.943	0.562502	23.9111	0.840322	35.9988	0.152425	8.03791	0.423082	17.5529	0.700685	29.3999	0.884249	36.7465
0.283018	11.52	0.0215236	0.840728	0.283068	11.4399	0.445142	18.2323	0.562782	23.0116	0.840469	34.6231	0.153443	7.75937	0.423382	16.9116	0.700838	28.3	0.8844	35.3828
0.283288	11.1097	0.0229176	0.863742	0.283341	11.0354	0.44545	17.5742	0.563073	22.1786	0.84062	33.3494	0.154648	7.46841	0.423693	16.3168	0.700996	27.2801	0.884558	34.1174
0.283569	10.7287	0.0243392	0.886204	0.283624	10.6596	0.445768	16.9633	0.563375	21.405	0.840778	32.1667	0.15589	7.20423	0.424015	15.7636	0.70116	26.3317	0.884721	32.94
0.28386	10.374	0.0257873	0.908124	0.283916	10.3096	0.446098	16.3946	0.563687	20.6846	0.840941	31.0656	0.157168	6.96346	0.424348	15.2478	0.70133	25.4477	0.88489	31.8417
0.284161	10.043	0.0272607	0.929511	0.28418	10.0237	0.44644	15.8639	0.564011	20.0123	0.84111	30.038	0.15848	6.74325	0.424692	14.7659	0.701506	24.6217	0.885065	30.8149
0.284472	9.7335	0.0287581	0.950378	0.28441	9.79272	0.446792	15.3677	0.564344	19.3834	0.841285	29.0768	0.159825	6.54118	0.425048	14.3145	0.701687	23.8482	0.885245	29.8528
0.284793	9.44344	0.0302785	0.970735	0.284605	9.61004	0.447155	14.9026	0.564689	18.7938	0.841465	28.1757	0.161202	6.3552	0.425414	13.891	0.701875	23.1224	0.885431	28.9495
0.285124	9.17108	0.0318209	0.990593	0.284762	9.47062	0.44753	14.4659	0.565044	18.24	0.841651	27.3293	0.162609	6.18353	0.425791	13.4928	0.702068	22.44	0.885623	28.0998
0.285465	8.91488	0.0333841	1.00996	0.284878	9.3708	0.447915	14.0551	0.565409	17.7189	0.841843	26.5328	0.164045	6.02467	0.42618	13.1178	0.702267	21.7972	0.885821	27.2991
0.285816	8.67348	0.0349674	1.02886	0.284954	9.30807	0.448312	13.6679	0.565785	17.2277	0.84204	25.782	0.165508	5.8773	0.426579	12.7641	0.702472	21.1908	0.886024	26.5432
0.286177	8.44564	0.0365696	1.0473	0.285063	9.21945	0.448719	13.3025	0.566172	16.7639	0.842243	25.0729	0.166997	5.74027	0.426989	12.4298	0.702682	20.6177	0.886233	25.8285
0.286548	8.23028	0.03819	1.06528	0.285183	9.12513	0.449138	12.957	0.566569	16.3253	0.842452	24.4023	0.168511	5.61258	0.42741	12.1136	0.702899	20.0752	0.886447	25.1518
0.286928	8.02643	0.0398277	1.08282	0.285348	9.00009	0.449567	12.6299	0.566977	15.9099	0.842666	23.7671	0.17005	5.49336	0.427842	11.8138	0.703121	19.5611	0.886668	24.5101
0.287319	7.83321	0.041482	1.09993	0.28556	8.84708	0.450007	12.3198	0.567394	15.516	0.842886	23.1646	0.171611	5.38181	0.428285	11.5295	0.703349	19.073	0.886893	23.9008
0.28772	7.64982	0.043152	1.11663	0.285822	8.6693	0.450458	12.0254	0.567823	15.1419	0.843111	22.5923	0.173194	5.27727	0.428739	11.2593	0.703583	18.6092	0.887125	23.3215
0.288131	7.47556	0.0448371	1.13292	0.286136	8.47024	0.450919	11.7456	0.568262	14.7862	0.843343	22.0481	0.174798	5.17911	0.429204	11.0023	0.703822	18.1678	0.887362	22.77
0.288551	7.30977	0.0465366	1.14881	0.286506	8.25355	0.451391	11.4793	0.568711	14.4477	0.84358	21.5298	0.176422	5.0868	0.429679	10.7575	0.704067	17.7473	0.887605	22.2445
0.288982	7.15188	0.0482497	1.16433	0.286886	8.04847	0.451874	11.2256	0.56917	14.125	0.843822	21.0358	0.178065	4.99986	0.430165	10.5242	0.704319	17.3463	0.887854	21.743
0.289422	7.00134	0.0499761	1.17947	0.287275	7.85411	0.452368	10.9837	0.56964	13.8172	0.84407	20.5644	0.179727	4.91785	0.430662	10.3016	0.704576	16.9634	0.888108	21.264
0.289872	6.85767	0.0517149	1.19425	0.287675	7.66967	0.452872	10.7526	0.57012	13.5232	0.844324	20.114	0.181405	4.84038	0.431103	10.1157	0.704838	16.5974	0.888368	20.8061
0.290333	6.72043	0.0534658	1.20867	0.288085	7.49443	0.453387	10.5319	0.57061	13.2422	0.844584	19.6833	0.1831	4.76711	0.431486	9.96284	0.705107	16.2473	0.888633	20.3679
0.290803	6.58921	0.055228	1.22276	0.288504	7.32773	0.453912	10.3207	0.571111	12.9733	0.844849	19.271	0.184811	4.6977	0.431807	9.84022	0.705381	15.912	0.888904	19.9481
0.291283	6.46363	0.0570013	1.23651	0.288933	7.16899	0.454378	10.144	0.571621	12.7158	0.845119	18.876	0.186538	4.63189	0.432064	9.74557	0.705661	15.5906	0.889181	19.5457
0.291773	6.34335	0.058785	1.24994	0.289373	7.01766	0.454781	9.99856	0.572142	12.4689	0.845396	18.4973	0.188279	4.5694	0.432254	9.67723	0.705947	15.2824	0.889463	19.1595
0.292272	6.22806	0.0605787	1.26306	0.289822	6.87326	0.455119	9.88165	0.572673	12.2321	0.845677	18.1338	0.190034	4.51002	0.432376	9.63404	0.706238	14.9864	0.889751	18.7886
0.292782	6.11747	0.062382	1.27587	0.290281	6.73532	0.455389	9.79131	0.573214	12.0048	0.845965	17.7847	0.191802	4.4535	0.432553	9.57269	0.706535	14.702	0.890044	18.4322
0.293301	6.0113	0.0641945	1.28839	0.29075	6.60345	0.455589	9.72602	0.573765	11.7863	0.846258	17.449	0.193583	4.39967	0.432747	9.50696	0.706838	14.4286	0.890343	18.0893
0.293831	5.90931	0.0660157	1.30062	0.291229	6.47727	0.455718	9.68474	0.574326	11.5763	0.846557	17.1262	0.195376	4.34835	0.433013	9.41916	0.707147	14.1655	0.890648	17.7593
0.29437	5.81126	0.0678454	1.31258	0.291718	6.35642	0.455904	9.62607	0.574897	11.3742	0.846861	16.8154	0.19718	4.29937	0.433352	9.31063	0.707462	13.9122	0.890958	17.4415
0.294919	5.71694	0.0696831	1.32426	0.292217	6.2406	0.456107	9.56318	0.575478	11.1796	0.847171	16.516	0.198997	4.25257	0.433768	9.18301	0.707782	13.668	0.891274	17.1351
0.295477	5.62616	0.0715286	1.33568	0.292725	6.12949	0.456386	9.47908	0.576069	10.9922	0.847486	16.2274	0.200823	4.20783	0.434263	9.03814	0.708108	13.4326	0.891595	16.8397
0.296046	5.53873	0.0733815	1.34685	0.293243	6.02285	0.456742	9.37503	0.576669	10.8114	0.847807	15.949	0.20266	4.16502	0.434841	8.87802	0.708439	13.2055	0.891922	16.5545
0.296624	5.45447	0.0752414	1.35777	0.293772	5.9204	0.457178	9.25253	0.57728	10.6371	0.848134	15.6803	0.204507	4.12401	0.43543	8.72408	0.708777	12.9863	0.892254	16.2792
0.297212	5.37323	0.0771082	1.36845	0.29431	5.82193	0.457696	9.11327	0.5779	10.4688	0.848466	15.4208	0.206364	4.0847	0.436029	8.57599	0.70912	12.7745	0.892592	16.0132
0.29781	5.29485	0.0789814	1.37889	0.294857	5.72721	0.4583	8.9591	0.578449	10.3268	0.848804	15.1701	0.20823	4.047	0.436638	8.43343	0.709469	12.5698	0.892935	15.756
0.298418	5.2192	0.0808609	1.38911	0.295415	5.63605	0.458914	8.81063	0.578922	10.2091	0.849147	14.9277	0.210104	4.0108	0.437257	8.2961	0.709823	12.3719	0.893284	15.5072
0.299035	5.14614	0.0827465	1.39911	0.295982	5.54825	0.459538	8.66757	0.579318	10.114	0.849496	14.6931	0.211987	3.97602	0.437887	8.16374	0.710183	12.1804	0.893638	15.2664
0.299662	5.07555	0.0846378	1.40889	0.29656	5.46365	0.460172	8.52964	0.579633	10.0402	0.84985	14.4661	0.213878	3.94259	0.438527	8.03608	0.710549	11.995	0.893998	15.0333
0.300299	5.00732	0.0865346	1.41847	0.297147	5.38208	0.460816	8.39657	0.579866	9.98668	0.85021	14.2463	0.215776	3.91043	0.439177	7.91289	0.710921	11.8154	0.894364	14.8074
0.300946	4.94134	0.0884368	1.42784	0.297743	5.30339	0.46147	8.26812	0.580016	9.95276	0.850575	14.0334	0.217682	3.87947	0.439837	7.79395	0.711298	11.6414	0.894734	14.5885
0.301602	4.8775	0.090344	1.43702	0.29835	5.22745	0.462134	8.14406	0.580233	9.90444	0.850946	13.8269	0.219595	3.84964	0.440507	7.67905	0.711681	11.4727	0.895111	14.3763
0.302268	4.81571	0.0922563	1.44601	0.298966	5.15411	0.462807	8.02418	0.580469	9.85252	0.851322	13.6268	0.221515	3.8209	0.441188	7.56799	0.71207	11.3091	0.895492	14.1704
0.302944	4.75588	0.0941731	1.45481	0.299592	5.08325	0.46349	7.90827	0.580793	9.78287	0.851704	13.4326	0.223442	3.79317	0.441878	7.4606	0.712464	11.1504	0.89588	13.9705
0.303541	4.70528	0.0960946	1.46343	0.300228	5.01477	0.464182	7.79615	0.581205	9.69634	0.852091	13.2441	0.225375	3.76642	0.442578	7.3567	0.712864	10.9963	0.896272	13.7765
0.304055	4.66323	0.0980203	1.47187	0.300874	4.94854	0.464885	7.68765	0.581709	9.59396	0.852484	13.061	0.227315	3.74058	0.443289	7.25613	0.71327	10.8467	0.89667	13.588
0.304485	4.62918	0.0999504	1.48014	0.301529	4.88447	0.465596	7.58259	0.582306	9.47691	0.852883	12.8832	0.22926	3.71563	0.444009	7.15874	0.713681	10.7013	0.897074	13.4049
0.304827	4.60272	0.101884	1.48825	0.302194	4.82246	0.466317	7.48082	0.583	9.34649	0.853287	12.7104	0.231211	3.6915	0.444739	7.0644	0.714044	10.578	0.897482	13.2268
0.30508	4.58351	0.103822	1.49619	0.302869	4.76242	0.467048	7.3822	0.583704	9.22006	0.853696	12.5425	0.233167	3.66817	0.445479	6.97295	0.714357	10.4752	0.897897	13.0537
0.305243	4.57133	0.105764	1.50398	0.303553	4.70426	0.467788	7.28659	0.584418	9.09744	0.854111	12.3791	0.235129	3.6456	0.446228	6.88429	0.714618	10.3918	0.898316	12.8853
0.305478	4.55397	0.107709	1.51162	0.304247	4.64791	0.468537	7.19386	0.58514	8.97847	0.854531	12.2202	0.237095	3.62375	0.446988	6.79829	0.714826	10.3269	0.898741	12.7214
0.305734	4.53529	0.109658	1.5191	0.304951	4.59328	0.469296	7.10388	0.585872	8.863	0.854956	12.0655	0.239067	3.60258	0.447757	6.71483	0.714979	10.2797	0.899172	12.5618
0.306085	4.51021	0.11161	1.52644	0.305665	4.54031	0.470063	7.01655	0.586613	8.75087	0.855388	11.9149	0.241044	3.58207	0.448535	6.63382	0.715078	10.2497	0.899607	12.4064
0.306531	4.47902	0.113565	1.53364	0.306388	4.48893	0.47084	6.93174	0.587364	8.64196	0.855824	11.7683	0.243025	3.56219	0.449324	6.55515	0.715221	10.207	0.900048	12.255
0.307076	4.44206	0.115523	1.5407	0.307121	4.43908	0.471626	6.84936	0.588124	8.53612	0.856266	11.6254	0.24501	3.54291	0.450122	6.47873	0.715376	10.161	0.900495	12.1075
0.307722	4.39973	0.117232	1.54674	0.307864	4.39069	0.472421	6.76931	0.588893	8.43324	0.856713	11.4862	0.247	3.5242	0.450929	6.40446	0.715589	10.0991	0.900947	11.9637
0.308473	4.35249	0.11869	1.55181	0.308616	4.3437	0.473224	6.69149	0.589671	8.3332	0.857166	11.3505	0.248993	3.50604	0.451746	6.33227	0.71586	10.0219	0.901404	11.8235
0.309233	4.3066	0.119898	1.55595	0.309378	4.29806	0.474037	6.61583	0.590458	8.23588	0.857624	11.2182	0.250991	3.4884	0.452572	6.26207	0.71619	9.93036	0.901866	11.6867
0.310003	4.26202	0.120853	1.55919	0.31015	4.25373	0.474859	6.54222	0.591254	8.14119	0.858088	11.0891	0.252993	3.47127	0.453408	6.19379	0.716582	9.82518	0.902334	11.5533
0.310783	4.2187	0.121556	1.56156	0.310931	4.21064	0.475689	6.47061	0.592059	8.04901	0.858557	10.9631	0.254998	3.45462	0.454253	6.12734	0.717036	9.7074	0.902807	11.4231
0.311572	4.17659	0.122006	1.56306	0.311723	4.16876	0.476528	6.4009	0.592873	7.95926	0.85897	10.8559	0.257007	3.43844	0.455107	6.06267	0.717497	9.59264	0.903285	11.296
0.312371	4.13565	0.122653	1.56521	0.312524	4.12803	0.477376	6.33303	0.593696	7.87185	0.859325	10.7662	0.259019	3.42269	0.45597	5.99971	0.717962	9.48077	0.903768	11.1719
0.31318	4.09584	0.123357	1.56754	0.313334	4.08843	0.478232	6.26693	0.594528	7.78669	0.859621	10.6932	0.261035	3.40738	0.456843	5.9384	0.718434	9.37169	0.904257	11.0506
0.313999	4.05711	0.124314	1.57067	0.314155	4.0499	0.479097	6.20253	0.595369	7.7037	0.859857	10.6363	0.263053	3.39247	0.457725	5.87866	0.718911	9.26531	0.904687	10.9473
0.314827	4.01942	0.125526	1.5746	0.314985	4.0124	0.479971	6.13978	0.596218	7.62279	0.860031	10.5948	0.265075	3.37796	0.458616	5.82046	0.719393	9.16152	0.905057	10.8608
0.315665	3.98275	0.126993	1.57928	0.315825	3.97592	0.480853	6.07862	0.597076	7.5439	0.860143	10.5685	0.2671	3.36382	0.459516	5.76373	0.719882	9.06023	0.905365	10.7904
0.316513	3.94705	0.128715	1.5847	0.316674	3.94039	0.481743	6.01898	0.597943	7.46695	0.860304	10.5308	0.269128	3.35005	0.460426	5.70843	0.720375	8.96136	0.90561	10.7354
0.31737	3.91228	0.130693	1.59081	0.317534	3.90581	0.482642	5.96082	0.598818	7.39188	0.86048	10.4903	0.271158	3.33663	0.461344	5.65449	0.720874	8.86483	0.90579	10.6953
0.318238	3.87843	0.132674	1.59681	0.318403	3.87212	0.483548	5.90409	0.599703	7.31862	0.86072	10.4356	0.273192	3.32355	0.462271	5.60189	0.721379	8.77055	0.905906	10.6699
0.319115	3.84546	0.134657	1.60271	0.319282	3.83931	0.484464	5.84873	0.600595	7.24712	0.861025	10.3674	0.275228	3.31079	0.463207	5.55056	0.72189	8.67845	0.906074	10.6335
0.320002	3.81333	0.136642	1.60849	0.320171	3.80735	0.485387	5.79469	0.601496	7.1773	0.861397	10.2861	0.277266	3.29834	0.464152	5.50047	0.722405	8.58845	0.906256	10.5943
0.320899	3.78203	0.138629	1.61418	0.32107	3.7762	0.486318	5.74195	0.602406	7.10912	0.861838	10.1926	0.279307	3.2862	0.465105	5.45158	0.722927	8.5005	0.906506	10.5414
0.321806	3.75152	0.140618	1.61976	0.321978	3.74584	0.487258	5.69044	0.603324	7.04252	0.862348	10.0875	0.28135	3.27434	0.466068	5.40385	0.723454	8.41451	0.906823	10.4754
0.322722	3.72179	0.142608	1.62525	0.322897	3.71624	0.488205	5.64014	0.60425	6.97745	0.862863	9.98467	0.283395	3.26277	0.467039	5.35724	0.723986	8.33043	0.907209	10.3967
0.323649	3.69279	0.144601	1.63065	0.323825	3.68739	0.489161	5.591	0.605185	6.91386	0.863384	9.88413	0.285443	3.25147	0.468019	5.31171	0.724524	8.24819	0.907665	10.3061
0.324586	3.66453	0.146595	1.63595	0.324764	3.65926	0.490124	5.54298	0.606128	6.8517	0.86391	9.78578	0.287493	3.24043	0.469008	5.26724	0.725068	8.16775	0.908194	10.2041
0.325532	3.63696	0.148591	1.64116	0.325713	3.63182	0.491095	5.49605	0.607079	6.79093	0.864442	9.68954	0.289545	3.22964	0.470005	5.22378	0.725617	8.08904	0.908728	10.1043
0.326489	3.61007	0.150588	1.64628	0.326671	3.60505	0.492074	5.45018	0.608038	6.7315	0.864979	9.59535	0.291598	3.21909	0.47101	5.1813	0.726171	8.012	0.909267	10.0067
0.327456	3.58384	0.152587	1.65131	0.32764	3.57895	0.493061	5.40533	0.609006	6.67338	0.865521	9.50314	0.293654	3.20878	0.472025	5.13978	0.726731	7.93659	0.909811	9.91104
0.328433	3.55825	0.154588	1.65626	0.328619	3.55348	0.494056	5.36147	0.609981	6.61652	0.866068	9.41286	0.295711	3.1987	0.473047	5.09918	0.727296	7.86276	0.91036	9.81738
0.32942	3.53328	0.15659	1.66113	0.329608	3.52862	0.495058	5.31857	0.610965	6.56088	0.86662	9.32445	0.297771	3.18884	0.474078	5.05949	0.727867	7.79047	0.910915	9.72564
0.330418	3.50891	0.158593	1.66591	0.330608	3.50437	0.496067	5.2766	0.611956	6.50643	0.867178	9.23784	0.299832	3.17919	0.475118	5.02066	0.728443	7.71965	0.911474	9.63576
0.331426	3.48513	0.160598	1.67062	0.331618	3.4807	0.497084	5.23553	0.612956	6.45314	0.867741	9.153	0.301894	3.16974	0.476166	4.98267	0.729025	7.65028	0.912038	9.54769
0.332444	3.46193	0.162603	1.67525	0.332638	3.4576	0.498109	5.19534	0.613963	6.40096	0.86831	9.06985	0.303959	3.1605	0.477222	4.94551	0.729612	7.58231	0.912608	9.46137
0.333473	3.43927	0.164611	1.67981	0.333669	3.43504	0.499141	5.156	0.614978	6.34986	0.868883	8.98837	0.306024	3.15145	0.478286	4.90914	0.730205	7.5157	0.913182	9.37675
0.334512	3.41715	0.166619	1.68429	0.33471	3.41303	0.50018	5.11748	0.616001	6.29982	0.869462	8.9085	0.308092	3.14259	0.479359	4.87354	0.730803	7.45041	0.913762	9.29379
0.335562	3.39556	0.168628	1.68869	0.335762	3.39153	0.501227	5.07977	0.617032	6.2508	0.870046	8.83019	0.31016	3.1339	0.480439	4.8387	0.731406	7.3864	0.914347	9.21244
0.336623	3.37448	0.170639	1.69303	0.336825	3.37055	0.502281	5.04283	0.618071	6.20278	0.870635	8.75339	0.31223	3.1254	0.481528	4.80458	0.732015	7.32364	0.914936	9.13265
0.337694	3.3539	0.172651	1.6973	0.337898	3.35006	0.503342	5.00665	0.619117	6.15572	0.871229	8.67808	0.314302	3.11706	0.482625	4.77117	0.73263	7.26209	0.915531	9.05438
0.338777	3.3338	0.174663	1.7015	0.338983	3.33005	0.50441	4.97121	0.620171	6.1096	0.871829	8.6042	0.316374	3.10889	0.48373	4.73845	0.733249	7.20173	0.916131	8.97759
0.33987	3.31417	0.176677	1.70564	0.340078	3.31051	0.505485	4.93648	0.621232	6.06439	0.872433	8.53172	0.318448	3.10088	0.484843	4.7064	0.733874	7.1425	0.916735	8.90224
0.340975	3.29501	0.178692	1.70971	0.341185	3.29143	0.506567	4.90244	0.622301	6.02008	0.873043	8.46059	0.320523	3.09302	0.485964	4.675	0.734505	7.0844	0.917345	8.82828
0.342091	3.2763	0.180707	1.71372	0.342303	3.27281	0.507657	4.86908	0.623377	5.97662	0.873658	8.39079	0.322599	3.08532	0.487093	4.64423	0.73514	7.02738	0.917959	8.75569
0.343218	3.25802	0.182724	1.71766	0.343433	3.25461	0.508753	4.83638	0.624461	5.934	0.874278	8.32228	0.324677	3.07776	0.488229	4.61408	0.735781	6.97142	0.918579	8.68442
0.344357	3.24018	0.184741	1.72155	0.344574	3.23685	0.509856	4.80431	0.625552	5.89221	0.874903	8.25502	0.326755	3.07035	0.489374	4.58453	0.736428	6.91649	0.919203	8.61444
0.345508	3.22275	0.186759	1.72538	0.345727	3.2195	0.510966	4.77287	0.626651	5.85121	0.875534	8.18898	0.328834	3.06307	0.490526	4.55556	0.73708	6.86256	0.919832	8.54572
0.34667	3.20574	0.188778	1.72914	0.346892	3.20256	0.512083	4.74203	0.627757	5.81098	0.876169	8.12413	0.330914	3.05592	0.491686	4.52716	0.737737	6.80961	0.920466	8.47823
0.347845	3.18912	0.190798	1.73285	0.348068	3.18602	0.513206	4.71178	0.62887	5.77151	0.87681	8.06043	0.332995	3.04891	0.492854	4.49931	0.738399	6.75761	0.921105	8.41193
0.349032	3.1729	0.192818	1.73651	0.349258	3.16987	0.514336	4.6821	0.62999	5.73277	0.877456	7.99787	0.335077	3.04202	0.494043	4.47214	0.739067	6.70654	0.921749	8.34679
0.350231	3.15706	0.194839	1.74011	0.350459	3.1541	0.515473	4.65299	0.631117	5.69475	0.878106	7.9364	0.33716	3.03526	0.495212	4.44523	0.73974	6.65637	0.922398	8.28278
0.351442	3.1416	0.196861	1.74366	0.351673	3.13871	0.516616	4.62442	0.632252	5.65742	0.878762	7.87601	0.339244	3.02861	0.496403	4.41896	0.740419	6.60708	0.923052	8.21988
0.352667	3.1265	0.198883	1.74715	0.3529	3.12369	0.517766	4.59638	0.633394	5.62078	0.879423	7.81666	0.341328	3.02208	0.497601	4.39318	0.741102	6.55866	0.92371	8.15806
0.353904	3.11177	0.200906	1.75059	0.35414	3.10903	0.518922	4.56885	0.634542	5.58479	0.880089	7.75833	0.343413	3.01567	0.498806	4.3679	0.741791	6.51107	0.924373	8.09729
0.355155	3.0974	0.20293	1.75399	0.355394	3.09472	0.520085	4.54183	0.635698	5.54946	0.88076	7.70099	0.345499	3.00936	0.500019	4.34309	0.742486	6.4643	0.925041	8.03754
0.356419	3.08337	0.204954	1.75733	0.35666	3.08075	0.521254	4.51531	0.63686	5.51475	0.881436	7.64463	0.347585	3.00316	0.50124	4.31874	0.743185	6.41832	0.925714	7.9788
0.357697	3.06968	0.206978	1.76063	0.357941	3.06713	0.52243	4.48926	0.638029	5.48066	0.882117	7.58921	0.349672	2.99707	0.502467	4.29484	0.74389	6.37313	0.926392	7.92103
0.358989	3.05633	0.209003	1.76387	0.359236	3.05384	0.523612	4.46368	0.639206	5.44717	0.882803	7.53472	0.35176	2.99107	0.503703	4.27138	0.7446	6.3287	0.927074	7.86421
0.360296	3.04331	0.211029	1.76707	0.360545	3.04089	0.5248	4.43855	0.640388	5.41426	0.883494	7.48112	0.353848	2.98518	0.504945	4.24835	0.745315	6.285	0.927762	7.80833
0.361616	3.03062	0.213055	1.77023	0.361868	3.02825	0.525994	4.41387	0.641578	5.38193	0.88419	7.42841	0.355936	2.97938	0.506195	4.22574	0.746036	6.24204	0.928453	7.75336
0.362952	3.01825	0.215082	1.77334	0.363207	3.01594	0.527194	4.38962	0.642775	5.35015	0.884891	7.37656	0.358025	2.97368	0.507452	4.20354	0.746761	6.19978	0.92915	7.69927
0.364303	3.00619	0.217109	1.77641	0.36456	3.00394	0.528401	4.3658	0.643978	5.31891	0.885597	7.32555	0.360115	2.96806	0.508716	4.18174	0.747492	6.15821	0.929851	7.64605
0.365669	2.99444	0.219136	1.77943	0.365929	2.99225	0.529613	4.34239	0.645187	5.28821	0.886308	7.27536	0.362205	2.96254	0.509987	4.16033	0.748228	6.11732	0.930557	7.59368
0.367051	2.983	0.221164	1.78241	0.367314	2.98086	0.530832	4.31939	0.646403	5.25802	0.887024	7.22598	0.364295	2.9571	0.511265	4.13929	0.74897	6.07709	0.931268	7.54214
0.368449	2.97186	0.223193	1.78535	0.368715	2.96978	0.532056	4.29677	0.647626	5.22834	0.887745	7.17738	0.366386	2.95175	0.512551	4.11863	0.749716	6.03751	0.931983	7.4914
0.369863	2.96101	0.225221	1.78825	0.370133	2.95899	0.533287	4.27455	0.648855	5.19916	0.888471	7.12954	0.368477	2.94647	0.513843	4.09833	0.750468	5.99855	0.932703	7.44146
0.371295	2.95046	0.22725	1.79111	0.371567	2.9485	0.534523	4.2527	0.650091	5.17046	0.889202	7.08245	0.370568	2.94128	0.515143	4.07839	0.751225	5.96022	0.933428	7.39229
0.372743	2.9402	0.229279	1.79393	0.373019	2.93829	0.535765	4.23122	0.651333	5.14223	0.889938	7.0361	0.372659	2.93617	0.516449	4.0588	0.751987	5.92248	0.934157	7.34388
0.374209	2.93023	0.231309	1.79672	0.374488	2.92837	0.537013	4.21009	0.652581	5.11447	0.890678	6.99046	0.374751	2.93113	0.517762	4.03954	0.752754	5.88534	0.934891	7.29621
0.375692	2.92054	0.233339	1.79946	0.375975	2.91874	0.538267	4.18932	0.653835	5.08715	0.891424	6.94552	0.376843	2.92617	0.519083	4.02061	0.753526	5.84877	0.93563	7.24926
0.377194	2.91113	0.235369	1.80217	0.37748	2.90938	0.539526	4.16889	0.655096	5.06028	0.892174	6.90127	0.378935	2.92128	0.52041	4.00201	0.754303	5.81277	0.936373	7.20302
0.378714	2.90199	0.237399	1.80484	0.379003	2.90029	0.540791	4.1488	0.656363	5.03384	0.892929	6.85769	0.381027	2.91646	0.521744	3.98373	0.755086	5.77732	0.937121	7.15748
0.380252	2.89313	0.23943	1.80747	0.380546	2.89148	0.542062	4.12903	0.657636	5.00782	0.893689	6.81476	0.383119	2.91171	0.523084	3.96575	0.755873	5.74241	0.937873	7.11261
0.38181	2.88453	0.241461	1.81007	0.382107	2.88293	0.543338	4.10959	0.658915	4.98221	0.894454	6.77248	0.385212	2.90703	0.524432	3.94808	0.756666	5.70803	0.93863	7.0684
0.383387	2.8762	0.243492	1.81264	0.383688	2.87465	0.544619	4.09046	0.660201	4.95701	0.895224	6.73083	0.387304	2.90241	0.525786	3.9307	0.757464	5.67417	0.939391	7.02485
0.384983	2.86813	0.245523	1.81517	0.385288	2.86663	0.545907	4.07163	0.661492	4.9322	0.895999	6.68979	0.389396	2.89786	0.527146	3.91362	0.758267	5.64081	0.940157	6.98193
0.3866	2.86032	0.247555	1.81767	0.386908	2.85887	0.547199	4.05311	0.662789	4.90778	0.896778	6.64935	0.391489	2.89337	0.528514	3.89681	0.759074	5.60795	0.940927	6.93964
0.388236	2.85276	0.249586	1.82014	0.388548	2.85136	0.548497	4.03488	0.664092	4.88374	0.897562	6.60951	0.393581	2.88894	0.529888	3.88029	0.759887	5.57558	0.941702	6.89795
0.389893	2.84545	0.251618	1.82257	0.390209	2.8441	0.549801	4.01694	0.665401	4.86007	0.898351	6.57024	0.395674	2.88458	0.531268	3.86403	0.760705	5.54368	0.942481	6.85686
0.39157	2.83839	0.25365	1.82497	0.39189	2.83708	0.551109	3.99927	0.666716	4.83676	0.899145	6.53154	0.397766	2.88027	0.532655	3.84805	0.761528	5.51226	0.943265	6.81636
0.393268	2.83158	0.255682	1.82734	0.393591	2.83031	0.552423	3.98189	0.668037	4.8138	0.899944	6.4934	0.399859	2.87601	0.534049	3.83232	0.762356	5.48128	0.944053	6.77643
0.394986	2.825	0.257715	1.82969	0.395313	2.82378	0.553743	3.96477	0.669364	4.79119	0.900747	6.45579	0.401951	2.87182	0.535449	3.81685	0.76319	5.45076	0.944846	6.73707
0.396725	2.81865	0.259747	1.832	0.397056	2.81747	0.555067	3.94792	0.670696	4.76893	0.901555	6.41872	0.404043	2.86768	0.536855	3.80162	0.764028	5.42067	0.945643	6.69825
0.398484	2.81253	0.261779	1.83428	0.39882	2.8114	0.556397	3.93132	0.672034	4.74699	0.902368	6.38218	0.406135	2.86359	0.538268	3.78665	0.764871	5.39102	0.946445	6.65998
0.400264	2.80664	0.263812	1.83653	0.400604	2.80555	0.557731	3.91498	0.673377	4.72538	0.903186	6.34614	0.408226	2.85955	0.539687	3.77191	0.765719	5.36179	0.94725	6.62223
0.402065	2.80097	0.265845	1.83875	0.402408	2.79992	0.559071	3.89889	0.674727	4.7041	0.904008	6.31061	0.410318	2.85556	0.541113	3.7574	0.766572	5.33297	0.948061	6.58501
0.403886	2.79551	0.267877	1.84095	0.404233	2.7945	0.560416	3.88304	0.676081	4.68312	0.904835	6.27556	0.412409	2.85163	0.542545	3.74313	0.76743	5.30455	0.948875	6.54829
0.405727	2.79026	0.26991	1.84312	0.406078	2.78929	0.561766	3.86742	0.677442	4.66245	0.905667	6.241	0.4145	2.84774	0.543983	3.72908	0.768293	5.27654	0.949694	6.51207
0.407589	2.78521	0.271943	1.84526	0.407943	2.78428	0.563121	3.85204	0.678807	4.64209	0.906504	6.20692	0.416591	2.8439	0.545427	3.71525	0.769161	5.24891	0.950518	6.47634
0.40947	2.78037	0.273976	1.84738	0.409828	2.77947	0.564481	3.83689	0.680178	4.62201	0.907345	6.1733	0.418682	2.84011	0.546878	3.70164	0.770033	5.22167	0.951345	6.44109
0.41137	2.77571	0.276009	1.84947	0.411732	2.77485	0.565845	3.82196	0.681555	4.60223	0.908191	6.14013	0.420772	2.83636	0.548334	3.68824	0.770911	5.1948	0.952177	6.40631
0.41329	2.77124	0.278042	1.85153	0.413655	2.77042	0.567215	3.80725	0.682937	4.58273	0.909041	6.10741	0.422862	2.83266	0.549797	3.67505	0.771794	5.1683	0.953014	6.372
0.415228	2.76696	0.280075	1.85357	0.415597	2.76616	0.568589	3.79276	0.684324	4.56351	0.909896	6.07512	0.424951	2.829	0.551266	3.66206	0.772681	5.14216	0.953854	6.33813
0.417185	2.76284	0.282108	1.85558	0.417558	2.76208	0.569968	3.77848	0.685716	4.54456	0.910756	6.04327	0.42704	2.82538	0.552741	3.64928	0.773574	5.11638	0.954699	6.30472
0.41916	2.7589	0.284141	1.85757	0.419536	2.75817	0.571352	3.7644	0.687114	4.52587	0.91162	6.01184	0.429129	2.82181	0.554222	3.63668	0.774471	5.09094	0.955548	6.27173
0.421152	2.75511	0.286174	1.85953	0.421531	2.75442	0.572741	3.75053	0.688517	4.50745	0.912489	5.98082	0.431217	2.81827	0.555709	3.62428	0.775373	5.06585	0.956402	6.23918
0.423162	2.75149	0.288207	1.86147	0.423544	2.75082	0.574134	3.73685	0.689925	4.48929	0.913363	5.95021	0.433305	2.81478	0.557202	3.61207	0.77628	5.04109	0.957259	6.20705
0.425188	2.74801	0.29024	1.86339	0.425573	2.74737	0.575532	3.72337	0.691338	4.47137	0.914241	5.92	0.435393	2.81132	0.558701	3.60005	0.777192	5.01666	0.958121	6.17533
0.427229	2.74468	0.292273	1.86529	0.427618	2.74407	0.576935	3.71008	0.692756	4.45371	0.915124	5.89018	0.43748	2.80791	0.560206	3.5882	0.778109	4.99255	0.958987	6.14402
0.429287	2.74149	0.294306	1.86716	0.429678	2.7409	0.578342	3.69698	0.694179	4.43629	0.916011	5.86075	0.439566	2.80453	0.561717	3.57654	0.77903	4.96876	0.959857	6.1131
0.431359	2.73843	0.296339	1.86901	0.431753	2.73787	0.579753	3.68406	0.695608	4.4191	0.916903	5.83169	0.441652	2.80119	0.563234	3.56505	0.779957	4.94528	0.960732	6.08258
0.433446	2.7355	0.298372	1.87083	0.433843	2.73496	0.58117	3.67133	0.697041	4.40215	0.9178	5.80301	0.443737	2.79788	0.564756	3.55373	0.780888	4.92211	0.96161	6.05244
0.435547	2.73269	0.300404	1.87264	0.435947	2.73218	0.58259	3.65877	0.698479	4.38543	0.918701	5.77468	0.445822	2.79461	0.566285	3.54257	0.781824	4.89923	0.962493	6.02268
0.437662	2.73	0.302437	1.87443	0.438063	2.7295	0.584015	3.64638	0.699922	4.36893	0.919606	5.74672	0.447907	2.79137	0.567819	3.53159	0.782765	4.87666	0.96338	5.99329
0.439789	2.72742	0.30447	1.87619	0.440193	2.72694	0.585445	3.63417	0.701369	4.35265	0.920516	5.71911	0.44999	2.78817	0.569359	3.52076	0.78371	4.85437	0.964271	5.96426
0.441929	2.72495	0.306502	1.87793	0.442335	2.72449	0.586879	3.62212	0.702822	4.33659	0.921431	5.69185	0.452073	2.785	0.570904	3.5101	0.784661	4.83237	0.965166	5.93559
0.444081	2.72257	0.308535	1.87966	0.444489	2.72214	0.588317	3.61023	0.704279	4.32075	0.92235	5.66492	0.454156	2.78186	0.572456	3.49959	0.785616	4.81065	0.966065	5.90727
0.446244	2.7203	0.310567	1.88136	0.446655	2.71988	0.58976	3.59851	0.705741	4.30511	0.923273	5.63833	0.456238	2.77875	0.574013	3.48923	0.786576	4.7892	0.966968	5.8793
0.448418	2.71811	0.3126	1.88304	0.448831	2.71771	0.591206	3.58695	0.707208	4.28968	0.924201	5.61206	0.458319	2.77568	0.575575	3.47903	0.78754	4.76803	0.967875	5.85167
0.450603	2.71602	0.314632	1.88471	0.451018	2.71563	0.592658	3.57554	0.70868	4.27445	0.925134	5.58612	0.4604	2.77263	0.577143	3.46897	0.788509	4.74712	0.968787	5.82437
0.452798	2.71401	0.316664	1.88635	0.453214	2.71363	0.594113	3.56429	0.710156	4.25941	0.926071	5.5605	0.46248	2.76962	0.578717	3.45906	0.789483	4.72647	0.969702	5.7974
0.455002	2.71207	0.318696	1.88798	0.45542	2.71172	0.595572	3.55318	0.711636	4.24457	0.927012	5.53518	0.464559	2.76664	0.580296	3.44929	0.790462	4.70608	0.970622	5.77075
0.457216	2.71022	0.320728	1.88959	0.457636	2.70987	0.597036	3.54223	0.713122	4.22993	0.927958	5.51018	0.466637	2.76368	0.581881	3.43966	0.791445	4.68594	0.971545	5.74442
0.459438	2.70843	0.32276	1.89118	0.45986	2.7081	0.598504	3.53141	0.714611	4.21546	0.928908	5.48547	0.468715	2.76075	0.583472	3.43017	0.792433	4.66605	0.972472	5.7184
0.461669	2.70672	0.324791	1.89275	0.462092	2.7064	0.599976	3.52074	0.716105	4.20119	0.929863	5.46106	0.470792	2.75785	0.585067	3.42081	0.793426	4.64641	0.973404	5.69269
0.463908	2.70507	0.326823	1.8943	0.464333	2.70476	0.601452	3.51021	0.717604	4.18709	0.930822	5.43695	0.472868	2.75498	0.586669	3.41159	0.794424	4.627	0.974339	5.66728
0.466155	2.70348	0.328854	1.89584	0.466581	2.70319	0.602932	3.49982	0.719107	4.17318	0.931785	5.41312	0.474944	2.75213	0.588275	3.4025	0.795426	4.60784	0.975279	5.64217
0.468408	2.70195	0.330886	1.89736	0.468836	2.70167	0.604416	3.48956	0.720614	4.15944	0.932753	5.38957	0.477018	2.74931	0.589887	3.39354	0.796432	4.5889	0.976222	5.61735
0.470669	2.70048	0.332917	1.89886	0.471098	2.70021	0.605904	3.47944	0.722126	4.14587	0.933725	5.36629	0.479092	2.74651	0.591505	3.3847	0.797444	4.57019	0.977169	5.59282
0.472937	2.69906	0.334948	1.90035	0.473367	2.6988	0.607396	3.46945	0.723642	4.13246	0.934702	5.3433	0.481165	2.74374	0.593127	3.37599	0.798459	4.55171	0.97812	5.56857
0.475211	2.69769	0.336979	1.90181	0.475642	2.69744	0.608892	3.45958	0.725162	4.11923	0.935683	5.32056	0.483238	2.741	0.594755	3.3674	0.79948	4.53345	0.979076	5.5446
0.477491	2.69638	0.339009	1.90327	0.477923	2.69613	0.610392	3.44984	0.726687	4.10616	0.936668	5.2981	0.485309	2.73827	0.596389	3.35892	0.800505	4.51541	0.980035	5.5209
0.479777	2.69511	0.34104	1.9047	0.48021	2.69487	0.611896	3.44022	0.728215	4.09325	0.937657	5.27589	0.487379	2.73558	0.598027	3.35057	0.801535	4.49758	0.980997	5.49747
0.482068	2.69388	0.34307	1.90613	0.482502	2.69365	0.613404	3.43073	0.729748	4.08049	0.938651	5.25394	0.489449	2.7329	0.599671	3.34233	0.802569	4.47996	0.981964	5.4743
0.484365	2.69269	0.3451	1.90753	0.4848	2.69247	0.614915	3.42135	0.731285	4.06789	0.939649	5.23224	0.491518	2.73025	0.60132	3.33421	0.803608	4.46255	0.982935	5.4514
0.486666	2.69155	0.34713	1.90892	0.487102	2.69133	0.61643	3.4121	0.732826	4.05545	0.940652	5.21079	0.493586	2.72762	0.602974	3.3262	0.804651	4.44534	0.983909	5.42875
0.488973	2.69044	0.34916	1.9103	0.48941	2.69023	0.617949	3.40295	0.734371	4.04315	0.941658	5.18958	0.495653	2.72501	0.604633	3.3183	0.805699	4.42834	0.984887	5.40636
0.491284	2.68937	0.35119	1.91166	0.491722	2.68917	0.619472	3.39393	0.73592	4.031	0.942669	5.16861	0.497719	2.72242	0.606298	3.3105	0.806751	4.41153	0.985869	5.38421
0.493599	2.68833	0.35322	1.913	0.494038	2.68814	0.620999	3.38501	0.737473	4.019	0.943685	5.14788	0.499784	2.71986	0.607967	3.30282	0.807808	4.39492	0.986855	5.36231
0.495919	2.68733	0.355249	1.91433	0.496358	2.68714	0.622529	3.37621	0.73903	4.00714	0.944704	5.12738	0.501848	2.71732	0.609642	3.29524	0.80887	4.3785	0.987845	5.34065
0.498243	2.68636	0.357278	1.91565	0.498683	2.68618	0.624063	3.36751	0.740592	3.99542	0.945728	5.10712	0.503911	2.71479	0.611321	3.28776	0.809936	4.36227	0.988838	5.31923
0.50057	2.68542	0.359307	1.91695	0.501011	2.68524	0.6256	3.35892	0.742156	3.98384	0.946756	5.08707	0.505973	2.71229	0.613006	3.28038	0.811006	4.34623	0.989836	5.29804
0.502901	2.68451	0.361336	1.91824	0.503343	2.68434	0.627141	3.35043	0.743725	3.97239	0.947788	5.06725	0.508035	2.7098	0.614695	3.2731	0.812081	4.33037	0.990837	5.27708
0.505236	2.68362	0.363364	1.91952	0.505678	2.68346	0.628686	3.34205	0.745298	3.96108	0.948824	5.04765	0.510095	2.70734	0.61639	3.26592	0.81316	4.31469	0.991841	5.25635
0.507574	2.68276	0.365393	1.92078	0.508017	2.6826	0.630235	3.33377	0.746874	3.9499	0.949865	5.02826	0.512154	2.70489	0.618089	3.25884	0.814244	4.29918	0.99285	5.23584
0.509915	2.68193	0.367421	1.92203	0.510358	2.68178	0.631786	3.32559	0.748454	3.93885	0.95091	5.00909	0.514213	2.70246	0.619794	3.25185	0.815332	4.28386	0.993862	5.21555
0.512259	2.68112	0.369449	1.92326	0.512703	2.68097	0.633342	3.31751	0.750038	3.92792	0.951959	4.99012	0.51627	2.70006	0.621503	3.24496	0.816425	4.2687	0.994878	5.19548
0.514606	2.68033	0.371477	1.92448	0.515051	2.68019	0.634901	3.30952	0.751626	3.91713	0.953012	4.97136	0.518326	2.69766	0.623217	3.23815	0.817522	4.25372	0.995897	5.17562
0.516956	2.67957	0.373504	1.92569	0.517401	2.67943	0.636463	3.30163	0.753217	3.90645	0.954069	4.9528	0.520381	2.69529	0.624936	3.23144	0.818624	4.2389	0.99692	5.15597
0.519308	2.67883	0.375532	1.92689	0.519754	2.67869	0.638029	3.29384	0.754812	3.8959	0.95513	4.93445	0.522435	2.69294	0.62666	3.22482	0.81973	4.22424	0.997947	5.13653
0.521663	2.6781	0.377559	1.92807	0.522109	2.67797	0.639598	3.28613	0.756411	3.88546	0.956196	4.91629	0.524489	2.6906	0.628388	3.21828	0.82084	4.20975	0.998978	5.1173
0.524021	2.6774	0.379586	1.92924	0.524467	2.67727	0.641171	3.27852	0.758013	3.87515	0.957265	4.89832	0.526541	2.68828	0.630121	3.21183	0.821955	4.19542	1.00001	5.09826
0.52638	2.67671	0.381612	1.9304	0.526827	2.67659	0.642747	3.27099	0.759618	3.86495	0.958339	4.88055	0.528592	2.68597	0.631859	3.20547	0.823074	4.18125		
0.528742	2.67605	0.383639	1.93155	0.52919	2.67592	0.644327	3.26356	0.761228	3.85486	0.959417	4.86296	0.530642	2.68368	0.633602	3.19919	0.824197	4.16723		
0.531106	2.6754	0.385665	1.93269	0.531554	2.67527	0.64591	3.25621	0.76284	3.84489	0.960499	4.84557	0.53269	2.68141	0.635349	3.19299	0.825325	4.15337		
0.533472	2.67476	0.387691	1.93381	0.53392	2.67464	0.647496	3.24895	0.764457	3.83502	0.961585	4.82835	0.534738	2.67915	0.637101	3.18687	0.826457	4.13966		
0.53584	2.67414	0.389717	1.93492	0.536289	2.67403	0.649086	3.24177	0.766076	3.82527	0.962675	4.81131	0.536785	2.67691	0.638857	3.18083	0.827593	4.12609		
0.53821	2.67354	0.391743	1.93603	0.538659	2.67342	0.650679	3.23467	0.767699	3.81562	0.963769	4.79446	0.53883	2.67468	0.640619	3.17488	0.828734	4.11268		
0.540582	2.67295	0.393768	1.93712	0.541031	2.67284	0.652275	3.22766	0.769326	3.80608	0.964867	4.77778	0.540875	2.67247	0.642384	3.16899	0.829879	4.09941		
0.542955	2.67237	0.395793	1.93819	0.543404	2.67226	0.653874	3.22072	0.770955	3.79664	0.965969	4.76127	0.542918	2.67028	0.644154	3.16319	0.831028	4.08628		
0.54533	2.67181	0.397818	1.93926	0.545779	2.6717	0.655477	3.21387	0.772588	3.78731	0.967075	4.74493	0.54496	2.66809	0.645929	3.15746	0.832182	4.07329		
0.547706	2.67126	0.399843	1.94032	0.548156	2.67115	0.657083	3.20709	0.774225	3.77808	0.968186	4.72876	0.547002	2.66593	0.647708	3.1518	0.83334	4.06044		
0.550084	2.67072	0.401867	1.94137	0.550534	2.67062	0.658692	3.20039	0.775864	3.76894	0.9693	4.71276	0.549042	2.66377	0.649492	3.14621	0.834502	4.04773		
0.552463	2.67019	0.403891	1.9424	0.552914	2.67009	0.660304	3.19377	0.777507	3.7599	0.970418	4.69692	0.551081	2.66163	0.65128	3.1407	0.835668	4.03515		
0.554844	2.66967	0.405915	1.94343	0.555294	2.66958	0.66192	3.18722	0.779153	3.75096	0.97154	4.68124	0.553118	2.65951	0.653072	3.13526	0.836839	4.0227		
0.557225	2.66917	0.407939	1.94444	0.557676	2.66907	0.663538	3.18074	0.780803	3.74212	0.972666	4.66572	0.555155	2.6574	0.654869	3.12988	0.838014	4.01039		
0.559608	2.66867	0.409962	1.94545	0.56006	2.66858	0.66516	3.17434	0.782455	3.73337	0.973796	4.65036	0.55719	2.6553	0.65667	3.12458	0.839193	3.9982		
0.561993	2.66819	0.411985	1.94644	0.562444	2.6681	0.666785	3.16801	0.784111	3.72471	0.97493	4.63515	0.559225	2.65321	0.658475	3.11934	0.840376	3.98615		
0.564378	2.66771	0.414008	1.94743	0.564829	2.66762	0.668413	3.16175	0.785769	3.71614	0.976068	4.62009	0.561258	2.65114	0.660285	3.11417	0.841563	3.97422		
0.566764	2.66725	0.416031	1.9484	0.567216	2.66716	0.670044	3.15555	0.787431	3.70766	0.97721	4.60519	0.56329	2.64908	0.662099	3.10906	0.842755	3.96241		
0.569151	2.66679	0.418053	1.94937	0.569603	2.6667	0.671678	3.14943	0.789096	3.69927	0.978356	4.59043	0.565321	2.64703	0.663917	3.10402	0.843951	3.95073		
0.57154	2.66634	0.420075	1.95032	0.571992	2.66625	0.673315	3.14338	0.790764	3.69097	0.979506	4.57583	0.567351	2.645	0.665739	3.09904	0.845151	3.93916		
0.573929	2.6659	0.422097	1.95127	0.574381	2.66581	0.674956	3.13739	0.792434	3.68275	0.98066	4.56136	0.569379	2.64298	0.667566	3.09412	0.846355	3.92772		
0.576319	2.66546	0.424119	1.95221	0.576771	2.66538	0.676599	3.13146	0.794108	3.67462	0.981817	4.54704	0.571407	2.64097	0.669397	3.08927	0.847563	3.91639		
0.578709	2.66503	0.42614	1.95314	0.579162	2.66495	0.678245	3.12561	0.795785	3.66657	0.982979	4.53286	0.573433	2.63897	0.671231	3.08447	0.848776	3.90518		
0.581101	2.66461	0.428161	1.95406	0.581554	2.66454	0.679895	3.11981	0.797464	3.65861	0.984144	4.51882	0.575459	2.63698	0.67307	3.07974	0.849992	3.89409		
0.583493	2.6642	0.430182	1.95497	0.583946	2.66412	0.681547	3.11408	0.799147	3.65072	0.985313	4.50492	0.577483	2.63501	0.674913	3.07506	0.851213	3.88311		
0.585886	2.6638	0.432203	1.95587	0.586339	2.66372	0.683202	3.10841	0.800832	3.64292	0.986486	4.49115	0.579506	2.63304	0.67676	3.07044	0.852438	3.87223		
0.588279	2.6634	0.434223	1.95676	0.588732	2.66332	0.68486	3.1028	0.802521	3.63519	0.987663	4.47751	0.581527	2.63109	0.678611	3.06588	0.853666	3.86147		
0.590673	2.663	0.436243	1.95764	0.591127	2.66293	0.686521	3.09725	0.804212	3.62754	0.988844	4.46401	0.583548	2.62915	0.680466	3.06137	0.854899	3.85082		
0.593068	2.66261	0.438263	1.95852	0.593521	2.66254	0.688186	3.09177	0.805906	3.61997	0.990028	4.45064	0.585567	2.62722	0.682325	3.05692	0.856136	3.84028		
0.595463	2.66223	0.440282	1.95939	0.595917	2.66216	0.689853	3.08634	0.807602	3.61247	0.991216	4.4374	0.587586	2.6253	0.684187	3.05252	0.857378	3.82984		
0.597859	2.66185	0.442302	1.96024	0.598312	2.66178	0.691523	3.08097	0.809302	3.60505	0.992409	4.42428	0.589603	2.62339	0.686054	3.04818	0.858623	3.8195		
0.600255	2.66148	0.444321	1.96109	0.600708	2.66141	0.693195	3.07565	0.811004	3.5977	0.993604	4.41129	0.591619	2.6215	0.687924	3.04389	0.859872	3.80927		
0.602651	2.66111	0.446339	1.96194	0.603105	2.66104	0.694871	3.07039	0.812708	3.59042	0.994804	4.39842	0.593634	2.61961	0.689798	3.03965	0.861125	3.79914		
0.605048	2.66075	0.448358	1.96277	0.605502	2.66068	0.69655	3.06519	0.814416	3.58321	0.996008	4.38567	0.595648	2.61773	0.691676	3.03547	0.862382	3.78912		
0.607445	2.66039	0.450376	1.9636	0.607899	2.66032	0.698231	3.06005	0.816126	3.57608	0.997215	4.37305	0.59766	2.61587	0.693558	3.03133	0.863644	3.77919		
0.609843	2.66004	0.452394	1.96441	0.610297	2.65997	0.699915	3.05495	0.817839	3.56901	0.998426	4.36054	0.599672	2.61401	0.695444	3.02724	0.864909	3.76936		
0.612241	2.65969	0.454412	1.96522	0.612694	2.65962	0.701603	3.04991	0.819554	3.56202	0.99964	4.34816	0.601682	2.61217	0.697333	3.02321	0.866178	3.75962		
0.614639	2.65934	0.456429	1.96603	0.615093	2.65928	0.703293	3.04493	0.821272	3.55509	1.00086	4.33588	0.603692	2.61033	0.699226	3.01922	0.867451	3.74998		
0.617037	2.659	0.458446	1.96682	0.617491	2.65893	0.704985	3.03999	0.822992	3.54822			0.6057	2.60851	0.701122	3.01527	0.868729	3.74044		
0.619435	2.65866	0.460463	1.96761	0.619889	2.6586	0.706681	3.03511	0.824715	3.54143			0.607707	2.60669	0.703022	3.01138	0.87001	3.73099		
0.621834	2.65832	0.462479	1.96839	0.622288	2.65826	0.70838	3.03028	0.826441	3.53469			0.609713	2.60489	0.704926	3.00753	0.871295	3.72163		
0.624233	2.65799	0.464496	1.96916	0.624687	2.65793	0.710081	3.0255	0.828169	3.52803			0.611718	2.60309	0.706833	3.00373	0.872584	3.71236		
0.626631	2.65766	0.466511	1.96993	0.627085	2.6576	0.711785	3.02077	0.829899	3.52142			0.613721	2.6013	0.708744	2.99997	0.873877	3.70319		
0.62903	2.65734	0.468527	1.97069	0.629484	2.65728	0.713492	3.01609	0.831632	3.51488			0.615724	2.59953	0.710658	2.99626	0.875174	3.6941		
0.631429	2.65701	0.470543	1.97144	0.631883	2.65695	0.715201	3.01145	0.833367	3.5084			0.617726	2.59776	0.712576	2.99259	0.876475	3.6851		
0.633828	2.65669	0.472558	1.97218	0.634282	2.65663	0.716914	3.00687	0.835105	3.50198			0.619726	2.596	0.714497	2.98896	0.87778	3.67618		
0.636227	2.65637	0.474573	1.97292	0.636681	2.65631	0.718629	3.00233	0.836845	3.49562			0.621726	2.59425	0.716421	2.98537	0.879089	3.66735		
0.638626	2.65606	0.476587	1.97365	0.63908	2.656	0.720347	2.99784	0.838587	3.48931			0.623724	2.59251	0.718349	2.98183	0.880401	3.65861		
0.641025	2.65574	0.478601	1.97437	0.641479	2.65568	0.722068	2.99339	0.840332	3.48307			0.625722	2.59078	0.72028	2.97833	0.881718	3.64995		
0.643424	2.65543	0.480615	1.97509	0.643878	2.65537	0.723791	2.98899	0.842079	3.47688			0.627718	2.58906	0.722214	2.97487	0.883038	3.64137		
0.645822	2.65512	0.482629	1.9758	0.646276	2.65506	0.725518	2.98464	0.843828	3.47076			0.629713	2.58734	0.724152	2.97144	0.884362	3.63287		
0.648221	2.65481	0.484642	1.97651	0.648675	2.65475	0.727247	2.98033	0.84558	3.46468			0.631707	2.58564	0.726093	2.96806	0.88569	3.62446		
0.650619	2.65451	0.486656	1.9772	0.651073	2.65445	0.728979	2.97606	0.847334	3.45867			0.633701	2.58394	0.728037	2.96472	0.887022	3.61612		
0.653017	2.6542	0.488668	1.97789	0.653471	2.65414	0.730713	2.97184	0.84909	3.4527			0.635693	2.58226	0.729984	2.96141	0.888358	3.60786		
0.655415	2.6539	0.490681	1.97858	0.655869	2.65384	0.73245	2.96766	0.850848	3.44679			0.637684	2.58058	0.731935	2.95814	0.889698	3.59968		
0.657812	2.65359	0.492693	1.97926	0.658266	2.65354	0.73419	2.96352	0.852609	3.44094			0.639674	2.57891	0.733888	2.95491	0.891041	3.59158		
0.66021	2.65329	0.494705	1.97993	0.660664	2.65324	0.735933	2.95943	0.854371	3.43514			0.641663	2.57725	0.735845	2.95172	0.892388	3.58355		
0.662607	2.65299	0.496717	1.98059	0.66306	2.65294	0.737679	2.95538	0.856136	3.42938			0.643651	2.5756	0.737804	2.94856	0.893739	3.5756		
0.665004	2.65269	0.498728	1.98125	0.665457	2.65264	0.739427	2.95136	0.857903	3.42368			0.645639	2.57395	0.739767	2.94543	0.895094	3.56772		
0.6674	2.65239	0.500739	1.98191	0.667853	2.65234	0.741178	2.94739	0.859672	3.41804			0.647625	2.57232	0.741733	2.94234	0.896453	3.55991		
0.669796	2.6521	0.50275	1.98256	0.670249	2.65204	0.742932	2.94346	0.861443	3.41244			0.64961	2.57069	0.743701	2.93929	0.897815	3.55218		
0.672191	2.6518	0.504761	1.9832	0.672645	2.65174	0.744688	2.93957	0.863216	3.40689			0.651594	2.56907	0.745673	2.93627	0.899182	3.54452		
0.674586	2.6515	0.506771	1.98383	0.67504	2.65145	0.746448	2.93572	0.864991	3.40138			0.653578	2.56746	0.747647	2.93328	0.900551	3.53693		
0.676981	2.6512	0.508781	1.98446	0.677434	2.65115	0.74821	2.9319	0.866768	3.39593			0.65556	2.56585	0.749624	2.93033	0.901925	3.52941		
0.679375	2.65091	0.510791	1.98509	0.679828	2.65085	0.749974	2.92813	0.868547	3.39053			0.657542	2.56426	0.751604	2.9274	0.903303	3.52196		
0.681769	2.65061	0.5128	1.98571	0.682222	2.65056	0.751742	2.92439	0.870328	3.38517			0.659522	2.56267	0.753587	2.92451	0.904684	3.51458		
0.684162	2.65032	0.514809	1.98632	0.684615	2.65026	0.753512	2.92069	0.872112	3.37985			0.661502	2.56109	0.755572	2.92166	0.906069	3.50727		
0.686554	2.65002	0.516818	1.98693	0.687007	2.64996	0.755286	2.91703	0.873897	3.37459			0.663481	2.55952	0.75756	2.91883	0.907457	3.50002		
0.688946	2.64972	0.518826	1.98753	0.689399	2.64967	0.757061	2.91341	0.875684	3.36937			0.665459	2.55796	0.759551	2.91603	0.90885	3.49284		
0.691337	2.64942	0.520835	1.98813	0.69179	2.64937	0.75884	2.90982	0.877473	3.36419			0.667436	2.5564	0.761545	2.91326	0.910246	3.48572		
0.693728	2.64913	0.522842	1.98872	0.69418	2.64907	0.760622	2.90627	0.879263	3.35906			0.669412	2.55485	0.763541	2.91053	0.911645	3.47867		
0.696117	2.64883	0.52485	1.98931	0.69657	2.64877	0.762406	2.90275	0.881056	3.35397			0.671387	2.55331	0.76554	2.90782	0.913049	3.47168		
0.698506	2.64853	0.526857	1.98989	0.698959	2.64847	0.764193	2.89927	0.882851	3.34892			0.673362	2.55178	0.767541	2.90514	0.914456	3.46476		
0.700895	2.64823	0.528864	1.99046	0.701347	2.64817	0.765983	2.89583	0.884647	3.34392			0.675336	2.55026	0.769545	2.90249	0.915867	3.4579		
0.703282	2.64793	0.530871	1.99104	0.703734	2.64787	0.767776	2.89242	0.886445	3.33895			0.677308	2.54874	0.771551	2.89987	0.917281	3.4511		
0.705669	2.64763	0.532878	1.9916	0.706121	2.64757	0.769572	2.88904	0.888245	3.33403			0.679281	2.54723	0.77356	2.89727	0.918699	3.44436		
0.708055	2.64732	0.534884	1.99216	0.708506	2.64727	0.77137	2.8857	0.890047	3.32915			0.681252	2.54573	0.775571	2.8947	0.920121	3.43768		
0.71044	2.64702	0.53689	1.99272	0.710891	2.64696	0.773172	2.88239	0.89185	3.32431			0.683222	2.54423	0.777585	2.89216	0.921547	3.43106		
0.712824	2.64672	0.538895	1.99327	0.713275	2.64666	0.774976	2.87912	0.893656	3.31952			0.685192	2.54274	0.779601	2.88964	0.922976	3.42451		
0.715207	2.64641	0.540901	1.99382	0.715658	2.64635	0.776783	2.87588	0.895463	3.31476			0.687161	2.54126	0.781619	2.88715	0.924408	3.41801		
0.717589	2.6461	0.542906	1.99436	0.718039	2.64604	0.778593	2.87267	0.897271	3.31003			0.689129	2.53979	0.78364	2.88469	0.925845	3.41156		
0.71997	2.64579	0.54491	1.99489	0.72042	2.64573	0.780407	2.8695	0.899082	3.30535			0.691097	2.53833	0.785662	2.88225	0.927285	3.40518		
0.722349	2.64548	0.546915	1.99543	0.7228	2.64542	0.782223	2.86635	0.900894	3.30071			0.693063	2.53687	0.787688	2.87984	0.928728	3.39885		
0.724728	2.64516	0.548919	1.99595	0.725178	2.6451	0.784042	2.86324	0.902707	3.2961			0.695029	2.53542	0.789715	2.87745	0.930175	3.39258		
0.727106	2.64485	0.550923	1.99648	0.727556	2.64479	0.785864	2.86017	0.904523	3.29153			0.696994	2.53398	0.791744	2.87508	0.931626	3.38636		
0.729482	2.64453	0.552926	1.99699	0.729932	2.64447	0.787689	2.85712	0.90634	3.287			0.698959	2.53254	0.793776	2.87274	0.933081	3.3802		
0.731858	2.64421	0.554929	1.99751	0.732307	2.64415	0.789517	2.85411	0.908158	3.2825			0.700923	2.53111	0.79581	2.87042	0.934538	3.3741		
0.734232	2.64389	0.556932	1.99802	0.734681	2.64383	0.791348	2.85112	0.909978	3.27804			0.702886	2.52969	0.797845	2.86813	0.936	3.36804		
0.736604	2.64356	0.558935	1.99852	0.737053	2.6435	0.793183	2.84817	0.9118	3.27362			0.704849	2.52827	0.799883	2.86585	0.937465	3.36204		
0.738975	2.64323	0.560937	1.99902	0.739424	2.64317	0.79502	2.84525	0.913623	3.26923			0.70681	2.52687	0.801923	2.8636	0.938934	3.3561		
0.741345	2.6429	0.562939	1.99952	0.741794	2.64284	0.796861	2.84236	0.915448	3.26488			0.708772	2.52547	0.803965	2.86137	0.940406	3.3502		
0.743714	2.64257	0.564941	2.00001	0.744162	2.64251	0.798704	2.8395	0.917275	3.26056			0.710732	2.52407	0.806009	2.85917	0.941882	3.34436		
0.746081	2.64223	0.566943	2.00049	0.746529	2.64217	0.800551	2.83667	0.919103	3.25627			0.712692	2.52269	0.808054	2.85698	0.943361	3.33857		
0.748446	2.64189	0.568944	2.00098	0.748894	2.64183	0.802402	2.83387	0.920932	3.25202			0.714652	2.52131	0.810102	2.85482	0.944844	3.33283		
0.75081	2.64155	0.570945	2.00146	0.751257	2.64148	0.804255	2.8311	0.922763	3.24779			0.71661	2.51993	0.812151	2.85267	0.94633	3.32713		
0.753172	2.6412	0.572945	2.00193	0.753619	2.64114	0.806112	2.82836	0.924595	3.24361			0.718569	2.51857	0.814202	2.85055	0.94782	3.32149		
0.755533	2.64085	0.574946	2.0024	0.755979	2.64078	0.807972	2.82565	0.926429	3.23945			0.720526	2.51721	0.816255	2.84845	0.949314	3.3159		
0.757892	2.6405	0.576946	2.00287	0.758338	2.64043	0.809835	2.82297	0.928264	3.23533			0.722483	2.51586	0.81831	2.84636	0.950811	3.31036		
0.760249	2.64014	0.578945	2.00333	0.760695	2.64007	0.811702	2.82032	0.930101	3.23124			0.72444	2.51451	0.820367	2.8443	0.952311	3.30486		
0.762604	2.63978	0.580945	2.00379	0.763049	2.63971	0.813572	2.81769	0.931939	3.22718			0.726396	2.51317	0.822425	2.84225	0.953815	3.29941		
0.764957	2.63941	0.582944	2.00424	0.765402	2.63934	0.815446	2.8151	0.933778	3.22315			0.728351	2.51184	0.824485	2.84023	0.955322	3.29401		
0.767309	2.63904	0.584943	2.00469	0.767753	2.63897	0.817323	2.81253	0.935619	3.21915			0.730306	2.51052	0.826546	2.83822	0.956833	3.28865		
0.769658	2.63867	0.586941	2.00514	0.770103	2.63859	0.819204	2.81	0.937461	3.21518			0.73226	2.5092	0.82861	2.83623	0.958348	3.28335		
0.772005	2.63829	0.58894	2.00558	0.77245	2.63821	0.821088	2.80749	0.939305	3.21124			0.734214	2.50789	0.830674	2.83426	0.959866	3.27808		
0.774351	2.6379	0.590938	2.00602	0.774794	2.63783	0.822976	2.80501	0.941149	3.20733			0.736168	2.50658	0.832741	2.8323	0.961387	3.27286		
0.776694	2.63751	0.592935	2.00646	0.777137	2.63744	0.824868	2.80256	0.942996	3.20345			0.73812	2.50529	0.834808	2.83037	0.962912	3.26769		
0.779035	2.63712	0.594933	2.00689	0.779478	2.63704	0.826764	2.80013	0.944843	3.1996			0.740073	2.50399	0.836878	2.82845	0.96444	3.26256		
0.781373	2.63672	0.59693	2.00732	0.781816	2.63664	0.828663	2.79774	0.946692	3.19578			0.742025	2.50271	0.838948	2.82655	0.965972	3.25748		
0.78371	2.63631	0.598927	2.00774	0.784152	2.63624	0.830566	2.79537	0.948542	3.19199			0.743976	2.50143	0.84102	2.82466	0.967507	3.25244		
0.786044	2.6359	0.600923	2.00816	0.786485	2.63583	0.832473	2.79303	0.950393	3.18822			0.745927	2.50016	0.843094	2.82279	0.969046	3.24744		
0.788375	2.63549	0.602919	2.00858	0.788816	2.63541	0.834384	2.79072	0.952245	3.18448			0.747878	2.49889	0.845169	2.82094	0.970588	3.24248		
0.790704	2.63507	0.604915	2.00899	0.791144	2.63499	0.836298	2.78843	0.954099	3.18077			0.749828	2.49763	0.847245	2.8191	0.972134	3.23757		
0.79303	2.63464	0.606911	2.00941	0.79347	2.63456	0.838217	2.78617	0.955954	3.17708			0.751778	2.49638	0.849323	2.81728	0.973683	3.2327		
0.795354	2.6342	0.608906	2.00981	0.795793	2.63412	0.84014	2.78394	0.95781	3.17343			0.753728	2.49514	0.851402	2.81548	0.975236	3.22787		
0.797675	2.63376	0.610901	2.01021	0.798114	2.63368	0.842067	2.78174	0.959667	3.1698			0.755677	2.4939	0.853482	2.81369	0.976792	3.22308		
0.799993	2.63332	0.612896	2.01061	0.800431	2.63323	0.843998	2.77956	0.961526	3.16619			0.757625	2.49266	0.855563	2.81191	0.978351	3.21833		
0.802308	2.63286	0.614891	2.01101	0.802746	2.63278	0.845934	2.77742	0.963385	3.16261			0.759574	2.49144	0.857645	2.81015	0.979914	3.21362		
0.80462	2.6324	0.616885	2.0114	0.805058	2.63232	0.847873	2.77529	0.965246	3.15906			0.761522	2.49021	0.859729	2.8084	0.98148	3.20895		
0.80693	2.63194	0.618879	2.01179	0.807366	2.63185	0.849817	2.7732	0.967108	3.15553			0.763469	2.489	0.861814	2.80667	0.98305	3.20432		
0.809236	2.63146	0.620872	2.01218	0.809672	2.63137	0.851766	2.77113	0.968971	3.15203			0.765416	2.48779	0.8639	2.80495	0.984623	3.19973		
0.811539	2.63098	0.622866	2.01256	0.811974	2.63089	0.853719	2.76909	0.970835	3.14855			0.767363	2.48659	0.865987	2.80325	0.986199	3.19518		
0.813839	2.63049	0.624859	2.01294	0.814274	2.6304	0.855676	2.76708	0.9727	3.14509			0.76931	2.48539	0.868075	2.80156	0.987779	3.19067		
0.816135	2.62999	0.626852	2.01332	0.816569	2.6299	0.857638	2.76509	0.974567	3.14166			0.771256	2.4842	0.870164	2.79988	0.989362	3.18619		
0.818428	2.62949	0.628844	2.01369	0.818862	2.62939	0.859605	2.76314	0.976434	3.13826			0.773202	2.48302	0.872254	2.79822	0.990949	3.18176		
0.820718	2.62897	0.630836	2.01406	0.821151	2.62888	0.861576	2.7612	0.978303	3.13488			0.775148	2.48184	0.874345	2.79657	0.992539	3.17736		
0.823005	2.62845	0.632828	2.01443	0.823437	2.62835	0.863552	2.7593	0.980172	3.13152			0.777093	2.48067	0.876437	2.79493	0.994132	3.17299		
0.825287	2.62792	0.63482	2.0148	0.825719	2.62782	0.865533	2.75742	0.982043	3.12818			0.779038	2.47951	0.87853	2.7933	0.995729	3.16867		
0.827566	2.62739	0.636811	2.01516	0.827997	2.62728	0.867519	2.75557	0.983914	3.12487			0.780983	2.47835	0.880623	2.79169	0.99733	3.16438		
0.829842	2.62684	0.638802	2.01552	0.830272	2.62674	0.86951	2.75374	0.985787	3.12158			0.782928	2.4772	0.882718	2.79009	0.998933	3.16012		
0.832113	2.62629	0.640793	2.01587	0.832543	2.62618	0.871506	2.75194	0.98766	3.11831			0.784872	2.47605	0.884813	2.7885	1.00054	3.15591		
0.834381	2.62572	0.642784	2.01622	0.83481	2.62561	0.873506	2.75017	0.989535	3.11507			0.786817	2.47491	0.88691	2.78693				
0.836645	2.62515	0.644774	2.01657	0.837073	2.62504	0.875512	2.74842	0.99141	3.11184			0.788761	2.47377	0.889007	2.78536				
0.838905	2.62457	0.646764	2.01692	0.839332	2.62446	0.877523	2.7467	0.993287	3.10864			0.790704	2.47264	0.891104	2.78381				
0.84116	2.62398	0.648753	2.01726	0.841587	2.62386	0.87954	2.74501	0.995164	3.10546			0.792648	2.47152	0.893203	2.78226				
0.843412	2.62338	0.650743	2.0176	0.843838	2.62326	0.881561	2.74334	0.997042	3.1023			0.794591	2.4704	0.895302	2.78073				
0.84566	2.62277	0.652732	2.01794	0.846085	2.62265	0.883588	2.7417	0.998922	3.09917			0.796534	2.46929	0.897401	2.77921				
0.847903	2.62215	0.654721	2.01828	0.848327	2.62203	0.885621	2.74008	1.0008	3.09605			0.798477	2.46818	0.899502	2.7777				
0.850142	2.62152	0.656709	2.01861	0.850565	2.6214	0.887658	2.73849					0.80042	2.46708	0.901603	2.7762				
0.852377	2.62088	0.658697	2.01894	0.852799	2.62076	0.889701	2.73693					0.802362	2.46599	0.903705	2.77471				
0.854607	2.62023	0.660685	2.01927	0.855029	2.62011	0.89175	2.73539					0.804305	2.4649	0.905807	2.77323				
0.856833	2.61957	0.662673	2.01959	0.857254	2.61945	0.893804	2.73388					0.806247	2.46382	0.907909	2.77177				
0.859055	2.6189	0.66466	2.01991	0.859474	2.61878	0.895864	2.73239					0.808189	2.46274	0.910012	2.77031				
0.861271	2.61823	0.666648	2.02023	0.861691	2.6181	0.897929	2.73093					0.810131	2.46167	0.912116	2.76886				
0.863484	2.61754	0.668634	2.02055	0.863902	2.61741	0.9	2.72949					0.812073	2.46061	0.91422	2.76742				
0.865692	2.61684	0.670621	2.02086	0.866109	2.61671	0.902077	2.72808					0.814015	2.45955	0.916325	2.76599				
0.867895	2.61613	0.672607	2.02117	0.868311	2.616	0.904159	2.7267					0.815956	2.45849	0.91843	2.76457				
0.870093	2.61541	0.674593	2.02148	0.870509	2.61528	0.906247	2.72534					0.817898	2.45744	0.920535	2.76315				
0.872287	2.61468	0.676579	2.02178	0.872702	2.61455	0.90834	2.724					0.819839	2.4564	0.922641	2.76175				
0.874476	2.61395	0.678565	2.02209	0.87489	2.61381	0.91044	2.72269					0.82178	2.45536	0.924747	2.76036				
0.876661	2.6132	0.68055	2.02239	0.877073	2.61306	0.912545	2.7214					0.823721	2.45433	0.926853	2.75897				
0.87884	2.61244	0.682535	2.02269	0.879252	2.6123	0.914656	2.72014					0.825663	2.4533	0.92896	2.75759				
0.881015	2.61167	0.684519	2.02298	0.881426	2.61153	0.916772	2.7189					0.827604	2.45228	0.931066	2.75622				
0.883185	2.61089	0.686504	2.02328	0.883596	2.61075	0.918895	2.71768					0.829545	2.45126	0.933173	2.75486				
0.885351	2.61011	0.688488	2.02357	0.88576	2.60996	0.921022	2.71649					0.831485	2.45025	0.935281	2.75351				
0.887512	2.60931	0.690472	2.02386	0.88792	2.60916	0.923156	2.71532					0.833426	2.44925	0.937388	2.75217				
0.889668	2.6085	0.692455	2.02414	0.890075	2.60835	0.925296	2.71418					0.835367	2.44825	0.939496	2.75083				
0.891819	2.60769	0.694438	2.02443	0.892226	2.60753	0.92744	2.71306					0.837308	2.44725	0.941603	2.7495				
0.893966	2.60686	0.696421	2.02471	0.894372	2.60671	0.929591	2.71196					0.839249	2.44627	0.943711	2.74818				
0.896108	2.60603	0.698404	2.02499	0.896513	2.60587	0.931747	2.71088					0.841189	2.44528	0.945819	2.74686				
0.898246	2.60519	0.700387	2.02526	0.89865	2.60503	0.933909	2.70982					0.84313	2.4443	0.947927	2.74556				
0.900378	2.60434	0.702369	2.02554	0.900782	2.60417	0.936076	2.70879					0.845071	2.44333	0.950035	2.74426				
0.902507	2.60348	0.704351	2.02581	0.902909	2.60331	0.938249	2.70777					0.847011	2.44236	0.952143	2.74296				
0.90463	2.60261	0.706332	2.02608	0.905032	2.60244	0.940427	2.70678					0.848952	2.4414	0.954251	2.74168				
0.90675	2.60173	0.708314	2.02635	0.90715	2.60156	0.942611	2.70581					0.850892	2.44044	0.956359	2.7404				
0.908865	2.60085	0.710295	2.02662	0.909264	2.60068	0.9448	2.70486					0.852833	2.43949	0.958466	2.73912				
0.910975	2.59995	0.712276	2.02688	0.911374	2.59978	0.946994	2.70393					0.854774	2.43854	0.960574	2.73786				
0.913081	2.59905	0.714256	2.02714	0.913479	2.59888	0.949193	2.70302					0.856714	2.4376	0.962682	2.7366				
0.915183	2.59815	0.716237	2.0274	0.915581	2.59797	0.951398	2.70213					0.858655	2.43666	0.96479	2.73535				
0.917281	2.59723	0.718217	2.02766	0.917677	2.59706	0.953607	2.70125					0.860596	2.43573	0.966897	2.7341				
0.919374	2.59631	0.720196	2.02791	0.91977	2.59613	0.955821	2.7004					0.862536	2.4348	0.969004	2.73286				
0.921464	2.59538	0.722176	2.02817	0.921859	2.59521	0.958041	2.69956					0.864477	2.43388	0.971111	2.73162				
0.923549	2.59445	0.724155	2.02842	0.923944	2.59427	0.960265	2.69875					0.866418	2.43296	0.973218	2.73039				
0.925631	2.59351	0.726134	2.02867	0.926024	2.59333	0.962494	2.69795					0.868359	2.43205	0.975325	2.72917				
0.927708	2.59256	0.728113	2.02891	0.928101	2.59238	0.964728	2.69716					0.8703	2.43114	0.977431	2.72795				
0.929782	2.59161	0.730091	2.02916	0.930174	2.59143	0.966966	2.6964					0.872241	2.43023	0.979537	2.72674				
0.931852	2.59065	0.73207	2.0294	0.932244	2.59047	0.969209	2.69565					0.874182	2.42934	0.981643	2.72553				
0.933919	2.58969	0.734048	2.02964	0.934309	2.5895	0.971456	2.69492					0.876123	2.42844	0.983748	2.72433				
0.935982	2.58872	0.736025	2.02988	0.936372	2.58854	0.973708	2.6942					0.878064	2.42755	0.985853	2.72313				
0.938041	2.58775	0.738003	2.03012	0.93843	2.58756	0.975964	2.6935					0.880005	2.42667	0.987958	2.72194				
0.940097	2.58677	0.73998	2.03035	0.940485	2.58658	0.978224	2.69281					0.881946	2.42579	0.990062	2.72076				
0.942149	2.58579	0.741957	2.03059	0.942537	2.5856	0.980488	2.69214					0.883888	2.42492	0.992166	2.71957				
0.944198	2.5848	0.743933	2.03082	0.944586	2.58462	0.982757	2.69148					0.885829	2.42405	0.99427	2.7184				
0.946245	2.58381	0.74591	2.03105	0.946631	2.58363	0.985029	2.69084					0.887771	2.42318	0.996373	2.71723				
0.948287	2.58282	0.747886	2.03128	0.948674	2.58263	0.987305	2.69021					0.889713	2.42232	0.998475	2.71606				
0.950327	2.58183	0.749862	2.0315	0.950713	2.58164	0.989585	2.68959					0.891654	2.42147	1.00058	2.7149				
0.952364	2.58083	0.751837	2.03173	0.952749	2.58064	0.991868	2.68899					0.893596	2.42061						
0.954398	2.57982	0.753813	2.03195	0.954783	2.57964	0.994155	2.6884					0.895538	2.41977						
0.95643	2.57882	0.755788	2.03217	0.956814	2.57863	0.996446	2.68782					0.89748	2.41893						
0.958458	2.57781	0.757763	2.03239	0.958842	2.57762	0.99874	2.68726					0.899423	2.41809						
0.960484	2.57681	0.759737	2.0326	0.960867	2.57661	1.00104	2.6867					0.901365	2.41726						
0.962507	2.5758	0.761712	2.03282	0.96289	2.5756							0.903307	2.41643						
0.964528	2.57478	0.763686	2.03303	0.96491	2.57459							0.90525	2.4156						
0.966546	2.57377	0.76566	2.03324	0.966928	2.57358							0.907193	2.41478						
0.968562	2.57275	0.767633	2.03345	0.968943	2.57256							0.909136	2.41397						
0.970575	2.57174	0.769607	2.03366	0.970956	2.57155							0.911079	2.41316						
0.972587	2.57072	0.77158	2.03387	0.972967	2.57053							0.913022	2.41235						
0.974596	2.5697	0.773553	2.03407	0.974976	2.56951							0.914965	2.41155						
0.976603	2.56869	0.775525	2.03428	0.976983	2.56849							0.916908	2.41075						
0.978608	2.56767	0.777498	2.03448	0.978987	2.56747							0.918852	2.40996						
0.980611	2.56665	0.77947	2.03468	0.98099	2.56646							0.920796	2.40917						
0.982612	2.56563	0.781442	2.03488	0.982991	2.56544							0.92274	2.40838						
0.984612	2.56461	0.783413	2.03507	0.98499	2.56442							0.924684	2.4076						
0.986609	2.56359	0.785385	2.03527	0.986987	2.5634							0.926628	2.40683						
0.988605	2.56258	0.787356	2.03546	0.988983	2.56238							0.928572	2.40606						
0.990599	2.56156	0.789327	2.03565	0.990976	2.56137							0.930517	2.40529						
0.992592	2.56054	0.791297	2.03584	0.992969	2.56035							0.932461	2.40452						
0.994583	2.55953	0.793268	2.03603	0.994959	2.55933							0.934406	2.40376						
0.996572	2.55851	0.795238	2.03622	0.996948	2.55832							0.936351	2.40301						
0.99856	2.5575	0.797208	2.03641	0.998936	2.55731							0.938297	2.40226						
1.00055	2.55648	0.799177	2.03659	1.00092	2.55629							0.940242	2.40151						
		0.801147	2.03677									0.942188	2.40076						
		0.803116	2.03695									0.944134	2.40002						
		0.805085	2.03713									0.94608	2.39929						
		0.807054	2.03731									0.948026	2.39856						
		0.809022	2.03749									0.949972	2.39783						
		0.81099	2.03767									0.951919	2.39711						
		0.812958	2.03784									0.953865	2.39639						
		0.814926	2.03801									0.955812	2.39567						
		0.816894	2.03818									0.95776	2.39496						
		0.818861	2.03835									0.959707	2.39425						
		0.820828	2.03852									0.961655	2.39354						
		0.822795	2.03869									0.963602	2.39284						
		0.824761	2.03886									0.965551	2.39215						
		0.826728	2.03902									0.967499	2.39145						
		0.828694	2.03918									0.969447	2.39076						
		0.83066	2.03935									0.971396	2.39008						
		0.832625	2.03951									0.973345	2.3894						
		0.834591	2.03967									0.975294	2.38872						
		0.836556	2.03983									0.977243	2.38804						
		0.838521	2.03998									0.979193	2.38737						
		0.840486	2.04014									0.981143	2.3867						
		0.84245	2.04029									0.983093	2.38604						
		0.844415	2.04045									0.985043	2.38538						
		0.846379	2.0406									0.986993	2.38472						
		0.848343	2.04075									0.988944	2.38407						
		0.850306	2.0409									0.990895	2.38342						
		0.85227	2.04105									0.992846	2.38277						
		0.854233	2.04119									0.994798	2.38213						
		0.856196	2.04134									0.99675	2.38149						
		0.858159	2.04148									0.998701	2.38085						
		0.860121	2.04163									1.00065	2.38022						
		0.862084	2.04177																
		0.864046	2.04191																
		0.866008	2.04205																
		0.867969	2.04219																
		0.869931	2.04233																
		0.871892	2.04246																
		0.873853	2.0426																
		0.875814	2.04274																
		0.877774	2.04287																
		0.879735	2.043																
		0.881695	2.04313																
		0.883655	2.04326																
		0.885615	2.04339																
		0.887574	2.04352																
		0.889533	2.04365																
		0.891493	2.04377																
		0.893452	2.0439																
		0.89541	2.04402																
		0.897369	2.04415																
		0.899327	2.04427																
		0.901285	2.04439																
		0.903243	2.04451																
		0.905201	2.04463																
		0.907158	2.04475																
		0.909115	2.04487																
		0.911072	2.04498																
		0.913029	2.0451																
		0.914986	2.04521																
		0.916943	2.04533																
		0.918899	2.04544																
		0.920855	2.04555																
		0.922811	2.04566																
		0.924766	2.04577																
		0.926722	2.04588																
		0.928677	2.04599																
		0.930632	2.0461																
		0.932587	2.0462																
		0.934542	2.04631																
		0.936497	2.04641																
		0.938451	2.04652																
		0.940405	2.04662																
		0.942359	2.04672																
		0.944313	2.04682																
		0.946266	2.04693																
		0.94822	2.04703																
		0.950173	2.04712																
		0.952126	2.04722																
		0.954079	2.04732																
		0.956031	2.04742																
		0.957984	2.04751																
		0.959936	2.04761																
		0.961888	2.0477																
		0.96384	2.0478																
		0.965792	2.04789																
		0.967743	2.04798																
		0.969695	2.04807																
		0.971646	2.04816																
		0.973597	2.04825																
		0.975548	2.04834																
		0.977499	2.04843																
		0.979449	2.04852																
		0.981399	2.04861																
		0.983349	2.04869																
		0.985299	2.04878																
		0.987249	2.04886																
		0.989199	2.04895																
		0.991148	2.04903																
		0.993098	2.04911																
		0.995047	2.0492																
		0.996996	2.04928																
		0.998944	2.04936																
		1.00089	2.04944																
