Sym0		Asym0		Sym1		Sym2		Sym3		Sym4		Asym1		Asym2		Asym3		Asym4	
423  Points		527  Points		423  Points		403  Points		351  Points		252  Points		455  Points		399  Points		344  Points		216  Points	
Freq (MHz)	Vph (m/ms)	Freq (MHz)	Vph (m/ms)	Freq (MHz)	Vph (m/ms)	Freq (MHz)	Vph (m/ms)	Freq (MHz)	Vph (m/ms)	Freq (MHz)	Vph (m/ms)	Freq (MHz)	Vph (m/ms)	Freq (MHz)	Vph (m/ms)	Freq (MHz)	Vph (m/ms)	Freq (MHz)	Vph (m/ms)
0.27951	585.45	0.000216749	0.0909824	0.27951	529.629	0.44127	2241.42	0.559017	2274.47	0.838526	13051.2	0.139763	290.996	0.419267	509.926	0.698772	1262.75	0.882541	1132.05
0.27952	198.365	0.000418768	0.126363	0.279521	191.526	0.441278	391.008	0.559026	474.767	0.838529	841.944	0.139831	99.0317	0.419283	239.057	0.698779	470.537	0.882549	515.722
0.279541	119.42	0.000686037	0.161584	0.279543	116.908	0.441298	214.195	0.559045	265.055	0.838538	435.008	0.139967	59.7209	0.419311	156.133	0.698791	289.144	0.882563	333.927
0.279572	85.4305	0.00101775	0.196575	0.279574	84.1374	0.44133	147.506	0.559076	183.854	0.838553	293.269	0.140169	42.7947	0.41935	115.929	0.69881	208.696	0.882582	246.898
0.279614	66.5081	0.00141297	0.23129	0.279617	65.7221	0.441373	112.49	0.559118	140.745	0.838574	221.199	0.140437	33.3811	0.419402	92.1966	0.698834	163.273	0.882607	195.857
0.279666	54.4531	0.00187067	0.26569	0.279669	53.9254	0.441428	90.916	0.559171	114.018	0.8386	177.567	0.14077	27.3938	0.419464	76.535	0.698865	134.092	0.882638	162.307
0.279728	46.102	0.00238957	0.299727	0.279732	45.7234	0.441495	76.2903	0.559235	95.8259	0.838633	148.315	0.141168	23.2549	0.419538	65.4263	0.698901	113.762	0.882675	138.573
0.279801	39.9756	0.00296851	0.333383	0.279805	39.6909	0.441574	65.7227	0.55931	82.6447	0.838671	127.339	0.141629	20.2265	0.419624	57.1378	0.698943	98.7872	0.882717	120.896
0.279884	35.2899	0.00360584	0.3666	0.279889	35.068	0.441664	57.7306	0.559396	72.6551	0.838715	111.564	0.142153	17.9172	0.419722	50.7169	0.698991	87.2983	0.882766	107.221
0.279977	31.5906	0.00430017	0.399363	0.279983	31.4128	0.441765	51.475	0.559494	64.8235	0.838765	99.2679	0.142737	16.1002	0.419831	45.5968	0.699046	78.205	0.88282	96.3267
0.280081	28.5961	0.00504983	0.431637	0.280087	28.4506	0.441879	46.446	0.559602	58.5191	0.838821	89.4151	0.14338	14.6348	0.419952	41.4188	0.699106	70.8291	0.88288	87.4437
0.280195	26.1228	0.00585323	0.463403	0.280202	26.0014	0.442004	42.3152	0.559721	53.3351	0.838882	81.343	0.144082	13.4293	0.420084	37.945	0.699172	64.726	0.882945	80.0622
0.28032	24.0458	0.00670855	0.494634	0.280327	23.943	0.44214	38.8619	0.559852	48.9976	0.838949	74.6092	0.14484	12.4213	0.420228	35.0115	0.699244	59.5927	0.883017	73.8312
0.280455	22.2769	0.00761409	0.525314	0.280462	22.1888	0.442288	35.9324	0.559994	45.3149	0.839023	68.9063	0.145652	11.5667	0.420383	32.5016	0.699322	55.2151	0.883094	68.5014
0.2806	20.7526	0.00856805	0.555428	0.280608	20.6763	0.442448	33.416	0.560146	42.1495	0.839101	64.0146	0.146517	10.8339	0.42055	30.3297	0.699406	51.4379	0.883177	63.8904
0.280755	19.4256	0.00956866	0.584962	0.280764	19.3588	0.44262	31.2313	0.56031	39.3996	0.839186	59.7725	0.147313	10.2758	0.420729	28.4322	0.699496	48.1455	0.883266	59.8621
0.280921	18.2599	0.0106142	0.613914	0.28093	18.201	0.442803	29.3169	0.560485	36.9886	0.839277	56.0588	0.148021	9.84968	0.420919	26.7601	0.699592	45.2503	0.883361	56.3127
0.281097	17.2281	0.0117029	0.642271	0.281107	17.1757	0.442997	27.6257	0.56067	34.8576	0.839373	52.7806	0.148627	9.52716	0.42112	25.2758	0.699694	42.6846	0.883461	53.1616
0.281284	16.3082	0.0128329	0.670028	0.281294	16.2614	0.443203	26.1209	0.560867	32.9606	0.839475	49.8656	0.149119	9.28921	0.421334	23.9493	0.699801	40.3952	0.883567	50.3454
0.28148	15.4833	0.0140027	0.69719	0.281491	15.4411	0.44342	24.7734	0.561075	31.2612	0.839583	47.2567	0.149487	9.12306	0.421558	22.7569	0.699915	38.3398	0.883679	47.8135
0.281687	14.7393	0.0152105	0.723752	0.281699	14.7012	0.443649	23.5598	0.561293	29.73	0.839697	44.908	0.149726	9.0204	0.421794	21.6793	0.700035	36.4843	0.883797	45.5249
0.281905	14.065	0.0164547	0.749715	0.281917	14.0304	0.44389	22.4613	0.561523	28.3435	0.839817	42.7826	0.150074	8.87761	0.422042	20.7007	0.70016	34.801	0.88392	43.4461
0.282132	13.4511	0.0177336	0.775085	0.282145	13.4195	0.444142	21.4622	0.561763	27.082	0.839942	40.8502	0.150457	8.72847	0.422301	19.8082	0.700292	33.267	0.884049	41.5498
0.28237	12.8898	0.0190459	0.799868	0.282383	12.8609	0.444405	20.5497	0.562015	25.9295	0.840073	39.0855	0.150987	8.53515	0.422571	18.9909	0.70043	31.8633	0.884184	39.8127
0.282618	12.3749	0.02039	0.82407	0.282632	12.3483	0.44468	19.7131	0.562277	24.8724	0.84021	37.4677	0.151672	8.30518	0.422853	18.2399	0.700573	30.5739	0.884325	38.2158
0.282877	11.9007	0.0217643	0.847695	0.282891	11.8761	0.444965	18.9434	0.56255	23.8995	0.840353	35.9792	0.152522	8.04675	0.423146	17.5473	0.700722	29.3856	0.884471	36.7428
0.283146	11.4627	0.0231677	0.870758	0.283161	11.44	0.445263	18.2328	0.562835	23.0011	0.840501	34.6052	0.153547	7.76811	0.42345	16.9067	0.700878	28.2869	0.884624	35.3798
0.283425	11.0569	0.0245987	0.89326	0.28344	11.0359	0.445571	17.575	0.56313	22.1691	0.840656	33.3329	0.154761	7.47708	0.423766	16.3125	0.701039	27.2681	0.884782	34.1149
0.283714	10.68	0.0260561	0.915219	0.28373	10.6604	0.445891	16.9641	0.563435	21.3964	0.840816	32.1515	0.156013	7.21286	0.424093	15.7599	0.701206	26.3207	0.884945	32.9379
0.284013	10.329	0.0275386	0.936642	0.28403	10.3108	0.446222	16.3956	0.563752	20.6768	0.840982	31.0516	0.1573	6.97207	0.424432	15.2446	0.701379	25.4376	0.885115	31.8401
0.284323	10.0014	0.0290452	0.95754	0.2843	10.0251	0.446565	15.865	0.564079	20.0052	0.841153	30.025	0.158622	6.75185	0.424781	14.7632	0.701558	24.6124	0.88529	30.8137
0.284643	9.69494	0.0305747	0.977925	0.284536	9.79438	0.446918	15.3689	0.564417	19.3769	0.841331	29.0647	0.159978	6.54979	0.425142	14.3123	0.701743	23.8397	0.885471	29.8519
0.284973	9.40765	0.0321259	0.997806	0.284735	9.61189	0.447283	14.9039	0.564766	18.788	0.841514	28.1645	0.161365	6.36383	0.425514	13.8892	0.701934	23.1146	0.885657	28.9489
0.285314	9.13783	0.033698	1.0172	0.284896	9.4726	0.447659	14.4673	0.565126	18.2347	0.841703	27.319	0.162782	6.1922	0.425898	13.4914	0.702131	22.4328	0.88585	28.0994
0.285664	8.88396	0.0352899	1.03611	0.285015	9.37287	0.448046	14.0566	0.565496	17.7141	0.841898	26.5232	0.164228	6.03338	0.426292	13.1167	0.702333	21.7906	0.886048	27.2989
0.286025	8.6447	0.0369007	1.05456	0.285093	9.31021	0.448443	13.6695	0.565877	17.2234	0.842098	25.7731	0.165702	5.88606	0.426698	12.7633	0.702542	21.1847	0.886252	26.5433
0.286396	8.41884	0.0385297	1.07255	0.285205	9.22168	0.448852	13.3041	0.566269	16.7601	0.842304	25.0647	0.167202	5.74908	0.427114	12.4294	0.702757	20.6121	0.886461	25.8288
0.286777	8.20531	0.0401758	1.0901	0.285327	9.12745	0.449272	12.9587	0.566671	16.3219	0.842516	24.3946	0.168728	5.62145	0.427542	12.1134	0.702977	20.0701	0.886676	25.1523
0.287168	8.00316	0.0418383	1.10722	0.285497	9.00254	0.449703	12.6317	0.567084	15.9069	0.842734	23.76	0.170277	5.50227	0.427981	11.814	0.703203	19.5564	0.886897	24.5107
0.287569	7.81151	0.0435165	1.12392	0.285714	8.84968	0.450145	12.3216	0.567507	15.5133	0.842958	23.158	0.17185	5.39079	0.428431	11.5299	0.703435	19.0687	0.887124	23.9016
0.287981	7.6296	0.0452097	1.14022	0.285982	8.67207	0.450597	12.0273	0.567941	15.1396	0.843187	22.5861	0.173444	5.28631	0.428891	11.2599	0.703673	18.6053	0.887356	23.3224
0.288403	7.45671	0.0469172	1.15611	0.286304	8.47322	0.451061	11.7475	0.568385	14.7843	0.843422	22.0423	0.17506	5.18822	0.429363	11.0032	0.703917	18.1643	0.887594	22.771
0.288834	7.29221	0.0486383	1.17163	0.286682	8.25675	0.451535	11.4812	0.56884	14.446	0.843662	21.5245	0.176695	5.09598	0.429846	10.7587	0.704167	17.7441	0.887837	22.2455
0.289276	7.13551	0.0503724	1.18676	0.287071	8.05188	0.452019	11.2276	0.569305	14.1236	0.843909	21.0309	0.17835	5.0091	0.430339	10.5256	0.704423	17.3434	0.888087	21.7442
0.289728	6.98611	0.0521189	1.20154	0.28747	7.85773	0.452515	10.9857	0.569781	13.8161	0.844161	20.5598	0.180023	4.92715	0.430844	10.3031	0.704685	16.9608	0.888341	21.2653
0.29019	6.8435	0.0538774	1.21596	0.287879	7.67349	0.453021	10.7547	0.570267	13.5224	0.844419	20.1097	0.181713	4.84975	0.431292	10.1174	0.704952	16.5951	0.888602	20.8075
0.290662	6.70726	0.0556471	1.23004	0.288298	7.49844	0.453538	10.534	0.570763	13.2416	0.844682	19.6794	0.18342	4.77654	0.431681	9.96474	0.705225	16.2452	0.888868	20.3693
0.291144	6.57698	0.0574277	1.24378	0.288727	7.33193	0.454065	10.3228	0.57127	12.973	0.844952	19.2674	0.185143	4.7072	0.432007	9.84223	0.705505	15.9102	0.88914	19.9496
0.291636	6.4523	0.0592188	1.2572	0.289166	7.17337	0.454533	10.1462	0.571787	12.7157	0.845227	18.8727	0.186882	4.64145	0.432267	9.74767	0.70579	15.589	0.889417	19.5472
0.292138	6.33286	0.0610196	1.27031	0.289616	7.02221	0.454939	10.0007	0.572314	12.469	0.845507	18.4943	0.188635	4.57903	0.43246	9.6794	0.706081	15.281	0.889701	19.1611
0.29265	6.21837	0.0628301	1.28311	0.290075	6.87798	0.455278	9.88384	0.572851	12.2324	0.845794	18.131	0.190402	4.51971	0.432585	9.63625	0.706377	14.9853	0.889989	18.7903
0.293172	6.10853	0.0646496	1.29562	0.290545	6.74021	0.455549	9.79351	0.573399	12.0053	0.846086	17.7821	0.192182	4.46326	0.432764	9.57496	0.70668	14.7011	0.890284	18.4339
0.293704	6.00308	0.0664778	1.30783	0.291024	6.6085	0.45575	9.72824	0.573957	11.787	0.846383	17.4467	0.193976	4.40949	0.432961	9.5093	0.706988	14.4279	0.890583	18.0911
0.294246	5.90177	0.0683143	1.31977	0.291514	6.48247	0.45588	9.68697	0.574525	11.5772	0.846687	17.1241	0.195781	4.35823	0.433231	9.42158	0.707303	14.165	0.890889	17.7611
0.294798	5.80438	0.0701588	1.33144	0.292014	6.36177	0.456067	9.62831	0.575103	11.3753	0.846996	16.8136	0.197598	4.30931	0.433575	9.31316	0.707623	13.9118	0.8912	17.4433
0.29536	5.71068	0.0720109	1.34285	0.292523	6.24609	0.456271	9.56543	0.575691	11.1808	0.847311	16.5144	0.199427	4.26258	0.433998	9.18567	0.707949	13.6679	0.891517	17.137
0.295932	5.62049	0.0738704	1.354	0.293043	6.13514	0.456551	9.48135	0.576289	10.9935	0.847631	16.226	0.201266	4.2179	0.4345	9.04095	0.708281	13.4326	0.891839	16.8416
0.296514	5.53363	0.0757368	1.3649	0.293572	6.02863	0.456909	9.37732	0.576897	10.8129	0.847957	15.9478	0.203116	4.17514	0.435087	8.88099	0.708618	13.2057	0.892167	16.5565
0.297106	5.44991	0.07761	1.37556	0.294112	5.92632	0.457346	9.25484	0.577514	10.6387	0.848289	15.6793	0.204976	4.13419	0.435684	8.72721	0.708962	12.9866	0.8925	16.2812
0.297707	5.36918	0.0794896	1.38599	0.294662	5.82799	0.457867	9.11561	0.578142	10.4706	0.848626	15.42	0.206845	4.09494	0.436292	8.57927	0.709311	12.775	0.892839	16.0152
0.298319	5.2913	0.0813754	1.39619	0.295221	5.7334	0.458474	8.96147	0.578697	10.3288	0.848969	15.1694	0.208723	4.05729	0.43691	8.43685	0.709666	12.5705	0.893184	15.758
0.29894	5.21612	0.0832672	1.40617	0.295791	5.64236	0.459091	8.81304	0.579176	10.2112	0.849318	14.9271	0.210611	4.02115	0.437539	8.29967	0.710027	12.3727	0.893534	15.5092
0.299572	5.14352	0.0851646	1.41593	0.29637	5.5547	0.459719	8.67001	0.579576	10.1162	0.849672	14.6927	0.212506	3.98643	0.438178	8.16745	0.710393	12.1813	0.893889	15.2685
0.300213	5.07337	0.0870675	1.42549	0.296959	5.47022	0.460356	8.53211	0.579896	10.0424	0.850032	14.4659	0.21441	3.95306	0.438827	8.03993	0.710766	11.996	0.89425	15.0354
0.300864	5.00556	0.0889756	1.43484	0.297558	5.38877	0.461003	8.39908	0.580132	9.98894	0.850397	14.2462	0.216322	3.92095	0.439487	7.91687	0.711144	11.8166	0.894617	14.8096
0.301525	4.93998	0.0908887	1.444	0.298168	5.3102	0.46166	8.27066	0.580283	9.95505	0.850768	14.0334	0.218241	3.89004	0.440157	7.79806	0.711528	11.6427	0.894989	14.5907
0.302195	4.87653	0.0928067	1.45296	0.298787	5.23437	0.462328	8.14663	0.580502	9.90677	0.851145	13.8271	0.220167	3.86027	0.440837	7.68329	0.711918	11.4742	0.895367	14.3784
0.302876	4.81512	0.0947293	1.46174	0.299415	5.16115	0.463005	8.02678	0.580742	9.85489	0.851527	13.6271	0.222101	3.83157	0.441528	7.57236	0.712313	11.3107	0.89575	14.1725
0.303566	4.75565	0.0966564	1.47034	0.300054	5.09041	0.463691	7.91091	0.581069	9.78531	0.851915	13.433	0.224041	3.8039	0.442228	7.46509	0.712714	11.1521	0.896138	13.9727
0.304175	4.70535	0.0985878	1.47876	0.300703	5.02203	0.464388	7.79883	0.581486	9.69885	0.852308	13.2446	0.225987	3.7772	0.442939	7.36131	0.713121	10.9981	0.896532	13.7787
0.304701	4.66355	0.100523	1.48701	0.301361	4.95591	0.465094	7.69036	0.581996	9.59657	0.852707	13.0617	0.22794	3.75141	0.443659	7.26086	0.713534	10.8486	0.896932	13.5902
0.30514	4.62971	0.102463	1.49509	0.302029	4.89195	0.46581	7.58534	0.5826	9.47963	0.853112	12.884	0.229898	3.72651	0.44439	7.16358	0.713953	10.7033	0.897337	13.4071
0.305489	4.6034	0.104406	1.50302	0.302707	4.83004	0.466535	7.48361	0.583303	9.34932	0.853522	12.7114	0.231862	3.70243	0.44513	7.06935	0.714322	10.5801	0.897747	13.2291
0.305747	4.58431	0.106353	1.51078	0.303395	4.7701	0.46727	7.38503	0.584015	9.223	0.853938	12.5435	0.233832	3.67915	0.445881	6.97802	0.71464	10.4774	0.898163	13.056
0.305913	4.5722	0.108303	1.51839	0.304093	4.71205	0.468014	7.28945	0.584736	9.1005	0.854359	12.3803	0.235808	3.65663	0.446641	6.88946	0.714906	10.3941	0.898584	12.8875
0.306153	4.55494	0.110257	1.52585	0.3048	4.65579	0.468768	7.19676	0.585467	8.98164	0.854785	12.2215	0.237788	3.63482	0.447412	6.80356	0.715118	10.3292	0.899011	12.7236
0.306415	4.53637	0.112214	1.53317	0.305518	4.60127	0.469531	7.10682	0.586208	8.86627	0.855218	12.0669	0.239773	3.6137	0.448192	6.72022	0.715274	10.282	0.899443	12.5641
0.306772	4.51144	0.114175	1.54034	0.306245	4.54839	0.470304	7.01952	0.586958	8.75425	0.855656	11.9164	0.241763	3.59324	0.448981	6.63931	0.715374	10.2521	0.89988	12.4087
0.307228	4.48044	0.115885	1.54648	0.306982	4.49711	0.471085	6.93475	0.587717	8.64544	0.856099	11.7699	0.243758	3.57341	0.449781	6.56074	0.715519	10.2094	0.900323	12.2573
0.307784	4.44369	0.117345	1.55164	0.307728	4.44735	0.471876	6.85241	0.588485	8.5397	0.856548	11.6271	0.245757	3.55417	0.45059	6.48442	0.715678	10.1634	0.900771	12.1098
0.308443	4.40162	0.118554	1.55584	0.308485	4.39904	0.472676	6.7724	0.589263	8.43692	0.857002	11.488	0.247761	3.53551	0.451409	6.41025	0.715894	10.1015	0.901224	11.966
0.309209	4.35464	0.11951	1.55913	0.309251	4.35215	0.473486	6.69463	0.59005	8.33697	0.857462	11.3524	0.249769	3.51739	0.452237	6.33816	0.71617	10.0245	0.901683	11.8258
0.309985	4.30903	0.120214	1.56153	0.310027	4.3066	0.474304	6.619	0.590846	8.23975	0.857927	11.2201	0.25178	3.4998	0.453075	6.26805	0.716506	9.93296	0.902148	11.6891
0.31077	4.26471	0.120664	1.56306	0.310812	4.26235	0.475131	6.54544	0.591651	8.14514	0.858398	11.0911	0.253796	3.48271	0.453922	6.19986	0.716904	9.82787	0.902617	11.5557
0.311565	4.22164	0.121312	1.56525	0.311608	4.21935	0.475967	6.47387	0.592465	8.05306	0.858874	10.9653	0.255815	3.46611	0.454779	6.13351	0.717367	9.71018	0.903092	11.4255
0.31237	4.17978	0.122017	1.56761	0.312413	4.17755	0.476812	6.4042	0.593288	7.9634	0.859293	10.8581	0.257838	3.44997	0.455645	6.06894	0.717835	9.59551	0.903572	11.2984
0.313184	4.13908	0.122975	1.57079	0.313228	4.13691	0.477666	6.33638	0.59412	7.87607	0.859654	10.7685	0.259864	3.43427	0.456521	6.00606	0.718309	9.48373	0.904058	11.1743
0.314009	4.09949	0.124188	1.57477	0.314053	4.09739	0.478528	6.27032	0.594961	7.79099	0.859955	10.6956	0.261894	3.41899	0.457406	5.94484	0.718788	9.37474	0.904548	11.053
0.314843	4.06099	0.125657	1.57953	0.314888	4.05894	0.479399	6.20597	0.595811	7.70808	0.860194	10.6387	0.263927	3.40413	0.4583	5.88519	0.719273	9.26844	0.90498	10.9497
0.315687	4.02352	0.127381	1.58503	0.315733	4.02153	0.480279	6.14327	0.59667	7.62726	0.86037	10.5972	0.265963	3.38966	0.459203	5.82708	0.719764	9.16474	0.905352	10.8632
0.316541	3.98706	0.129362	1.59123	0.316587	3.98512	0.481168	6.08215	0.597538	7.54845	0.860484	10.5709	0.268003	3.37557	0.460116	5.77043	0.720261	9.06354	0.905661	10.7928
0.317404	3.95156	0.131345	1.59731	0.317451	3.94967	0.482065	6.02256	0.598414	7.47158	0.860647	10.5333	0.270045	3.36184	0.461037	5.71521	0.720763	8.96475	0.905907	10.7378
0.318278	3.917	0.13333	1.60329	0.318325	3.91516	0.48297	5.96445	0.599299	7.39659	0.860826	10.4927	0.27209	3.34846	0.461968	5.66136	0.721271	8.8683	0.906089	10.6978
0.319161	3.88335	0.135317	1.60916	0.319209	3.88156	0.483884	5.90776	0.600193	7.3234	0.86107	10.4381	0.274137	3.33541	0.462908	5.60883	0.721784	8.7741	0.906205	10.6723
0.320054	3.85057	0.137307	1.61492	0.320103	3.84882	0.484806	5.85245	0.601095	7.25197	0.86138	10.37	0.276188	3.32269	0.463856	5.55759	0.722303	8.68208	0.906373	10.636
0.320958	3.81863	0.139298	1.62059	0.321007	3.81693	0.485737	5.79846	0.602006	7.18223	0.861757	10.2888	0.278241	3.31029	0.464814	5.50758	0.722828	8.59216	0.906557	10.5967
0.321871	3.78751	0.141291	1.62615	0.32192	3.78585	0.486676	5.74577	0.602925	7.11412	0.862205	10.1953	0.280296	3.29818	0.46578	5.45877	0.723358	8.50428	0.906807	10.5439
0.322794	3.75718	0.143286	1.63161	0.322844	3.75556	0.487623	5.69431	0.603853	7.04759	0.862722	10.0902	0.282354	3.28637	0.466756	5.41112	0.723894	8.41837	0.907126	10.4779
0.323727	3.72762	0.145283	1.63698	0.323778	3.72604	0.488578	5.64406	0.604789	6.98258	0.863246	9.98753	0.284414	3.27483	0.46774	5.36458	0.724435	8.33436	0.907513	10.3992
0.32467	3.6988	0.147281	1.64226	0.324721	3.69726	0.489541	5.59497	0.605734	6.91906	0.863775	9.88707	0.286476	3.26357	0.468733	5.31913	0.724982	8.2522	0.907972	10.3086
0.325623	3.6707	0.149281	1.64744	0.325675	3.6692	0.490512	5.547	0.606686	6.85697	0.864309	9.78879	0.288541	3.25257	0.469734	5.27473	0.725535	8.17183	0.908503	10.2066
0.326587	3.64329	0.151283	1.65254	0.326639	3.64183	0.491492	5.50012	0.607648	6.79627	0.864848	9.69262	0.290608	3.24181	0.470744	5.23134	0.726093	8.09319	0.909039	10.1069
0.32756	3.61656	0.153286	1.65755	0.327613	3.61514	0.492479	5.4543	0.608617	6.73691	0.865393	9.59851	0.292676	3.23131	0.471763	5.18894	0.726657	8.01622	0.909581	10.0092
0.328544	3.59049	0.15529	1.66248	0.328598	3.5891	0.493474	5.40951	0.609594	6.67885	0.865943	9.50637	0.294747	3.22103	0.472791	5.14749	0.727226	7.94088	0.910128	9.91357
0.329538	3.56505	0.157296	1.66732	0.329592	3.5637	0.494477	5.3657	0.61058	6.62205	0.866499	9.41616	0.296819	3.21099	0.473827	5.10696	0.727801	7.86712	0.910679	9.81993
0.330543	3.54024	0.159303	1.67208	0.330597	3.53891	0.495487	5.32285	0.611574	6.56648	0.86706	9.32781	0.298894	3.20116	0.474871	5.06734	0.728381	7.79489	0.911236	9.7282
0.331558	3.51602	0.161312	1.67677	0.331613	3.51473	0.496506	5.28093	0.612576	6.51209	0.867626	9.24128	0.30097	3.19155	0.475924	5.02858	0.728967	7.72415	0.911798	9.63833
0.332583	3.49239	0.163321	1.68137	0.332638	3.49113	0.497532	5.23992	0.613586	6.45885	0.868197	9.1565	0.303047	3.18215	0.476985	4.99066	0.729558	7.65484	0.912366	9.55027
0.333619	3.46932	0.165332	1.6859	0.333675	3.46809	0.498565	5.19978	0.614603	6.40673	0.868774	9.07342	0.305127	3.17294	0.478055	4.95356	0.730155	7.58694	0.912938	9.46396
0.334665	3.44681	0.167344	1.69036	0.334722	3.44561	0.499607	5.1605	0.615629	6.3557	0.869356	8.99201	0.307208	3.16392	0.479133	4.91726	0.730757	7.52039	0.913515	9.37936
0.335722	3.42483	0.169357	1.69475	0.33578	3.42366	0.500655	5.12204	0.616662	6.30571	0.869944	8.9122	0.30929	3.1551	0.480219	4.88173	0.731365	7.45516	0.914098	9.29641
0.33679	3.40338	0.171372	1.69906	0.336848	3.40223	0.501711	5.08438	0.617704	6.25675	0.870536	8.83395	0.311374	3.14645	0.481314	4.84695	0.731979	7.39122	0.914685	9.21507
0.337869	3.38243	0.173387	1.70331	0.337927	3.38132	0.502775	5.0475	0.618753	6.20878	0.871134	8.75722	0.313459	3.13798	0.482416	4.8129	0.732598	7.32852	0.915278	9.13529
0.338959	3.36199	0.175403	1.70749	0.339018	3.3609	0.503846	5.01138	0.61981	6.16178	0.871738	8.68197	0.315546	3.12968	0.483527	4.77955	0.733222	7.26704	0.915876	9.05703
0.34006	3.34202	0.17742	1.7116	0.340119	3.34096	0.504924	4.97599	0.620874	6.11572	0.872346	8.60815	0.317634	3.12154	0.484646	4.74689	0.733852	7.20673	0.916478	8.98025
0.341172	3.32253	0.179438	1.71565	0.341232	3.32149	0.506009	4.94131	0.621946	6.07057	0.87296	8.53573	0.319723	3.11356	0.485772	4.7149	0.734487	7.14757	0.917086	8.90491
0.342295	3.3035	0.181457	1.71963	0.342356	3.30248	0.507102	4.90733	0.623026	6.0263	0.873578	8.46467	0.321814	3.10574	0.486907	4.68356	0.735127	7.08953	0.917699	8.83097
0.34343	3.28491	0.183477	1.72356	0.343492	3.28392	0.508201	4.87403	0.624113	5.9829	0.874203	8.39493	0.323905	3.09807	0.48805	4.65286	0.735774	7.03257	0.918317	8.75839
0.344577	3.26677	0.185498	1.72742	0.344639	3.2658	0.509308	4.84138	0.625207	5.94033	0.874832	8.32648	0.325998	3.09055	0.489201	4.62277	0.736425	6.97667	0.91894	8.68714
0.345736	3.24906	0.187519	1.73122	0.345799	3.24811	0.510422	4.80938	0.626309	5.89859	0.875466	8.25928	0.328092	3.08316	0.490359	4.59327	0.737082	6.9218	0.919567	8.61718
0.346906	3.23176	0.189541	1.73497	0.34697	3.23084	0.511543	4.77799	0.627418	5.85764	0.876106	8.19329	0.330187	3.07592	0.491526	4.56436	0.737744	6.86793	0.9202	8.54847
0.348089	3.21487	0.191564	1.73866	0.348153	3.21397	0.51267	4.74721	0.628535	5.81746	0.876751	8.1285	0.332283	3.06881	0.4927	4.53602	0.738412	6.81503	0.920838	8.48099
0.349284	3.19838	0.193588	1.74229	0.349348	3.19751	0.513805	4.71702	0.629659	5.77803	0.877401	8.06486	0.334379	3.06183	0.493882	4.50823	0.739085	6.76309	0.92148	8.4147
0.350491	3.18229	0.195612	1.74587	0.350557	3.18143	0.514946	4.68741	0.63079	5.73935	0.878056	8.00235	0.336477	3.05497	0.495071	4.48098	0.739764	6.71207	0.922128	8.34958
0.351711	3.16658	0.197637	1.74939	0.351777	3.16574	0.516094	4.65835	0.631928	5.70137	0.878717	7.94094	0.338575	3.04824	0.496268	4.45426	0.740448	6.66196	0.92278	8.28558
0.352944	3.15125	0.199662	1.75287	0.353011	3.15043	0.517249	4.62984	0.633074	5.66409	0.879382	7.8806	0.340675	3.04163	0.497473	4.42804	0.741137	6.61273	0.923438	8.2227
0.35419	3.13629	0.201688	1.75629	0.354258	3.13549	0.51841	4.60186	0.634227	5.6275	0.880053	7.82131	0.342775	3.03513	0.498686	4.40232	0.741831	6.56436	0.9241	8.16089
0.35545	3.12169	0.203715	1.75966	0.355518	3.12091	0.519579	4.57439	0.635386	5.59156	0.880728	7.76304	0.344876	3.02874	0.499906	4.37709	0.742531	6.51682	0.924767	8.10013
0.356723	3.10744	0.205742	1.76298	0.356792	3.10668	0.520753	4.54743	0.636553	5.55627	0.881409	7.70576	0.346977	3.02247	0.501133	4.35233	0.743236	6.47011	0.925439	8.0404
0.35801	3.09354	0.20777	1.76625	0.35808	3.0928	0.521934	4.52097	0.637726	5.52161	0.882095	7.64944	0.34908	3.0163	0.502368	4.32804	0.743947	6.42419	0.926116	7.98167
0.359311	3.07999	0.209798	1.76948	0.359382	3.07927	0.523122	4.49498	0.638907	5.48756	0.882786	7.59408	0.351182	3.01024	0.50361	4.30419	0.744663	6.37905	0.926797	7.92392
0.360627	3.06678	0.211826	1.77266	0.360698	3.06607	0.524316	4.46946	0.640094	5.45411	0.883482	7.53964	0.353286	3.00428	0.50486	4.28078	0.745384	6.33467	0.927484	7.86712
0.361957	3.05389	0.213855	1.77579	0.362029	3.05321	0.525517	4.44439	0.641288	5.42125	0.884183	7.4861	0.35539	2.99841	0.506117	4.25781	0.746111	6.29103	0.928175	7.81126
0.363303	3.04134	0.215885	1.77888	0.363376	3.04067	0.526723	4.41977	0.642489	5.38896	0.88489	7.43344	0.357495	2.99264	0.507381	4.23524	0.746842	6.24811	0.928871	7.7563
0.364663	3.0291	0.217915	1.78193	0.364737	3.02845	0.527936	4.39559	0.643697	5.35722	0.885601	7.38164	0.3596	2.98697	0.508652	4.21309	0.747579	6.20591	0.929572	7.70223
0.36604	3.01718	0.219945	1.78493	0.366114	3.01655	0.529156	4.37183	0.644911	5.32603	0.886317	7.33068	0.361705	2.98139	0.509931	4.19134	0.748322	6.16439	0.930278	7.64903
0.367432	3.00558	0.221976	1.78789	0.367508	3.00496	0.530381	4.34848	0.646132	5.29537	0.887038	7.28055	0.363811	2.97589	0.511217	4.16997	0.749069	6.12355	0.930988	7.59667
0.36884	2.99428	0.224006	1.79081	0.368917	2.99368	0.531613	4.32553	0.647359	5.26522	0.887765	7.23121	0.365917	2.97048	0.51251	4.14899	0.749822	6.08337	0.931704	7.54515
0.370266	2.98329	0.226038	1.79369	0.370343	2.9827	0.532851	4.30298	0.648593	5.23559	0.888496	7.18266	0.368024	2.96516	0.51381	4.12838	0.75058	6.04384	0.932424	7.49443
0.371708	2.97259	0.228069	1.79653	0.371786	2.97202	0.534094	4.28082	0.649834	5.20644	0.889232	7.13487	0.370131	2.95992	0.515117	4.10812	0.751343	6.00493	0.933148	7.44451
0.373168	2.96219	0.230101	1.79933	0.373247	2.96164	0.535344	4.25903	0.651081	5.17778	0.889974	7.08783	0.372239	2.95475	0.516431	4.08823	0.752112	5.96664	0.933877	7.39536
0.374645	2.95209	0.232133	1.80209	0.374725	2.95155	0.5366	4.23761	0.652334	5.14959	0.89072	7.04153	0.374346	2.94967	0.517752	4.06868	0.752885	5.92896	0.934611	7.34696
0.37614	2.94227	0.234166	1.80482	0.376221	2.94175	0.537861	4.21655	0.653594	5.12187	0.891471	6.99594	0.376454	2.94466	0.51908	4.04946	0.753664	5.89186	0.93535	7.29931
0.377654	2.93274	0.236199	1.8075	0.377736	2.93223	0.539129	4.19584	0.65486	5.09459	0.892227	6.95105	0.378562	2.93973	0.520415	4.03058	0.754448	5.85535	0.936094	7.25238
0.379186	2.92348	0.238231	1.81015	0.379269	2.92299	0.540402	4.17547	0.656132	5.06776	0.892988	6.90685	0.380671	2.93486	0.521757	4.01203	0.755237	5.81939	0.936842	7.20616
0.380737	2.91451	0.240265	1.81277	0.380822	2.91403	0.541681	4.15544	0.65741	5.04135	0.893754	6.86331	0.382779	2.93007	0.523106	3.99378	0.756032	5.78399	0.937594	7.16063
0.382308	2.90581	0.242298	1.81535	0.382393	2.90534	0.542966	4.13574	0.658695	5.01537	0.894525	6.82043	0.384888	2.92535	0.524461	3.97585	0.756831	5.74913	0.938352	7.11578
0.383898	2.89738	0.244332	1.8179	0.383985	2.89693	0.544257	4.11636	0.659986	4.9898	0.895301	6.7782	0.386996	2.92069	0.525823	3.95822	0.757636	5.71479	0.939114	7.0716
0.385508	2.88921	0.246365	1.82041	0.385596	2.88878	0.545553	4.09729	0.661283	4.96463	0.896082	6.73659	0.389105	2.9161	0.527192	3.94088	0.758446	5.68098	0.93988	7.02806
0.387139	2.88131	0.248399	1.82289	0.387227	2.88089	0.546855	4.07853	0.662586	4.93986	0.896868	6.6956	0.391214	2.91158	0.528568	3.92384	0.759261	5.64767	0.940651	6.98516
0.388789	2.87367	0.250433	1.82533	0.388879	2.87326	0.548162	4.06006	0.663894	4.91548	0.897658	6.65521	0.393323	2.90712	0.52995	3.90708	0.760081	5.61485	0.941427	6.94289
0.39046	2.86628	0.252467	1.82775	0.390551	2.86589	0.549475	4.0419	0.665209	4.89147	0.898453	6.61541	0.395432	2.90271	0.531339	3.89059	0.760906	5.58253	0.942207	6.90122
0.392152	2.85915	0.254502	1.83013	0.392244	2.85877	0.550793	4.02401	0.66653	4.86783	0.899254	6.57619	0.397541	2.89837	0.532734	3.87438	0.761736	5.55068	0.942992	6.86016
0.393865	2.85226	0.256536	1.83248	0.393958	2.85189	0.552117	4.00642	0.667857	4.84456	0.900059	6.53753	0.399649	2.89409	0.534136	3.85843	0.762571	5.51929	0.943781	6.81967
0.395598	2.84561	0.258571	1.83481	0.395692	2.84526	0.553446	3.98909	0.669189	4.82164	0.900869	6.49943	0.401758	2.88986	0.535545	3.84274	0.763412	5.48836	0.944575	6.77977
0.397352	2.8392	0.260606	1.8371	0.397448	2.83886	0.554781	3.97204	0.670527	4.79906	0.901683	6.46187	0.403867	2.88569	0.53696	3.82731	0.764257	5.45788	0.945374	6.74042
0.399128	2.83303	0.26264	1.83936	0.399224	2.8327	0.55612	3.95524	0.671871	4.77683	0.902503	6.42485	0.405975	2.88157	0.538381	3.81212	0.765108	5.42784	0.946176	6.70163
0.400924	2.82708	0.264675	1.8416	0.401021	2.82676	0.557466	3.93871	0.673221	4.75493	0.903327	6.38834	0.408084	2.87751	0.539809	3.79718	0.765963	5.39823	0.946984	6.66338
0.402741	2.82136	0.26671	1.8438	0.40284	2.82105	0.558816	3.92243	0.674577	4.73335	0.904156	6.35235	0.410192	2.8735	0.541243	3.78248	0.766824	5.36904	0.947795	6.62565
0.404578	2.81585	0.268745	1.84598	0.404678	2.81556	0.560171	3.9064	0.675938	4.7121	0.90499	6.31686	0.4123	2.86953	0.542683	3.76801	0.767689	5.34027	0.948612	6.58845
0.406436	2.81056	0.27078	1.84813	0.406537	2.81028	0.561532	3.89061	0.677304	4.69115	0.905829	6.28186	0.414408	2.86562	0.54413	3.75378	0.76856	5.3119	0.949432	6.55175
0.408315	2.80547	0.272815	1.85025	0.408417	2.8052	0.562898	3.87506	0.678676	4.67052	0.906672	6.24735	0.416515	2.86176	0.545583	3.73976	0.769436	5.28392	0.950258	6.51555
0.410213	2.80058	0.27485	1.85235	0.410316	2.80033	0.564269	3.85974	0.680054	4.65018	0.90752	6.2133	0.418622	2.85794	0.547043	3.72597	0.770316	5.25634	0.951087	6.47985
0.412131	2.79589	0.276885	1.85442	0.412235	2.79564	0.565645	3.84465	0.681437	4.63014	0.908373	6.17972	0.420729	2.85417	0.548508	3.71239	0.771202	5.22914	0.951921	6.44462
0.414068	2.79139	0.27892	1.85647	0.414173	2.79115	0.567025	3.82978	0.682825	4.61039	0.90923	6.1466	0.422836	2.85045	0.54998	3.69903	0.772092	5.20231	0.952759	6.40986
0.416024	2.78707	0.280955	1.85849	0.41613	2.78684	0.568411	3.81513	0.684219	4.59092	0.910093	6.11392	0.424942	2.84677	0.551458	3.68587	0.772988	5.17585	0.953602	6.37557
0.417998	2.78293	0.28299	1.86049	0.418105	2.78271	0.569802	3.8007	0.685618	4.57173	0.91096	6.08167	0.427048	2.84313	0.552941	3.67292	0.773888	5.14975	0.954449	6.34173
0.419991	2.77896	0.285026	1.86246	0.420099	2.77875	0.571198	3.78648	0.687023	4.55281	0.911831	6.04986	0.429154	2.83953	0.554432	3.66016	0.774793	5.12401	0.955301	6.30833
0.422001	2.77515	0.287061	1.8644	0.42211	2.77495	0.572598	3.77246	0.688432	4.53415	0.912708	6.01847	0.431259	2.83598	0.555928	3.6476	0.775704	5.09861	0.956156	6.27538
0.424028	2.7715	0.289096	1.86633	0.424138	2.77131	0.574003	3.75865	0.689847	4.51576	0.913589	5.9875	0.433364	2.83247	0.55743	3.63524	0.776619	5.07356	0.957016	6.24285
0.426072	2.768	0.291131	1.86823	0.426183	2.76782	0.575414	3.74503	0.691267	4.49763	0.914474	5.95693	0.435469	2.829	0.558938	3.62306	0.777539	5.04884	0.957881	6.21074
0.428132	2.76465	0.293166	1.87011	0.428244	2.76448	0.576828	3.73162	0.692692	4.47975	0.915364	5.92676	0.437573	2.82556	0.560452	3.61106	0.778464	5.02445	0.958749	6.17904
0.430208	2.76144	0.295201	1.87196	0.430321	2.76127	0.578248	3.71839	0.694123	4.46211	0.916259	5.89698	0.439676	2.82217	0.561972	3.59925	0.779394	5.00038	0.959622	6.14775
0.432299	2.75837	0.297235	1.87379	0.432412	2.75821	0.579672	3.70535	0.695558	4.44472	0.917159	5.86758	0.441779	2.81881	0.563498	3.58762	0.780328	4.97663	0.9605	6.11686
0.434404	2.75542	0.29927	1.87561	0.434518	2.75526	0.581101	3.69249	0.696998	4.42756	0.918063	5.83856	0.443881	2.81548	0.56503	3.57616	0.781268	4.95319	0.961381	6.08636
0.436523	2.75259	0.301305	1.8774	0.436638	2.75245	0.582534	3.67981	0.698444	4.41064	0.918971	5.80992	0.445983	2.8122	0.566567	3.56487	0.782212	4.93005	0.962267	6.05625
0.438656	2.74989	0.30334	1.87916	0.438771	2.74974	0.583972	3.66731	0.699894	4.39394	0.919885	5.78164	0.448085	2.80895	0.56811	3.55374	0.783161	4.90722	0.963157	6.02651
0.440802	2.74729	0.305374	1.88091	0.440918	2.74716	0.585415	3.65498	0.701349	4.37747	0.920803	5.75371	0.450185	2.80573	0.56966	3.54279	0.784115	4.88468	0.964051	5.99714
0.44296	2.7448	0.307409	1.88264	0.443077	2.74467	0.586862	3.64283	0.702809	4.36123	0.921725	5.72614	0.452286	2.80254	0.571215	3.53199	0.785074	4.86243	0.964949	5.96814
0.44513	2.74242	0.309443	1.88435	0.445247	2.74229	0.588313	3.63084	0.704274	4.34519	0.922652	5.69891	0.454385	2.79939	0.572775	3.52136	0.786038	4.84047	0.965852	5.9395
0.447311	2.74013	0.311477	1.88603	0.447429	2.74001	0.589769	3.61902	0.705744	4.32937	0.923583	5.67202	0.456484	2.79627	0.574342	3.51088	0.787006	4.81878	0.966758	5.91121
0.449504	2.73794	0.313512	1.8877	0.449623	2.73782	0.59123	3.60735	0.707218	4.31376	0.924519	5.64547	0.458582	2.79318	0.575914	3.50055	0.78798	4.79738	0.967669	5.88326
0.451707	2.73583	0.315546	1.88935	0.451826	2.73572	0.592694	3.59585	0.708697	4.29836	0.92546	5.61924	0.46068	2.79013	0.577491	3.49037	0.788957	4.77624	0.968584	5.85565
0.45392	2.7338	0.31758	1.89098	0.45404	2.7337	0.594163	3.5845	0.710181	4.28315	0.926405	5.59334	0.462777	2.7871	0.579075	3.48034	0.78994	4.75537	0.969503	5.82838
0.456143	2.73186	0.319614	1.89259	0.456263	2.73176	0.595637	3.5733	0.711669	4.26815	0.927354	5.56775	0.464873	2.7841	0.580664	3.47046	0.790928	4.73475	0.970427	5.80144
0.458374	2.73	0.321647	1.89418	0.458495	2.7299	0.597114	3.56226	0.713162	4.25333	0.928308	5.54248	0.466969	2.78113	0.582258	3.46072	0.79192	4.7144	0.971354	5.77482
0.460615	2.7282	0.323681	1.89576	0.460736	2.72811	0.598596	3.55136	0.71466	4.23871	0.929267	5.51751	0.469064	2.77819	0.583858	3.45112	0.792917	4.6943	0.972285	5.74851
0.462864	2.72648	0.325715	1.89732	0.462986	2.72639	0.600082	3.5406	0.716162	4.22428	0.93023	5.49284	0.471158	2.77528	0.585464	3.44165	0.793918	4.67444	0.973221	5.72252
0.465121	2.72482	0.327748	1.89885	0.465243	2.72473	0.601572	3.52999	0.717669	4.21003	0.931197	5.46846	0.473251	2.7724	0.587074	3.43232	0.794925	4.65483	0.97416	5.69684
0.467386	2.72322	0.329781	1.90038	0.467508	2.72314	0.603066	3.51952	0.71918	4.19596	0.932169	5.44438	0.475343	2.76954	0.588691	3.42313	0.795936	4.63546	0.975104	5.67145
0.469658	2.72168	0.331814	1.90188	0.469781	2.7216	0.604565	3.50918	0.720695	4.18207	0.933145	5.42059	0.477435	2.76671	0.590313	3.41406	0.796952	4.61633	0.976052	5.64637
0.471937	2.7202	0.333847	1.90337	0.47206	2.72013	0.606068	3.49898	0.722215	4.16835	0.934126	5.39708	0.479526	2.7639	0.59194	3.40512	0.797972	4.59743	0.977003	5.62157
0.474222	2.71878	0.33588	1.90484	0.474346	2.7187	0.607574	3.48891	0.723739	4.15481	0.935111	5.37384	0.481616	2.76112	0.593572	3.39631	0.798997	4.57876	0.977959	5.59707
0.476514	2.7174	0.337913	1.9063	0.476638	2.71733	0.609085	3.47897	0.725268	4.14143	0.9361	5.35087	0.483705	2.75836	0.59521	3.38763	0.800027	4.56031	0.978919	5.57284
0.478812	2.71608	0.339945	1.90773	0.478937	2.71601	0.610599	3.46916	0.726801	4.12822	0.937094	5.32818	0.485794	2.75563	0.596854	3.37906	0.801061	4.54208	0.979882	5.5489
0.481116	2.7148	0.341978	1.90916	0.481241	2.71473	0.612118	3.45948	0.728338	4.11517	0.938092	5.30575	0.487881	2.75292	0.598502	3.37061	0.8021	4.52407	0.98085	5.52523
0.483426	2.71356	0.34401	1.91056	0.48355	2.7135	0.613641	3.44992	0.729879	4.10229	0.939095	5.28358	0.489968	2.75024	0.600156	3.36228	0.803143	4.50628	0.981822	5.50182
0.48574	2.71237	0.346042	1.91196	0.485865	2.71231	0.615167	3.44048	0.731425	4.08956	0.940102	5.26166	0.492053	2.74758	0.601815	3.35407	0.804192	4.4887	0.982797	5.47869
0.48806	2.71122	0.348073	1.91333	0.488185	2.71115	0.616697	3.43116	0.732974	4.07699	0.941113	5.23999	0.494138	2.74494	0.603479	3.34597	0.805244	4.47132	0.983777	5.45581
0.490384	2.7101	0.350105	1.91469	0.49051	2.71004	0.618232	3.42195	0.734528	4.06456	0.942128	5.21858	0.496222	2.74232	0.605148	3.33799	0.806302	4.45415	0.98476	5.43319
0.492713	2.70902	0.352137	1.91604	0.492839	2.70897	0.61977	3.41287	0.736086	4.05229	0.943148	5.1974	0.498305	2.73973	0.606823	3.33011	0.807364	4.43718	0.985747	5.41083
0.495046	2.70798	0.354168	1.91737	0.495172	2.70793	0.621311	3.40389	0.737648	4.04017	0.944172	5.17647	0.500387	2.73715	0.608503	3.32234	0.80843	4.4204	0.986739	5.38871
0.497384	2.70697	0.356199	1.91869	0.49751	2.70692	0.622857	3.39503	0.739214	4.02819	0.945201	5.15577	0.502468	2.7346	0.610187	3.31468	0.809501	4.40382	0.987734	5.36683
0.499725	2.70599	0.35823	1.92	0.499852	2.70594	0.624406	3.38628	0.740784	4.01635	0.946233	5.13531	0.504548	2.73206	0.611877	3.30712	0.810576	4.38744	0.988733	5.3452
0.50207	2.70505	0.36026	1.92129	0.502197	2.70499	0.62596	3.37764	0.742358	4.00466	0.94727	5.11507	0.506627	2.72955	0.613572	3.29966	0.811656	4.37124	0.989735	5.32381
0.504419	2.70413	0.362291	1.92256	0.504546	2.70408	0.627516	3.3691	0.743935	3.9931	0.948311	5.09506	0.508704	2.72706	0.615272	3.29231	0.812741	4.35522	0.990742	5.30265
0.506772	2.70323	0.364321	1.92382	0.506899	2.70319	0.629077	3.36067	0.745517	3.98168	0.949357	5.07527	0.510781	2.72458	0.616977	3.28505	0.81383	4.3394	0.991753	5.28172
0.509127	2.70237	0.366351	1.92507	0.509255	2.70232	0.630641	3.35234	0.747102	3.97039	0.950407	5.0557	0.512857	2.72213	0.618687	3.2779	0.814924	4.32375	0.992767	5.26102
0.511486	2.70153	0.368381	1.92631	0.511614	2.70149	0.632209	3.34411	0.748692	3.95923	0.95146	5.03635	0.514932	2.71969	0.620402	3.27084	0.816022	4.30828	0.993785	5.24054
0.513848	2.70071	0.370411	1.92753	0.513976	2.70067	0.63378	3.33598	0.750285	3.9482	0.952519	5.0172	0.517006	2.71727	0.622122	3.26387	0.817124	4.29298	0.994807	5.22028
0.516213	2.69992	0.37244	1.92874	0.51634	2.69988	0.635355	3.32795	0.751882	3.9373	0.953581	4.99827	0.519079	2.71487	0.623846	3.257	0.818231	4.27785	0.995833	5.20024
0.51858	2.69915	0.37447	1.92994	0.518708	2.69911	0.636934	3.32002	0.753483	3.92653	0.954647	4.97954	0.52115	2.71249	0.625576	3.25022	0.819342	4.2629	0.996862	5.18041
0.52095	2.6984	0.376499	1.93112	0.521078	2.69836	0.638516	3.31218	0.755087	3.91587	0.955718	4.96102	0.523221	2.71012	0.62731	3.24353	0.820458	4.24811	0.997895	5.16079
0.523323	2.69767	0.378528	1.93229	0.523451	2.69763	0.640101	3.30443	0.756695	3.90534	0.956793	4.94269	0.52529	2.70778	0.629049	3.23693	0.821578	4.23349	0.998932	5.14138
0.525698	2.69696	0.380556	1.93345	0.525826	2.69692	0.64169	3.29678	0.758307	3.89493	0.957872	4.92456	0.527359	2.70544	0.630793	3.23041	0.822703	4.21903	0.999973	5.12217
0.528075	2.69627	0.382585	1.9346	0.528203	2.69623	0.643283	3.28922	0.759922	3.88464	0.958955	4.90663	0.529426	2.70313	0.632542	3.22399	0.823832	4.20473	1.00102	5.10317
0.530454	2.6956	0.384613	1.93574	0.530583	2.69556	0.644879	3.28174	0.761541	3.87446	0.960042	4.88889	0.531492	2.70083	0.634295	3.21764	0.824965	4.19059		
0.532836	2.69494	0.386641	1.93686	0.532964	2.6949	0.646478	3.27436	0.763163	3.8644	0.961134	4.87133	0.533557	2.69855	0.636054	3.21139	0.826103	4.1766		
0.535219	2.6943	0.388668	1.93798	0.535348	2.69426	0.648081	3.26706	0.764789	3.85445	0.962229	4.85396	0.535621	2.69628	0.637816	3.20521	0.827245	4.16277		
0.537605	2.69367	0.390696	1.93908	0.537734	2.69364	0.649687	3.25984	0.766418	3.84461	0.963329	4.83678	0.537684	2.69403	0.639584	3.19911	0.828392	4.14908		
0.539992	2.69306	0.392723	1.94017	0.540121	2.69303	0.651297	3.25271	0.768051	3.83487	0.964433	4.81977	0.539745	2.69179	0.641356	3.1931	0.829543	4.13555		
0.542381	2.69246	0.39475	1.94125	0.54251	2.69243	0.65291	3.24567	0.769688	3.82525	0.96554	4.80295	0.541806	2.68957	0.643133	3.18716	0.830698	4.12216		
0.544772	2.69188	0.396777	1.94231	0.544901	2.69185	0.654526	3.2387	0.771327	3.81573	0.966652	4.78629	0.543865	2.68736	0.644914	3.1813	0.831858	4.10892		
0.547164	2.69131	0.398804	1.94337	0.547293	2.69128	0.656145	3.23182	0.77297	3.80632	0.967768	4.76982	0.545923	2.68517	0.6467	3.17551	0.833021	4.09582		
0.549557	2.69076	0.40083	1.94442	0.549687	2.69073	0.657768	3.22501	0.774617	3.797	0.968888	4.75351	0.54798	2.68299	0.64849	3.1698	0.83419	4.08286		
0.551953	2.69021	0.402856	1.94545	0.552082	2.69018	0.659394	3.21828	0.776267	3.78779	0.970012	4.73737	0.550036	2.68083	0.650285	3.16416	0.835362	4.07004		
0.554349	2.68968	0.404882	1.94648	0.554479	2.68965	0.661024	3.21163	0.77792	3.77868	0.97114	4.72139	0.55209	2.67868	0.652085	3.1586	0.836539	4.05735		
0.556747	2.68915	0.406907	1.94749	0.556877	2.68913	0.662656	3.20505	0.779576	3.76966	0.972272	4.70558	0.554144	2.67654	0.653888	3.15311	0.83772	4.0448		
0.559146	2.68864	0.408933	1.9485	0.559276	2.68862	0.664292	3.19855	0.781236	3.76075	0.973408	4.68993	0.556196	2.67442	0.655697	3.14769	0.838905	4.03239		
0.561546	2.68814	0.410958	1.94949	0.561676	2.68811	0.665931	3.19212	0.782899	3.75192	0.974548	4.67444	0.558247	2.67231	0.657509	3.14233	0.840095	4.0201		
0.563948	2.68765	0.412983	1.95048	0.564077	2.68762	0.667573	3.18576	0.784565	3.74319	0.975692	4.65911	0.560296	2.67021	0.659326	3.13705	0.841288	4.00794		
0.56635	2.68717	0.415007	1.95145	0.56648	2.68714	0.669218	3.17948	0.786234	3.73456	0.97684	4.64393	0.562345	2.66813	0.661147	3.13183	0.842486	3.99591		
0.568754	2.68669	0.417032	1.95242	0.568883	2.68667	0.670866	3.17326	0.787906	3.72601	0.977992	4.6289	0.564392	2.66606	0.662973	3.12668	0.843689	3.98401		
0.571158	2.68623	0.419056	1.95337	0.571288	2.68621	0.672518	3.16712	0.789581	3.71755	0.979148	4.61403	0.566438	2.664	0.664803	3.12159	0.844895	3.97223		
0.573563	2.68577	0.42108	1.95432	0.573693	2.68575	0.674172	3.16104	0.79126	3.70919	0.980308	4.5993	0.568483	2.66195	0.666637	3.11657	0.846105	3.96057		
0.57597	2.68533	0.423103	1.95526	0.5761	2.6853	0.67583	3.15503	0.792941	3.7009	0.981472	4.58472	0.570527	2.65991	0.668475	3.11161	0.84732	3.94904		
0.578377	2.68489	0.425127	1.95619	0.578507	2.68486	0.677491	3.14909	0.794626	3.69271	0.982639	4.57028	0.572569	2.65789	0.670318	3.10671	0.848539	3.93762		
0.580785	2.68445	0.42715	1.9571	0.580915	2.68443	0.679155	3.14321	0.796313	3.6846	0.983811	4.55599	0.57461	2.65588	0.672165	3.10188	0.849762	3.92632		
0.583193	2.68403	0.429173	1.95801	0.583323	2.684	0.680821	3.13739	0.798004	3.67657	0.984986	4.54184	0.57665	2.65388	0.674015	3.0971	0.85099	3.91514		
0.585602	2.68361	0.431195	1.95892	0.585732	2.68359	0.682491	3.13164	0.799697	3.66862	0.986166	4.52782	0.578689	2.65189	0.67587	3.09239	0.852221	3.90407		
0.588012	2.6832	0.433218	1.95981	0.588142	2.68317	0.684164	3.12595	0.801394	3.66076	0.987349	4.51394	0.580726	2.64991	0.677729	3.08773	0.853457	3.89311		
0.590423	2.68279	0.43524	1.96069	0.590553	2.68277	0.68584	3.12033	0.803093	3.65297	0.988536	4.5002	0.582763	2.64795	0.679592	3.08313	0.854696	3.88227		
0.592834	2.68239	0.437262	1.96157	0.592964	2.68237	0.687519	3.11476	0.804795	3.64527	0.989727	4.4866	0.584798	2.64599	0.68146	3.07859	0.85594	3.87153		
0.595245	2.68199	0.439283	1.96243	0.595376	2.68197	0.689201	3.10926	0.8065	3.63764	0.990922	4.47312	0.586832	2.64405	0.683331	3.0741	0.857188	3.86091		
0.597657	2.6816	0.441304	1.96329	0.597788	2.68158	0.690886	3.10381	0.808208	3.63009	0.99212	4.45977	0.588864	2.64212	0.685206	3.06967	0.85844	3.85039		
0.60007	2.68122	0.443325	1.96414	0.6002	2.6812	0.692573	3.09843	0.809919	3.62261	0.993323	4.44656	0.590895	2.64019	0.687085	3.0653	0.859696	3.83998		
0.602483	2.68084	0.445346	1.96498	0.602613	2.68082	0.694264	3.0931	0.811632	3.61521	0.994529	4.43346	0.592926	2.63828	0.688968	3.06097	0.860956	3.82967		
0.604896	2.68047	0.447367	1.96582	0.605027	2.68045	0.695958	3.08783	0.813348	3.60788	0.995739	4.4205	0.594954	2.63638	0.690854	3.0567	0.862221	3.81946		
0.60731	2.6801	0.449387	1.96664	0.60744	2.68008	0.697654	3.08261	0.815067	3.60063	0.996953	4.40766	0.596982	2.63449	0.692745	3.05249	0.863489	3.80936		
0.609724	2.67973	0.451407	1.96746	0.609854	2.67971	0.699354	3.07745	0.816789	3.59344	0.998171	4.39494	0.599009	2.63261	0.694639	3.04832	0.864761	3.79935		
0.612138	2.67937	0.453426	1.96827	0.612268	2.67935	0.701056	3.07235	0.818513	3.58633	0.999392	4.38234	0.601034	2.63074	0.696538	3.0442	0.866037	3.78945		
0.614553	2.67902	0.455446	1.96907	0.614683	2.679	0.702761	3.06729	0.82024	3.57928	1.00062	4.36986	0.603058	2.62887	0.69844	3.04013	0.867318	3.77964		
0.616967	2.67866	0.457465	1.96987	0.617098	2.67864	0.704469	3.0623	0.821969	3.57231			0.605081	2.62702	0.700345	3.03612	0.868602	3.76993		
0.619382	2.67831	0.459484	1.97065	0.619513	2.6783	0.70618	3.05735	0.823702	3.5654			0.607102	2.62518	0.702255	3.03215	0.869891	3.76032		
0.621797	2.67797	0.461503	1.97143	0.621928	2.67795	0.707894	3.05246	0.825436	3.55855			0.609123	2.62335	0.704168	3.02823	0.871183	3.7508		
0.624213	2.67763	0.463521	1.97221	0.624343	2.67761	0.709611	3.04762	0.827174	3.55178			0.611142	2.62152	0.706084	3.02435	0.872479	3.74137		
0.626628	2.67729	0.465539	1.97297	0.626758	2.67727	0.71133	3.04283	0.828913	3.54507			0.61316	2.61971	0.708005	3.02052	0.87378	3.73204		
0.629043	2.67695	0.467557	1.97373	0.629174	2.67693	0.713053	3.03809	0.830656	3.53842			0.615176	2.61791	0.709929	3.01674	0.875084	3.7228		
0.631459	2.67662	0.469574	1.97448	0.631589	2.6766	0.714778	3.03339	0.832401	3.53183			0.617192	2.61611	0.711856	3.013	0.876392	3.71364		
0.633874	2.67629	0.471592	1.97523	0.634005	2.67627	0.716506	3.02875	0.834148	3.52531			0.619206	2.61433	0.713787	3.00931	0.877705	3.70458		
0.63629	2.67596	0.473608	1.97596	0.63642	2.67594	0.718236	3.02416	0.835898	3.51885			0.62122	2.61255	0.715721	3.00565	0.879021	3.6956		
0.638705	2.67563	0.475625	1.97669	0.638835	2.67561	0.71997	3.01961	0.83765	3.51245			0.623232	2.61078	0.717659	3.00205	0.880341	3.68671		
0.64112	2.67531	0.477642	1.97742	0.641251	2.67529	0.721706	3.01511	0.839405	3.50611			0.625243	2.60902	0.719601	2.99848	0.881665	3.6779		
0.643535	2.67499	0.479658	1.97813	0.643666	2.67497	0.723446	3.01066	0.841162	3.49983			0.627252	2.60727	0.721545	2.99496	0.882993	3.66918		
0.64595	2.67467	0.481674	1.97884	0.646081	2.67465	0.725188	3.00625	0.842921	3.49361			0.629261	2.60553	0.723493	2.99147	0.884325	3.66054		
0.648365	2.67435	0.483689	1.97955	0.648496	2.67433	0.726932	3.00189	0.844683	3.48744			0.631268	2.6038	0.725445	2.98803	0.88566	3.65199		
0.65078	2.67403	0.485705	1.98024	0.65091	2.67402	0.72868	2.99758	0.846447	3.48133			0.633275	2.60207	0.727399	2.98463	0.887	3.64351		
0.653195	2.67372	0.48772	1.98093	0.653325	2.6737	0.73043	2.9933	0.848213	3.47528			0.63528	2.60036	0.729357	2.98127	0.888343	3.63512		
0.655609	2.6734	0.489734	1.98162	0.655739	2.67339	0.732183	2.98908	0.849982	3.46928			0.637284	2.59865	0.731318	2.97794	0.889691	3.62681		
0.658023	2.67309	0.491749	1.9823	0.658153	2.67308	0.733939	2.98489	0.851752	3.46334			0.639287	2.59695	0.733283	2.97465	0.891042	3.61857		
0.660437	2.67278	0.493763	1.98297	0.660567	2.67276	0.735698	2.98075	0.853526	3.45745			0.641289	2.59526	0.73525	2.97141	0.892397	3.61041		
0.66285	2.67247	0.495777	1.98363	0.66298	2.67245	0.73746	2.97665	0.855301	3.45162			0.643289	2.59358	0.737221	2.96819	0.893756	3.60233		
0.665263	2.67216	0.497791	1.98429	0.665393	2.67215	0.739224	2.97259	0.857078	3.44583			0.645289	2.5919	0.739194	2.96502	0.895119	3.59433		
0.667676	2.67185	0.499804	1.98495	0.667806	2.67184	0.740991	2.96858	0.858858	3.4401			0.647288	2.59024	0.741171	2.96188	0.896485	3.5864		
0.670088	2.67155	0.501817	1.9856	0.670218	2.67153	0.742761	2.9646	0.86064	3.43442			0.649285	2.58858	0.743151	2.95877	0.897855	3.57854		
0.6725	2.67124	0.50383	1.98624	0.67263	2.67122	0.744533	2.96067	0.862424	3.42879			0.651281	2.58693	0.745134	2.9557	0.89923	3.57076		
0.674911	2.67093	0.505842	1.98687	0.675041	2.67092	0.746309	2.95677	0.86421	3.42322			0.653277	2.58529	0.74712	2.95267	0.900607	3.56305		
0.677322	2.67063	0.507855	1.9875	0.677452	2.67061	0.748087	2.95292	0.865998	3.41769			0.655271	2.58365	0.749109	2.94967	0.901989	3.55541		
0.679732	2.67032	0.509867	1.98813	0.679862	2.6703	0.749868	2.9491	0.867788	3.4122			0.657264	2.58203	0.7511	2.9467	0.903375	3.54784		
0.682142	2.67001	0.511878	1.98875	0.682272	2.67	0.751652	2.94532	0.869581	3.40677			0.659257	2.58041	0.753095	2.94376	0.904764	3.54034		
0.684551	2.66971	0.51389	1.98936	0.684681	2.66969	0.753438	2.94158	0.871375	3.40139			0.661248	2.5788	0.755092	2.94086	0.906157	3.53291		
0.686959	2.6694	0.515901	1.98997	0.687089	2.66939	0.755228	2.93788	0.873171	3.39605			0.663238	2.5772	0.757092	2.93799	0.907554	3.52555		
0.689367	2.6691	0.517912	1.99057	0.689497	2.66908	0.75702	2.93422	0.87497	3.39075			0.665227	2.5756	0.759095	2.93515	0.908954	3.51826		
0.691775	2.66879	0.519922	1.99117	0.691905	2.66877	0.758815	2.9306	0.87677	3.38551			0.667215	2.57401	0.761101	2.93234	0.910359	3.51103		
0.694181	2.66848	0.521933	1.99176	0.694311	2.66847	0.760613	2.92701	0.878572	3.38031			0.669202	2.57243	0.763109	2.92956	0.911767	3.50387		
0.696587	2.66817	0.523943	1.99235	0.696717	2.66816	0.762414	2.92346	0.880377	3.37515			0.671189	2.57086	0.76512	2.92682	0.913178	3.49678		
0.698992	2.66786	0.525952	1.99293	0.699122	2.66785	0.764217	2.91994	0.882183	3.37004			0.673174	2.5693	0.767134	2.9241	0.914594	3.48975		
0.701396	2.66756	0.527962	1.99351	0.701526	2.66754	0.766024	2.91646	0.883991	3.36497			0.675158	2.56774	0.76915	2.92141	0.916013	3.48278		
0.703799	2.66724	0.529971	1.99408	0.703929	2.66723	0.767833	2.91302	0.885801	3.35994			0.677142	2.56619	0.771169	2.91875	0.917436	3.47588		
0.706202	2.66693	0.53198	1.99464	0.706332	2.66692	0.769645	2.90961	0.887613	3.35496			0.679124	2.56465	0.773191	2.91612	0.918862	3.46904		
0.708603	2.66662	0.533988	1.9952	0.708733	2.6666	0.77146	2.90623	0.889427	3.35001			0.681106	2.56311	0.775215	2.91351	0.920293	3.46226		
0.711004	2.66631	0.535997	1.99576	0.711134	2.66629	0.773278	2.90289	0.891242	3.34511			0.683086	2.56158	0.777241	2.91093	0.921727	3.45554		
0.713404	2.66599	0.538005	1.99631	0.713533	2.66597	0.775099	2.89959	0.893059	3.34025			0.685066	2.56006	0.77927	2.90839	0.923164	3.44888		
0.715802	2.66567	0.540013	1.99686	0.715932	2.66566	0.776923	2.89631	0.894878	3.33543			0.687045	2.55855	0.781302	2.90586	0.924605	3.44229		
0.7182	2.66535	0.54202	1.9974	0.71833	2.66534	0.77875	2.89308	0.896699	3.33066			0.689023	2.55704	0.783335	2.90336	0.92605	3.43575		
0.720597	2.66503	0.544027	1.99794	0.720726	2.66502	0.78058	2.88987	0.898522	3.32592			0.691	2.55555	0.785371	2.90089	0.927499	3.42927		
0.722992	2.66471	0.546034	1.99847	0.723121	2.66469	0.782413	2.8867	0.900347	3.32121			0.692976	2.55405	0.78741	2.89845	0.928951	3.42285		
0.725386	2.66438	0.548041	1.999	0.725516	2.66437	0.784249	2.88356	0.902173	3.31655			0.694952	2.55257	0.78945	2.89603	0.930407	3.41648		
0.727779	2.66406	0.550047	1.99952	0.727909	2.66404	0.786088	2.88046	0.904	3.31193			0.696926	2.55109	0.791493	2.89363	0.931866	3.41018		
0.730171	2.66373	0.552053	2.00004	0.7303	2.66371	0.78793	2.87738	0.90583	3.30734			0.6989	2.54962	0.793539	2.89126	0.933329	3.40392		
0.732562	2.6634	0.554059	2.00055	0.732691	2.66338	0.789775	2.87434	0.907661	3.30279			0.700873	2.54816	0.795586	2.88891	0.934796	3.39773		
0.734951	2.66306	0.556064	2.00106	0.73508	2.66304	0.791623	2.87133	0.909494	3.29828			0.702845	2.5467	0.797635	2.88659	0.936266	3.39159		
0.737339	2.66273	0.55807	2.00157	0.737468	2.66271	0.793474	2.86835	0.911329	3.2938			0.704816	2.54525	0.799687	2.88429	0.93774	3.3855		
0.739725	2.66239	0.560075	2.00207	0.739854	2.66237	0.795329	2.86541	0.913165	3.28936			0.706787	2.54381	0.801741	2.88201	0.939218	3.37947		
0.74211	2.66204	0.562079	2.00257	0.742239	2.66202	0.797187	2.86249	0.915003	3.28496			0.708757	2.54237	0.803797	2.87976	0.940699	3.37349		
0.744494	2.6617	0.564084	2.00306	0.744622	2.66168	0.799048	2.8596	0.916842	3.28059			0.710726	2.54095	0.805854	2.87753	0.942183	3.36756		
0.746876	2.66135	0.566088	2.00355	0.747004	2.66133	0.800912	2.85675	0.918683	3.27625			0.712694	2.53952	0.807914	2.87531	0.943672	3.36168		
0.749256	2.661	0.568092	2.00403	0.749384	2.66098	0.802779	2.85393	0.920525	3.27195			0.714662	2.53811	0.809976	2.87312	0.945164	3.35586		
0.751635	2.66064	0.570095	2.00451	0.751763	2.66062	0.80465	2.85113	0.922369	3.26769			0.716629	2.5367	0.81204	2.87096	0.946659	3.35009		
0.754011	2.66028	0.572098	2.00498	0.75414	2.66026	0.806524	2.84837	0.924215	3.26345			0.718595	2.5353	0.814105	2.86881	0.948158	3.34436		
0.756387	2.65992	0.574101	2.00546	0.756515	2.6599	0.808401	2.84564	0.926062	3.25925			0.720561	2.5339	0.816173	2.86668	0.94966	3.33869		
0.75876	2.65955	0.576104	2.00592	0.758888	2.65953	0.810282	2.84294	0.927911	3.25508			0.722525	2.53252	0.818242	2.86458	0.951166	3.33307		
0.761132	2.65918	0.578106	2.00639	0.76126	2.65916	0.812167	2.84026	0.929761	3.25095			0.72449	2.53113	0.820313	2.86249	0.952676	3.3275		
0.763501	2.6588	0.580108	2.00685	0.763629	2.65878	0.814054	2.83762	0.931612	3.24685			0.726453	2.52976	0.822386	2.86043	0.954189	3.32197		
0.765869	2.65842	0.58211	2.0073	0.765997	2.6584	0.815946	2.835	0.933465	3.24277			0.728416	2.52839	0.82446	2.85838	0.955706	3.31649		
0.768235	2.65804	0.584112	2.00775	0.768362	2.65802	0.817841	2.83242	0.935319	3.23873			0.730378	2.52703	0.826537	2.85635	0.957226	3.31106		
0.770598	2.65765	0.586113	2.0082	0.770726	2.65763	0.819739	2.82986	0.937175	3.23472			0.73234	2.52568	0.828615	2.85434	0.95875	3.30568		
0.77296	2.65725	0.588114	2.00864	0.773087	2.65723	0.821641	2.82734	0.939032	3.23074			0.734301	2.52433	0.830694	2.85235	0.960277	3.30034		
0.775319	2.65685	0.590115	2.00908	0.775446	2.65683	0.823547	2.82484	0.940891	3.2268			0.736261	2.52299	0.832776	2.85038	0.961807	3.29505		
0.777676	2.65645	0.592115	2.00952	0.777803	2.65643	0.825457	2.82237	0.942751	3.22288			0.738221	2.52165	0.834858	2.84842	0.963342	3.28981		
0.780031	2.65604	0.594116	2.00995	0.780158	2.65602	0.82737	2.81993	0.944612	3.21899			0.74018	2.52032	0.836943	2.84649	0.964879	3.28461		
0.782383	2.65563	0.596116	2.01038	0.78251	2.6556	0.829287	2.81751	0.946475	3.21513			0.742139	2.519	0.839029	2.84457	0.966421	3.27945		
0.784733	2.6552	0.598115	2.01081	0.78486	2.65518	0.831208	2.81513	0.948339	3.2113			0.744097	2.51768	0.841116	2.84266	0.967965	3.27434		
0.78708	2.65478	0.600114	2.01123	0.787207	2.65475	0.833133	2.81277	0.950204	3.20749			0.746054	2.51638	0.843205	2.84078	0.969513	3.26928		
0.789425	2.65435	0.602114	2.01165	0.789552	2.65432	0.835062	2.81045	0.952071	3.20372			0.748011	2.51507	0.845295	2.83891	0.971065	3.26425		
0.791767	2.65391	0.604112	2.01206	0.791894	2.65388	0.836995	2.80815	0.953939	3.19997			0.749968	2.51378	0.847387	2.83706	0.97262	3.25927		
0.794107	2.65346	0.606111	2.01247	0.794233	2.65344	0.838933	2.80587	0.955808	3.19625			0.751924	2.51249	0.84948	2.83522	0.974179	3.25434		
0.796444	2.65301	0.608109	2.01288	0.79657	2.65299	0.840874	2.80363	0.957679	3.19256			0.753879	2.5112	0.851574	2.8334	0.975741	3.24944		
0.798777	2.65255	0.610107	2.01329	0.798903	2.65253	0.842819	2.80142	0.95955	3.18889			0.755834	2.50992	0.85367	2.8316	0.977306	3.24459		
0.801108	2.65209	0.612105	2.01369	0.801234	2.65206	0.844769	2.79923	0.961423	3.18526			0.757789	2.50865	0.855767	2.82981	0.978875	3.23977		
0.803436	2.65162	0.614102	2.01409	0.803562	2.65159	0.846723	2.79707	0.963297	3.18164			0.759743	2.50739	0.857865	2.82803	0.980448	3.235		
0.805761	2.65114	0.616099	2.01448	0.805887	2.65111	0.848682	2.79493	0.965173	3.17806			0.761696	2.50613	0.859965	2.82627	0.982024	3.23027		
0.808083	2.65065	0.618096	2.01487	0.808208	2.65062	0.850645	2.79283	0.967049	3.1745			0.763649	2.50488	0.862066	2.82453	0.983603	3.22558		
0.810402	2.65016	0.620093	2.01526	0.810527	2.65013	0.852612	2.79075	0.968927	3.17097			0.765602	2.50363	0.864167	2.8228	0.985186	3.22093		
0.812717	2.64965	0.622089	2.01564	0.812842	2.64963	0.854584	2.7887	0.970806	3.16746			0.767554	2.50239	0.86627	2.82108	0.986772	3.21632		
0.815029	2.64915	0.624085	2.01603	0.815154	2.64912	0.85656	2.78668	0.972686	3.16397			0.769506	2.50116	0.868374	2.81938	0.988362	3.21175		
0.817338	2.64863	0.626081	2.0164	0.817462	2.6486	0.858541	2.78468	0.974567	3.16051			0.771457	2.49993	0.870479	2.81769	0.989955	3.20722		
0.819643	2.6481	0.628076	2.01678	0.819767	2.64807	0.860527	2.78272	0.97645	3.15708			0.773408	2.49871	0.872585	2.81601	0.991551	3.20272		
0.821944	2.64757	0.630072	2.01715	0.822068	2.64754	0.862518	2.78078	0.978333	3.15367			0.775359	2.49749	0.874693	2.81435	0.993151	3.19826		
0.824242	2.64703	0.632067	2.01752	0.824366	2.647	0.864514	2.77886	0.980217	3.15028			0.777309	2.49628	0.876801	2.8127	0.994755	3.19384		
0.826536	2.64648	0.634061	2.01789	0.82666	2.64645	0.866514	2.77698	0.982103	3.14692			0.779259	2.49508	0.87891	2.81107	0.996361	3.18946		
0.828827	2.64592	0.636056	2.01825	0.82895	2.64589	0.868519	2.77512	0.98399	3.14358			0.781209	2.49388	0.88102	2.80944	0.997972	3.18512		
0.831113	2.64535	0.63805	2.01861	0.831237	2.64532	0.87053	2.77328	0.985877	3.14026			0.783158	2.49269	0.883131	2.80783	0.999585	3.18081		
0.833396	2.64477	0.640044	2.01896	0.833519	2.64474	0.872545	2.77148	0.987766	3.13697			0.785107	2.4915	0.885242	2.80623	1.0012	3.17654		
0.835675	2.64418	0.642037	2.01932	0.835798	2.64415	0.874566	2.7697	0.989656	3.1337			0.787055	2.49032	0.887355	2.80465				
0.83795	2.64359	0.644031	2.01967	0.838072	2.64356	0.876592	2.76795	0.991547	3.13045			0.789003	2.48915	0.889469	2.80307				
0.84022	2.64298	0.646024	2.02002	0.840343	2.64295	0.878623	2.76622	0.993439	3.12722			0.790951	2.48798	0.891583	2.80151				
0.842487	2.64237	0.648016	2.02036	0.842609	2.64234	0.880659	2.76453	0.995332	3.12402			0.792899	2.48682	0.893698	2.79996				
0.844749	2.64174	0.650009	2.02071	0.844871	2.64171	0.882701	2.76285	0.997226	3.12084			0.794846	2.48566	0.895813	2.79842				
0.847007	2.64111	0.652001	2.02105	0.847128	2.64108	0.884748	2.76121	0.99912	3.11768			0.796793	2.48451	0.89793	2.79689				
0.84926	2.64047	0.653993	2.02138	0.849382	2.64043	0.8868	2.75959	1.00102	3.11454			0.798739	2.48337	0.900047	2.79537				
0.851509	2.63981	0.655985	2.02172	0.851631	2.63978	0.888859	2.758					0.800686	2.48223	0.902164	2.79386				
0.853754	2.63915	0.657976	2.02205	0.853875	2.63911	0.890922	2.75643					0.802632	2.4811	0.904283	2.79237				
0.855994	2.63847	0.659967	2.02238	0.856115	2.63844	0.892991	2.75489					0.804578	2.47997	0.906402	2.79088				
0.85823	2.63779	0.661958	2.0227	0.858351	2.63775	0.895066	2.75338					0.806523	2.47885	0.908521	2.78941				
0.860461	2.6371	0.663949	2.02303	0.860581	2.63706	0.897146	2.75189					0.808469	2.47773	0.910641	2.78794				
0.862688	2.63639	0.665939	2.02335	0.862808	2.63635	0.899232	2.75043					0.810414	2.47662	0.912762	2.78648				
0.864909	2.63568	0.667929	2.02366	0.865029	2.63564	0.901324	2.74899					0.812359	2.47552	0.914883	2.78504				
0.867127	2.63495	0.669919	2.02398	0.867246	2.63491	0.903421	2.74758					0.814304	2.47442	0.917004	2.7836				
0.869339	2.63422	0.671909	2.02429	0.869458	2.63418	0.905524	2.7462					0.816248	2.47332	0.919126	2.78217				
0.871547	2.63347	0.673898	2.0246	0.871666	2.63343	0.907633	2.74484					0.818193	2.47224	0.921248	2.78075				
0.873749	2.63272	0.675887	2.02491	0.873868	2.63268	0.909748	2.7435					0.820137	2.47115	0.923371	2.77934				
0.875948	2.63195	0.677876	2.02522	0.876066	2.63191	0.911868	2.74219					0.822081	2.47008	0.925494	2.77794				
0.878141	2.63118	0.679865	2.02552	0.878259	2.63113	0.913995	2.74091					0.824024	2.46901	0.927617	2.77655				
0.880329	2.63039	0.681853	2.02582	0.880447	2.63035	0.916126	2.73965					0.825968	2.46794	0.929741	2.77517				
0.882513	2.62959	0.683841	2.02612	0.882631	2.62955	0.918264	2.73841					0.827912	2.46688	0.931865	2.7738				
0.884692	2.62879	0.685828	2.02641	0.88481	2.62874	0.920408	2.7372					0.829855	2.46582	0.933989	2.77243				
0.886866	2.62797	0.687816	2.02671	0.886983	2.62793	0.922557	2.73601					0.831798	2.46477	0.936113	2.77107				
0.889036	2.62715	0.689803	2.027	0.889152	2.6271	0.924712	2.73484					0.833741	2.46373	0.938238	2.76972				
0.8912	2.62631	0.69179	2.02728	0.891317	2.62627	0.926872	2.7337					0.835684	2.46269	0.940362	2.76838				
0.89336	2.62547	0.693777	2.02757	0.893476	2.62542	0.929038	2.73258					0.837627	2.46166	0.942487	2.76705				
0.895515	2.62462	0.695763	2.02785	0.895631	2.62457	0.93121	2.73148					0.839569	2.46063	0.944612	2.76572				
0.897665	2.62376	0.697749	2.02814	0.897781	2.62371	0.933387	2.73041					0.841512	2.45961	0.946737	2.7644				
0.899811	2.62288	0.699735	2.02841	0.899927	2.62284	0.93557	2.72935					0.843454	2.45859	0.948862	2.76309				
0.901952	2.62201	0.701721	2.02869	0.902068	2.62196	0.937759	2.72832					0.845397	2.45758	0.950987	2.76178				
0.904089	2.62112	0.703706	2.02897	0.904204	2.62107	0.939953	2.72731					0.847339	2.45657	0.953113	2.76049				
0.906221	2.62022	0.705692	2.02924	0.906336	2.62017	0.942152	2.72632					0.849281	2.45557	0.955238	2.7592				
0.908349	2.61932	0.707676	2.02951	0.908463	2.61927	0.944357	2.72535					0.851223	2.45457	0.957363	2.75791				
0.910472	2.6184	0.709661	2.02978	0.910586	2.61835	0.946567	2.72441					0.853165	2.45358	0.959488	2.75664				
0.91259	2.61748	0.711645	2.03004	0.912705	2.61743	0.948782	2.72348					0.855107	2.45259	0.961613	2.75536				
0.914705	2.61656	0.71363	2.03031	0.914819	2.6165	0.951002	2.72257					0.857049	2.45161	0.963738	2.7541				
0.916815	2.61562	0.715613	2.03057	0.916928	2.61557	0.953228	2.72168					0.858991	2.45063	0.965863	2.75284				
0.918921	2.61468	0.717597	2.03083	0.919034	2.61463	0.955458	2.72081					0.860933	2.44966	0.967987	2.75159				
0.921022	2.61373	0.71958	2.03109	0.921136	2.61368	0.957694	2.71996					0.862875	2.4487	0.970112	2.75035				
0.92312	2.61277	0.721564	2.03134	0.923233	2.61272	0.959934	2.71913					0.864817	2.44773	0.972236	2.74911				
0.925214	2.61181	0.723546	2.0316	0.925326	2.61176	0.962179	2.71832					0.866758	2.44678	0.97436	2.74788				
0.927303	2.61084	0.725529	2.03185	0.927416	2.61079	0.964429	2.71752					0.8687	2.44583	0.976484	2.74665				
0.929389	2.60987	0.727511	2.0321	0.929502	2.60982	0.966683	2.71674					0.870642	2.44488	0.978608	2.74543				
0.931471	2.60889	0.729493	2.03234	0.931583	2.60884	0.968942	2.71598					0.872583	2.44394	0.980731	2.74421				
0.933549	2.60791	0.731475	2.03259	0.933662	2.60785	0.971206	2.71523					0.874525	2.443	0.982854	2.743				
0.935624	2.60692	0.733457	2.03283	0.935736	2.60686	0.973474	2.7145					0.876467	2.44207	0.984977	2.74179				
0.937695	2.60592	0.735438	2.03307	0.937807	2.60587	0.975746	2.71379					0.878408	2.44114	0.987099	2.74059				
0.939763	2.60492	0.737419	2.03331	0.939874	2.60487	0.978022	2.71309					0.88035	2.44022	0.989221	2.7394				
0.941827	2.60392	0.7394	2.03355	0.941938	2.60387	0.980303	2.7124					0.882292	2.4393	0.991343	2.73821				
0.943888	2.60291	0.741381	2.03379	0.943999	2.60286	0.982587	2.71173					0.884233	2.43839	0.993464	2.73703				
0.945945	2.6019	0.743361	2.03402	0.946057	2.60185	0.984876	2.71108					0.886175	2.43748	0.995585	2.73585				
0.948	2.60089	0.745341	2.03425	0.948111	2.60083	0.987168	2.71044					0.888117	2.43658	0.997705	2.73467				
0.950051	2.59987	0.747321	2.03448	0.950162	2.59982	0.989465	2.70981					0.890059	2.43568	0.999825	2.7335				
0.9521	2.59885	0.749301	2.03471	0.95221	2.5988	0.991765	2.7092					0.892	2.43479	1.00194	2.73233				
0.954145	2.59783	0.75128	2.03494	0.954255	2.59777	0.994068	2.70859					0.893942	2.4339						
0.956187	2.5968	0.753259	2.03516	0.956298	2.59675	0.996375	2.70801					0.895884	2.43301						
0.958227	2.59577	0.755238	2.03539	0.958337	2.59572	0.998685	2.70743					0.897826	2.43213						
0.960264	2.59474	0.757217	2.03561	0.960374	2.59469	1.001	2.70686					0.899768	2.43126						
0.962299	2.59371	0.759195	2.03583	0.962408	2.59365							0.90171	2.43038						
0.96433	2.59267	0.761173	2.03604	0.96444	2.59262							0.903652	2.42952						
0.96636	2.59164	0.763151	2.03626	0.966469	2.59158							0.905595	2.42866						
0.968386	2.5906	0.765129	2.03647	0.968496	2.59054							0.907537	2.4278						
0.970411	2.58956	0.767106	2.03669	0.97052	2.58951							0.909479	2.42695						
0.972433	2.58852	0.769084	2.0369	0.972542	2.58847							0.911422	2.4261						
0.974453	2.58748	0.771061	2.03711	0.974562	2.58743							0.913364	2.42525						
0.976471	2.58644	0.773037	2.03732	0.97658	2.58639							0.915307	2.42441						
0.978487	2.5854	0.775014	2.03752	0.978595	2.58534							0.917249	2.42358						
0.9805	2.58436	0.77699	2.03773	0.980609	2.5843							0.919192	2.42275						
0.982512	2.58332	0.778966	2.03793	0.982621	2.58326							0.921135	2.42192						
0.984522	2.58228	0.780942	2.03813	0.98463	2.58222							0.923078	2.4211						
0.98653	2.58124	0.782917	2.03833	0.986638	2.58118							0.925021	2.42028						
0.988536	2.5802	0.784893	2.03853	0.988645	2.58014							0.926964	2.41947						
0.990541	2.57916	0.786868	2.03872	0.990649	2.5791							0.928908	2.41866						
0.992544	2.57812	0.788843	2.03892	0.992652	2.57806							0.930851	2.41785						
0.994545	2.57708	0.790817	2.03911	0.994653	2.57702							0.932795	2.41705						
0.996544	2.57604	0.792792	2.0393	0.996652	2.57598							0.934738	2.41625						
0.998543	2.575	0.794766	2.03949	0.99865	2.57495							0.936682	2.41546						
1.00054	2.57397	0.79674	2.03968	1.00065	2.57391							0.938626	2.41467						
		0.798713	2.03987									0.94057	2.41389						
		0.800687	2.04005									0.942514	2.41311						
		0.80266	2.04024									0.944459	2.41233						
		0.804633	2.04042									0.946403	2.41156						
		0.806606	2.0406									0.948348	2.41079						
		0.808578	2.04078									0.950292	2.41003						
		0.810551	2.04096									0.952237	2.40927						
		0.812523	2.04114									0.954182	2.40851						
		0.814495	2.04131									0.956127	2.40776						
		0.816466	2.04149									0.958073	2.40701						
		0.818438	2.04166									0.960018	2.40626						
		0.820409	2.04183									0.961964	2.40552						
		0.82238	2.042									0.96391	2.40479						
		0.82435	2.04217									0.965856	2.40405						
		0.826321	2.04234									0.967802	2.40332						
		0.828291	2.04251									0.969748	2.4026						
		0.830261	2.04267									0.971695	2.40188						
		0.832231	2.04284									0.973642	2.40116						
		0.834201	2.043									0.975589	2.40045						
		0.83617	2.04316									0.977536	2.39973						
		0.838139	2.04332									0.979483	2.39903						
		0.840108	2.04348									0.98143	2.39833						
		0.842077	2.04364									0.983378	2.39763						
		0.844046	2.04379									0.985326	2.39693						
		0.846014	2.04395									0.987274	2.39624						
		0.847982	2.0441									0.989222	2.39555						
		0.84995	2.04425									0.99117	2.39486						
		0.851918	2.0444									0.993119	2.39418						
		0.853885	2.04455									0.995068	2.3935						
		0.855852	2.0447									0.997017	2.39283						
		0.857819	2.04485									0.998966	2.39216						
		0.859786	2.045									1.00092	2.39149						
		0.861753	2.04514																
		0.863719	2.04529																
		0.865685	2.04543																
		0.867651	2.04557																
		0.869617	2.04571																
		0.871583	2.04585																
		0.873548	2.04599																
		0.875513	2.04613																
		0.877478	2.04627																
		0.879443	2.0464																
		0.881407	2.04654																
		0.883372	2.04667																
		0.885336	2.0468																
		0.8873	2.04693																
		0.889264	2.04706																
		0.891227	2.04719																
		0.893191	2.04732																
		0.895154	2.04745																
		0.897117	2.04758																
		0.899079	2.0477																
		0.901042	2.04782																
		0.903004	2.04795																
		0.904966	2.04807																
		0.906928	2.04819																
		0.90889	2.04831																
		0.910851	2.04843																
		0.912813	2.04855																
		0.914774	2.04867																
		0.916735	2.04878																
		0.918696	2.0489																
		0.920656	2.04902																
		0.922617	2.04913																
		0.924577	2.04924																
		0.926537	2.04935																
		0.928497	2.04947																
		0.930456	2.04958																
		0.932416	2.04969																
		0.934375	2.0498																
		0.936334	2.0499																
		0.938293	2.05001																
		0.940252	2.05012																
		0.94221	2.05022																
		0.944169	2.05033																
		0.946127	2.05043																
		0.948085	2.05053																
		0.950043	2.05064																
		0.952	2.05074																
		0.953958	2.05084																
		0.955915	2.05094																
		0.957872	2.05104																
		0.959829	2.05113																
		0.961785	2.05123																
		0.963742	2.05133																
		0.965698	2.05142																
		0.967655	2.05152																
		0.969611	2.05161																
		0.971566	2.05171																
		0.973522	2.0518																
		0.975478	2.05189																
		0.977433	2.05198																
		0.979388	2.05207																
		0.981343	2.05216																
		0.983298	2.05225																
		0.985252	2.05234																
		0.987207	2.05243																
		0.989161	2.05252																
		0.991115	2.0526																
		0.993069	2.05269																
		0.995023	2.05278																
		0.996977	2.05286																
		0.99893	2.05294																
		1.00088	2.05303																
