Sym0		Asym0		Sym1		Sym2		Sym3		Sym4		Asym1		Asym2		Asym3		Asym4	
421  Points		528  Points		421  Points		401  Points		349  Points		251  Points		453  Points		397  Points		342  Points		215  Points	
Freq (MHz)	Vph (m/ms)	Freq (MHz)	Vph (m/ms)	Freq (MHz)	Vph (m/ms)	Freq (MHz)	Vph (m/ms)	Freq (MHz)	Vph (m/ms)	Freq (MHz)	Vph (m/ms)	Freq (MHz)	Vph (m/ms)	Freq (MHz)	Vph (m/ms)	Freq (MHz)	Vph (m/ms)	Freq (MHz)	Vph (m/ms)
0.279511	483.861	2.62018e-005	0.031728	0.27951	524.046	0.441356	2192.77	0.559017	2189.66	0.838525	11391.7	0.139763	288.228	0.419267	505.002	0.698772	1242.6	0.882713	1123.15
0.279522	185.192	0.000118687	0.0675307	0.279522	190.791	0.441364	389.563	0.559026	470.96	0.838529	834.105	0.139833	98.7099	0.419284	237.969	0.698779	467.711	0.882721	513.921
0.279545	114.518	0.000277515	0.103196	0.279543	116.634	0.441384	213.78	0.559046	263.864	0.838538	432.906	0.139969	59.6045	0.419312	155.669	0.698792	288.074	0.882734	333.193
0.279578	82.8931	0.000502294	0.13872	0.279576	83.9957	0.441416	147.317	0.559077	183.281	0.838553	292.312	0.140173	42.7357	0.419352	115.673	0.69881	208.138	0.882754	246.51
0.279621	64.961	0.000792371	0.174048	0.279619	65.6359	0.44146	112.386	0.559119	140.409	0.838575	220.655	0.140443	33.346	0.419404	92.0348	0.698835	162.932	0.882779	195.621
0.279675	53.4125	0.00114699	0.20914	0.279673	53.8677	0.441515	90.8513	0.559173	113.797	0.838601	177.216	0.140779	27.3709	0.419467	76.4237	0.698866	133.861	0.88281	162.15
0.27974	45.3546	0.00156504	0.243928	0.279737	45.6822	0.441582	76.2472	0.559238	95.6703	0.838634	148.07	0.14118	23.2391	0.419542	65.3452	0.698903	113.596	0.882847	138.462
0.279815	39.4132	0.00204554	0.278393	0.279811	39.6601	0.44166	65.6925	0.559314	82.5292	0.838673	127.159	0.141644	20.2153	0.419629	57.0762	0.698946	98.6625	0.88289	120.815
0.279901	34.8516	0.00258708	0.312472	0.279897	35.0443	0.44175	57.7087	0.559401	72.566	0.838718	111.425	0.142171	17.9092	0.419728	50.6686	0.698995	87.201	0.882938	107.159
0.279997	31.2395	0.00318844	0.346152	0.279992	31.3941	0.441852	51.4588	0.559499	64.7527	0.838768	99.1585	0.142759	16.0944	0.419839	45.5579	0.69905	78.1271	0.882992	96.279
0.280104	28.3087	0.00384803	0.379386	0.280099	28.4355	0.441966	46.4337	0.559609	58.4616	0.838825	89.3264	0.143408	14.6307	0.419961	41.3869	0.699111	70.7653	0.883052	87.406
0.280221	25.8834	0.00456432	0.412148	0.280216	25.9892	0.442091	42.3057	0.55973	53.2876	0.838887	81.2697	0.144114	13.4265	0.420095	37.9185	0.699178	64.6729	0.883118	80.0319
0.280349	23.8433	0.0053356	0.444405	0.280343	23.9329	0.442228	38.8546	0.559861	48.9576	0.838955	74.5476	0.144877	12.4195	0.42024	34.9892	0.699251	59.5478	0.88319	73.8066
0.280488	22.1036	0.00616019	0.476137	0.280481	22.1805	0.442377	35.9267	0.560005	45.2809	0.839029	68.8539	0.145695	11.5659	0.420398	32.4825	0.69933	55.1767	0.883267	68.4811
0.280637	20.6026	0.00703643	0.507329	0.28063	20.6693	0.442537	33.4116	0.560159	42.1203	0.839109	63.9695	0.146566	10.8337	0.420567	30.3134	0.699415	51.4046	0.88335	63.8736
0.280796	19.2946	0.00796245	0.537958	0.280788	19.353	0.442709	31.2279	0.560324	39.3742	0.839195	59.7333	0.147367	10.2762	0.420747	28.418	0.699507	48.1165	0.883439	59.8481
0.280966	18.1447	0.00893644	0.568008	0.280958	18.1962	0.442892	29.3143	0.5605	36.9664	0.839286	56.0244	0.148079	9.85051	0.42094	26.7478	0.699604	45.2248	0.883534	56.301
0.281147	17.1259	0.00995671	0.597475	0.281138	17.1717	0.443087	27.6237	0.560688	34.8381	0.839384	52.7502	0.148689	9.5283	0.421144	25.265	0.699707	42.6621	0.883635	53.1518
0.281338	16.2171	0.0110214	0.626344	0.281329	16.2581	0.443293	26.1194	0.560887	32.9433	0.839487	49.8386	0.149184	9.29058	0.421359	23.9399	0.699816	40.3751	0.883741	50.3372
0.281539	15.4016	0.0121288	0.654617	0.28153	15.4385	0.443511	24.7723	0.561096	31.2458	0.839597	47.2325	0.149555	9.12459	0.421587	22.7486	0.699932	38.3219	0.883853	47.8065
0.281751	14.6657	0.0132771	0.682284	0.281741	14.6991	0.443741	23.5591	0.561317	29.7163	0.839712	44.8864	0.149795	9.02203	0.421826	21.6719	0.700053	36.4682	0.883971	45.519
0.281974	13.9984	0.0144645	0.709344	0.281963	14.0287	0.443982	22.4609	0.561549	28.3312	0.839833	42.7631	0.150145	8.87938	0.422076	20.6942	0.700181	34.7865	0.884095	43.4412
0.282207	13.3906	0.0156896	0.735802	0.282195	13.4183	0.444234	21.4621	0.561792	27.0709	0.83996	40.8324	0.15053	8.73039	0.422338	19.8025	0.700314	33.2538	0.884224	41.5456
0.28245	12.8348	0.0169506	0.761661	0.282438	12.8601	0.444498	20.5498	0.562046	25.9195	0.840093	39.0694	0.151064	8.53726	0.422612	18.9859	0.700453	31.8513	0.884359	39.8093
0.282704	12.3245	0.018246	0.786921	0.282692	12.3478	0.444773	19.7134	0.562311	24.8634	0.840231	37.453	0.151753	8.30752	0.422897	18.2355	0.700599	30.5631	0.8845	38.213
0.282968	11.8545	0.0195741	0.81159	0.282956	11.876	0.44506	18.9438	0.562587	23.8914	0.840376	35.9658	0.152608	8.04934	0.423193	17.5434	0.70075	29.3757	0.884647	36.7404
0.283243	11.4203	0.0209336	0.835678	0.28323	11.4402	0.445358	18.2334	0.562874	22.9938	0.840526	34.5928	0.15364	7.77098	0.423501	16.9033	0.700908	28.2779	0.8848	35.3778
0.283528	11.0179	0.0223231	0.859188	0.283515	11.0364	0.445667	17.5757	0.563172	22.1625	0.840682	33.3216	0.154861	7.48023	0.423821	16.3096	0.701071	27.2598	0.884958	34.1134
0.283824	10.644	0.023741	0.88213	0.28381	10.6612	0.445988	16.965	0.56348	21.3903	0.840844	32.141	0.15612	7.21628	0.424152	15.7574	0.701241	26.3132	0.885122	32.9367
0.28413	10.2957	0.0251862	0.904516	0.284115	10.3118	0.44632	16.3965	0.5638	20.6714	0.841012	31.0419	0.157415	6.97574	0.424494	15.2425	0.701416	25.4307	0.885292	31.8392
0.284446	9.97059	0.0266574	0.926354	0.28439	10.0263	0.446663	15.866	0.564131	20.0003	0.841186	30.0161	0.158745	6.75575	0.424848	14.7614	0.701597	24.6061	0.885467	30.813
0.284773	9.66636	0.0281534	0.947658	0.28463	9.79573	0.447017	15.37	0.564472	19.3725	0.841365	29.0565	0.160108	6.55391	0.425213	14.3108	0.701785	23.8338	0.885649	29.8515
0.28511	9.38112	0.0296729	0.968435	0.284833	9.61336	0.447383	14.905	0.564824	18.7839	0.841551	28.1569	0.161504	6.36814	0.425589	13.888	0.701978	23.1092	0.885836	28.9487
0.285457	9.11318	0.031215	0.9887	0.284997	9.47418	0.44776	14.4685	0.565187	18.2311	0.841742	27.3119	0.162929	6.1967	0.425977	13.4905	0.702178	22.4279	0.886028	28.0995
0.285815	8.86103	0.0327786	1.00847	0.285118	9.37452	0.448147	14.0578	0.565561	17.7109	0.841939	26.5167	0.164383	6.03806	0.426376	13.1161	0.702383	21.7861	0.886227	27.2991
0.286183	8.62336	0.0343626	1.02774	0.285197	9.3119	0.448546	13.6708	0.565946	17.2205	0.842142	25.767	0.165866	5.8909	0.426786	12.7629	0.702595	21.1806	0.886431	26.5436
0.286562	8.39897	0.0359662	1.04654	0.285311	9.22343	0.448956	13.3054	0.566341	16.7575	0.84235	25.059	0.167374	5.75408	0.427208	12.4292	0.702812	20.6083	0.886641	25.8293
0.286951	8.1868	0.0375883	1.06487	0.285436	9.12927	0.449377	12.9601	0.566747	16.3196	0.842565	24.3894	0.168908	5.62659	0.427641	12.1135	0.703036	20.0666	0.886856	25.1529
0.28735	7.98591	0.0392282	1.08275	0.285608	9.00445	0.449809	12.6331	0.567164	15.9049	0.842785	23.7551	0.170466	5.50756	0.428084	11.8142	0.703265	19.5532	0.887078	24.5115
0.287759	7.79544	0.040885	1.10018	0.285829	8.8517	0.450252	12.3231	0.567591	15.5116	0.843011	23.1535	0.172048	5.39622	0.428539	11.5303	0.7035	19.0658	0.887305	23.9024
0.288178	7.61461	0.042558	1.11719	0.286102	8.67423	0.450706	12.0287	0.568029	15.1381	0.843243	22.582	0.173651	5.29186	0.429005	11.2606	0.703742	18.6027	0.887537	23.3233
0.288608	7.44274	0.0442463	1.13378	0.286429	8.47552	0.451171	11.749	0.568477	14.783	0.843481	22.0385	0.175275	5.19389	0.429483	11.004	0.703989	18.1619	0.887776	22.772
0.289048	7.27919	0.0459494	1.14997	0.286814	8.25922	0.451646	11.4828	0.568936	14.445	0.843724	21.5209	0.17692	5.10176	0.429971	10.7596	0.704242	17.742	0.88802	22.2466
0.289499	7.12339	0.0476664	1.16576	0.28721	8.05451	0.452133	11.2292	0.569406	14.1228	0.843974	21.0276	0.178583	5.015	0.43047	10.5267	0.704501	17.3415	0.88827	21.7453
0.289959	6.97482	0.0493969	1.18117	0.287615	7.8605	0.45263	10.9873	0.569886	13.8155	0.844229	20.5568	0.180265	4.93316	0.43098	10.3044	0.704766	16.9591	0.888525	21.2665
0.29043	6.83301	0.0511401	1.1962	0.288032	7.67641	0.453137	10.7563	0.570377	13.5219	0.84449	20.107	0.181964	4.85586	0.431433	10.1188	0.705037	16.5936	0.888786	20.8087
0.290911	6.69751	0.0528956	1.21087	0.288458	7.5015	0.453656	10.5356	0.570878	13.2413	0.844756	19.6768	0.183681	4.78274	0.431826	9.96626	0.705314	16.2439	0.889053	20.3706
0.291402	6.56793	0.0546627	1.2252	0.288894	7.33512	0.454185	10.3245	0.571389	12.9729	0.845029	19.2651	0.185413	4.7135	0.432156	9.84384	0.705597	15.909	0.889325	19.9509
0.291903	6.44391	0.056441	1.23918	0.289341	7.17669	0.454654	10.1479	0.571911	12.7157	0.845307	18.8706	0.187161	4.64784	0.432419	9.74934	0.705886	15.5881	0.889603	19.5486
0.292414	6.3251	0.0582299	1.25282	0.289798	7.02567	0.455061	10.0024	0.572443	12.4692	0.845591	18.4923	0.188923	4.58551	0.432615	9.68112	0.706181	15.2802	0.889887	19.1625
0.292935	6.2112	0.0600289	1.26615	0.290265	6.88156	0.455402	9.88557	0.572985	12.2328	0.845881	18.1292	0.190699	4.52627	0.432741	9.638	0.706482	14.9846	0.890177	18.7917
0.293467	6.10193	0.0618378	1.27917	0.290742	6.74391	0.455674	9.79526	0.573538	12.0058	0.846176	17.7805	0.192489	4.4699	0.432922	9.57676	0.706788	14.7006	0.890471	18.4354
0.294008	5.99701	0.0636559	1.29188	0.29123	6.61232	0.455875	9.73	0.5741	11.7877	0.846477	17.4453	0.194291	4.41621	0.433121	9.51114	0.707101	14.4275	0.890772	18.0926
0.29456	5.89621	0.0654829	1.30429	0.291727	6.4864	0.456005	9.68873	0.574673	11.578	0.846784	17.1229	0.196106	4.36503	0.433394	9.42349	0.707419	14.1648	0.891078	17.7627
0.295122	5.7993	0.0673185	1.31642	0.292235	6.36582	0.456193	9.63007	0.575257	11.3762	0.847097	16.8124	0.197933	4.31618	0.433742	9.31514	0.707744	13.9117	0.89139	17.4449
0.295694	5.70607	0.0691622	1.32828	0.292753	6.25025	0.456398	9.5672	0.57585	11.1819	0.847415	16.5134	0.199771	4.26952	0.434169	9.18774	0.708074	13.6679	0.891708	17.1386
0.296275	5.61632	0.0710137	1.33986	0.293281	6.1394	0.456679	9.48313	0.576453	10.9947	0.847739	16.2251	0.20162	4.2249	0.434678	9.04313	0.70841	13.4328	0.892031	16.8432
0.296867	5.52987	0.0728728	1.35119	0.293819	6.033	0.457038	9.37912	0.577067	10.8142	0.848069	15.9471	0.20348	4.18221	0.435271	8.88328	0.708752	13.206	0.892359	16.5581
0.297469	5.44655	0.0747389	1.36225	0.294367	5.93079	0.457477	9.25666	0.57769	10.6401	0.848405	15.6787	0.205349	4.14133	0.435875	8.72962	0.7091	12.987	0.892693	16.2828
0.298081	5.36621	0.076612	1.37308	0.294925	5.83256	0.458	9.11745	0.578323	10.4721	0.848746	15.4195	0.207228	4.10215	0.436489	8.58179	0.709454	12.7755	0.893033	16.0168
0.298702	5.2887	0.0784916	1.38366	0.295494	5.73807	0.458609	8.96333	0.578883	10.3303	0.849093	15.1691	0.209116	4.06456	0.437114	8.43949	0.709814	12.5711	0.893379	15.7597
0.299334	5.21388	0.0803775	1.39401	0.296072	5.64713	0.459228	8.81492	0.579367	10.2128	0.849446	14.9269	0.211013	4.02848	0.43775	8.30241	0.710179	12.3734	0.893729	15.5109
0.299976	5.14161	0.0822696	1.40413	0.29666	5.55955	0.459858	8.67192	0.57977	10.1179	0.849804	14.6927	0.212918	3.99382	0.438396	8.17029	0.710551	12.1821	0.894086	15.2702
0.300627	5.07179	0.0841674	1.41404	0.297259	5.47517	0.460498	8.53404	0.580092	10.0442	0.850168	14.4659	0.214832	3.9605	0.439052	8.04287	0.710928	11.9969	0.894448	15.0371
0.301289	5.00429	0.0860707	1.42373	0.297867	5.39381	0.461147	8.40103	0.58033	9.99072	0.850537	14.2464	0.216754	3.92845	0.439719	7.91991	0.711311	11.8176	0.894815	14.8113
0.30196	4.93901	0.0879794	1.43322	0.298485	5.31533	0.461807	8.27264	0.580483	9.95685	0.850913	14.0336	0.218683	3.89759	0.440397	7.8012	0.7117	11.6438	0.895188	14.5924
0.302642	4.87585	0.0898933	1.4425	0.299113	5.23958	0.462477	8.14863	0.580704	9.90861	0.851294	13.8275	0.220619	3.86787	0.441084	7.68652	0.712095	11.4754	0.895567	14.3802
0.303333	4.81471	0.0918121	1.45159	0.299752	5.16644	0.463157	8.02881	0.580946	9.85677	0.85168	13.6275	0.222562	3.83923	0.441782	7.57568	0.712496	11.312	0.895951	14.1743
0.304034	4.75552	0.0937355	1.46049	0.3004	5.09578	0.463846	7.91296	0.581276	9.78722	0.852073	13.4335	0.224512	3.81161	0.44249	7.4685	0.712902	11.1535	0.896341	13.9745
0.304653	4.70544	0.0956636	1.4692	0.301058	5.02749	0.464546	7.8009	0.581697	9.70083	0.852471	13.2452	0.226469	3.78496	0.443208	7.36481	0.713314	10.9996	0.896736	13.7805
0.305187	4.66383	0.097596	1.47773	0.301726	4.96145	0.465255	7.69246	0.582211	9.59861	0.852874	13.0624	0.228431	3.75922	0.443937	7.26444	0.713732	10.8501	0.897136	13.592
0.305632	4.63014	0.0995325	1.48609	0.302404	4.89757	0.465974	7.58746	0.58282	9.48174	0.853283	12.8848	0.2304	3.73436	0.444675	7.16725	0.714156	10.705	0.897542	13.4089
0.305987	4.60395	0.101473	1.49428	0.303092	4.83574	0.466702	7.48576	0.583529	9.35152	0.853698	12.7122	0.232375	3.71034	0.445423	7.0731	0.71453	10.5818	0.897954	13.2309
0.306249	4.58494	0.103418	1.5023	0.303789	4.77588	0.467441	7.38721	0.584247	9.22529	0.854119	12.5445	0.234355	3.6871	0.446182	6.98185	0.714853	10.4791	0.898371	13.0578
0.306418	4.57289	0.105366	1.51016	0.304497	4.7179	0.468188	7.29166	0.584975	9.10287	0.854545	12.3813	0.23634	3.66462	0.446951	6.89338	0.715122	10.3959	0.898793	12.8894
0.306661	4.5557	0.107318	1.51787	0.305214	4.66172	0.468945	7.19899	0.585712	8.98408	0.854976	12.2225	0.238331	3.64286	0.447729	6.80756	0.715336	10.331	0.899221	12.7255
0.306926	4.53722	0.109273	1.52542	0.305941	4.60726	0.469712	7.10908	0.586459	8.8688	0.855413	12.0681	0.240326	3.62179	0.448517	6.72429	0.715495	10.2839	0.899654	12.5659
0.30729	4.5124	0.111231	1.53282	0.306679	4.55446	0.470488	7.02181	0.587215	8.75685	0.855856	11.9177	0.242327	3.60137	0.449315	6.64346	0.715596	10.254	0.900093	12.4105
0.307752	4.48153	0.113193	1.54008	0.307426	4.50324	0.471274	6.93707	0.587981	8.64811	0.856304	11.7712	0.244332	3.58157	0.450123	6.56496	0.715743	10.2113	0.900537	12.2592
0.308317	4.44495	0.114905	1.54629	0.308182	4.45355	0.472068	6.85476	0.588756	8.54245	0.856758	11.6285	0.246342	3.56238	0.450941	6.48872	0.715903	10.1653	0.900986	12.1117
0.308986	4.40306	0.116366	1.55151	0.308949	4.40532	0.472872	6.77478	0.58954	8.43973	0.857218	11.4894	0.248355	3.54376	0.451768	6.41462	0.716123	10.1035	0.901441	11.9679
0.309763	4.35629	0.117576	1.55576	0.309726	4.35849	0.473685	6.69704	0.590333	8.33986	0.857683	11.3539	0.250374	3.52568	0.452605	6.3426	0.716402	10.0265	0.901901	11.8277
0.31055	4.31087	0.118533	1.55909	0.310512	4.313	0.474508	6.62144	0.591136	8.2427	0.858153	11.2217	0.252396	3.50813	0.453452	6.27257	0.716742	9.935	0.902367	11.691
0.311346	4.26675	0.119237	1.56152	0.311308	4.26882	0.475339	6.54791	0.591948	8.14817	0.858629	11.0928	0.254422	3.49108	0.454308	6.20445	0.717146	9.82997	0.902838	11.5576
0.312153	4.22387	0.119688	1.56306	0.312114	4.22588	0.476179	6.47637	0.592769	8.05615	0.859111	10.967	0.256452	3.47452	0.455173	6.13816	0.717614	9.71235	0.903314	11.4274
0.312969	4.18219	0.120336	1.56527	0.31293	4.18415	0.477029	6.40674	0.593599	7.96655	0.859535	10.8599	0.258485	3.45841	0.456048	6.07365	0.718088	9.59774	0.903796	11.3003
0.313795	4.14167	0.121041	1.56766	0.313756	4.14357	0.477887	6.33894	0.594438	7.87929	0.8599	10.7703	0.260522	3.44275	0.456933	6.01085	0.718568	9.48603	0.904283	11.1762
0.314631	4.10225	0.122001	1.57088	0.314591	4.1041	0.478754	6.27292	0.595286	7.79427	0.860204	10.6974	0.262563	3.42752	0.457827	5.94969	0.719054	9.37711	0.904775	11.055
0.315477	4.06392	0.123215	1.5749	0.315437	4.06572	0.47963	6.20861	0.596143	7.71142	0.860446	10.6405	0.264606	3.41269	0.45873	5.89011	0.719545	9.27087	0.905208	10.9516
0.316333	4.02661	0.124684	1.57971	0.316292	4.02836	0.480515	6.14593	0.597009	7.63066	0.860624	10.5991	0.266653	3.39825	0.459642	5.83205	0.720042	9.16723	0.905581	10.8651
0.317198	3.99031	0.12641	1.58527	0.317157	3.99201	0.481408	6.08485	0.597883	7.5519	0.860739	10.5728	0.268703	3.3842	0.460564	5.77547	0.720545	9.06609	0.905891	10.7947
0.318074	3.95497	0.128392	1.59153	0.318032	3.95663	0.48231	6.02529	0.598767	7.47509	0.860904	10.5352	0.270756	3.3705	0.461495	5.72031	0.721053	8.96736	0.906138	10.7398
0.318959	3.92056	0.130377	1.59769	0.318917	3.92217	0.48322	5.96722	0.599659	7.40016	0.861085	10.4947	0.272812	3.35716	0.462435	5.66652	0.721567	8.87097	0.90632	10.6997
0.319855	3.88705	0.132364	1.60372	0.319812	3.88862	0.48414	5.91056	0.60056	7.32703	0.861331	10.4401	0.274871	3.34415	0.463384	5.61406	0.722087	8.77683	0.906437	10.6743
0.32076	3.85441	0.134353	1.60965	0.320717	3.85594	0.485067	5.85529	0.601469	7.25565	0.861645	10.372	0.276932	3.33146	0.464342	5.56287	0.722613	8.68486	0.906606	10.6379
0.321675	3.82261	0.136344	1.61548	0.321632	3.82411	0.486003	5.80134	0.602387	7.18596	0.862027	10.2908	0.278996	3.31909	0.465309	5.51293	0.723144	8.595	0.90679	10.5987
0.322601	3.79163	0.138337	1.62119	0.322557	3.79308	0.486948	5.74868	0.603314	7.1179	0.862479	10.1974	0.281062	3.30702	0.466285	5.46417	0.723681	8.50718	0.907041	10.5458
0.323536	3.76143	0.140332	1.62681	0.323492	3.76285	0.4879	5.69726	0.604249	7.05143	0.863003	10.0924	0.283131	3.29524	0.46727	5.41658	0.724223	8.42132	0.907361	10.4798
0.324482	3.732	0.142329	1.63233	0.324436	3.73338	0.488861	5.64704	0.605192	6.98648	0.863532	9.98976	0.285202	3.28374	0.468264	5.3701	0.724771	8.33737	0.90775	10.4012
0.325437	3.70331	0.144328	1.63775	0.325392	3.70465	0.48983	5.59799	0.606144	6.923	0.864067	9.88935	0.287276	3.2725	0.469266	5.3247	0.725325	8.25526	0.90821	10.3105
0.326403	3.67533	0.146328	1.64307	0.326357	3.67664	0.490807	5.55006	0.607105	6.86096	0.864607	9.79113	0.289352	3.26153	0.470278	5.28036	0.725885	8.17494	0.908743	10.2086
0.327379	3.64805	0.14833	1.64831	0.327332	3.64933	0.491793	5.50322	0.608074	6.80031	0.865152	9.69502	0.291429	3.25081	0.471298	5.23702	0.72645	8.09635	0.909281	10.1088
0.328365	3.62144	0.150333	1.65345	0.328318	3.62269	0.492786	5.45744	0.60905	6.741	0.865703	9.60095	0.293509	3.24034	0.472326	5.19467	0.72702	8.01944	0.909824	10.0112
0.329361	3.59548	0.152338	1.6585	0.329314	3.5967	0.493787	5.41268	0.610036	6.68298	0.86626	9.50887	0.295591	3.2301	0.473364	5.15328	0.727597	7.94415	0.910373	9.91556
0.330368	3.57016	0.154344	1.66347	0.33032	3.57135	0.494797	5.36891	0.611029	6.62623	0.866821	9.41871	0.297675	3.22008	0.47441	5.11281	0.728178	7.87044	0.910927	9.82192
0.331385	3.54546	0.156352	1.66836	0.331337	3.54662	0.495814	5.32611	0.61203	6.57071	0.867388	9.33041	0.29976	3.21029	0.475464	5.07323	0.728766	7.79826	0.911486	9.7302
0.332413	3.52135	0.158361	1.67316	0.332364	3.52248	0.496839	5.28423	0.61304	6.51636	0.867961	9.24392	0.301847	3.2007	0.476527	5.03452	0.729359	7.72757	0.91205	9.64034
0.333452	3.49783	0.160371	1.67789	0.333402	3.49893	0.497872	5.24326	0.614057	6.46317	0.868539	9.15919	0.303936	3.19133	0.477599	4.99666	0.729957	7.65831	0.912619	9.55229
0.3345	3.47487	0.162383	1.68253	0.33445	3.47595	0.498912	5.20316	0.615083	6.41109	0.869122	9.07617	0.306027	3.18215	0.478678	4.95961	0.730562	7.59045	0.913193	9.46599
0.33556	3.45246	0.164395	1.6871	0.33551	3.45352	0.49996	5.16391	0.616116	6.3601	0.869711	8.9948	0.308119	3.17316	0.479766	4.92336	0.731171	7.52395	0.913773	9.38139
0.336631	3.43059	0.166409	1.69159	0.336579	3.43162	0.501016	5.1255	0.617158	6.31016	0.870304	8.91504	0.310213	3.16437	0.480863	4.88787	0.731787	7.45878	0.914358	9.29845
0.337712	3.40924	0.168424	1.69601	0.33766	3.41025	0.502079	5.08788	0.618207	6.26124	0.870904	8.83684	0.312309	3.15575	0.481967	4.85314	0.732407	7.39488	0.914947	9.21712
0.338805	3.3884	0.17044	1.70036	0.338752	3.38938	0.50315	5.05104	0.619264	6.21332	0.871508	8.76016	0.314406	3.1473	0.48308	4.81914	0.733034	7.33223	0.915542	9.13735
0.339908	3.36805	0.172457	1.70464	0.339855	3.36901	0.504228	5.01496	0.620328	6.16635	0.872118	8.68495	0.316504	3.13903	0.484201	4.78584	0.733665	7.27079	0.916142	9.0591
0.341023	3.34819	0.174476	1.70885	0.34097	3.34912	0.505314	4.97961	0.621401	6.12033	0.872733	8.61118	0.318603	3.13092	0.48533	4.75323	0.734303	7.21053	0.916747	8.98233
0.342149	3.3288	0.176495	1.71299	0.342095	3.32971	0.506406	4.94498	0.622481	6.07522	0.873353	8.5388	0.320704	3.12297	0.486468	4.72128	0.734946	7.15141	0.917357	8.907
0.343287	3.30986	0.178514	1.71707	0.343233	3.31075	0.507507	4.91104	0.623568	6.03099	0.873979	8.46779	0.322806	3.11518	0.487613	4.68999	0.735594	7.09341	0.917973	8.83307
0.344436	3.29138	0.180535	1.72109	0.344381	3.29225	0.508614	4.87778	0.624663	5.98763	0.87461	8.39809	0.324909	3.10754	0.488766	4.65933	0.736248	7.0365	0.918593	8.7605
0.345598	3.27333	0.182557	1.72504	0.345542	3.27418	0.509729	4.84518	0.625766	5.9451	0.875246	8.32968	0.327014	3.10004	0.489927	4.62928	0.736907	6.98064	0.919218	8.68925
0.346771	3.25572	0.184579	1.72893	0.346715	3.25654	0.51085	4.81321	0.626876	5.9034	0.875888	8.26252	0.329119	3.09268	0.491096	4.59983	0.737572	6.92581	0.919848	8.6193
0.347956	3.23852	0.186603	1.73276	0.3479	3.23932	0.511979	4.78187	0.627993	5.86248	0.876534	8.19658	0.331226	3.08546	0.492273	4.57097	0.738242	6.87198	0.920484	8.5506
0.349154	3.22173	0.188627	1.73653	0.349097	3.22252	0.513115	4.75114	0.629118	5.82234	0.877186	8.13183	0.333333	3.07838	0.493458	4.54267	0.738917	6.81913	0.921124	8.48313
0.350364	3.20534	0.190651	1.74024	0.350306	3.20611	0.514258	4.72099	0.63025	5.78295	0.877843	8.06823	0.335442	3.07142	0.49465	4.51492	0.739599	6.76723	0.921769	8.41685
0.351587	3.18934	0.192677	1.74389	0.351529	3.19009	0.515408	4.69142	0.631389	5.7443	0.878506	8.00577	0.337551	3.06459	0.49585	4.48771	0.740285	6.71626	0.922419	8.35174
0.352823	3.17373	0.194703	1.7475	0.352764	3.17446	0.516564	4.66241	0.632536	5.70636	0.879173	7.9444	0.339661	3.05789	0.497058	4.46103	0.740977	6.66619	0.923075	8.28776
0.354072	3.15849	0.196729	1.75104	0.354012	3.15921	0.517728	4.63394	0.63369	5.66912	0.879846	7.8841	0.341772	3.0513	0.498274	4.43485	0.741674	6.617	0.923735	8.22488
0.355335	3.14363	0.198756	1.75454	0.355274	3.14433	0.518898	4.606	0.63485	5.63256	0.880524	7.82485	0.343884	3.04483	0.499497	4.40917	0.742377	6.56866	0.9244	8.16308
0.356611	3.12913	0.200784	1.75798	0.35655	3.12981	0.520075	4.57859	0.636018	5.59666	0.881207	7.76661	0.345997	3.03847	0.500728	4.38398	0.743085	6.52117	0.92507	8.10234
0.357901	3.11498	0.202813	1.76137	0.357839	3.11565	0.521259	4.55167	0.637193	5.5614	0.881895	7.70937	0.348111	3.03222	0.501966	4.35926	0.743798	6.47449	0.925745	8.04262
0.359205	3.10119	0.204842	1.76471	0.359143	3.10184	0.522449	4.52525	0.638375	5.52677	0.882588	7.6531	0.350225	3.02608	0.503211	4.33501	0.744517	6.42862	0.926425	7.9839
0.360524	3.08774	0.206871	1.768	0.360461	3.08837	0.523646	4.49931	0.639564	5.49276	0.883287	7.59778	0.352339	3.02004	0.504464	4.3112	0.745241	6.38351	0.927109	7.92616
0.361858	3.07462	0.208901	1.77125	0.361794	3.07524	0.524849	4.47383	0.64076	5.45934	0.88399	7.54337	0.354455	3.0141	0.505725	4.28783	0.745971	6.33917	0.927799	7.86937
0.363206	3.06184	0.210931	1.77445	0.363142	3.06244	0.526059	4.44881	0.641962	5.42651	0.884699	7.48987	0.356571	3.00826	0.506993	4.26489	0.746706	6.29557	0.928493	7.81352
0.36457	3.04939	0.212962	1.7776	0.364505	3.04998	0.527275	4.42424	0.643171	5.39425	0.885413	7.43725	0.358687	3.00251	0.508268	4.24236	0.747446	6.2527	0.929193	7.75857
0.36595	3.03726	0.214993	1.7807	0.365884	3.03783	0.528497	4.4001	0.644387	5.36255	0.886132	7.38549	0.360804	2.99686	0.50955	4.22025	0.748191	6.21053	0.929897	7.70451
0.367346	3.02545	0.217025	1.78376	0.367279	3.02601	0.529726	4.37638	0.64561	5.33138	0.886856	7.33457	0.362922	2.9913	0.51084	4.19853	0.748942	6.16905	0.930606	7.65132
0.368758	3.01396	0.219057	1.78678	0.368691	3.0145	0.530962	4.35308	0.646839	5.30075	0.887585	7.28447	0.36504	2.98583	0.512136	4.1772	0.749698	6.12825	0.931319	7.59898
0.370187	3.00277	0.221089	1.78976	0.370119	3.00329	0.532203	4.33018	0.648075	5.27064	0.888319	7.23517	0.367158	2.98044	0.51344	4.15625	0.75046	6.0881	0.932038	7.54747
0.371633	2.99189	0.223122	1.79269	0.371564	2.9924	0.533451	4.30768	0.649318	5.24103	0.889058	7.18666	0.369277	2.97514	0.514751	4.13567	0.751226	6.04861	0.932761	7.49676
0.373096	2.98131	0.225155	1.79558	0.373026	2.9818	0.534705	4.28556	0.650567	5.21192	0.889802	7.13891	0.371396	2.96992	0.516069	4.11546	0.751998	6.00974	0.933489	7.44685
0.374578	2.97102	0.227188	1.79844	0.374507	2.9715	0.535964	4.26382	0.651822	5.18329	0.890551	7.0919	0.373516	2.96478	0.517394	4.09559	0.752776	5.97149	0.934222	7.39771
0.376077	2.96103	0.229221	1.80125	0.376005	2.9615	0.53723	4.24244	0.653084	5.15513	0.891305	7.04563	0.375635	2.95972	0.518727	4.07608	0.753558	5.93384	0.93496	7.34933
0.377595	2.95133	0.231255	1.80402	0.377522	2.95179	0.538502	4.22143	0.654352	5.12743	0.892064	7.00008	0.377755	2.95473	0.520066	4.0569	0.754346	5.89678	0.935702	7.30169
0.379131	2.94192	0.233289	1.80676	0.379058	2.94236	0.53978	4.20077	0.655627	5.10018	0.892829	6.95523	0.379876	2.94982	0.521412	4.03805	0.755138	5.86029	0.936449	7.25478
0.380687	2.93279	0.235324	1.80946	0.380612	2.93322	0.541064	4.18045	0.656908	5.07338	0.893598	6.91106	0.381996	2.94498	0.522764	4.01952	0.755937	5.82437	0.937201	7.20857
0.382262	2.92394	0.237358	1.81212	0.382187	2.92435	0.542354	4.16046	0.658195	5.047	0.894372	6.86756	0.384117	2.94021	0.524124	4.00131	0.75674	5.78901	0.937957	7.16306
0.383857	2.91536	0.239393	1.81475	0.383781	2.91576	0.543649	4.1408	0.659488	5.02105	0.895151	6.82472	0.386237	2.93551	0.525491	3.98341	0.757548	5.75418	0.938718	7.11822
0.385472	2.90705	0.241428	1.81734	0.385395	2.90744	0.54495	4.12147	0.660788	4.9955	0.895935	6.78252	0.388358	2.93087	0.526864	3.96581	0.758362	5.71988	0.939484	7.07405
0.387107	2.89902	0.243463	1.8199	0.387029	2.89939	0.546257	4.10244	0.662093	4.97037	0.896724	6.74094	0.390479	2.9263	0.528244	3.94851	0.759181	5.6861	0.940254	7.03053
0.388763	2.89124	0.245499	1.82242	0.388684	2.89161	0.54757	4.08373	0.663405	4.94562	0.897518	6.69998	0.3926	2.9218	0.52963	3.93149	0.760005	5.65282	0.941029	6.98764
0.390439	2.88373	0.247534	1.82491	0.390359	2.88408	0.548889	4.06531	0.664723	4.92126	0.898317	6.65963	0.394722	2.91735	0.531024	3.91476	0.760834	5.62004	0.941809	6.94538
0.392136	2.87647	0.24957	1.82736	0.392055	2.87681	0.550213	4.04719	0.666046	4.89728	0.89912	6.61986	0.396843	2.91297	0.532424	3.89831	0.761668	5.58775	0.942593	6.90373
0.393855	2.86946	0.251606	1.82979	0.393773	2.86979	0.551542	4.02936	0.667376	4.87367	0.899929	6.58067	0.398964	2.90865	0.53383	3.88212	0.762507	5.55593	0.943382	6.86268
0.395594	2.8627	0.253642	1.83218	0.395511	2.86302	0.552877	4.0118	0.668711	4.85042	0.900742	6.54205	0.401085	2.90439	0.535243	3.8662	0.763352	5.52458	0.944176	6.82221
0.397354	2.85618	0.255678	1.83454	0.39727	2.85649	0.554218	3.99452	0.670052	4.82752	0.90156	6.50398	0.403206	2.90018	0.536663	3.85054	0.764202	5.49369	0.944974	6.78232
0.399136	2.8499	0.257714	1.83687	0.399051	2.8502	0.555564	3.97752	0.671399	4.80498	0.902384	6.46646	0.405327	2.89603	0.538089	3.83514	0.765056	5.46324	0.945776	6.74299
0.400939	2.84386	0.25975	1.83917	0.400852	2.84414	0.556915	3.96077	0.672752	4.78277	0.903212	6.42947	0.407447	2.89193	0.539521	3.81998	0.765916	5.43323	0.946584	6.70421
0.402762	2.83804	0.261786	1.84144	0.402675	2.83831	0.558272	3.94428	0.674111	4.76089	0.904044	6.39299	0.409568	2.88788	0.54096	3.80507	0.766781	5.40365	0.947395	6.66597
0.404607	2.83244	0.263823	1.84368	0.404518	2.8327	0.559634	3.92805	0.675475	4.73934	0.904882	6.35703	0.411689	2.88389	0.542406	3.79039	0.767651	5.37449	0.948212	6.62827
0.406472	2.82706	0.265859	1.84589	0.406383	2.82731	0.561001	3.91206	0.676845	4.71811	0.905725	6.32158	0.413809	2.87994	0.543857	3.77595	0.768526	5.34575	0.949032	6.59108
0.408357	2.82188	0.267896	1.84808	0.408267	2.82212	0.562373	3.89632	0.67822	4.69719	0.906572	6.28661	0.415929	2.87605	0.545315	3.76174	0.769406	5.31741	0.949858	6.5544
0.410263	2.81692	0.269932	1.85023	0.410172	2.81715	0.563751	3.88081	0.679601	4.67658	0.907424	6.25212	0.418049	2.8722	0.54678	3.74776	0.770291	5.28947	0.950687	6.51822
0.412188	2.81215	0.271969	1.85236	0.412096	2.81237	0.565134	3.86554	0.680988	4.65627	0.908281	6.21811	0.420168	2.86841	0.54825	3.73399	0.771181	5.26192	0.951521	6.48253
0.414133	2.80757	0.274005	1.85447	0.414041	2.80778	0.566522	3.8505	0.68238	4.63625	0.909142	6.18456	0.422288	2.86465	0.549727	3.72044	0.772076	5.23474	0.95236	6.44731
0.416098	2.80318	0.276042	1.85654	0.416004	2.80339	0.567915	3.83568	0.683777	4.61652	0.910009	6.15147	0.424407	2.86094	0.55121	3.7071	0.772976	5.20795	0.953203	6.41258
0.418081	2.79897	0.278078	1.8586	0.417986	2.79917	0.569313	3.82107	0.68518	4.59707	0.91088	6.11882	0.426525	2.85728	0.552699	3.69397	0.773881	5.18152	0.954051	6.3783
0.420082	2.79494	0.280115	1.86062	0.419986	2.79512	0.570716	3.80669	0.686588	4.57791	0.911755	6.08661	0.428644	2.85366	0.554194	3.68104	0.774791	5.15545	0.954903	6.34447
0.422101	2.79107	0.282152	1.86262	0.422004	2.79125	0.572124	3.79251	0.688002	4.55901	0.912636	6.05483	0.430762	2.85008	0.555695	3.66831	0.775706	5.12974	0.955759	6.3111
0.424137	2.78736	0.284188	1.8646	0.42404	2.78753	0.573537	3.77854	0.68942	4.54038	0.913521	6.02347	0.432879	2.84655	0.557202	3.65578	0.776626	5.10437	0.95662	6.27816
0.42619	2.78381	0.286225	1.86655	0.426092	2.78397	0.574955	3.76477	0.690844	4.52201	0.914411	5.99252	0.434996	2.84305	0.558716	3.64343	0.777551	5.07935	0.957485	6.24564
0.428259	2.7804	0.288261	1.86848	0.428161	2.78056	0.576378	3.7512	0.692273	4.5039	0.915306	5.96198	0.437113	2.83959	0.560235	3.63128	0.77848	5.05466	0.958354	6.21355
0.430344	2.77714	0.290298	1.87038	0.430245	2.77729	0.577805	3.73783	0.693708	4.48604	0.916205	5.93184	0.439229	2.83617	0.56176	3.61931	0.779415	5.03029	0.959228	6.18188
0.432445	2.77402	0.292334	1.87226	0.432345	2.77416	0.579237	3.72464	0.695147	4.46842	0.917109	5.90209	0.441345	2.83279	0.563292	3.60752	0.780355	5.00626	0.960106	6.1506
0.43456	2.77102	0.294371	1.87412	0.434459	2.77116	0.580674	3.71165	0.696592	4.45105	0.918017	5.87272	0.44346	2.82945	0.564829	3.59591	0.781299	4.98253	0.960988	6.11973
0.436689	2.76815	0.296407	1.87596	0.436588	2.76829	0.582116	3.69883	0.698041	4.43391	0.91893	5.84373	0.445575	2.82614	0.566372	3.58447	0.782248	4.95912	0.961875	6.08925
0.438832	2.76541	0.298443	1.87778	0.43873	2.76553	0.583562	3.6862	0.699495	4.41701	0.919848	5.81512	0.447689	2.82287	0.567921	3.5732	0.783203	4.93602	0.962766	6.05915
0.440988	2.76277	0.300479	1.87957	0.440885	2.76289	0.585013	3.67375	0.700955	4.40034	0.920771	5.78686	0.449802	2.81963	0.569475	3.5621	0.784162	4.91321	0.963662	6.02943
0.443156	2.76024	0.302516	1.88134	0.443053	2.76036	0.586469	3.66146	0.702419	4.38389	0.921698	5.75897	0.451915	2.81643	0.571036	3.55117	0.785126	4.8907	0.964561	6.00008
0.445337	2.75782	0.304552	1.88309	0.445233	2.75794	0.587929	3.64935	0.703888	4.36766	0.922629	5.73142	0.454028	2.81326	0.572602	3.54039	0.786094	4.86848	0.965465	5.9711
0.447529	2.7555	0.306588	1.88482	0.447425	2.75561	0.589394	3.63741	0.705363	4.35165	0.923566	5.70423	0.45614	2.81012	0.574174	3.52978	0.787068	4.84654	0.966373	5.94247
0.449733	2.75327	0.308623	1.88653	0.449628	2.75338	0.590863	3.62563	0.706841	4.33585	0.924506	5.67737	0.458251	2.80701	0.575752	3.51932	0.788047	4.82489	0.967285	5.9142
0.451946	2.75113	0.310659	1.88822	0.451841	2.75123	0.592336	3.61401	0.708325	4.32026	0.925452	5.65084	0.460361	2.80394	0.577335	3.50902	0.78903	4.80351	0.968202	5.88627
0.45417	2.74908	0.312695	1.88989	0.454064	2.74918	0.593814	3.60255	0.709813	4.30488	0.926402	5.62464	0.462471	2.8009	0.578924	3.49886	0.790018	4.7824	0.969123	5.85868
0.456404	2.74711	0.31473	1.89154	0.456298	2.7472	0.595297	3.59124	0.711306	4.28969	0.927356	5.59876	0.46458	2.79788	0.580519	3.48885	0.791011	4.76155	0.970048	5.83143
0.458647	2.74521	0.316766	1.89318	0.45854	2.7453	0.596783	3.58009	0.712804	4.27471	0.928315	5.5732	0.466688	2.7949	0.582119	3.47899	0.792008	4.74097	0.970977	5.80451
0.460899	2.74339	0.318801	1.89479	0.460792	2.74348	0.598275	3.56909	0.714306	4.25992	0.929278	5.54796	0.468796	2.79194	0.583725	3.46927	0.79301	4.72064	0.97191	5.7779
0.46316	2.74164	0.320836	1.89638	0.463052	2.74173	0.59977	3.55823	0.715813	4.24531	0.930246	5.52301	0.470903	2.78901	0.585336	3.45969	0.794018	4.70056	0.972847	5.75162
0.465428	2.73996	0.322871	1.89796	0.46532	2.74004	0.60127	3.54752	0.717325	4.2309	0.931218	5.49837	0.473009	2.78611	0.586953	3.45024	0.795029	4.68074	0.973789	5.72565
0.467704	2.73834	0.324906	1.89952	0.467596	2.73842	0.602773	3.53695	0.718841	4.21667	0.932195	5.47403	0.475115	2.78324	0.588575	3.44094	0.796046	4.66115	0.974735	5.69998
0.469988	2.73678	0.326941	1.90106	0.469879	2.73686	0.604282	3.52652	0.720361	4.20262	0.933177	5.44997	0.477219	2.78039	0.590203	3.43176	0.797067	4.64181	0.975684	5.67462
0.472279	2.73528	0.328975	1.90258	0.472169	2.73535	0.605794	3.51622	0.721886	4.18875	0.934162	5.4262	0.479323	2.77757	0.591836	3.42271	0.798093	4.6227	0.976638	5.64955
0.474576	2.73384	0.33101	1.90409	0.474466	2.7339	0.60731	3.50606	0.723415	4.17505	0.935153	5.40272	0.481426	2.77478	0.593475	3.4138	0.799124	4.60383	0.977596	5.62478
0.47688	2.73244	0.333044	1.90558	0.47677	2.73251	0.608831	3.49604	0.724949	4.16152	0.936147	5.37951	0.483528	2.77201	0.595119	3.405	0.800159	4.58518	0.978558	5.60029
0.479189	2.7311	0.335078	1.90705	0.47908	2.73116	0.610355	3.48614	0.726487	4.14817	0.937146	5.35657	0.485629	2.76926	0.596768	3.39633	0.801199	4.56676	0.979524	5.57609
0.481505	2.7298	0.337113	1.90851	0.481395	2.72986	0.611884	3.47637	0.728029	4.13498	0.93815	5.3339	0.487729	2.76654	0.598422	3.38779	0.802243	4.54856	0.980494	5.55216
0.483826	2.72855	0.339146	1.90995	0.483716	2.7286	0.613416	3.46673	0.729576	4.12195	0.939158	5.31149	0.489828	2.76384	0.600082	3.37936	0.803293	4.53057	0.981468	5.52851
0.486153	2.72734	0.34118	1.91137	0.486042	2.72739	0.614953	3.45721	0.731127	4.10908	0.94017	5.28935	0.491927	2.76117	0.601748	3.37105	0.804347	4.5128	0.982447	5.50513
0.488485	2.72617	0.343214	1.91278	0.488374	2.72622	0.616493	3.44781	0.732682	4.09637	0.941186	5.26745	0.494024	2.75851	0.603418	3.36286	0.805405	4.49524	0.983429	5.48201
0.490821	2.72504	0.345247	1.91417	0.49071	2.72509	0.618038	3.43853	0.734241	4.08381	0.942207	5.24582	0.496121	2.75588	0.605094	3.35478	0.806468	4.47789	0.984415	5.45916
0.493162	2.72395	0.34728	1.91555	0.493051	2.724	0.619586	3.42937	0.735804	4.07141	0.943233	5.22442	0.498217	2.75327	0.606774	3.34681	0.807536	4.46074	0.985405	5.43656
0.495507	2.72289	0.349313	1.91691	0.495396	2.72294	0.621139	3.42032	0.737372	4.05916	0.944262	5.20327	0.500311	2.75069	0.60846	3.33895	0.808608	4.4438	0.986399	5.41421
0.497857	2.72186	0.351346	1.91826	0.497745	2.72191	0.622695	3.41139	0.738943	4.04705	0.945296	5.18237	0.502405	2.74812	0.610152	3.3312	0.809685	4.42705	0.987397	5.39212
0.500211	2.72087	0.353379	1.91959	0.500099	2.72092	0.624255	3.40257	0.740519	4.03509	0.946335	5.16169	0.504497	2.74557	0.611848	3.32355	0.810767	4.41049	0.988399	5.37027
0.502568	2.71991	0.355411	1.92091	0.502456	2.71996	0.625818	3.39386	0.742098	4.02327	0.947377	5.14125	0.506589	2.74305	0.613549	3.31601	0.811853	4.39413	0.989405	5.34866
0.504929	2.71898	0.357443	1.92222	0.504817	2.71902	0.627386	3.38525	0.743682	4.01159	0.948424	5.12104	0.50868	2.74054	0.615256	3.30857	0.812943	4.37796	0.990415	5.32728
0.507294	2.71808	0.359475	1.92351	0.507181	2.71812	0.628957	3.37676	0.745269	4.00005	0.949475	5.10105	0.510769	2.73806	0.616967	3.30124	0.814038	4.36197	0.991429	5.30614
0.509662	2.7172	0.361507	1.92478	0.509549	2.71724	0.630532	3.36836	0.746861	3.98865	0.95053	5.08129	0.512857	2.73559	0.618683	3.294	0.815138	4.34616	0.992446	5.28523
0.512033	2.71635	0.363539	1.92605	0.51192	2.71639	0.632111	3.36007	0.748456	3.97738	0.95159	5.06174	0.514945	2.73314	0.620405	3.28686	0.816242	4.33054	0.993468	5.26455
0.514407	2.71552	0.36557	1.9273	0.514294	2.71556	0.633693	3.35188	0.750055	3.96624	0.952654	5.04241	0.517031	2.73071	0.622131	3.27982	0.817351	4.31509	0.994493	5.2441
0.516784	2.71472	0.367602	1.92853	0.516671	2.71475	0.635279	3.34379	0.751658	3.95523	0.953722	5.02329	0.519116	2.7283	0.623863	3.27287	0.818464	4.29981	0.995522	5.22386
0.519164	2.71394	0.369633	1.92976	0.519051	2.71397	0.636869	3.3358	0.753264	3.94435	0.954794	5.00438	0.521201	2.7259	0.625599	3.26601	0.819581	4.28471	0.996555	5.20384
0.521547	2.71318	0.371664	1.93097	0.521433	2.71321	0.638462	3.32791	0.754875	3.93359	0.955871	4.98568	0.523284	2.72353	0.62734	3.25925	0.820703	4.26978	0.997592	5.18403
0.523931	2.71244	0.373694	1.93216	0.523818	2.71247	0.640059	3.3201	0.756489	3.92295	0.956952	4.96718	0.525365	2.72117	0.629086	3.25258	0.82183	4.25502	0.998633	5.16443
0.526319	2.71172	0.375725	1.93335	0.526205	2.71175	0.641659	3.3124	0.758107	3.91244	0.958037	4.94888	0.527446	2.71882	0.630837	3.24599	0.822961	4.24042	0.999677	5.14504
0.528709	2.71101	0.377755	1.93452	0.528595	2.71105	0.643263	3.30478	0.759728	3.90205	0.959126	4.93077	0.529526	2.7165	0.632592	3.23949	0.824096	4.22598	1.00073	5.12586
0.5311	2.71033	0.379785	1.93568	0.530987	2.71036	0.64487	3.29726	0.761354	3.89177	0.960219	4.91286	0.531604	2.71419	0.634353	3.23308	0.825236	4.2117		
0.533494	2.70966	0.381815	1.93683	0.533381	2.7097	0.646481	3.28982	0.762982	3.88161	0.961316	4.89514	0.533681	2.71189	0.636118	3.22676	0.82638	4.19758		
0.53589	2.70901	0.383844	1.93796	0.535776	2.70904	0.648095	3.28247	0.764615	3.87156	0.962418	4.87761	0.535758	2.70961	0.637888	3.22051	0.827529	4.18362		
0.538288	2.70838	0.385873	1.93909	0.538174	2.70841	0.649713	3.27521	0.76625	3.86163	0.963524	4.86026	0.537832	2.70735	0.639662	3.21435	0.828681	4.1698		
0.540688	2.70776	0.387903	1.9402	0.540574	2.70779	0.651334	3.26803	0.76789	3.8518	0.964633	4.8431	0.539906	2.7051	0.641441	3.20827	0.829839	4.15614		
0.54309	2.70716	0.389931	1.9413	0.542975	2.70718	0.652958	3.26094	0.769533	3.84209	0.965747	4.82612	0.541979	2.70287	0.643225	3.20227	0.831001	4.14263		
0.545493	2.70657	0.39196	1.94239	0.545378	2.70659	0.654586	3.25393	0.771179	3.83248	0.966865	4.80931	0.54405	2.70065	0.645014	3.19635	0.832167	4.12927		
0.547897	2.70599	0.393989	1.94347	0.547783	2.70601	0.656217	3.247	0.772829	3.82298	0.967987	4.79268	0.54612	2.69845	0.646807	3.19051	0.833337	4.11604		
0.550304	2.70542	0.396017	1.94454	0.550189	2.70545	0.657852	3.24015	0.774482	3.81358	0.969114	4.77623	0.548189	2.69626	0.648604	3.18474	0.834512	4.10296		
0.552711	2.70487	0.398045	1.9456	0.552597	2.7049	0.659489	3.23338	0.776138	3.80428	0.970244	4.75994	0.550257	2.69408	0.650406	3.17904	0.835691	4.09003		
0.55512	2.70433	0.400072	1.94664	0.555006	2.70435	0.661131	3.22668	0.777798	3.79509	0.971378	4.74382	0.552323	2.69192	0.652213	3.17342	0.836874	4.07723		
0.557531	2.7038	0.4021	1.94768	0.557416	2.70382	0.662775	3.22007	0.779461	3.78599	0.972517	4.72787	0.554388	2.68977	0.654024	3.16787	0.838062	4.06456		
0.559942	2.70328	0.404127	1.9487	0.559828	2.7033	0.664422	3.21353	0.781128	3.77699	0.973659	4.71208	0.556452	2.68763	0.65584	3.1624	0.839254	4.05203		
0.562355	2.70277	0.406154	1.94972	0.56224	2.7028	0.666073	3.20706	0.782798	3.76809	0.974805	4.69645	0.558515	2.68551	0.65766	3.15699	0.84045	4.03964		
0.564769	2.70227	0.408181	1.95072	0.564654	2.7023	0.667727	3.20067	0.784471	3.75929	0.975956	4.68098	0.560576	2.6834	0.659485	3.15165	0.84165	4.02737		
0.567184	2.70178	0.410207	1.95172	0.567069	2.70181	0.669385	3.19434	0.786147	3.75057	0.97711	4.66567	0.562636	2.6813	0.661313	3.14638	0.842855	4.01524		
0.5696	2.7013	0.412234	1.9527	0.569485	2.70133	0.671045	3.18809	0.787826	3.74195	0.978268	4.65051	0.564695	2.67922	0.663147	3.14118	0.844064	4.00323		
0.572017	2.70083	0.41426	1.95368	0.571902	2.70085	0.672709	3.18191	0.789509	3.73342	0.979431	4.63551	0.566753	2.67715	0.664984	3.13605	0.845277	3.99134		
0.574435	2.70037	0.416285	1.95464	0.57432	2.70039	0.674375	3.1758	0.791194	3.72498	0.980597	4.62065	0.568809	2.67509	0.666826	3.13097	0.846495	3.97958		
0.576854	2.69991	0.418311	1.9556	0.576739	2.69994	0.676045	3.16976	0.792883	3.71663	0.981767	4.60594	0.570864	2.67304	0.668672	3.12597	0.847716	3.96795		
0.579273	2.69947	0.420336	1.95654	0.579158	2.69949	0.677718	3.16378	0.794575	3.70836	0.982942	4.59138	0.572918	2.671	0.670523	3.12102	0.848942	3.95643		
0.581694	2.69903	0.422361	1.95748	0.581578	2.69905	0.679394	3.15787	0.79627	3.70018	0.98412	4.57697	0.57497	2.66898	0.672377	3.11614	0.850172	3.94503		
0.584115	2.69859	0.424386	1.95841	0.583999	2.69861	0.681073	3.15202	0.797968	3.69209	0.985302	4.56269	0.577021	2.66697	0.674236	3.11132	0.851406	3.93375		
0.586536	2.69817	0.426411	1.95933	0.586421	2.69819	0.682755	3.14624	0.799668	3.68408	0.986488	4.54856	0.579071	2.66496	0.676099	3.10656	0.852645	3.92259		
0.588959	2.69775	0.428435	1.96024	0.588844	2.69777	0.684441	3.14052	0.801372	3.67615	0.987678	4.53457	0.58112	2.66297	0.677966	3.10186	0.853887	3.91154		
0.591382	2.69734	0.430459	1.96114	0.591266	2.69736	0.686129	3.13487	0.803079	3.6683	0.988871	4.52071	0.583167	2.66099	0.679837	3.09722	0.855134	3.9006		
0.593805	2.69693	0.432483	1.96203	0.59369	2.69695	0.68782	3.12928	0.804789	3.66053	0.990069	4.50699	0.585213	2.65903	0.681712	3.09264	0.856385	3.88978		
0.596229	2.69653	0.434506	1.96291	0.596114	2.69655	0.689515	3.12374	0.806501	3.65284	0.99127	4.4934	0.587257	2.65707	0.683592	3.08811	0.85764	3.87906		
0.598654	2.69613	0.436529	1.96379	0.598538	2.69615	0.691212	3.11827	0.808217	3.64523	0.992476	4.47994	0.589301	2.65512	0.685475	3.08364	0.858899	3.86846		
0.601079	2.69574	0.438552	1.96465	0.600963	2.69576	0.692912	3.11286	0.809935	3.63769	0.993685	4.46662	0.591343	2.65318	0.687362	3.07922	0.860162	3.85796		
0.603504	2.69536	0.440575	1.96551	0.603389	2.69538	0.694615	3.1075	0.811656	3.63023	0.994898	4.45342	0.593384	2.65126	0.689253	3.07486	0.861429	3.84756		
0.60593	2.69498	0.442598	1.96636	0.605815	2.695	0.696322	3.1022	0.81338	3.62284	0.996115	4.44035	0.595423	2.64934	0.691149	3.07055	0.862701	3.83727		
0.608356	2.6946	0.44462	1.9672	0.608241	2.69462	0.698031	3.09696	0.815107	3.61553	0.997336	4.4274	0.597461	2.64743	0.693048	3.0663	0.863976	3.82709		
0.610782	2.69423	0.446642	1.96803	0.610667	2.69425	0.699743	3.09178	0.816837	3.60829	0.99856	4.41458	0.599498	2.64554	0.694951	3.0621	0.865256	3.817		
0.613209	2.69386	0.448663	1.96886	0.613094	2.69388	0.701458	3.08665	0.818569	3.60112	0.999788	4.40188	0.601534	2.64365	0.696857	3.05794	0.866539	3.80702		
0.615636	2.6935	0.450685	1.96968	0.615521	2.69352	0.703176	3.08158	0.820304	3.59402	1.00102	4.3893	0.603568	2.64178	0.698768	3.05384	0.867827	3.79713		
0.618063	2.69314	0.452706	1.97049	0.617948	2.69316	0.704897	3.07656	0.822041	3.58699			0.605601	2.63991	0.700682	3.04979	0.869119	3.78734		
0.62049	2.69279	0.454727	1.97129	0.620375	2.6928	0.70662	3.07159	0.823782	3.58003			0.607633	2.63805	0.7026	3.04579	0.870414	3.77765		
0.622918	2.69243	0.456748	1.97208	0.622802	2.69245	0.708347	3.06667	0.825524	3.57314			0.609664	2.6362	0.704522	3.04183	0.871714	3.76805		
0.625345	2.69209	0.458768	1.97287	0.62523	2.6921	0.710076	3.06181	0.82727	3.56631			0.611693	2.63436	0.706448	3.03793	0.873018	3.75855		
0.627773	2.69174	0.460788	1.97365	0.627657	2.69176	0.711809	3.057	0.829018	3.55955			0.613721	2.63254	0.708377	3.03407	0.874325	3.74914		
0.630201	2.6914	0.462808	1.97442	0.630085	2.69141	0.713544	3.05224	0.830769	3.55286			0.615747	2.63071	0.71031	3.03025	0.875637	3.73983		
0.632628	2.69106	0.464828	1.97519	0.632513	2.69107	0.715282	3.04753	0.832522	3.54622			0.617773	2.6289	0.712246	3.02648	0.876953	3.7306		
0.635056	2.69072	0.466847	1.97594	0.634941	2.69074	0.717023	3.04287	0.834277	3.53965			0.619797	2.6271	0.714186	3.02276	0.878272	3.72147		
0.637484	2.69039	0.468866	1.9767	0.637368	2.6904	0.718766	3.03825	0.836036	3.53315			0.62182	2.62531	0.71613	3.01908	0.879596	3.71242		
0.639911	2.69005	0.470885	1.97744	0.639796	2.69007	0.720513	3.03369	0.837796	3.5267			0.623841	2.62352	0.718077	3.01545	0.880924	3.70346		
0.642339	2.68972	0.472903	1.97818	0.642223	2.68974	0.722262	3.02917	0.839559	3.52032			0.625862	2.62175	0.720027	3.01185	0.882255	3.69459		
0.644766	2.6894	0.474921	1.97891	0.644651	2.68941	0.724015	3.0247	0.841325	3.51399			0.627881	2.61998	0.721981	3.0083	0.88359	3.6858		
0.647193	2.68907	0.476939	1.97963	0.647078	2.68909	0.72577	3.02028	0.843093	3.50773			0.629899	2.61822	0.723939	3.00479	0.88493	3.67709		
0.64962	2.68875	0.478957	1.98035	0.649505	2.68876	0.727528	3.0159	0.844863	3.50152			0.631916	2.61647	0.7259	3.00132	0.886273	3.66847		
0.652047	2.68842	0.480975	1.98106	0.651932	2.68844	0.729288	3.01157	0.846636	3.49537			0.633931	2.61473	0.727864	2.9979	0.88762	3.65993		
0.654474	2.6881	0.482992	1.98176	0.654358	2.68812	0.731052	3.00728	0.848411	3.48928			0.635945	2.613	0.729831	2.99451	0.888971	3.65148		
0.6569	2.68778	0.485009	1.98246	0.656785	2.6878	0.732818	3.00303	0.850188	3.48324			0.637958	2.61127	0.731802	2.99116	0.890326	3.6431		
0.659326	2.68746	0.487025	1.98315	0.659211	2.68748	0.734587	2.99883	0.851968	3.47726			0.63997	2.60955	0.733776	2.98785	0.891685	3.6348		
0.661752	2.68715	0.489042	1.98383	0.661636	2.68716	0.736359	2.99468	0.85375	3.47133			0.641981	2.60785	0.735753	2.98458	0.893048	3.62659		
0.664177	2.68683	0.491058	1.98451	0.664062	2.68684	0.738134	2.99056	0.855534	3.46546			0.64399	2.60614	0.737733	2.98134	0.894414	3.61844		
0.666602	2.68651	0.493074	1.98518	0.666487	2.68653	0.739911	2.98649	0.857321	3.45964			0.645998	2.60445	0.739717	2.97815	0.895785	3.61038		
0.669027	2.6862	0.495089	1.98585	0.668911	2.68621	0.741691	2.98246	0.85911	3.45387			0.648006	2.60277	0.741703	2.97499	0.897159	3.60239		
0.671451	2.68588	0.497104	1.98651	0.671335	2.6859	0.743475	2.97847	0.8609	3.44815			0.650012	2.60109	0.743693	2.97186	0.898537	3.59448		
0.673874	2.68557	0.499119	1.98716	0.673759	2.68559	0.745261	2.97453	0.862694	3.44249			0.652016	2.59942	0.745686	2.96877	0.899919	3.58664		
0.676297	2.68526	0.501134	1.98781	0.676182	2.68527	0.747049	2.97062	0.864489	3.43687			0.65402	2.59776	0.747682	2.96572	0.901305	3.57887		
0.67872	2.68494	0.503148	1.98845	0.678605	2.68496	0.748841	2.96675	0.866286	3.43131			0.656023	2.59611	0.749681	2.9627	0.902694	3.57118		
0.681142	2.68463	0.505163	1.98908	0.681027	2.68464	0.750635	2.96292	0.868086	3.4258			0.658024	2.59446	0.751682	2.95971	0.904088	3.56356		
0.683564	2.68432	0.507177	1.98972	0.683449	2.68433	0.752433	2.95913	0.869887	3.42033			0.660024	2.59282	0.753687	2.95676	0.905485	3.556		
0.685984	2.684	0.50919	1.99034	0.685869	2.68402	0.754233	2.95539	0.871691	3.41491			0.662023	2.59119	0.755695	2.95383	0.906886	3.54852		
0.688405	2.68369	0.511204	1.99096	0.68829	2.6837	0.756036	2.95167	0.873497	3.40954			0.664022	2.58957	0.757705	2.95095	0.908291	3.54111		
0.690824	2.68338	0.513217	1.99157	0.690709	2.68339	0.757841	2.948	0.875304	3.40422			0.666019	2.58795	0.759718	2.94809	0.909699	3.53376		
0.693243	2.68306	0.515229	1.99218	0.693128	2.68308	0.75965	2.94436	0.877114	3.39894			0.668014	2.58635	0.761734	2.94526	0.911111	3.52649		
0.695661	2.68275	0.517242	1.99278	0.695546	2.68276	0.761461	2.94077	0.878926	3.39371			0.670009	2.58475	0.763753	2.94247	0.912527	3.51928		
0.698078	2.68243	0.519254	1.99338	0.697963	2.68244	0.763276	2.9372	0.88074	3.38852			0.672003	2.58315	0.765775	2.93971	0.913947	3.51213		
0.700495	2.68211	0.521266	1.99397	0.70038	2.68213	0.765093	2.93368	0.882556	3.38338			0.673996	2.58157	0.767799	2.93697	0.91537	3.50505		
0.70291	2.6818	0.523278	1.99456	0.702796	2.68181	0.766913	2.93019	0.884373	3.37828			0.675988	2.57999	0.769826	2.93427	0.916798	3.49804		
0.705325	2.68148	0.525289	1.99514	0.70521	2.68149	0.768736	2.92674	0.886193	3.37323			0.677978	2.57842	0.771856	2.93159	0.918228	3.49109		
0.707739	2.68116	0.527301	1.99572	0.707624	2.68117	0.770562	2.92332	0.888015	3.36821			0.679968	2.57686	0.773888	2.92895	0.919663	3.4842		
0.710152	2.68083	0.529311	1.99629	0.710037	2.68085	0.772391	2.91994	0.889838	3.36325			0.681957	2.5753	0.775923	2.92633	0.921101	3.47737		
0.712564	2.68051	0.531322	1.99686	0.712449	2.68053	0.774223	2.91659	0.891663	3.35832			0.683944	2.57375	0.77796	2.92374	0.922543	3.47061		
0.714975	2.68019	0.533332	1.99742	0.71486	2.6802	0.776058	2.91328	0.893491	3.35343			0.685931	2.57221	0.78	2.92118	0.923989	3.46391		
0.717384	2.67986	0.535342	1.99797	0.71727	2.67988	0.777895	2.91	0.89532	3.34859			0.687917	2.57067	0.782042	2.91864	0.925439	3.45727		
0.719793	2.67953	0.537352	1.99852	0.719679	2.67955	0.779736	2.90675	0.89715	3.34378			0.689901	2.56914	0.784087	2.91613	0.926892	3.45068		
0.722201	2.6792	0.539362	1.99907	0.722086	2.67922	0.78158	2.90354	0.898983	3.33902			0.691885	2.56762	0.786134	2.91365	0.928348	3.44416		
0.724607	2.67887	0.541371	1.99961	0.724493	2.67889	0.783427	2.90036	0.900818	3.33429			0.693868	2.56611	0.788183	2.91119	0.929809	3.4377		
0.727012	2.67854	0.54338	2.00015	0.726898	2.67855	0.785277	2.89722	0.902654	3.32961			0.69585	2.5646	0.790235	2.90876	0.931273	3.43129		
0.729416	2.6782	0.545389	2.00068	0.729302	2.67822	0.78713	2.89411	0.904492	3.32496			0.697831	2.5631	0.792289	2.90636	0.932741	3.42494		
0.731819	2.67786	0.547397	2.00121	0.731705	2.67788	0.788986	2.89103	0.906331	3.32035			0.699811	2.56161	0.794345	2.90397	0.934212	3.41865		
0.73422	2.67752	0.549405	2.00173	0.734106	2.67754	0.790845	2.88798	0.908173	3.31578			0.70179	2.56012	0.796404	2.90162	0.935687	3.41241		
0.73662	2.67717	0.551413	2.00225	0.736506	2.67719	0.792707	2.88497	0.910016	3.31125			0.703769	2.55864	0.798465	2.89928	0.937166	3.40623		
0.739018	2.67683	0.553421	2.00277	0.738904	2.67684	0.794573	2.88198	0.911861	3.30675			0.705746	2.55717	0.800528	2.89697	0.938648	3.4001		
0.741415	2.67648	0.555428	2.00328	0.741301	2.67649	0.796442	2.87903	0.913707	3.30229			0.707723	2.55571	0.802593	2.89469	0.940134	3.39403		
0.743811	2.67612	0.557435	2.00378	0.743697	2.67614	0.798314	2.87611	0.915555	3.29786			0.709699	2.55425	0.80466	2.89242	0.941623	3.38801		
0.746204	2.67577	0.559442	2.00428	0.746091	2.67578	0.800189	2.87322	0.917405	3.29347			0.711674	2.55279	0.806729	2.89018	0.943116	3.38205		
0.748597	2.67541	0.561448	2.00478	0.748483	2.67542	0.802067	2.87037	0.919256	3.28912			0.713648	2.55135	0.8088	2.88796	0.944613	3.37613		
0.750987	2.67504	0.563455	2.00527	0.750874	2.67506	0.803949	2.86754	0.921109	3.2848			0.715621	2.54991	0.810874	2.88576	0.946113	3.37027		
0.753376	2.67468	0.565461	2.00576	0.753262	2.67469	0.805835	2.86474	0.922964	3.28051			0.717594	2.54848	0.812949	2.88359	0.947617	3.36446		
0.755763	2.6743	0.567466	2.00625	0.75565	2.67432	0.807723	2.86198	0.92482	3.27626			0.719566	2.54705	0.815026	2.88143	0.949124	3.3587		
0.758148	2.67393	0.569472	2.00673	0.758035	2.67395	0.809615	2.85924	0.926678	3.27204			0.721536	2.54563	0.817105	2.8793	0.950635	3.353		
0.760532	2.67355	0.571477	2.0072	0.760418	2.67357	0.811511	2.85654	0.928537	3.26785			0.723507	2.54422	0.819186	2.87719	0.95215	3.34734		
0.762913	2.67317	0.573482	2.00767	0.7628	2.67318	0.81341	2.85386	0.930398	3.2637			0.725476	2.54282	0.821269	2.87509	0.953668	3.34173		
0.765292	2.67278	0.575486	2.00814	0.765179	2.6728	0.815312	2.85122	0.93226	3.25958			0.727445	2.54142	0.823354	2.87302	0.95519	3.33617		
0.76767	2.67238	0.577491	2.0086	0.767557	2.6724	0.817219	2.8486	0.934124	3.25549			0.729413	2.54003	0.82544	2.87097	0.956715	3.33066		
0.770045	2.67199	0.579495	2.00906	0.769932	2.67201	0.819128	2.84602	0.935989	3.25143			0.73138	2.53864	0.827528	2.86893	0.958244	3.3252		
0.772418	2.67158	0.581499	2.00952	0.772305	2.6716	0.821042	2.84346	0.937856	3.24741			0.733347	2.53726	0.829618	2.86692	0.959776	3.31978		
0.774789	2.67118	0.583502	2.00997	0.774676	2.6712	0.822959	2.84094	0.939724	3.24341			0.735313	2.53589	0.83171	2.86492	0.961312	3.31441		
0.777157	2.67076	0.585505	2.01042	0.777045	2.67078	0.82488	2.83844	0.941593	3.23945			0.737278	2.53452	0.833803	2.86295	0.962851	3.30909		
0.779523	2.67034	0.587508	2.01087	0.779411	2.67036	0.826805	2.83597	0.943464	3.23551			0.739242	2.53316	0.835898	2.86099	0.964394	3.30381		
0.781887	2.66992	0.589511	2.01131	0.781775	2.66994	0.828733	2.83353	0.945337	3.23161			0.741206	2.53181	0.837994	2.85904	0.96594	3.29858		
0.784249	2.66949	0.591514	2.01174	0.784136	2.66951	0.830666	2.83112	0.94721	3.22774			0.74317	2.53046	0.840092	2.85712	0.96749	3.2934		
0.786607	2.66905	0.593516	2.01218	0.786495	2.66908	0.832602	2.82873	0.949085	3.22389			0.745132	2.52912	0.842192	2.85521	0.969044	3.28826		
0.788963	2.66861	0.595518	2.01261	0.788851	2.66863	0.834543	2.82638	0.950962	3.22007			0.747094	2.52779	0.844293	2.85332	0.970601	3.28316		
0.791317	2.66816	0.597519	2.01303	0.791205	2.66819	0.836487	2.82406	0.95284	3.21628			0.749055	2.52646	0.846395	2.85145	0.972161	3.27811		
0.793668	2.66771	0.599521	2.01346	0.793556	2.66773	0.838436	2.82176	0.954719	3.21252			0.751016	2.52514	0.848499	2.84959	0.973725	3.2731		
0.796015	2.66725	0.601522	2.01387	0.795904	2.66727	0.840389	2.81949	0.956599	3.20879			0.752976	2.52382	0.850604	2.84775	0.975292	3.26813		
0.79836	2.66678	0.603523	2.01429	0.798249	2.6668	0.842346	2.81725	0.958481	3.20509			0.754936	2.52251	0.852711	2.84593	0.976863	3.26321		
0.800702	2.66631	0.605523	2.0147	0.800591	2.66633	0.844307	2.81504	0.960364	3.20141			0.756895	2.52121	0.854819	2.84412	0.978438	3.25832		
0.803041	2.66582	0.607523	2.01511	0.80293	2.66585	0.846273	2.81285	0.962248	3.19776			0.758854	2.51991	0.856928	2.84233	0.980016	3.25348		
0.805377	2.66534	0.609523	2.01552	0.805266	2.66536	0.848243	2.8107	0.964134	3.19414			0.760812	2.51862	0.859039	2.84055	0.981597	3.24869		
0.80771	2.66484	0.611523	2.01592	0.807599	2.66486	0.850218	2.80857	0.96602	3.19054			0.762769	2.51734	0.86115	2.83879	0.983182	3.24393		
0.810039	2.66433	0.613523	2.01632	0.809929	2.66436	0.852197	2.80647	0.967908	3.18697			0.764726	2.51606	0.863263	2.83704	0.98477	3.23921		
0.812366	2.66382	0.615522	2.01671	0.812255	2.66385	0.85418	2.8044	0.969798	3.18342			0.766682	2.51479	0.865378	2.8353	0.986362	3.23453		
0.814688	2.6633	0.617521	2.0171	0.814578	2.66333	0.856169	2.80235	0.971688	3.1799			0.768638	2.51352	0.867493	2.83359	0.987957	3.2299		
0.817008	2.66277	0.61952	2.01749	0.816898	2.6628	0.858162	2.80034	0.97358	3.17641			0.770593	2.51226	0.869609	2.83188	0.989556	3.2253		
0.819323	2.66224	0.621518	2.01788	0.819213	2.66226	0.860159	2.79835	0.975472	3.17294			0.772548	2.51101	0.871727	2.83019	0.991158	3.22074		
0.821636	2.66169	0.623516	2.01826	0.821526	2.66172	0.862162	2.79639	0.977366	3.16949			0.774503	2.50976	0.873845	2.82851	0.992763	3.21622		
0.823944	2.66114	0.625514	2.01864	0.823834	2.66116	0.864169	2.79445	0.979262	3.16607			0.776457	2.50852	0.875965	2.82685	0.994372	3.21174		
0.826249	2.66058	0.627512	2.01902	0.826139	2.6606	0.866182	2.79255	0.981158	3.16268			0.77841	2.50728	0.878086	2.8252	0.995985	3.2073		
0.82855	2.66	0.629509	2.01939	0.82844	2.66003	0.868199	2.79067	0.983055	3.1593			0.780363	2.50605	0.880207	2.82356	0.997601	3.20289		
0.830847	2.65942	0.631506	2.01976	0.830738	2.65945	0.870221	2.78882	0.984954	3.15596			0.782316	2.50483	0.88233	2.82193	0.99922	3.19852		
0.83314	2.65883	0.633503	2.02013	0.833031	2.65886	0.872249	2.78699	0.986853	3.15263			0.784268	2.50361	0.884453	2.82032	1.00084	3.19419		
0.835429	2.65824	0.6355	2.02049	0.83532	2.65826	0.874282	2.7852	0.988754	3.14933			0.78622	2.5024	0.886578	2.81872				
0.837713	2.65763	0.637496	2.02085	0.837605	2.65766	0.876319	2.78343	0.990655	3.14605			0.788171	2.50119	0.888703	2.81713				
0.839994	2.65701	0.639492	2.02121	0.839886	2.65704	0.878363	2.78169	0.992558	3.14279			0.790122	2.49999	0.890829	2.81556				
0.842271	2.65638	0.641488	2.02156	0.842163	2.65641	0.880411	2.77997	0.994462	3.13956			0.792073	2.4988	0.892956	2.81399				
0.844543	2.65574	0.643483	2.02192	0.844435	2.65577	0.882465	2.77828	0.996367	3.13635			0.794023	2.49761	0.895084	2.81244				
0.846811	2.6551	0.645479	2.02227	0.846703	2.65513	0.884524	2.77662	0.998273	3.13316			0.795973	2.49643	0.897212	2.8109				
0.849074	2.65444	0.647474	2.02261	0.848967	2.65447	0.886589	2.77499	1.00018	3.12999			0.797923	2.49525	0.899341	2.80937				
0.851333	2.65377	0.649468	2.02295	0.851226	2.6538	0.888659	2.77338					0.799872	2.49408	0.901471	2.80785				
0.853588	2.65309	0.651463	2.0233	0.853481	2.65313	0.890735	2.7718					0.801821	2.49291	0.903601	2.80634				
0.855838	2.65241	0.653457	2.02363	0.855731	2.65244	0.892817	2.77024					0.803769	2.49175	0.905732	2.80484				
0.858083	2.65171	0.655451	2.02397	0.857976	2.65174	0.894904	2.76871					0.805718	2.4906	0.907864	2.80336				
0.860324	2.651	0.657445	2.0243	0.860217	2.65103	0.896996	2.76721					0.807666	2.48945	0.909996	2.80188				
0.86256	2.65028	0.659438	2.02463	0.862453	2.65032	0.899095	2.76574					0.809613	2.48831	0.912129	2.80041				
0.864791	2.64955	0.661432	2.02496	0.864685	2.64959	0.901199	2.76429					0.811561	2.48717	0.914262	2.79896				
0.867017	2.64881	0.663424	2.02528	0.866912	2.64885	0.903309	2.76286					0.813508	2.48604	0.916396	2.79751				
0.869239	2.64806	0.665417	2.0256	0.869134	2.6481	0.905425	2.76146					0.815454	2.48491	0.91853	2.79607				
0.871456	2.6473	0.66741	2.02592	0.871351	2.64734	0.907546	2.76009					0.817401	2.48379	0.920665	2.79464				
0.873668	2.64653	0.669402	2.02624	0.873563	2.64657	0.909673	2.75874					0.819347	2.48268	0.9228	2.79322				
0.875876	2.64575	0.671394	2.02655	0.875771	2.64579	0.911806	2.75742					0.821293	2.48157	0.924935	2.79181				
0.878078	2.64496	0.673385	2.02687	0.877973	2.645	0.913945	2.75612					0.823239	2.48047	0.927071	2.79041				
0.880276	2.64416	0.675377	2.02718	0.880171	2.6442	0.916089	2.75485					0.825185	2.47937	0.929207	2.78902				
0.882468	2.64335	0.677368	2.02748	0.882364	2.64339	0.91824	2.7536					0.82713	2.47828	0.931343	2.78764				
0.884656	2.64253	0.679359	2.02779	0.884552	2.64257	0.920396	2.75238					0.829075	2.47719	0.93348	2.78626				
0.886839	2.6417	0.681349	2.02809	0.886736	2.64174	0.922558	2.75118					0.83102	2.47611	0.935617	2.7849				
0.889017	2.64085	0.68334	2.02839	0.888914	2.64089	0.924725	2.75					0.832965	2.47503	0.937754	2.78354				
0.891191	2.64	0.68533	2.02868	0.891088	2.64004	0.926899	2.74885					0.834909	2.47396	0.939891	2.78219				
0.893359	2.63914	0.68732	2.02898	0.893256	2.63919	0.929078	2.74772					0.836853	2.47289	0.942029	2.78085				
0.895523	2.63828	0.68931	2.02927	0.895421	2.63832	0.931262	2.74661					0.838798	2.47183	0.944167	2.77951				
0.897682	2.6374	0.691299	2.02956	0.89758	2.63744	0.933452	2.74553					0.840741	2.47078	0.946304	2.77819				
0.899837	2.63651	0.693288	2.02985	0.899735	2.63655	0.935648	2.74446					0.842685	2.46973	0.948442	2.77687				
0.901987	2.63561	0.695277	2.03013	0.901884	2.63566	0.93785	2.74342					0.844629	2.46868	0.95058	2.77556				
0.904132	2.63471	0.697266	2.03042	0.90403	2.63475	0.940056	2.7424					0.846572	2.46764	0.952718	2.77425				
0.906272	2.6338	0.699254	2.0307	0.906171	2.63384	0.942269	2.74141					0.848516	2.46661	0.954856	2.77295				
0.908408	2.63287	0.701242	2.03098	0.908307	2.63292	0.944486	2.74043					0.850459	2.46558	0.956994	2.77166				
0.91054	2.63194	0.70323	2.03125	0.910438	2.63199	0.946709	2.73947					0.852402	2.46456	0.959132	2.77038				
0.912667	2.63101	0.705218	2.03153	0.912566	2.63105	0.948937	2.73854					0.854345	2.46354	0.96127	2.7691				
0.91479	2.63006	0.707205	2.0318	0.914689	2.63011	0.95117	2.73762					0.856288	2.46253	0.963407	2.76783				
0.916908	2.62911	0.709192	2.03207	0.916807	2.62916	0.953409	2.73673					0.858231	2.46152	0.965545	2.76657				
0.919022	2.62815	0.711179	2.03234	0.918922	2.6282	0.955652	2.73585					0.860173	2.46051	0.967683	2.76531				
0.921132	2.62719	0.713166	2.0326	0.921032	2.62723	0.957901	2.73499					0.862116	2.45952	0.96982	2.76406				
0.923238	2.62621	0.715152	2.03286	0.923138	2.62626	0.960154	2.73415					0.864058	2.45852	0.971957	2.76281				
0.92534	2.62523	0.717138	2.03313	0.92524	2.62528	0.962412	2.73333					0.866001	2.45753	0.974094	2.76157				
0.927438	2.62425	0.719124	2.03338	0.927338	2.6243	0.964675	2.73253					0.867943	2.45655	0.976231	2.76034				
0.929532	2.62326	0.72111	2.03364	0.929432	2.62331	0.966942	2.73174					0.869885	2.45557	0.978367	2.75911				
0.931622	2.62226	0.723095	2.0339	0.931523	2.62231	0.969214	2.73097					0.871827	2.4546	0.980504	2.75789				
0.933708	2.62126	0.72508	2.03415	0.933609	2.62131	0.971491	2.73022					0.873769	2.45363	0.98264	2.75668				
0.935791	2.62025	0.727065	2.0344	0.935692	2.6203	0.973771	2.72948					0.875711	2.45267	0.984775	2.75546				
0.93787	2.61924	0.72905	2.03465	0.937771	2.61929	0.976057	2.72876					0.877653	2.45171	0.98691	2.75426				
0.939946	2.61823	0.731034	2.0349	0.939847	2.61828	0.978346	2.72805					0.879595	2.45075	0.989045	2.75306				
0.942018	2.61721	0.733019	2.03514	0.941919	2.61726	0.98064	2.72736					0.881537	2.44981	0.99118	2.75186				
0.944087	2.61618	0.735003	2.03539	0.943988	2.61623	0.982937	2.72669					0.883479	2.44886	0.993314	2.75067				
0.946152	2.61516	0.736986	2.03563	0.946054	2.6152	0.985239	2.72603					0.885421	2.44792	0.995448	2.74949				
0.948214	2.61412	0.73897	2.03587	0.948117	2.61417	0.987544	2.72538					0.887363	2.44699	0.997581	2.74831				
0.950274	2.61309	0.740953	2.0361	0.950176	2.61314	0.989853	2.72475					0.889305	2.44606	0.999714	2.74713				
0.95233	2.61205	0.742936	2.03634	0.952232	2.6121	0.992166	2.72413					0.891246	2.44513	1.00185	2.74596				
0.954383	2.61101	0.744919	2.03657	0.954285	2.61106	0.994482	2.72352					0.893188	2.44421						
0.956433	2.60997	0.746901	2.03681	0.956336	2.61002	0.996802	2.72292					0.89513	2.4433						
0.958481	2.60892	0.748884	2.03704	0.958384	2.60897	0.999126	2.72234					0.897072	2.44239						
0.960526	2.60787	0.750866	2.03726	0.960428	2.60792	1.00145	2.72177					0.899013	2.44148						
0.962568	2.60682	0.752848	2.03749	0.962471	2.60687							0.900955	2.44058						
0.964607	2.60577	0.754829	2.03772	0.96451	2.60582							0.902897	2.43968						
0.966644	2.60472	0.756811	2.03794	0.966547	2.60477							0.904839	2.43879						
0.968678	2.60366	0.758792	2.03816	0.968582	2.60371							0.906781	2.4379						
0.970711	2.60261	0.760773	2.03838	0.970614	2.60266							0.908723	2.43702						
0.97274	2.60155	0.762753	2.0386	0.972644	2.6016							0.910664	2.43614						
0.974768	2.60049	0.764734	2.03881	0.974672	2.60054							0.912606	2.43526						
0.976793	2.59944	0.766714	2.03903	0.976697	2.59949							0.914548	2.43439						
0.978817	2.59838	0.768694	2.03924	0.97872	2.59843							0.91649	2.43353						
0.980838	2.59732	0.770674	2.03945	0.980742	2.59737							0.918433	2.43266						
0.982857	2.59626	0.772653	2.03966	0.982761	2.59631							0.920375	2.43181						
0.984874	2.5952	0.774632	2.03987	0.984778	2.59525							0.922317	2.43095						
0.98689	2.59414	0.776611	2.04007	0.986794	2.59419							0.924259	2.43011						
0.988903	2.59309	0.77859	2.04028	0.988808	2.59314							0.926201	2.42926						
0.990915	2.59203	0.780569	2.04048	0.99082	2.59208							0.928144	2.42842						
0.992925	2.59097	0.782547	2.04068	0.99283	2.59102							0.930086	2.42759						
0.994934	2.58992	0.784525	2.04088	0.994838	2.58997							0.932029	2.42676						
0.996941	2.58886	0.786503	2.04108	0.996845	2.58891							0.933971	2.42593						
0.998946	2.58781	0.788481	2.04128	0.998851	2.58786							0.935914	2.42511						
1.00095	2.58676	0.790458	2.04147	1.00085	2.58681							0.937857	2.42429						
		0.792435	2.04167									0.9398	2.42347						
		0.794412	2.04186									0.941743	2.42266						
		0.796389	2.04205									0.943686	2.42186						
		0.798366	2.04224									0.945629	2.42105						
		0.800342	2.04243									0.947572	2.42026						
		0.802318	2.04261									0.949516	2.41946						
		0.804294	2.0428									0.951459	2.41867						
		0.80627	2.04298									0.953403	2.41789						
		0.808245	2.04316									0.955347	2.41711						
		0.81022	2.04334									0.957291	2.41633						
		0.812195	2.04352									0.959235	2.41555						
		0.81417	2.0437									0.961179	2.41478						
		0.816145	2.04388									0.963123	2.41402						
		0.818119	2.04405									0.965067	2.41326						
		0.820093	2.04423									0.967012	2.4125						
		0.822067	2.0444									0.968956	2.41174						
		0.824041	2.04457									0.970901	2.41099						
		0.826014	2.04474									0.972846	2.41025						
		0.827987	2.04491									0.974791	2.4095						
		0.82996	2.04508									0.976736	2.40876						
		0.831933	2.04524									0.978682	2.40803						
		0.833906	2.04541									0.980627	2.4073						
		0.835878	2.04557									0.982573	2.40657						
		0.83785	2.04573									0.984519	2.40585						
		0.839822	2.04589									0.986465	2.40512						
		0.841794	2.04605									0.988411	2.40441						
		0.843766	2.04621									0.990357	2.40369						
		0.845737	2.04637									0.992304	2.40298						
		0.847708	2.04652									0.99425	2.40228						
		0.849679	2.04668									0.996197	2.40158						
		0.85165	2.04683									0.998144	2.40088						
		0.85362	2.04698									1.00009	2.40018						
		0.855591	2.04713																
		0.857561	2.04728																
		0.859531	2.04743																
		0.8615	2.04758																
		0.86347	2.04773																
		0.865439	2.04787																
		0.867408	2.04802																
		0.869377	2.04816																
		0.871346	2.0483																
		0.873314	2.04844																
		0.875282	2.04858																
		0.87725	2.04872																
		0.879218	2.04886																
		0.881186	2.04899																
		0.883153	2.04913																
		0.885121	2.04926																
		0.887088	2.0494																
		0.889055	2.04953																
		0.891021	2.04966																
		0.892988	2.04979																
		0.894954	2.04992																
		0.89692	2.05005																
		0.898886	2.05018																
		0.900852	2.0503																
		0.902817	2.05043																
		0.904782	2.05055																
		0.906748	2.05068																
		0.908713	2.0508																
		0.910677	2.05092																
		0.912642	2.05104																
		0.914606	2.05116																
		0.91657	2.05128																
		0.918534	2.0514																
		0.920498	2.05152																
		0.922462	2.05163																
		0.924425	2.05175																
		0.926388	2.05186																
		0.928351	2.05198																
		0.930314	2.05209																
		0.932277	2.0522																
		0.93424	2.05231																
		0.936202	2.05242																
		0.938164	2.05253																
		0.940126	2.05264																
		0.942088	2.05275																
		0.944049	2.05285																
		0.946011	2.05296																
		0.947972	2.05306																
		0.949933	2.05317																
		0.951894	2.05327																
		0.953855	2.05337																
		0.955815	2.05348																
		0.957776	2.05358																
		0.959736	2.05368																
		0.961696	2.05378																
		0.963656	2.05388																
		0.965615	2.05397																
		0.967575	2.05407																
		0.969534	2.05417																
		0.971493	2.05426																
		0.973452	2.05436																
		0.975411	2.05445																
		0.97737	2.05455																
		0.979328	2.05464																
		0.981286	2.05473																
		0.983245	2.05482																
		0.985203	2.05491																
		0.98716	2.055																
		0.989118	2.05509																
		0.991075	2.05518																
		0.993033	2.05527																
		0.99499	2.05536																
		0.996947	2.05544																
		0.998904	2.05553																
		1.00086	2.05561																
