Sym0		Asym0		Sym1		Sym2		Sym3		Sym4		Asym1		Asym2		Asym3		Asym4	
425  Points		527  Points		425  Points		405  Points		352  Points		253  Points		457  Points		400  Points		345  Points		216  Points	
Freq (MHz)	Vph (m/ms)	Freq (MHz)	Vph (m/ms)	Freq (MHz)	Vph (m/ms)	Freq (MHz)	Vph (m/ms)	Freq (MHz)	Vph (m/ms)	Freq (MHz)	Vph (m/ms)	Freq (MHz)	Vph (m/ms)	Freq (MHz)	Vph (m/ms)	Freq (MHz)	Vph (m/ms)	Freq (MHz)	Vph (m/ms)
0.279509	731.298	0.00033941	0.113512	0.27951	535.242	0.441191	2289.61	0.559017	2365.13	0.838525	15298.8	0.139763	293.742	0.419267	514.886	0.698772	1283.57	0.882385	1140.65
0.279519	212.739	0.000582843	0.148618	0.279521	192.255	0.4412	392.391	0.559026	478.596	0.838529	850	0.139831	99.347	0.419283	240.141	0.698779	473.397	0.882392	517.448
0.279538	124.483	0.000890674	0.183513	0.279542	117.179	0.44122	214.592	0.559045	266.244	0.838538	437.148	0.139965	59.8346	0.41931	156.595	0.698791	290.221	0.882406	334.628
0.279568	87.9892	0.00126206	0.218155	0.279573	84.2773	0.441251	147.685	0.559075	184.425	0.838552	294.24	0.140165	42.8523	0.419349	116.183	0.698809	209.257	0.882425	247.27
0.279608	68.0477	0.00169601	0.2525	0.279614	65.8072	0.441295	112.59	0.559117	141.079	0.838573	221.751	0.140431	33.4154	0.419399	92.3569	0.698833	163.616	0.88245	196.084
0.279657	55.4801	0.00219134	0.286503	0.279666	53.9824	0.441349	90.978	0.559169	114.237	0.838599	177.922	0.140762	27.4161	0.419461	76.6452	0.698863	134.322	0.882481	162.458
0.279718	46.8352	0.00274678	0.320129	0.279728	45.7641	0.441416	76.3317	0.559232	95.9804	0.838631	148.562	0.141157	23.2703	0.419535	65.5066	0.698899	113.928	0.882518	138.679
0.279788	40.5251	0.00336106	0.353352	0.279799	39.7212	0.441494	65.7518	0.559307	82.7594	0.838669	127.522	0.141615	20.2375	0.419619	57.1988	0.69894	98.9123	0.88256	120.974
0.279869	35.7168	0.00403253	0.386124	0.279881	35.0915	0.441584	57.7517	0.559392	72.7436	0.838712	111.704	0.142135	17.9251	0.419716	50.7648	0.698988	87.3958	0.882608	107.28
0.279959	31.9316	0.00475971	0.418424	0.279974	31.4313	0.441686	51.4908	0.559488	64.8937	0.838762	99.3786	0.142715	16.1059	0.419824	45.6353	0.699042	78.2832	0.882662	96.3727
0.28006	28.8747	0.00554096	0.450228	0.280076	28.4654	0.441799	46.458	0.559596	58.5761	0.838817	89.5047	0.143355	14.6388	0.419943	41.4503	0.699101	70.893	0.882722	87.4802
0.280171	26.3545	0.00637456	0.481509	0.280189	26.0136	0.441923	42.3244	0.559714	53.3823	0.838877	81.4171	0.144052	13.4321	0.420074	37.9713	0.699166	64.7793	0.882787	80.0916
0.280292	24.2414	0.00725881	0.512251	0.280311	23.953	0.44206	38.8691	0.559843	49.0372	0.838944	74.6714	0.144805	12.423	0.420216	35.0337	0.699237	59.6378	0.882859	73.8551
0.280424	22.4442	0.00819195	0.542437	0.280444	22.1971	0.442208	35.938	0.559983	45.3487	0.839016	68.9592	0.145612	11.5677	0.420369	32.5204	0.699314	55.2536	0.882936	68.521
0.280565	20.8972	0.00917222	0.572055	0.280587	20.6832	0.442367	33.4204	0.560134	42.1785	0.839094	64.0601	0.146472	10.8341	0.420535	30.3459	0.699397	51.4712	0.883019	63.9067
0.280717	19.5517	0.0101979	0.601097	0.28074	19.3646	0.442538	31.2348	0.560296	39.4248	0.839178	59.8121	0.147263	10.2755	0.420711	28.4462	0.699486	48.1745	0.883107	59.8757
0.280879	18.3709	0.0112672	0.629551	0.280904	18.2058	0.442721	29.3196	0.560469	37.0106	0.839268	56.0935	0.147966	9.84896	0.420899	26.7723	0.69958	45.2758	0.883202	56.3241
0.281051	17.3263	0.0123784	0.657415	0.281077	17.1797	0.442915	27.6278	0.560653	34.877	0.839363	52.8113	0.148568	9.52614	0.421098	25.2865	0.699681	42.7072	0.883302	53.1712
0.281233	16.3958	0.0135297	0.684683	0.281261	16.2647	0.44312	26.1224	0.560848	32.9777	0.839464	49.8929	0.149057	9.28796	0.421309	23.9587	0.699787	40.4153	0.883408	50.3536
0.281425	15.5617	0.0147196	0.711357	0.281455	15.4438	0.443337	24.7745	0.561054	31.2764	0.839571	47.2811	0.149423	9.12165	0.421531	22.7652	0.699899	38.3578	0.88352	47.8204
0.281627	14.8099	0.0159464	0.73744	0.281659	14.7033	0.443566	23.5606	0.56127	29.7437	0.839683	44.93	0.149661	9.0189	0.421764	21.6866	0.700018	36.5005	0.883637	45.5307
0.28184	14.1289	0.0172085	0.762934	0.281873	14.032	0.443806	22.4617	0.561498	28.3557	0.839801	42.8024	0.150006	8.87598	0.422009	20.7071	0.700141	34.8156	0.88376	43.4511
0.282063	13.5091	0.0185043	0.78784	0.282097	13.4207	0.444057	21.4624	0.561736	27.093	0.839925	40.8681	0.150387	8.72669	0.422265	19.8139	0.700271	33.2802	0.883889	41.554
0.282295	12.9427	0.0198324	0.812169	0.282331	12.8618	0.44432	20.5497	0.561985	25.9394	0.840055	39.1018	0.150914	8.5332	0.422532	18.996	0.700407	31.8752	0.884024	39.8163
0.282538	12.4231	0.0211913	0.835923	0.282576	12.3488	0.444594	19.713	0.562245	24.8814	0.84019	37.4826	0.151595	8.30301	0.422811	18.2443	0.700549	30.5849	0.884164	38.2188
0.282791	11.9449	0.0225796	0.859114	0.28283	11.8763	0.444879	18.9431	0.562516	23.9076	0.840331	35.9928	0.15244	8.04433	0.423101	17.5512	0.700696	29.3956	0.88431	36.7453
0.283054	11.5033	0.023996	0.881748	0.283095	11.4399	0.445176	18.2324	0.562797	23.0085	0.840478	34.6177	0.15346	7.76543	0.423402	16.9101	0.700849	28.296	0.884462	35.3818
0.283328	11.0944	0.0254392	0.903835	0.283369	11.0355	0.445484	17.5744	0.563089	22.1758	0.840631	33.3444	0.154666	7.47411	0.423714	16.3155	0.701008	27.2764	0.88462	34.1166
0.283611	10.7146	0.026908	0.925389	0.283654	10.6598	0.445803	16.9635	0.563392	21.4024	0.840789	32.1621	0.15591	7.20964	0.424038	15.7625	0.701173	26.3284	0.884784	32.9393
0.283904	10.361	0.0284012	0.946415	0.283949	10.3099	0.446133	16.3948	0.563706	20.6823	0.840953	31.0613	0.157191	6.96861	0.424372	15.2468	0.701344	25.4446	0.884953	31.8411
0.284208	10.031	0.0299177	0.966928	0.284214	10.024	0.446475	15.8642	0.56403	20.0102	0.841123	30.034	0.158506	6.74817	0.424718	14.765	0.701521	24.6189	0.885127	30.8144
0.284521	9.72232	0.0314563	0.986938	0.284446	9.79317	0.446827	15.368	0.564366	19.3814	0.841298	29.0731	0.159853	6.54591	0.425075	14.3138	0.701703	23.8456	0.885308	29.8524
0.284845	9.43305	0.0330161	1.00646	0.284643	9.61055	0.447191	14.9029	0.564711	18.792	0.841479	28.1723	0.161233	6.35975	0.425443	13.8904	0.701892	23.12	0.885494	28.9492
0.285178	9.16143	0.0345962	1.0255	0.2848	9.47117	0.447566	14.4663	0.565067	18.2384	0.841666	27.3262	0.162642	6.18794	0.425822	13.4924	0.702086	22.4378	0.885686	28.0996
0.285522	8.90591	0.0361955	1.04407	0.284918	9.37137	0.447952	14.0555	0.565434	17.7174	0.841859	26.5299	0.164081	6.02896	0.426212	13.1175	0.702286	21.7952	0.885884	27.2989
0.285876	8.66513	0.0378131	1.06219	0.284994	9.30867	0.448349	13.6683	0.565812	17.2264	0.842057	25.7792	0.165547	5.88147	0.426613	12.7638	0.702492	21.1889	0.886087	26.5431
0.28624	8.43787	0.0394483	1.07986	0.285104	9.22007	0.448757	13.3029	0.5662	16.7627	0.842261	25.0704	0.167039	5.74434	0.427025	12.4297	0.702704	20.616	0.886296	25.8285
0.286613	8.22304	0.0411002	1.0971	0.285225	9.12577	0.449175	12.9575	0.566598	16.3242	0.84247	24.4	0.168556	5.61657	0.427448	12.1135	0.702921	20.0736	0.886511	25.1519
0.286997	8.01968	0.0427681	1.11391	0.285391	9.00077	0.449605	12.6304	0.567007	15.909	0.842686	23.7649	0.170098	5.49726	0.427882	11.8139	0.703145	19.5596	0.886731	24.5102
0.287391	7.82691	0.0444513	1.13032	0.285605	8.84781	0.450046	12.3203	0.567427	15.5151	0.842907	23.1626	0.171662	5.38565	0.428327	11.5295	0.703374	19.0717	0.886958	23.901
0.287795	7.64395	0.046149	1.14633	0.285868	8.67008	0.450497	12.0259	0.567857	15.1412	0.843133	22.5904	0.173248	5.28105	0.428783	11.2594	0.703609	18.608	0.887189	23.3217
0.288209	7.47009	0.0478605	1.16196	0.286185	8.47108	0.450959	11.7461	0.568297	14.7856	0.843366	22.0463	0.174855	5.18284	0.42925	11.0025	0.70385	18.1667	0.887427	22.7702
0.288632	7.30467	0.0495853	1.1772	0.286557	8.25445	0.451432	11.4798	0.568748	14.4471	0.843604	21.5282	0.176482	5.09049	0.429727	10.7578	0.704096	17.7463	0.88767	22.2447
0.289066	7.14713	0.0513228	1.19209	0.286939	8.04944	0.451915	11.2261	0.569209	14.1246	0.843847	21.0343	0.178128	5.00351	0.430215	10.5246	0.704349	17.3454	0.887919	21.7433
0.28951	6.99692	0.0530724	1.20661	0.287331	7.85513	0.452409	10.9842	0.569681	13.8168	0.844097	20.5629	0.179793	4.92146	0.430714	10.302	0.704607	16.9626	0.888173	21.2644
0.289964	6.85356	0.0548336	1.22079	0.287734	7.67075	0.452914	10.7532	0.570162	13.5229	0.844351	20.1127	0.181475	4.84396	0.431158	10.1161	0.704871	16.5967	0.888433	20.8065
0.290427	6.71661	0.0566059	1.23464	0.288146	7.49557	0.453429	10.5325	0.570654	13.242	0.844612	19.6821	0.183173	4.77065	0.431542	9.96337	0.705141	16.2466	0.888699	20.3683
0.290901	6.58566	0.0583887	1.24816	0.288568	7.32893	0.453955	10.3213	0.571157	12.9732	0.844878	19.2699	0.184887	4.70123	0.431865	9.84078	0.705417	15.9114	0.88897	19.9485
0.291384	6.46034	0.0601817	1.26137	0.289001	7.17024	0.454421	10.1446	0.571669	12.7157	0.84515	18.875	0.186617	4.63539	0.432122	9.74615	0.705698	15.5901	0.889247	19.5461
0.291878	6.34031	0.0619843	1.27427	0.289443	7.01896	0.454825	9.99916	0.572192	12.4689	0.845428	18.4963	0.188361	4.57289	0.432314	9.67783	0.705985	15.2819	0.889529	19.1599
0.292381	6.22525	0.0637961	1.28687	0.289895	6.8746	0.455164	9.88226	0.572725	12.2322	0.845711	18.1329	0.190119	4.51348	0.432437	9.63465	0.706278	14.986	0.889817	18.789
0.292894	6.11487	0.0656169	1.29918	0.290357	6.73672	0.455434	9.79192	0.573267	12.0049	0.846	17.7838	0.191891	4.45696	0.432614	9.57332	0.706577	14.7017	0.890111	18.4326
0.293417	6.00891	0.0674462	1.31121	0.290829	6.6049	0.455635	9.72664	0.57382	11.7865	0.846294	17.4483	0.193675	4.40311	0.432809	9.50762	0.706882	14.4284	0.89041	18.0898
0.29395	5.90712	0.0692836	1.32297	0.291311	6.47876	0.455764	9.68536	0.574383	11.5765	0.846594	17.1255	0.195472	4.35178	0.433076	9.41984	0.707192	14.1653	0.890715	17.7598
0.294493	5.80926	0.0711287	1.33446	0.291803	6.35795	0.45595	9.62669	0.574956	11.3745	0.8469	16.8148	0.19728	4.30279	0.433417	9.31134	0.707508	13.912	0.891026	17.442
0.295046	5.71512	0.0729814	1.34569	0.292305	6.24217	0.456153	9.5638	0.575539	11.18	0.847211	16.5155	0.1991	4.25599	0.433834	9.18376	0.70783	13.6679	0.891341	17.1356
0.295608	5.62451	0.0748412	1.35668	0.292817	6.13111	0.456433	9.47971	0.576132	10.9925	0.847528	16.2269	0.20093	4.21124	0.434332	9.03893	0.708158	13.4326	0.891663	16.8402
0.29618	5.53724	0.0767079	1.36742	0.293338	6.02451	0.456789	9.37567	0.576735	10.8118	0.847851	15.9486	0.202771	4.16842	0.434912	8.87886	0.708491	13.2055	0.89199	16.5551
0.296763	5.45314	0.0785811	1.37793	0.29387	5.9221	0.457225	9.25318	0.577347	10.6375	0.848179	15.68	0.204621	4.12741	0.435503	8.72497	0.70883	12.9863	0.892323	16.2797
0.297355	5.37205	0.0804607	1.38821	0.294411	5.82367	0.457744	9.11392	0.57797	10.4693	0.848512	15.4205	0.206481	4.0881	0.436105	8.57692	0.709175	12.7746	0.892661	16.0137
0.297957	5.29381	0.0823463	1.39827	0.294962	5.72899	0.458349	8.95976	0.57852	10.3274	0.848851	15.1698	0.20835	4.0504	0.436716	8.4344	0.709526	12.57	0.893005	15.7565
0.298568	5.2183	0.0842378	1.40811	0.295523	5.63786	0.458964	8.81131	0.578995	10.2097	0.849196	14.9275	0.210228	4.0142	0.437339	8.29712	0.709882	12.3721	0.893354	15.5077
0.299189	5.14537	0.0861348	1.41774	0.296094	5.5501	0.459589	8.66826	0.579392	10.1146	0.849546	14.693	0.212115	3.97942	0.437971	8.16479	0.710244	12.1806	0.893709	15.267
0.299821	5.07491	0.0880371	1.42716	0.296675	5.46554	0.460224	8.53033	0.579709	10.0408	0.849902	14.466	0.214009	3.94599	0.438614	8.03718	0.710612	11.9952	0.894069	15.0339
0.300462	5.0068	0.0899447	1.43639	0.297265	5.384	0.460869	8.39727	0.579943	9.9873	0.850264	14.2463	0.215911	3.91383	0.439266	7.91403	0.710985	11.8157	0.894434	14.808
0.301112	4.94094	0.0918571	1.44543	0.297866	5.30535	0.461524	8.26883	0.580093	9.95339	0.850631	14.0333	0.217821	3.88287	0.439929	7.79512	0.711364	11.6418	0.894806	14.5891
0.301773	4.87721	0.0937743	1.45427	0.298476	5.22944	0.462189	8.14478	0.58031	9.90509	0.851003	13.827	0.219738	3.85305	0.440602	7.68026	0.711749	11.4731	0.895182	14.3769
0.302443	4.81553	0.0956962	1.46294	0.299096	5.15613	0.462863	8.02491	0.580548	9.85318	0.851381	13.6268	0.221662	3.8243	0.441286	7.56924	0.71214	11.3096	0.895564	14.171
0.303123	4.75581	0.0976223	1.47143	0.299726	5.08531	0.463547	7.90901	0.580872	9.78355	0.851765	13.4326	0.223592	3.79658	0.441979	7.46188	0.712536	11.1509	0.895952	13.9711
0.303724	4.70529	0.0995527	1.47974	0.300365	5.01685	0.464241	7.7969	0.581286	9.69704	0.852154	13.2442	0.225529	3.76983	0.442682	7.35802	0.712938	10.9968	0.896345	13.7771
0.304241	4.66331	0.101487	1.48789	0.301014	4.95066	0.464944	7.68841	0.581791	9.59469	0.852549	13.0612	0.227472	3.744	0.443396	7.25748	0.713346	10.8472	0.896743	13.5886
0.304673	4.62932	0.103425	1.49588	0.301673	4.88662	0.465657	7.58336	0.582391	9.47767	0.852949	12.8834	0.229421	3.71905	0.444119	7.16013	0.713759	10.7019	0.897147	13.4055
0.305018	4.60291	0.105368	1.5037	0.302342	4.82464	0.466379	7.48161	0.583088	9.34729	0.853354	12.7107	0.231376	3.69493	0.444852	7.06581	0.714124	10.5786	0.897557	13.2274
0.305272	4.58373	0.107313	1.51137	0.303021	4.76463	0.467111	7.383	0.583794	9.22089	0.853766	12.5427	0.233336	3.67161	0.445595	6.9744	0.714439	10.4758	0.897971	13.0543
0.305436	4.57157	0.109263	1.5189	0.303709	4.7065	0.467852	7.2874	0.58451	9.0983	0.854182	12.3794	0.235302	3.64904	0.446348	6.88577	0.714701	10.3925	0.898391	12.8859
0.305672	4.55424	0.111215	1.52627	0.304407	4.65018	0.468603	7.19468	0.585235	8.97937	0.854604	12.2205	0.237272	3.62719	0.44711	6.7998	0.71491	10.3275	0.898817	12.722
0.30593	4.53559	0.113171	1.5335	0.305115	4.59558	0.469363	7.10471	0.585969	8.86392	0.855032	12.0659	0.239248	3.60603	0.447882	6.71637	0.715064	10.2804	0.899248	12.5624
0.306283	4.51056	0.11513	1.5406	0.305832	4.54264	0.470132	7.01739	0.586713	8.75183	0.855465	11.9153	0.241228	3.58553	0.448664	6.63539	0.715164	10.2504	0.899684	12.407
0.306732	4.47942	0.116839	1.54667	0.306559	4.49129	0.47091	6.93259	0.587466	8.64294	0.855903	11.7687	0.243213	3.56565	0.449456	6.55675	0.715307	10.2077	0.900125	12.2556
0.30728	4.44252	0.118298	1.55176	0.307296	4.44146	0.471697	6.85023	0.588228	8.53713	0.856347	11.6259	0.245203	3.54638	0.450257	6.48036	0.715463	10.1616	0.900572	12.1081
0.30793	4.40027	0.119506	1.55592	0.308043	4.39309	0.472493	6.77019	0.588999	8.43428	0.856797	11.4867	0.247196	3.52767	0.451067	6.40612	0.715677	10.0998	0.901025	11.9643
0.308685	4.3531	0.120461	1.55918	0.308799	4.34613	0.473299	6.69238	0.58978	8.33427	0.857251	11.351	0.249194	3.50952	0.451888	6.33396	0.715949	10.0227	0.901482	11.8241
0.30945	4.30729	0.121164	1.56155	0.309565	4.30052	0.474113	6.61673	0.59057	8.23698	0.857712	11.2187	0.251196	3.49189	0.452717	6.26379	0.716281	9.93108	0.901945	11.6874
0.310224	4.26279	0.121614	1.56306	0.310341	4.25621	0.474936	6.54314	0.591368	8.14231	0.858177	11.0896	0.253201	3.47477	0.453556	6.19553	0.716675	9.82593	0.902413	11.554
0.311008	4.21954	0.122262	1.56522	0.311127	4.21315	0.475768	6.47153	0.592176	8.05016	0.858648	10.9637	0.25521	3.45813	0.454405	6.12912	0.717132	9.70818	0.902887	11.4237
0.311802	4.1775	0.122965	1.56756	0.311922	4.17129	0.476609	6.40184	0.592993	7.96044	0.859063	10.8565	0.257223	3.44195	0.455262	6.06447	0.717594	9.59344	0.903365	11.2966
0.312605	4.13663	0.123923	1.57071	0.312727	4.13059	0.477458	6.33398	0.593818	7.87306	0.85942	10.7668	0.259239	3.42621	0.456129	6.00154	0.718062	9.4816	0.903849	11.1725
0.313419	4.09689	0.125136	1.57465	0.313542	4.09101	0.478317	6.26789	0.594653	7.78792	0.859718	10.6939	0.261259	3.4109	0.457006	5.94025	0.718536	9.37255	0.904339	11.0513
0.314242	4.05822	0.126603	1.57936	0.314366	4.0525	0.479183	6.20351	0.595496	7.70495	0.859954	10.6369	0.263282	3.396	0.457891	5.88054	0.719015	9.26619	0.904769	10.9479
0.315075	4.0206	0.128326	1.5848	0.315201	4.01503	0.480059	6.14078	0.596348	7.62406	0.860129	10.5955	0.265308	3.3815	0.458786	5.82236	0.7195	9.16243	0.90514	10.8614
0.315917	3.98398	0.130305	1.59093	0.316045	3.97857	0.480942	6.07962	0.597209	7.5452	0.860241	10.5691	0.267337	3.36737	0.459689	5.76566	0.719991	9.06117	0.905448	10.791
0.316769	3.94834	0.132286	1.59696	0.316898	3.94307	0.481835	6.02	0.598079	7.46827	0.860403	10.5315	0.269369	3.35361	0.460602	5.71038	0.720487	8.96232	0.905693	10.7361
0.317632	3.91364	0.13427	1.60287	0.317762	3.9085	0.482735	5.96186	0.598957	7.39323	0.86058	10.4909	0.271403	3.3402	0.461524	5.65647	0.720989	8.86581	0.905874	10.696
0.318504	3.87984	0.136255	1.60869	0.318636	3.87484	0.483644	5.90513	0.599844	7.31999	0.860821	10.4363	0.273441	3.32712	0.462455	5.60388	0.721496	8.77156	0.905991	10.6706
0.319386	3.84693	0.138243	1.61439	0.319519	3.84205	0.484561	5.84979	0.600739	7.2485	0.861128	10.3681	0.275481	3.31437	0.463394	5.55258	0.722009	8.67948	0.906158	10.6342
0.320277	3.81486	0.140232	1.62	0.320412	3.81011	0.485487	5.79577	0.601643	7.17871	0.861501	10.2869	0.277523	3.30193	0.464343	5.50252	0.722527	8.58951	0.906341	10.595
0.321179	3.78361	0.142224	1.62551	0.321315	3.77898	0.48642	5.74304	0.602556	7.11055	0.861944	10.1933	0.279568	3.28979	0.4653	5.45365	0.723051	8.50157	0.906591	10.5421
0.32209	3.75315	0.144217	1.63093	0.322228	3.74864	0.487362	5.69155	0.603476	7.04397	0.862456	10.0882	0.281616	3.27795	0.466266	5.40594	0.723581	8.41561	0.906908	10.4761
0.323012	3.72346	0.146212	1.63625	0.323151	3.71907	0.488312	5.64126	0.604406	6.97892	0.862974	9.98547	0.283665	3.26638	0.467241	5.35935	0.724116	8.33155	0.907295	10.3974
0.323943	3.69452	0.148209	1.64148	0.324084	3.69024	0.48927	5.59213	0.605343	6.91535	0.863497	9.88496	0.285717	3.25509	0.468225	5.31385	0.724656	8.24933	0.907752	10.3068
0.324885	3.6663	0.150207	1.64661	0.325027	3.66212	0.490235	5.54413	0.606289	6.85321	0.864025	9.78663	0.287771	3.24405	0.469217	5.26939	0.725202	8.16891	0.908281	10.2048
0.325836	3.63878	0.152207	1.65167	0.32598	3.6347	0.491209	5.49722	0.607243	6.79246	0.864559	9.69041	0.289827	3.23327	0.470218	5.22595	0.725754	8.09022	0.908816	10.105
0.326798	3.61194	0.154208	1.65663	0.326943	3.60796	0.49219	5.45136	0.608205	6.73305	0.865098	9.59624	0.291885	3.22273	0.471228	5.1835	0.726311	8.0132	0.909355	10.0074
0.327769	3.58575	0.15621	1.66152	0.327916	3.58187	0.493179	5.40652	0.609175	6.67495	0.865643	9.50405	0.293945	3.21243	0.472246	5.142	0.726874	7.93782	0.9099	9.91175
0.328751	3.56021	0.158214	1.66632	0.3289	3.55642	0.494176	5.36268	0.610154	6.61811	0.866192	9.41379	0.296007	3.20236	0.473272	5.10142	0.727442	7.86401	0.91045	9.81809
0.329744	3.53528	0.16022	1.67104	0.329894	3.53159	0.495181	5.31979	0.61114	6.56249	0.866747	9.3254	0.298071	3.1925	0.474307	5.06175	0.728015	7.79173	0.911005	9.72636
0.330746	3.51096	0.162226	1.67569	0.330898	3.50736	0.496193	5.27784	0.612135	6.50806	0.867307	9.23881	0.300136	3.18286	0.475351	5.02294	0.728594	7.72093	0.911565	9.63648
0.331759	3.48722	0.164234	1.68026	0.331912	3.48371	0.497212	5.23679	0.613137	6.45478	0.867873	9.15399	0.302203	3.17343	0.476402	4.98497	0.729179	7.65158	0.912131	9.54841
0.332782	3.46406	0.166244	1.68476	0.332937	3.46062	0.49824	5.19661	0.614148	6.40261	0.868444	9.07087	0.304272	3.16419	0.477462	4.94783	0.729769	7.58363	0.912701	9.4621
0.333816	3.44144	0.168254	1.68918	0.333973	3.43809	0.499274	5.15729	0.615166	6.35154	0.86902	8.9894	0.306342	3.15515	0.478531	4.91148	0.730364	7.51704	0.913276	9.37748
0.334861	3.41936	0.170265	1.69353	0.335019	3.41609	0.500316	5.11879	0.616192	6.30151	0.869601	8.90955	0.308413	3.1463	0.479607	4.8759	0.730965	7.45177	0.913857	9.29453
0.335916	3.39781	0.172278	1.69781	0.336075	3.39462	0.501366	5.08109	0.617226	6.25251	0.870187	8.83125	0.310486	3.13762	0.480692	4.84107	0.731572	7.38778	0.914442	9.21318
0.336982	3.37677	0.174291	1.70203	0.337143	3.37365	0.502422	5.04417	0.618268	6.2045	0.870779	8.75448	0.312561	3.12912	0.481785	4.80697	0.732183	7.32504	0.915033	9.13339
0.338059	3.35623	0.176305	1.70618	0.338221	3.35318	0.503486	5.008	0.619317	6.15746	0.871376	8.67918	0.314637	3.1208	0.482885	4.77358	0.7328	7.26351	0.915628	9.05513
0.339146	3.33617	0.178321	1.71026	0.339311	3.3332	0.504557	4.97258	0.620374	6.11136	0.871978	8.60532	0.316714	3.11263	0.483994	4.74088	0.733423	7.20316	0.916229	8.97834
0.340245	3.31658	0.180337	1.71428	0.340411	3.31368	0.505635	4.93786	0.621438	6.06617	0.872585	8.53286	0.318792	3.10463	0.485111	4.70885	0.734051	7.14396	0.916834	8.90299
0.341355	3.29746	0.182354	1.71824	0.341523	3.29462	0.506721	4.90384	0.62251	6.02186	0.873198	8.46175	0.320871	3.09678	0.486236	4.67746	0.734684	7.08587	0.917445	8.82904
0.342477	3.27878	0.184372	1.72213	0.342646	3.27601	0.507813	4.8705	0.62359	5.97842	0.873815	8.39197	0.322952	3.08909	0.487369	4.64672	0.735323	7.02887	0.91806	8.75645
0.34361	3.26054	0.186391	1.72597	0.343781	3.25784	0.508912	4.83781	0.624676	5.93582	0.874438	8.32347	0.325034	3.08154	0.48851	4.61658	0.735967	6.97292	0.918681	8.68518
0.344754	3.24273	0.188411	1.72975	0.344927	3.24009	0.510018	4.80576	0.625771	5.89404	0.875066	8.25623	0.327116	3.07413	0.489658	4.58705	0.736617	6.91801	0.919306	8.61521
0.345911	3.22535	0.190431	1.73347	0.346085	3.22277	0.511131	4.77433	0.626872	5.85305	0.875699	8.19021	0.3292	3.06686	0.490815	4.5581	0.737272	6.8641	0.919936	8.5465
0.347079	3.20837	0.192452	1.73713	0.347256	3.20585	0.512251	4.74351	0.627981	5.81284	0.876337	8.12537	0.331285	3.05972	0.491979	4.52971	0.737932	6.81116	0.920571	8.47901
0.348259	3.19179	0.194474	1.74074	0.348438	3.18933	0.513378	4.71328	0.629097	5.77338	0.87698	8.0617	0.33337	3.05271	0.49315	4.50188	0.738597	6.75918	0.921212	8.41271
0.349452	3.1756	0.196496	1.7443	0.349632	3.17321	0.514511	4.68362	0.630221	5.73466	0.877629	7.99915	0.335457	3.04583	0.49433	4.47459	0.739268	6.70812	0.921856	8.34757
0.350657	3.1598	0.198519	1.7478	0.350839	3.15746	0.515651	4.65453	0.631351	5.69665	0.878282	7.9377	0.337544	3.03908	0.495517	4.44783	0.739944	6.65797	0.922506	8.28357
0.351875	3.14438	0.200543	1.75125	0.352059	3.14209	0.516798	4.62597	0.632489	5.65934	0.878941	7.87732	0.339632	3.03244	0.496712	4.42157	0.740626	6.6087	0.923161	8.22068
0.353106	3.12932	0.202567	1.75466	0.353292	3.12709	0.517951	4.59795	0.633634	5.62271	0.879605	7.81799	0.341721	3.02592	0.497914	4.39582	0.741313	6.56029	0.923821	8.15886
0.35435	3.11463	0.204592	1.75801	0.354538	3.11245	0.519111	4.57044	0.634786	5.58674	0.880274	7.75967	0.343811	3.01951	0.499124	4.37055	0.742005	6.51272	0.924485	8.09809
0.355607	3.10029	0.206618	1.76131	0.355797	3.09816	0.520277	4.54344	0.635944	5.55142	0.880947	7.70235	0.345901	3.01321	0.500341	4.34575	0.742702	6.46596	0.925154	8.03835
0.356878	3.0863	0.208644	1.76457	0.35707	3.08423	0.52145	4.51693	0.63711	5.51672	0.881626	7.646	0.347992	3.00702	0.501565	4.32142	0.743405	6.42001	0.925828	7.97961
0.358162	3.07265	0.21067	1.76777	0.358357	3.07063	0.522628	4.4909	0.638282	5.48264	0.88231	7.5906	0.350084	3.00094	0.502797	4.29754	0.744113	6.37483	0.926507	7.92185
0.359461	3.05934	0.212697	1.77094	0.359657	3.05737	0.523814	4.46533	0.639462	5.44917	0.882999	7.53612	0.352176	2.99495	0.504037	4.27409	0.744826	6.33041	0.927191	7.86504
0.360774	3.04636	0.214724	1.77405	0.360973	3.04444	0.525005	4.44023	0.640648	5.41627	0.883693	7.48255	0.354268	2.98906	0.505283	4.25108	0.745545	6.28673	0.927879	7.80916
0.362102	3.03371	0.216752	1.77713	0.362303	3.03183	0.526203	4.41556	0.641841	5.38395	0.884392	7.42985	0.356362	2.98327	0.506537	4.22848	0.746268	6.24378	0.928572	7.75419
0.363445	3.02137	0.21878	1.78016	0.363648	3.01955	0.527407	4.39133	0.64304	5.35218	0.885096	7.37802	0.358455	2.97757	0.507798	4.20629	0.746997	6.20154	0.92927	7.70011
0.364803	3.00935	0.220809	1.78315	0.365008	3.00757	0.528617	4.36753	0.644247	5.32096	0.885805	7.32702	0.360549	2.97197	0.509067	4.18451	0.747732	6.15999	0.929972	7.64689
0.366177	2.99765	0.222837	1.78609	0.366384	2.99591	0.529834	4.34414	0.64546	5.29027	0.886519	7.27685	0.362644	2.96645	0.510342	4.16311	0.748471	6.11911	0.93068	7.59453
0.367566	2.98624	0.224867	1.789	0.367776	2.98456	0.531056	4.32115	0.646679	5.26009	0.887238	7.22748	0.364739	2.96102	0.511625	4.14209	0.749216	6.0789	0.931392	7.54299
0.368972	2.97515	0.226896	1.79186	0.369185	2.9735	0.532284	4.29856	0.647905	5.23043	0.887962	7.17889	0.366834	2.95568	0.512914	4.12144	0.749965	6.03933	0.932108	7.49226
0.370394	2.96435	0.228926	1.79469	0.37061	2.96275	0.533519	4.27635	0.649137	5.20126	0.888691	7.13107	0.36893	2.95041	0.514211	4.10116	0.75072	6.00039	0.93283	7.44232
0.371834	2.95384	0.230957	1.79748	0.372052	2.95229	0.534759	4.25452	0.650376	5.17257	0.889425	7.08399	0.371025	2.94523	0.515515	4.08123	0.751481	5.96206	0.933556	7.39316
0.37329	2.94362	0.232987	1.80023	0.373511	2.94211	0.536005	4.23305	0.651621	5.14435	0.890163	7.03765	0.373121	2.94012	0.516825	4.06165	0.752246	5.92434	0.934286	7.34475
0.374764	2.93369	0.235018	1.80294	0.374988	2.93223	0.537257	4.21195	0.652873	5.1166	0.890907	6.99203	0.375218	2.93509	0.518143	4.0424	0.753016	5.88721	0.935022	7.29709
0.376257	2.92405	0.237049	1.80561	0.376482	2.92262	0.538514	4.19119	0.654131	5.08929	0.891656	6.94711	0.377314	2.93014	0.519467	4.02349	0.753792	5.85066	0.935762	7.25015
0.377767	2.91468	0.23908	1.80825	0.377996	2.9133	0.539778	4.17078	0.655395	5.06243	0.892409	6.90287	0.379411	2.92526	0.520799	4.0049	0.754573	5.81467	0.936506	7.20391
0.379296	2.90559	0.241112	1.81086	0.379527	2.90425	0.541047	4.15071	0.656665	5.036	0.893167	6.8593	0.381508	2.92044	0.522137	3.98663	0.755359	5.77924	0.937255	7.15837
0.380844	2.89677	0.243144	1.81343	0.381078	2.89547	0.542321	4.13096	0.657942	5.00999	0.893931	6.81639	0.383605	2.9157	0.523482	3.96866	0.75615	5.74434	0.938009	7.11351
0.382411	2.88822	0.245176	1.81596	0.382648	2.88696	0.543602	4.11153	0.659224	4.9844	0.894699	6.77412	0.385702	2.91103	0.524833	3.951	0.756946	5.70997	0.938767	7.06931
0.383997	2.87994	0.247208	1.81847	0.384237	2.87872	0.544888	4.09242	0.660513	4.9592	0.895472	6.73248	0.387799	2.90642	0.526192	3.93364	0.757747	5.67612	0.93953	7.02576
0.385604	2.87192	0.24924	1.82094	0.385847	2.87074	0.546179	4.07361	0.661807	4.93441	0.896249	6.69146	0.389897	2.90187	0.527557	3.91656	0.758553	5.64278	0.940297	6.98285
0.38723	2.86416	0.251273	1.82337	0.387476	2.86301	0.547476	4.05511	0.663108	4.91	0.897032	6.65103	0.391994	2.89739	0.528928	3.89977	0.759365	5.60994	0.941069	6.94056
0.388876	2.85665	0.253305	1.82578	0.389125	2.85554	0.548778	4.0369	0.664415	4.88596	0.89782	6.6112	0.394091	2.89297	0.530307	3.88326	0.760181	5.57758	0.941846	6.89888
0.390543	2.84939	0.255338	1.82816	0.390795	2.84832	0.550086	4.01897	0.665727	4.8623	0.898612	6.57195	0.396188	2.88861	0.531691	3.86702	0.761003	5.5457	0.942627	6.8578
0.39223	2.84238	0.257371	1.8305	0.392486	2.84135	0.551399	4.00133	0.667045	4.839	0.899409	6.53326	0.398285	2.8843	0.533083	3.85104	0.761829	5.51428	0.943412	6.8173
0.393938	2.83561	0.259404	1.83281	0.394197	2.83462	0.552717	3.98396	0.668369	4.81606	0.900211	6.49513	0.400382	2.88006	0.534481	3.83532	0.762661	5.48332	0.944202	6.77738
0.395667	2.82908	0.261437	1.8351	0.395928	2.82812	0.554041	3.96686	0.669699	4.79346	0.901017	6.45754	0.402479	2.87587	0.535885	3.81986	0.763498	5.45281	0.944996	6.73802
0.397416	2.82279	0.26347	1.83735	0.397681	2.82186	0.55537	3.95002	0.671035	4.7712	0.901829	6.42048	0.404576	2.87173	0.537296	3.80465	0.764339	5.42274	0.945795	6.69921
0.399186	2.81672	0.265503	1.83958	0.399454	2.81583	0.556704	3.93345	0.672376	4.74928	0.902645	6.38395	0.406673	2.86765	0.538713	3.78969	0.765186	5.39309	0.946598	6.66094
0.400977	2.81087	0.267537	1.84178	0.401248	2.81002	0.558043	3.91712	0.673723	4.72768	0.903466	6.34792	0.408769	2.86362	0.540136	3.77496	0.766038	5.36387	0.947406	6.6232
0.402788	2.80525	0.26957	1.84395	0.403062	2.80442	0.559387	3.90105	0.675076	4.7064	0.904292	6.3124	0.410865	2.85964	0.541566	3.76046	0.766894	5.33507	0.948218	6.58598
0.40462	2.79984	0.271604	1.8461	0.404897	2.79905	0.560737	3.88521	0.676434	4.68543	0.905122	6.27737	0.412962	2.85571	0.543002	3.7462	0.767756	5.30667	0.949034	6.54927
0.406472	2.79464	0.273637	1.84821	0.406752	2.79387	0.562091	3.86962	0.677798	4.66477	0.905957	6.24283	0.415057	2.85183	0.544445	3.73216	0.768622	5.27866	0.949855	6.51306
0.408344	2.78964	0.275671	1.85031	0.408627	2.7889	0.563451	3.85425	0.679167	4.64442	0.906797	6.20875	0.417153	2.848	0.545894	3.71834	0.769494	5.25105	0.95068	6.47734
0.410236	2.78484	0.277704	1.85237	0.410522	2.78413	0.564815	3.83912	0.680541	4.62435	0.907641	6.17514	0.419248	2.84421	0.547348	3.70474	0.77037	5.22382	0.95151	6.4421
0.412147	2.78023	0.279738	1.85441	0.412436	2.77955	0.566185	3.82421	0.681921	4.60458	0.908491	6.14199	0.421343	2.84047	0.548809	3.69135	0.771252	5.19696	0.952343	6.40732
0.414077	2.7758	0.281772	1.85643	0.414369	2.77515	0.567559	3.80952	0.683307	4.58509	0.909344	6.10928	0.423438	2.83677	0.550277	3.67817	0.772138	5.17047	0.953182	6.37301
0.416026	2.77156	0.283805	1.85842	0.41632	2.77093	0.568938	3.79504	0.684697	4.56587	0.910203	6.07701	0.425532	2.83312	0.55175	3.66519	0.77303	5.14435	0.954024	6.33916
0.417993	2.76748	0.285839	1.86038	0.41829	2.76689	0.570322	3.78078	0.686093	4.54693	0.911066	6.04517	0.427626	2.82951	0.553229	3.65242	0.773926	5.11857	0.954871	6.30575
0.419978	2.76358	0.287873	1.86233	0.420278	2.76301	0.57171	3.76672	0.687494	4.52826	0.911934	6.01375	0.429719	2.82594	0.554715	3.63983	0.774827	5.09315	0.955722	6.27277
0.421981	2.75984	0.289906	1.86425	0.422283	2.75929	0.573104	3.75286	0.6889	4.50984	0.912807	5.98274	0.431813	2.82241	0.556206	3.62744	0.775733	5.06807	0.956577	6.24023
0.424	2.75625	0.29194	1.86614	0.424305	2.75572	0.574502	3.7392	0.690312	4.49169	0.913684	5.95214	0.433905	2.81892	0.557703	3.61524	0.776643	5.04332	0.957437	6.2081
0.426036	2.75281	0.293973	1.86802	0.426343	2.75231	0.575905	3.72574	0.691729	4.47378	0.914565	5.92194	0.435997	2.81547	0.559207	3.60323	0.777559	5.0189	0.9583	6.17639
0.428088	2.74951	0.296007	1.86987	0.428397	2.74903	0.577312	3.71247	0.69315	4.45613	0.915452	5.89214	0.438089	2.81206	0.560716	3.59139	0.77848	4.9948	0.959168	6.14508
0.430155	2.74636	0.29804	1.8717	0.430467	2.74589	0.578724	3.69939	0.694577	4.43871	0.916342	5.86271	0.44018	2.80869	0.562231	3.57973	0.779405	4.97102	0.960041	6.11418
0.432237	2.74333	0.300074	1.8735	0.432551	2.74289	0.580141	3.68649	0.696009	4.42154	0.917238	5.83367	0.442271	2.80535	0.563752	3.56825	0.780335	4.94756	0.960917	6.08366
0.434333	2.74043	0.302107	1.87529	0.434649	2.74001	0.581562	3.67377	0.697445	4.40459	0.918138	5.80499	0.444361	2.80205	0.565279	3.55694	0.78127	4.92439	0.961798	6.05353
0.436443	2.73765	0.30414	1.87706	0.436762	2.73724	0.582988	3.66122	0.698887	4.38788	0.919042	5.77668	0.446451	2.79878	0.566812	3.5458	0.78221	4.90153	0.962683	6.02377
0.438567	2.73499	0.306173	1.8788	0.438887	2.7346	0.584418	3.64886	0.700333	4.37139	0.919951	5.74873	0.44854	2.79555	0.56835	3.53482	0.783155	4.87897	0.963571	5.99439
0.440703	2.73244	0.308206	1.88053	0.441025	2.73206	0.585852	3.63666	0.701785	4.35512	0.920865	5.72113	0.450629	2.79235	0.569895	3.524	0.784104	4.85669	0.964464	5.96537
0.442852	2.72999	0.310239	1.88223	0.443176	2.72963	0.587291	3.62463	0.703241	4.33907	0.921783	5.69388	0.452717	2.78919	0.571445	3.51334	0.785058	4.8347	0.965362	5.93671
0.445012	2.72764	0.312272	1.88391	0.445338	2.72729	0.588735	3.61276	0.704702	4.32323	0.922706	5.66696	0.454804	2.78606	0.573	3.50284	0.786017	4.81299	0.966263	5.9084
0.447184	2.72539	0.314305	1.88558	0.447511	2.72506	0.590183	3.60106	0.706167	4.3076	0.923633	5.64038	0.45689	2.78295	0.574561	3.4925	0.786981	4.79156	0.967168	5.88043
0.449367	2.72323	0.316338	1.88723	0.449696	2.72291	0.591635	3.58951	0.707638	4.29218	0.924565	5.61413	0.458976	2.77988	0.576128	3.4823	0.787949	4.77039	0.968078	5.85281
0.45156	2.72115	0.31837	1.88885	0.45189	2.72085	0.593091	3.57812	0.709113	4.27695	0.925501	5.5882	0.461062	2.77684	0.577701	3.47225	0.788922	4.74949	0.968992	5.82552
0.453763	2.71916	0.320403	1.89046	0.454095	2.71887	0.594551	3.56688	0.710592	4.26193	0.926441	5.56258	0.463146	2.77384	0.579279	3.46235	0.7899	4.72886	0.969909	5.79855
0.455975	2.71725	0.322435	1.89205	0.456308	2.71697	0.596016	3.55579	0.712076	4.2471	0.927386	5.53728	0.46523	2.77085	0.580863	3.45259	0.790883	4.70848	0.970831	5.77191
0.458197	2.71541	0.324468	1.89363	0.458531	2.71514	0.597485	3.54485	0.713565	4.23246	0.928336	5.51229	0.467314	2.7679	0.582452	3.44297	0.79187	4.68835	0.971757	5.74559
0.460427	2.71364	0.3265	1.89518	0.460763	2.71338	0.598958	3.53406	0.715058	4.218	0.92929	5.48759	0.469396	2.76498	0.584047	3.43348	0.792862	4.66847	0.972687	5.71958
0.462665	2.71194	0.328532	1.89672	0.463002	2.71169	0.600435	3.52341	0.716556	4.20373	0.930248	5.46319	0.471478	2.76208	0.585647	3.42413	0.793859	4.64884	0.97362	5.69388
0.464912	2.71031	0.330564	1.89824	0.46525	2.71007	0.601917	3.51289	0.718058	4.18965	0.931211	5.43909	0.473559	2.75921	0.587252	3.41492	0.79486	4.62944	0.974558	5.66848
0.467166	2.70874	0.332595	1.89974	0.467505	2.70851	0.603402	3.50252	0.719565	4.17574	0.932178	5.41527	0.475639	2.75637	0.588863	3.40584	0.795866	4.61028	0.9755	5.64337
0.469427	2.70722	0.334627	1.90123	0.469767	2.707	0.604891	3.49227	0.721076	4.162	0.933149	5.39173	0.477718	2.75355	0.59048	3.39688	0.796877	4.59136	0.976446	5.61856
0.471695	2.70576	0.336658	1.9027	0.472036	2.70555	0.606385	3.48217	0.722591	4.14844	0.934125	5.36847	0.479797	2.75076	0.592102	3.38805	0.797892	4.57266	0.977395	5.59403
0.47397	2.70436	0.33869	1.90415	0.474312	2.70415	0.607882	3.47219	0.724111	4.13505	0.935105	5.34548	0.481875	2.748	0.593729	3.37934	0.798912	4.55419	0.978349	5.56979
0.476251	2.703	0.340721	1.90559	0.476594	2.7028	0.609384	3.46234	0.725635	4.12182	0.93609	5.32276	0.483952	2.74525	0.595361	3.37076	0.799936	4.53594	0.979307	5.54583
0.478537	2.7017	0.342752	1.90701	0.478882	2.70151	0.610889	3.45261	0.727163	4.10875	0.937079	5.3003	0.486028	2.74254	0.596999	3.3623	0.800965	4.5179	0.980268	5.52213
0.48083	2.70044	0.344782	1.90841	0.481175	2.70025	0.612398	3.44301	0.728695	4.09585	0.938072	5.2781	0.488103	2.73984	0.598642	3.35395	0.801999	4.50009	0.981233	5.49871
0.483128	2.69922	0.346813	1.90981	0.483474	2.69904	0.613911	3.43353	0.730232	4.0831	0.93907	5.25616	0.490177	2.73717	0.60029	3.34572	0.803037	4.48248	0.982203	5.47556
0.485432	2.69804	0.348844	1.91118	0.485778	2.69787	0.615428	3.42418	0.731772	4.07051	0.940072	5.23447	0.49225	2.73452	0.601943	3.3376	0.80408	4.46508	0.983176	5.45266
0.48774	2.69691	0.350874	1.91254	0.488087	2.69674	0.616949	3.41493	0.733317	4.05807	0.941078	5.21303	0.494323	2.73189	0.603602	3.3296	0.805127	4.44788	0.984153	5.43002
0.490053	2.69581	0.352904	1.91389	0.490401	2.69565	0.618473	3.40581	0.734866	4.04578	0.942088	5.19183	0.496395	2.72929	0.605265	3.3217	0.806179	4.43089	0.985134	5.40763
0.49237	2.69475	0.354934	1.91522	0.492719	2.69459	0.620002	3.3968	0.736418	4.03364	0.943103	5.17088	0.498465	2.72671	0.606934	3.31392	0.807236	4.41409	0.986118	5.3855
0.494692	2.69372	0.356963	1.91654	0.495042	2.69357	0.621534	3.3879	0.737975	4.02165	0.944122	5.15015	0.500535	2.72414	0.608608	3.30624	0.808297	4.39749	0.987107	5.3636
0.497018	2.69272	0.358993	1.91784	0.497368	2.69258	0.623069	3.37911	0.739536	4.00979	0.945146	5.12967	0.502604	2.7216	0.610287	3.29866	0.809362	4.38108	0.988099	5.34195
0.499348	2.69176	0.361022	1.91913	0.499699	2.69162	0.624609	3.37043	0.741101	3.99808	0.946173	5.10941	0.504671	2.71908	0.611971	3.29119	0.810432	4.36486	0.989095	5.32054
0.501682	2.69082	0.363052	1.9204	0.502033	2.69069	0.626152	3.36185	0.742669	3.9865	0.947205	5.08937	0.506738	2.71658	0.61366	3.28382	0.811507	4.34882	0.990095	5.29936
0.504019	2.68992	0.36508	1.92167	0.504371	2.68978	0.627699	3.35338	0.744242	3.97507	0.948241	5.06956	0.508804	2.7141	0.615354	3.27655	0.812586	4.33297	0.991099	5.27841
0.50636	2.68904	0.367109	1.92291	0.506712	2.68891	0.629249	3.34501	0.745818	3.96376	0.949281	5.04997	0.510869	2.71164	0.617053	3.26938	0.813669	4.3173	0.992107	5.25768
0.508704	2.68819	0.369138	1.92415	0.509056	2.68806	0.630803	3.33675	0.747398	3.95259	0.950325	5.03059	0.512933	2.70919	0.618757	3.2623	0.814757	4.3018	0.993118	5.23719
0.511051	2.68736	0.371166	1.92537	0.511404	2.68724	0.632361	3.32858	0.748982	3.94154	0.951374	5.01142	0.514995	2.70677	0.620466	3.25532	0.81585	4.28648	0.994133	5.21691
0.513401	2.68655	0.373194	1.92658	0.513754	2.68644	0.633922	3.32051	0.75057	3.93062	0.952427	4.99247	0.517057	2.70436	0.622179	3.24843	0.816946	4.27134	0.995151	5.19684
0.515754	2.68577	0.375222	1.92778	0.516108	2.68566	0.635486	3.31254	0.752161	3.91983	0.953484	4.97372	0.519118	2.70197	0.623898	3.24163	0.818048	4.25636	0.996174	5.17699
0.51811	2.68501	0.37725	1.92896	0.518464	2.6849	0.637054	3.30467	0.753756	3.90916	0.954545	4.95517	0.521178	2.6996	0.625621	3.23493	0.819153	4.24155	0.9972	5.15735
0.520468	2.68427	0.379277	1.93013	0.520823	2.68416	0.638626	3.29689	0.755355	3.89862	0.95561	4.93682	0.523236	2.69725	0.627349	3.22831	0.820263	4.22691	0.99823	5.13792
0.522829	2.68355	0.381305	1.93129	0.523184	2.68345	0.640201	3.2892	0.756957	3.88819	0.95668	4.91867	0.525294	2.69491	0.629082	3.22178	0.821378	4.21243	0.999263	5.11869
0.525192	2.68285	0.383332	1.93244	0.525547	2.68275	0.641779	3.2816	0.758563	3.87788	0.957753	4.90072	0.52735	2.69259	0.63082	3.21534	0.822497	4.19811	1.0003	5.09967
0.527557	2.68217	0.385358	1.93358	0.527913	2.68207	0.643361	3.27409	0.760173	3.86769	0.958831	4.88295	0.529406	2.69029	0.632562	3.20898	0.82362	4.18394		
0.529925	2.68151	0.387385	1.9347	0.530281	2.68141	0.644947	3.26667	0.761786	3.85761	0.959912	4.86538	0.53146	2.688	0.634309	3.20271	0.824747	4.16993		
0.532295	2.68086	0.389411	1.93581	0.532651	2.68076	0.646535	3.25933	0.763402	3.84764	0.960998	4.84798	0.533513	2.68573	0.636061	3.19651	0.825879	4.15608		
0.534666	2.68023	0.391438	1.93692	0.535023	2.68013	0.648127	3.25208	0.765022	3.83778	0.962088	4.83078	0.535565	2.68348	0.637818	3.1904	0.827015	4.14238		
0.53704	2.67961	0.393463	1.938	0.537397	2.67952	0.649723	3.24492	0.766646	3.82804	0.963182	4.81375	0.537616	2.68124	0.639579	3.18437	0.828156	4.12882		
0.539415	2.67901	0.395489	1.93908	0.539772	2.67892	0.651321	3.23784	0.768272	3.8184	0.96428	4.7969	0.539666	2.67901	0.641344	3.17842	0.829301	4.11541		
0.541792	2.67842	0.397515	1.94015	0.54215	2.67833	0.652923	3.23084	0.769903	3.80886	0.965382	4.78023	0.541715	2.6768	0.643114	3.17254	0.83045	4.10215		
0.544171	2.67785	0.39954	1.94121	0.544529	2.67776	0.654528	3.22392	0.771536	3.79943	0.966488	4.76373	0.543763	2.67461	0.644889	3.16674	0.831604	4.08903		
0.546551	2.67728	0.401565	1.94226	0.546909	2.6772	0.656137	3.21708	0.773173	3.7901	0.967599	4.7474	0.545809	2.67242	0.646668	3.16102	0.832761	4.07605		
0.548933	2.67674	0.403589	1.94329	0.549291	2.67665	0.657749	3.21031	0.774813	3.78087	0.968713	4.73124	0.547855	2.67026	0.648452	3.15537	0.833924	4.06321		
0.551316	2.6762	0.405614	1.94432	0.551675	2.67612	0.659364	3.20363	0.776457	3.77175	0.969831	4.71524	0.549899	2.66811	0.65024	3.14979	0.83509	4.0505		
0.553701	2.67567	0.407638	1.94533	0.554059	2.67559	0.660982	3.19702	0.778104	3.76272	0.970953	4.69941	0.551942	2.66597	0.652033	3.14428	0.83626	4.03793		
0.556087	2.67516	0.409662	1.94634	0.556446	2.67508	0.662603	3.19048	0.779754	3.75378	0.972079	4.68374	0.553984	2.66384	0.65383	3.13884	0.837435	4.02549		
0.558474	2.67465	0.411686	1.94733	0.558833	2.67458	0.664228	3.18402	0.781407	3.74494	0.973209	4.66823	0.556025	2.66173	0.655631	3.13347	0.838614	4.01319		
0.560862	2.67416	0.413709	1.94832	0.561221	2.67409	0.665855	3.17763	0.783063	3.7362	0.974344	4.65288	0.558064	2.65963	0.657437	3.12818	0.839798	4.00101		
0.563252	2.67368	0.415733	1.94929	0.563611	2.6736	0.667486	3.17131	0.784723	3.72755	0.975482	4.63768	0.560103	2.65755	0.659246	3.12294	0.840985	3.98896		
0.565642	2.6732	0.417756	1.95026	0.566002	2.67313	0.66912	3.16506	0.786385	3.71898	0.976624	4.62263	0.56214	2.65548	0.661061	3.11778	0.842177	3.97704		
0.568034	2.67273	0.419778	1.95121	0.568393	2.67266	0.670757	3.15889	0.788051	3.71051	0.97777	4.60774	0.564177	2.65342	0.662879	3.11268	0.843373	3.96524		
0.570426	2.67228	0.421801	1.95216	0.570786	2.67221	0.672397	3.15278	0.78972	3.70213	0.97892	4.59299	0.566212	2.65137	0.664702	3.10764	0.844573	3.95357		
0.57282	2.67183	0.423823	1.9531	0.57318	2.67176	0.67404	3.14673	0.791391	3.69383	0.980073	4.57839	0.568245	2.64933	0.666529	3.10267	0.845777	3.94201		
0.575214	2.67139	0.425845	1.95403	0.575574	2.67132	0.675686	3.14076	0.793066	3.68562	0.981231	4.56393	0.570278	2.64731	0.66836	3.09775	0.846985	3.93057		
0.577609	2.67095	0.427867	1.95494	0.577969	2.67089	0.677335	3.13485	0.794744	3.6775	0.982393	4.54962	0.57231	2.6453	0.670195	3.0929	0.848198	3.91926		
0.580005	2.67053	0.429888	1.95585	0.580365	2.67046	0.678988	3.129	0.796425	3.66945	0.983558	4.53545	0.57434	2.6433	0.672035	3.08812	0.849415	3.90805		
0.582402	2.67011	0.431909	1.95676	0.582762	2.67004	0.680643	3.12322	0.798108	3.66149	0.984728	4.52141	0.576369	2.64131	0.673878	3.08339	0.850636	3.89697		
0.584799	2.66969	0.43393	1.95765	0.585159	2.66963	0.682301	3.1175	0.799795	3.65361	0.985901	4.50752	0.578397	2.63934	0.675726	3.07871	0.851861	3.88599		
0.587197	2.66929	0.435951	1.95853	0.587558	2.66923	0.683962	3.11184	0.801484	3.64581	0.987078	4.49376	0.580424	2.63738	0.677577	3.0741	0.85309	3.87513		
0.589596	2.66889	0.437971	1.95941	0.589956	2.66883	0.685626	3.10625	0.803176	3.63809	0.988259	4.48013	0.582449	2.63542	0.679433	3.06954	0.854323	3.86437		
0.591995	2.66849	0.439991	1.96027	0.592355	2.66843	0.687294	3.10071	0.804871	3.63045	0.989443	4.46664	0.584474	2.63348	0.681292	3.06504	0.85556	3.85373		
0.594395	2.6681	0.442011	1.96113	0.594755	2.66805	0.688964	3.09524	0.806569	3.62288	0.990632	4.45327	0.586497	2.63155	0.683156	3.0606	0.856801	3.84319		
0.596795	2.66772	0.444031	1.96198	0.597155	2.66766	0.690637	3.08982	0.80827	3.61539	0.991825	4.44004	0.588519	2.62963	0.685023	3.05621	0.858047	3.83276		
0.599195	2.66734	0.44605	1.96282	0.599556	2.66729	0.692313	3.08446	0.809973	3.60797	0.993021	4.42693	0.59054	2.62772	0.686895	3.05187	0.859296	3.82244		
0.601596	2.66697	0.448069	1.96366	0.601957	2.66692	0.693991	3.07916	0.811679	3.60063	0.994221	4.41394	0.59256	2.62582	0.68877	3.04759	0.86055	3.81221		
0.603998	2.6666	0.450088	1.96448	0.604359	2.66655	0.695673	3.07391	0.813388	3.59336	0.995424	4.40108	0.594579	2.62393	0.690649	3.04335	0.861808	3.80209		
0.6064	2.66624	0.452106	1.9653	0.606761	2.66619	0.697358	3.06872	0.8151	3.58616	0.996632	4.38834	0.596596	2.62206	0.692531	3.03917	0.863069	3.79207		
0.608802	2.66588	0.454125	1.96611	0.609163	2.66583	0.699045	3.06359	0.816814	3.57903	0.997843	4.37573	0.598613	2.62019	0.694418	3.03504	0.864335	3.78215		
0.611204	2.66553	0.456143	1.96692	0.611565	2.66547	0.700736	3.05851	0.818531	3.57197	0.999058	4.36323	0.600628	2.61833	0.696308	3.03096	0.865604	3.77232		
0.613607	2.66518	0.45816	1.96771	0.613968	2.66512	0.702429	3.05348	0.82025	3.56498	1.00028	4.35085	0.602642	2.61649	0.698202	3.02693	0.866878	3.7626		
0.61601	2.66483	0.460178	1.9685	0.616371	2.66478	0.704125	3.04851	0.821972	3.55806			0.604655	2.61465	0.7001	3.02295	0.868156	3.75297		
0.618413	2.66449	0.462195	1.96928	0.618774	2.66443	0.705824	3.04359	0.823697	3.5512			0.606667	2.61282	0.702001	3.01901	0.869437	3.74343		
0.620816	2.66415	0.464212	1.97005	0.621177	2.66409	0.707526	3.03872	0.825424	3.54441			0.608677	2.611	0.703906	3.01512	0.870723	3.73398		
0.62322	2.66381	0.466228	1.97082	0.623581	2.66376	0.70923	3.0339	0.827153	3.53768			0.610687	2.6092	0.705814	3.01128	0.872012	3.72463		
0.625623	2.66348	0.468245	1.97157	0.625984	2.66343	0.710937	3.02913	0.828886	3.53102			0.612695	2.6074	0.707726	3.00748	0.873306	3.71537		
0.628027	2.66314	0.470261	1.97233	0.628388	2.6631	0.712648	3.02441	0.83062	3.52442			0.614702	2.60561	0.709642	3.00373	0.874603	3.7062		
0.630431	2.66282	0.472276	1.97307	0.630792	2.66277	0.714361	3.01974	0.832357	3.51788			0.616708	2.60383	0.711561	3.00002	0.875905	3.69712		
0.632834	2.66249	0.474292	1.97381	0.633196	2.66244	0.716076	3.01512	0.834097	3.51141			0.618713	2.60206	0.713483	2.99636	0.87721	3.68813		
0.635238	2.66217	0.476307	1.97454	0.635599	2.66212	0.717795	3.01054	0.835838	3.50499			0.620717	2.6003	0.715409	2.99273	0.878519	3.67922		
0.637642	2.66185	0.478322	1.97526	0.638003	2.6618	0.719516	3.00602	0.837583	3.49864			0.62272	2.59854	0.717338	2.98915	0.879832	3.6704		
0.640045	2.66153	0.480336	1.97598	0.640406	2.66148	0.72124	3.00154	0.839329	3.49234			0.624722	2.5968	0.719271	2.98562	0.881149	3.66166		
0.642449	2.66122	0.482351	1.97669	0.64281	2.66117	0.722967	2.9971	0.841078	3.48611			0.626723	2.59507	0.721207	2.98212	0.88247	3.653		
0.644852	2.6609	0.484365	1.97739	0.645213	2.66086	0.724697	2.99271	0.84283	3.47993			0.628722	2.59334	0.723146	2.97866	0.883795	3.64443		
0.647256	2.66059	0.486379	1.97809	0.647617	2.66054	0.726429	2.98837	0.844583	3.4738			0.630721	2.59163	0.725089	2.97525	0.885124	3.63594		
0.649659	2.66028	0.488392	1.97878	0.65002	2.66023	0.728164	2.98407	0.846339	3.46774			0.632718	2.58992	0.727035	2.97187	0.886456	3.62753		
0.652062	2.65997	0.490405	1.97947	0.652423	2.65993	0.729902	2.97981	0.848097	3.46172			0.634714	2.58822	0.728984	2.96853	0.887793	3.6192		
0.654464	2.65967	0.492418	1.98014	0.654825	2.65962	0.731643	2.9756	0.849857	3.45577			0.63671	2.58653	0.730936	2.96523	0.889133	3.61095		
0.656867	2.65936	0.494431	1.98082	0.657228	2.65931	0.733387	2.97143	0.85162	3.44986			0.638704	2.58485	0.732891	2.96197	0.890477	3.60278		
0.659269	2.65905	0.496443	1.98148	0.65963	2.65901	0.735133	2.96731	0.853385	3.44401			0.640697	2.58317	0.73485	2.95874	0.891825	3.59468		
0.661671	2.65875	0.498455	1.98214	0.662032	2.65871	0.736882	2.96322	0.855151	3.43822			0.64269	2.58151	0.736811	2.95555	0.893177	3.58666		
0.664072	2.65845	0.500467	1.9828	0.664433	2.6584	0.738634	2.95918	0.856921	3.43247			0.644681	2.57985	0.738776	2.9524	0.894532	3.57871		
0.666474	2.65815	0.502479	1.98344	0.666834	2.6581	0.740388	2.95518	0.858692	3.42678			0.646671	2.5782	0.740743	2.94928	0.895891	3.57084		
0.668874	2.65785	0.50449	1.98408	0.669235	2.6578	0.742145	2.95122	0.860465	3.42113			0.64866	2.57656	0.742714	2.9462	0.897254	3.56304		
0.671275	2.65755	0.506501	1.98472	0.671636	2.6575	0.743905	2.9473	0.86224	3.41554			0.650649	2.57493	0.744687	2.94315	0.898621	3.55532		
0.673675	2.65725	0.508511	1.98535	0.674035	2.6572	0.745668	2.94342	0.864018	3.41			0.652636	2.57331	0.746664	2.94013	0.899992	3.54766		
0.676074	2.65695	0.510522	1.98598	0.676435	2.6569	0.747434	2.93957	0.865797	3.4045			0.654622	2.57169	0.748643	2.93715	0.901367	3.54008		
0.678473	2.65665	0.512532	1.9866	0.678834	2.6566	0.749202	2.93577	0.867579	3.39905			0.656607	2.57009	0.750625	2.9342	0.902745	3.53257		
0.680872	2.65635	0.514541	1.98721	0.681232	2.6563	0.750973	2.93201	0.869362	3.39365			0.658592	2.56849	0.75261	2.93129	0.904127	3.52512		
0.68327	2.65605	0.516551	1.98782	0.68363	2.656	0.752747	2.92828	0.871148	3.3883			0.660575	2.56689	0.754598	2.9284	0.905512	3.51775		
0.685667	2.65575	0.51856	1.98842	0.686027	2.6557	0.754524	2.92459	0.872936	3.38299			0.662558	2.56531	0.756588	2.92555	0.906902	3.51044		
0.688064	2.65545	0.520569	1.98902	0.688424	2.6554	0.756303	2.92094	0.874725	3.37773			0.664539	2.56373	0.758582	2.92273	0.908295	3.5032		
0.69046	2.65515	0.522578	1.98961	0.69082	2.6551	0.758085	2.91733	0.876516	3.37252			0.66652	2.56217	0.760578	2.91993	0.909692	3.49602		
0.692855	2.65485	0.524586	1.9902	0.693215	2.6548	0.75987	2.91375	0.87831	3.36735			0.6685	2.56061	0.762576	2.91717	0.911092	3.48891		
0.69525	2.65455	0.526594	1.99078	0.69561	2.6545	0.761658	2.91021	0.880105	3.36222			0.670479	2.55905	0.764577	2.91444	0.912497	3.48187		
0.697644	2.65425	0.528602	1.99135	0.698004	2.6542	0.763449	2.9067	0.881902	3.35714			0.672457	2.55751	0.766581	2.91174	0.913905	3.47488		
0.700037	2.65394	0.530609	1.99192	0.700397	2.6539	0.765243	2.90323	0.883701	3.35209			0.674434	2.55597	0.768588	2.90906	0.915316	3.46797		
0.70243	2.65364	0.532616	1.99249	0.702789	2.6536	0.767039	2.8998	0.885502	3.3471			0.67641	2.55444	0.770596	2.90642	0.916732	3.46111		
0.704821	2.65334	0.534623	1.99305	0.705181	2.65329	0.768838	2.8964	0.887304	3.34214			0.678385	2.55292	0.772608	2.9038	0.918151	3.45432		
0.707212	2.65303	0.53663	1.99361	0.707571	2.65299	0.77064	2.89303	0.889109	3.33723			0.68036	2.5514	0.774622	2.90121	0.919573	3.44759		
0.709602	2.65273	0.538636	1.99416	0.709961	2.65268	0.772445	2.8897	0.890915	3.33235			0.682334	2.5499	0.776638	2.89865	0.921	3.44091		
0.711991	2.65242	0.540642	1.9947	0.71235	2.65237	0.774253	2.88641	0.892723	3.32752			0.684307	2.5484	0.778657	2.89611	0.92243	3.4343		
0.714379	2.65211	0.542648	1.99525	0.714737	2.65206	0.776064	2.88314	0.894533	3.32272			0.686279	2.5469	0.780678	2.8936	0.923863	3.42775		
0.716766	2.6518	0.544653	1.99578	0.717124	2.65175	0.777878	2.87991	0.896344	3.31797			0.68825	2.54542	0.782701	2.89112	0.925301	3.42126		
0.719152	2.65149	0.546658	1.99631	0.71951	2.65144	0.779695	2.87672	0.898158	3.31326			0.690221	2.54394	0.784727	2.88866	0.926742	3.41482		
0.721536	2.65117	0.548663	1.99684	0.721895	2.65112	0.781514	2.87355	0.899973	3.30858			0.692191	2.54247	0.786755	2.88622	0.928186	3.40844		
0.72392	2.65085	0.550668	1.99736	0.724278	2.65081	0.783337	2.87042	0.901789	3.30394			0.69416	2.54101	0.788785	2.88382	0.929634	3.40212		
0.726303	2.65054	0.552672	1.99788	0.726661	2.65049	0.785163	2.86732	0.903607	3.29934			0.696128	2.53955	0.790818	2.88143	0.931086	3.39585		
0.728684	2.65022	0.554676	1.9984	0.729042	2.65017	0.786991	2.86425	0.905427	3.29478			0.698096	2.5381	0.792852	2.87907	0.932541	3.38964		
0.731064	2.64989	0.55668	1.99891	0.731422	2.64985	0.788823	2.86122	0.907249	3.29025			0.700062	2.53666	0.794889	2.87673	0.934	3.38349		
0.733443	2.64957	0.558683	1.99941	0.733801	2.64952	0.790658	2.85821	0.909072	3.28576			0.702028	2.53523	0.796928	2.87442	0.935463	3.37739		
0.735821	2.64924	0.560686	1.99991	0.736178	2.64919	0.792496	2.85524	0.910897	3.28131			0.703994	2.5338	0.798969	2.87213	0.936929	3.37134		
0.738197	2.64891	0.562689	2.00041	0.738554	2.64886	0.794337	2.8523	0.912723	3.27689			0.705958	2.53238	0.801012	2.86986	0.938399	3.36535		
0.740572	2.64858	0.564692	2.0009	0.740929	2.64853	0.796181	2.84939	0.914551	3.2725			0.707923	2.53096	0.803057	2.86762	0.939872	3.3594		
0.742945	2.64824	0.566694	2.00139	0.743302	2.64819	0.798029	2.84651	0.916381	3.26815			0.709886	2.52956	0.805104	2.86539	0.941349	3.35351		
0.745317	2.6479	0.568696	2.00187	0.745674	2.64785	0.799879	2.84366	0.918212	3.26384			0.711849	2.52816	0.807153	2.86319	0.942829	3.34768		
0.747688	2.64756	0.570697	2.00235	0.748044	2.64751	0.801733	2.84084	0.920044	3.25956			0.713811	2.52676	0.809204	2.86101	0.944313	3.34189		
0.750057	2.64722	0.572699	2.00282	0.750412	2.64716	0.80359	2.83805	0.921878	3.25531			0.715772	2.52538	0.811256	2.85885	0.945801	3.33616		
0.752424	2.64687	0.5747	2.00329	0.752779	2.64681	0.80545	2.83529	0.923714	3.2511			0.717733	2.524	0.813311	2.85671	0.947292	3.33047		
0.754789	2.64651	0.576701	2.00376	0.755145	2.64646	0.807314	2.83256	0.925551	3.24691			0.719693	2.52263	0.815367	2.85459	0.948786	3.32483		
0.757153	2.64616	0.578701	2.00422	0.757508	2.6461	0.809181	2.82986	0.927389	3.24276			0.721653	2.52126	0.817426	2.85249	0.950284	3.31925		
0.759515	2.6458	0.580701	2.00468	0.75987	2.64574	0.811052	2.82719	0.929229	3.23865			0.723611	2.5199	0.819486	2.85042	0.951786	3.31371		
0.761875	2.64543	0.582701	2.00514	0.76223	2.64538	0.812925	2.82455	0.931071	3.23456			0.72557	2.51855	0.821547	2.84836	0.953291	3.30822		
0.764234	2.64506	0.584701	2.00559	0.764588	2.64501	0.814803	2.82194	0.932913	3.23051			0.727528	2.51721	0.823611	2.84632	0.9548	3.30277		
0.76659	2.64469	0.5867	2.00603	0.766944	2.64464	0.816684	2.81936	0.934757	3.22648			0.729485	2.51587	0.825676	2.8443	0.956312	3.29738		
0.768944	2.64431	0.588699	2.00648	0.769298	2.64426	0.818568	2.8168	0.936603	3.22249			0.731442	2.51454	0.827743	2.84229	0.957827	3.29203		
0.771297	2.64393	0.590698	2.00692	0.77165	2.64388	0.820456	2.81427	0.93845	3.21853			0.733398	2.51321	0.829811	2.84031	0.959346	3.28672		
0.773647	2.64355	0.592697	2.00735	0.774	2.64349	0.822348	2.81178	0.940298	3.21459			0.735353	2.51189	0.831881	2.83834	0.960869	3.28146		
0.775995	2.64316	0.594695	2.00779	0.776348	2.6431	0.824243	2.80931	0.942148	3.21069			0.737309	2.51058	0.833952	2.83639	0.962395	3.27625		
0.778341	2.64276	0.596693	2.00821	0.778693	2.6427	0.826142	2.80687	0.943999	3.20682			0.739263	2.50928	0.836026	2.83446	0.963925	3.27108		
0.780684	2.64236	0.598691	2.00864	0.781036	2.6423	0.828045	2.80446	0.945851	3.20297			0.741217	2.50798	0.8381	2.83255	0.965458	3.26596		
0.783026	2.64195	0.600688	2.00906	0.783377	2.64189	0.829951	2.80207	0.947704	3.19915			0.743171	2.50669	0.840176	2.83065	0.966994	3.26088		
0.785364	2.64154	0.602685	2.00948	0.785716	2.64147	0.831862	2.79971	0.949559	3.19537			0.745124	2.5054	0.842253	2.82877	0.968534	3.25585		
0.787701	2.64112	0.604682	2.00989	0.788052	2.64106	0.833776	2.79739	0.951415	3.19161			0.747077	2.50412	0.844332	2.82691	0.970078	3.25085		
0.790035	2.6407	0.606678	2.0103	0.790385	2.64063	0.835695	2.79508	0.953272	3.18787			0.749029	2.50285	0.846412	2.82506	0.971625	3.2459		
0.792366	2.64026	0.608674	2.01071	0.792716	2.6402	0.837617	2.79281	0.955131	3.18417			0.750981	2.50158	0.848494	2.82323	0.973175	3.24099		
0.794694	2.63983	0.61067	2.01111	0.795044	2.63976	0.839544	2.79057	0.956991	3.18049			0.752932	2.50032	0.850577	2.82141	0.974729	3.23613		
0.79702	2.63939	0.612666	2.01151	0.79737	2.63932	0.841474	2.78835	0.958852	3.17684			0.754883	2.49907	0.852661	2.81961	0.976286	3.2313		
0.799343	2.63894	0.614661	2.01191	0.799692	2.63887	0.843409	2.78616	0.960714	3.17321			0.756834	2.49782	0.854746	2.81782	0.977847	3.22652		
0.801663	2.63848	0.616656	2.0123	0.802012	2.63841	0.845348	2.78399	0.962577	3.16961			0.758784	2.49658	0.856833	2.81605	0.979411	3.22177		
0.803981	2.63802	0.618651	2.01269	0.804329	2.63795	0.847291	2.78186	0.964442	3.16604			0.760733	2.49535	0.85892	2.8143	0.980979	3.21707		
0.806295	2.63755	0.620646	2.01308	0.806642	2.63748	0.849239	2.77975	0.966307	3.16249			0.762683	2.49412	0.861009	2.81255	0.98255	3.21241		
0.808606	2.63707	0.62264	2.01346	0.808953	2.637	0.851191	2.77767	0.968174	3.15897			0.764632	2.4929	0.863099	2.81083	0.984124	3.20778		
0.810914	2.63659	0.624634	2.01384	0.81126	2.63651	0.853147	2.77561	0.970042	3.15547			0.76658	2.49168	0.86519	2.80911	0.985702	3.2032		
0.813219	2.63609	0.626628	2.01422	0.813565	2.63602	0.855108	2.77359	0.971911	3.152			0.768529	2.49047	0.867283	2.80741	0.987283	3.19865		
0.81552	2.63559	0.628621	2.0146	0.815866	2.63552	0.857074	2.77159	0.973781	3.14855			0.770477	2.48927	0.869376	2.80573	0.988868	3.19415		
0.817818	2.63509	0.630614	2.01497	0.818163	2.63501	0.859044	2.76961	0.975653	3.14512			0.772424	2.48807	0.87147	2.80406	0.990456	3.18968		
0.820113	2.63457	0.632607	2.01533	0.820457	2.63449	0.861019	2.76767	0.977525	3.14172			0.774372	2.48688	0.873565	2.8024	0.992047	3.18524		
0.822404	2.63405	0.634599	2.0157	0.822748	2.63397	0.862999	2.76575	0.979398	3.13835			0.776318	2.4857	0.875662	2.80075	0.993642	3.18085		
0.824692	2.63352	0.636592	2.01606	0.825035	2.63344	0.864984	2.76386	0.981273	3.13499			0.778265	2.48452	0.877759	2.79912	0.995241	3.17649		
0.826976	2.63298	0.638584	2.01642	0.827318	2.63289	0.866973	2.76199	0.983148	3.13166			0.780211	2.48335	0.879857	2.79749	0.996842	3.17217		
0.829256	2.63243	0.640575	2.01678	0.829598	2.63234	0.868967	2.76015	0.985025	3.12836			0.782158	2.48218	0.881956	2.79589	0.998447	3.16789		
0.831532	2.63187	0.642567	2.01713	0.831874	2.63179	0.870967	2.75834	0.986902	3.12507			0.784103	2.48102	0.884055	2.79429	1.00006	3.16364		
0.833805	2.6313	0.644558	2.01748	0.834146	2.63122	0.872971	2.75655	0.988781	3.12181			0.786049	2.47986	0.886156	2.7927				
0.836073	2.63073	0.646549	2.01783	0.836414	2.63064	0.874981	2.75479	0.99066	3.11857			0.787994	2.47872	0.888257	2.79113				
0.838338	2.63014	0.648539	2.01817	0.838678	2.63005	0.876995	2.75306	0.992541	3.11535			0.789939	2.47757	0.89036	2.78957				
0.840599	2.62955	0.65053	2.01851	0.840938	2.62946	0.879015	2.75135	0.994422	3.11216			0.791884	2.47644	0.892463	2.78802				
0.842855	2.62895	0.65252	2.01885	0.843194	2.62885	0.88104	2.74967	0.996305	3.10898			0.793829	2.4753	0.894566	2.78648				
0.845107	2.62833	0.654509	2.01918	0.845446	2.62824	0.883071	2.74802	0.998188	3.10583			0.795773	2.47418	0.89667	2.78495				
0.847356	2.62771	0.656499	2.01952	0.847693	2.62762	0.885107	2.74639	1.00007	3.1027			0.797717	2.47306	0.898775	2.78344				
0.849599	2.62708	0.658488	2.01985	0.849936	2.62698	0.887148	2.74479					0.799661	2.47195	0.900881	2.78193				
0.851839	2.62644	0.660477	2.02017	0.852175	2.62634	0.889195	2.74322					0.801605	2.47084	0.902987	2.78044				
0.854074	2.62578	0.662465	2.0205	0.854409	2.62569	0.891247	2.74167					0.803548	2.46974	0.905094	2.77895				
0.856304	2.62512	0.664454	2.02082	0.856639	2.62502	0.893305	2.74014					0.805491	2.46864	0.907201	2.77748				
0.858531	2.62445	0.666442	2.02114	0.858865	2.62435	0.895368	2.73865					0.807434	2.46755	0.909309	2.77601				
0.860752	2.62377	0.66843	2.02146	0.861086	2.62367	0.897437	2.73717					0.809377	2.46646	0.911417	2.77455				
0.862969	2.62308	0.670417	2.02177	0.863302	2.62297	0.899512	2.73573					0.81132	2.46538	0.913526	2.77311				
0.865182	2.62238	0.672405	2.02208	0.865514	2.62227	0.901592	2.73431					0.813263	2.46431	0.915635	2.77167				
0.867389	2.62166	0.674391	2.02239	0.867721	2.62156	0.903678	2.73291					0.815205	2.46324	0.917745	2.77025				
0.869593	2.62094	0.676378	2.0227	0.869923	2.62083	0.905769	2.73154					0.817148	2.46218	0.919855	2.76883				
0.871791	2.62021	0.678365	2.023	0.872121	2.6201	0.907867	2.73019					0.81909	2.46112	0.921966	2.76742				
0.873985	2.61947	0.680351	2.0233	0.874314	2.61936	0.90997	2.72887					0.821032	2.46007	0.924076	2.76602				
0.876174	2.61872	0.682337	2.0236	0.876502	2.6186	0.912078	2.72757					0.822974	2.45903	0.926187	2.76463				
0.878358	2.61796	0.684322	2.0239	0.878686	2.61784	0.914193	2.7263					0.824916	2.45799	0.928299	2.76325				
0.880537	2.61718	0.686308	2.02419	0.880865	2.61707	0.916313	2.72505					0.826858	2.45695	0.93041	2.76187				
0.882712	2.6164	0.688293	2.02448	0.883039	2.61628	0.918439	2.72383					0.828799	2.45592	0.932522	2.76051				
0.884882	2.61561	0.690278	2.02477	0.885208	2.61549	0.920571	2.72263					0.830741	2.4549	0.934634	2.75915				
0.887047	2.61481	0.692262	2.02506	0.887372	2.61469	0.922708	2.72145					0.832683	2.45388	0.936747	2.7578				
0.889208	2.614	0.694246	2.02535	0.889532	2.61388	0.924851	2.7203					0.834624	2.45287	0.938859	2.75646				
0.891364	2.61318	0.69623	2.02563	0.891687	2.61306	0.927	2.71916					0.836565	2.45186	0.940972	2.75512				
0.893515	2.61235	0.698214	2.02591	0.893838	2.61223	0.929155	2.71806					0.838507	2.45085	0.943085	2.7538				
0.895661	2.61151	0.700198	2.02619	0.895984	2.61139	0.931315	2.71697					0.840448	2.44986	0.945197	2.75248				
0.897803	2.61067	0.702181	2.02646	0.898125	2.61054	0.93348	2.71591					0.842389	2.44886	0.94731	2.75117				
0.89994	2.60981	0.704164	2.02673	0.900261	2.60968	0.935651	2.71486					0.84433	2.44788	0.949423	2.74986				
0.902073	2.60895	0.706146	2.027	0.902393	2.60881	0.937828	2.71384					0.846272	2.4469	0.951536	2.74857				
0.904201	2.60807	0.708129	2.02727	0.90452	2.60794	0.94001	2.71284					0.848213	2.44592	0.953649	2.74728				
0.906325	2.60719	0.710111	2.02754	0.906643	2.60706	0.942197	2.71186					0.850154	2.44495	0.955762	2.74599				
0.908444	2.6063	0.712093	2.0278	0.908762	2.60617	0.94439	2.7109					0.852095	2.44398	0.957875	2.74472				
0.910558	2.6054	0.714075	2.02807	0.910876	2.60527	0.946588	2.70997					0.854036	2.44302	0.959988	2.74345				
0.912669	2.6045	0.716056	2.02833	0.912985	2.60436	0.948791	2.70905					0.855977	2.44206	0.9621	2.74218				
0.914775	2.60359	0.718037	2.02858	0.915091	2.60345	0.951	2.70815					0.857918	2.44111	0.964213	2.74092				
0.916877	2.60267	0.720018	2.02884	0.917192	2.60253	0.953213	2.70727					0.859859	2.44017	0.966325	2.73967				
0.918974	2.60174	0.721998	2.02909	0.919289	2.6016	0.955432	2.70641					0.8618	2.43923	0.968438	2.73843				
0.921068	2.60081	0.723979	2.02935	0.921382	2.60067	0.957655	2.70557					0.863741	2.43829	0.97055	2.73719				
0.923157	2.59987	0.725959	2.0296	0.923471	2.59973	0.959883	2.70474					0.865682	2.43736	0.972662	2.73596				
0.925243	2.59892	0.727939	2.02984	0.925556	2.59878	0.962116	2.70394					0.867623	2.43643	0.974773	2.73473				
0.927324	2.59797	0.729918	2.03009	0.927637	2.59783	0.964354	2.70315					0.869564	2.43551	0.976885	2.73351				
0.929402	2.59701	0.731897	2.03033	0.929714	2.59687	0.966596	2.70238					0.871505	2.4346	0.978996	2.73229				
0.931476	2.59605	0.733876	2.03058	0.931787	2.5959	0.968843	2.70162					0.873447	2.43368	0.981107	2.73108				
0.933546	2.59508	0.735855	2.03081	0.933857	2.59493	0.971095	2.70088					0.875388	2.43278	0.983218	2.72988				
0.935613	2.59411	0.737834	2.03105	0.935923	2.59396	0.973351	2.70016					0.877329	2.43188	0.985328	2.72868				
0.937676	2.59313	0.739812	2.03129	0.937986	2.59298	0.975611	2.69945					0.879271	2.43098	0.987438	2.72748				
0.939736	2.59215	0.74179	2.03152	0.940045	2.592	0.977875	2.69876					0.881212	2.43009	0.989547	2.72629				
0.941792	2.59116	0.743768	2.03175	0.942101	2.59101	0.980143	2.69808					0.883153	2.4292	0.991656	2.72511				
0.943845	2.59017	0.745745	2.03199	0.944154	2.59002	0.982416	2.69742					0.885095	2.42832	0.993765	2.72393				
0.945895	2.58917	0.747722	2.03221	0.946203	2.58902	0.984692	2.69677					0.887037	2.42744	0.995873	2.72276				
0.947942	2.58817	0.749699	2.03244	0.948249	2.58802	0.986973	2.69614					0.888978	2.42657	0.997981	2.72159				
0.949985	2.58717	0.751676	2.03266	0.950292	2.58702	0.989257	2.69551					0.89092	2.4257	1.00009	2.72042				
0.952026	2.58617	0.753653	2.03289	0.952332	2.58602	0.991544	2.69491					0.892862	2.42483						
0.954064	2.58516	0.755629	2.03311	0.95437	2.58501	0.993836	2.69431					0.894804	2.42397						
0.956099	2.58415	0.757605	2.03333	0.956404	2.584	0.996131	2.69373					0.896746	2.42312						
0.958131	2.58314	0.759581	2.03355	0.958436	2.58299	0.998429	2.69316					0.898688	2.42227						
0.96016	2.58212	0.761556	2.03376	0.960465	2.58197	1.00073	2.6926					0.90063	2.42142						
0.962187	2.58111	0.763531	2.03398	0.962491	2.58095							0.902572	2.42058						
0.964211	2.58009	0.765506	2.03419	0.964515	2.57993							0.904515	2.41974						
0.966233	2.57907	0.767481	2.0344	0.966536	2.57891							0.906457	2.41891						
0.968252	2.57805	0.769456	2.03461	0.968555	2.57789							0.9084	2.41808						
0.970269	2.57702	0.77143	2.03482	0.970572	2.57687							0.910343	2.41726						
0.972284	2.576	0.773404	2.03502	0.972586	2.57585							0.912286	2.41644						
0.974296	2.57498	0.775377	2.03523	0.974599	2.57482							0.914229	2.41563						
0.976307	2.57395	0.777351	2.03543	0.976609	2.5738							0.916172	2.41482						
0.978315	2.57293	0.779324	2.03563	0.978617	2.57277							0.918115	2.41401						
0.980322	2.5719	0.781297	2.03583	0.980623	2.57175							0.920059	2.41321						
0.982326	2.57088	0.78327	2.03602	0.982627	2.57072							0.922002	2.41241						
0.984329	2.56985	0.785243	2.03622	0.98463	2.5697							0.923946	2.41162						
0.98633	2.56883	0.787215	2.03642	0.98663	2.56867							0.92589	2.41083						
0.988329	2.5678	0.789187	2.03661	0.988629	2.56765							0.927834	2.41004						
0.990326	2.56678	0.791159	2.0368	0.990626	2.56663							0.929778	2.40926						
0.992322	2.56576	0.79313	2.03699	0.992621	2.5656							0.931722	2.40849						
0.994316	2.56473	0.795102	2.03718	0.994615	2.56458							0.933667	2.40771						
0.996308	2.56371	0.797073	2.03736	0.996608	2.56356							0.935612	2.40695						
0.998299	2.56269	0.799043	2.03755	0.998599	2.56254							0.937556	2.40618						
1.00029	2.56167	0.801014	2.03773	1.00059	2.56152							0.939501	2.40542						
		0.802985	2.03792									0.941446	2.40467						
		0.804955	2.0381									0.943392	2.40391						
		0.806925	2.03828									0.945337	2.40317						
		0.808894	2.03845									0.947283	2.40242						
		0.810864	2.03863									0.949229	2.40168						
		0.812833	2.03881									0.951175	2.40095						
		0.814802	2.03898									0.953121	2.40021						
		0.816771	2.03915									0.955067	2.39949						
		0.818739	2.03932									0.957014	2.39876						
		0.820707	2.03949									0.958961	2.39804						
		0.822675	2.03966									0.960908	2.39732						
		0.824643	2.03983									0.962855	2.39661						
		0.826611	2.03999									0.964802	2.3959						
		0.828578	2.04016									0.96675	2.3952						
		0.830545	2.04032									0.968698	2.3945						
		0.832512	2.04048									0.970646	2.3938						
		0.834479	2.04064									0.972594	2.3931						
		0.836445	2.0408									0.974542	2.39241						
		0.838411	2.04096									0.976491	2.39173						
		0.840378	2.04112									0.97844	2.39104						
		0.842343	2.04127									0.980389	2.39036						
		0.844309	2.04142									0.982338	2.38969						
		0.846274	2.04158									0.984287	2.38902						
		0.848239	2.04173									0.986237	2.38835						
		0.850204	2.04188									0.988187	2.38768						
		0.852169	2.04203									0.990137	2.38702						
		0.854133	2.04218									0.992088	2.38636						
		0.856098	2.04232									0.994038	2.38571						
		0.858062	2.04247									0.995989	2.38506						
		0.860025	2.04261									0.99794	2.38441						
		0.861989	2.04276									0.999891	2.38376						
		0.863952	2.0429									1.00184	2.38312						
		0.865915	2.04304																
		0.867878	2.04318																
		0.869841	2.04332																
		0.871804	2.04346																
		0.873766	2.04359																
		0.875728	2.04373																
		0.87769	2.04386																
		0.879652	2.044																
		0.881613	2.04413																
		0.883574	2.04426																
		0.885535	2.04439																
		0.887496	2.04452																
		0.889457	2.04465																
		0.891417	2.04478																
		0.893377	2.0449																
		0.895337	2.04503																
		0.897297	2.04515																
		0.899257	2.04527																
		0.901216	2.0454																
		0.903175	2.04552																
		0.905134	2.04564																
		0.907093	2.04576																
		0.909052	2.04587																
		0.91101	2.04599																
		0.912968	2.04611																
		0.914926	2.04622																
		0.916884	2.04634																
		0.918842	2.04645																
		0.920799	2.04657																
		0.922756	2.04668																
		0.924713	2.04679																
		0.92667	2.0469																
		0.928627	2.04701																
		0.930583	2.04712																
		0.932539	2.04722																
		0.934496	2.04733																
		0.936451	2.04744																
		0.938407	2.04754																
		0.940363	2.04764																
		0.942318	2.04775																
		0.944273	2.04785																
		0.946228	2.04795																
		0.948183	2.04805																
		0.950137	2.04815																
		0.952092	2.04825																
		0.954046	2.04835																
		0.956	2.04845																
		0.957954	2.04854																
		0.959907	2.04864																
		0.961861	2.04874																
		0.963814	2.04883																
		0.965767	2.04892																
		0.96772	2.04902																
		0.969673	2.04911																
		0.971625	2.0492																
		0.973578	2.04929																
		0.97553	2.04938																
		0.977482	2.04947																
		0.979434	2.04956																
		0.981385	2.04965																
		0.983337	2.04974																
		0.985288	2.04982																
		0.987239	2.04991																
		0.98919	2.04999																
		0.991141	2.05008																
		0.993092	2.05016																
		0.995042	2.05024																
		0.996993	2.05033																
		0.998943	2.05041																
		1.00089	2.05049																
