Sym0		Asym0		Sym1		Sym2		Sym3		Sym4		Asym1		Asym2		Asym3		Asym4	
424  Points		527  Points		423  Points		403  Points		351  Points		252  Points		455  Points		399  Points		344  Points		216  Points	
Freq (MHz)	Vph (m/ms)	Freq (MHz)	Vph (m/ms)	Freq (MHz)	Vph (m/ms)	Freq (MHz)	Vph (m/ms)	Freq (MHz)	Vph (m/ms)	Freq (MHz)	Vph (m/ms)	Freq (MHz)	Vph (m/ms)	Freq (MHz)	Vph (m/ms)	Freq (MHz)	Vph (m/ms)	Freq (MHz)	Vph (m/ms)
0.27951	604.742	0.000234394	0.0945666	0.27951	530.509	0.441257	2248.97	0.559017	2288.14	0.838526	13356.4	0.139763	291.424	0.419267	510.696	0.698772	1265.94	0.882516	1133.41
0.27952	200.532	0.000443043	0.129913	0.279521	191.641	0.441265	391.228	0.559026	475.36	0.838529	843.187	0.139831	99.0811	0.419283	239.226	0.698779	470.979	0.882524	515.996
0.279541	120.202	0.000716782	0.165081	0.279543	116.951	0.441285	214.258	0.559045	265.239	0.838538	435.339	0.139966	59.7387	0.419311	156.205	0.698791	289.31	0.882537	334.038
0.279572	85.8298	0.00105478	0.200008	0.279574	84.1595	0.441317	147.534	0.559076	183.943	0.838553	293.419	0.140168	42.8037	0.41935	115.969	0.69881	208.783	0.882556	246.957
0.279613	66.7497	0.0014562	0.234668	0.279616	65.7356	0.44136	112.506	0.559118	140.797	0.838574	221.285	0.140436	33.3865	0.419401	92.2216	0.698834	163.326	0.882582	195.893
0.279665	54.6148	0.00191991	0.269005	0.279669	53.9344	0.441416	90.9258	0.559171	114.052	0.8386	177.622	0.140769	27.3973	0.419464	76.5522	0.698864	134.127	0.882612	162.331
0.279727	46.2177	0.00244474	0.302988	0.279731	45.7298	0.441482	76.2969	0.559235	95.8499	0.838632	148.353	0.141166	23.2573	0.419538	65.4389	0.698901	113.788	0.882649	138.589
0.279799	40.0625	0.00302929	0.33657	0.279804	39.6957	0.441561	65.7273	0.55931	82.6626	0.838671	127.368	0.141627	20.2282	0.419624	57.1473	0.698943	98.8066	0.882692	120.908
0.279882	35.3575	0.00367214	0.369721	0.279888	35.0717	0.441651	57.7339	0.559396	72.6689	0.838715	111.585	0.14215	17.9184	0.419721	50.7244	0.698991	87.3134	0.88274	107.23
0.279974	31.6446	0.00437167	0.402405	0.279981	31.4158	0.441752	51.4775	0.559493	64.8344	0.838764	99.2851	0.142733	16.1011	0.41983	45.6028	0.699045	78.2171	0.882794	96.334
0.280078	28.6403	0.00512645	0.434609	0.280085	28.4529	0.441866	46.4479	0.559601	58.5279	0.83882	89.429	0.143376	14.6354	0.41995	41.4237	0.699105	70.839	0.882854	87.4495
0.280191	26.1596	0.00593466	0.466295	0.2802	26.0034	0.441991	42.3166	0.55972	53.3425	0.838881	81.3545	0.144077	13.4297	0.420082	37.9491	0.699171	64.7343	0.88292	80.0668
0.280315	24.0768	0.00679459	0.497446	0.280324	23.9446	0.442127	38.863	0.559851	49.0037	0.838948	74.6188	0.144834	12.4215	0.420226	35.015	0.699243	59.5997	0.882991	73.835
0.28045	22.3035	0.0077046	0.52805	0.280459	22.1902	0.442275	35.9333	0.559992	45.3202	0.839022	68.9145	0.145646	11.5669	0.420381	32.5045	0.699321	55.2211	0.883068	68.5044
0.280594	20.7756	0.00866277	0.558084	0.280605	20.6774	0.442435	33.4167	0.560144	42.154	0.8391	64.0216	0.14651	10.8339	0.420548	30.3323	0.699405	51.443	0.883151	63.8929
0.280749	19.4457	0.00966745	0.587543	0.28076	19.3597	0.442606	31.2319	0.560308	39.4035	0.839185	59.7786	0.147305	10.2757	0.420726	28.4343	0.699494	48.15	0.88324	59.8642
0.280914	18.2776	0.0107168	0.616415	0.280926	18.2018	0.442789	29.3173	0.560482	36.992	0.839275	56.0642	0.148013	9.84956	0.420916	26.762	0.69959	45.2543	0.883335	56.3144
0.28109	17.2437	0.0118091	0.644691	0.281102	17.1763	0.442984	27.626	0.560668	34.8606	0.839371	52.7854	0.148618	9.52699	0.421117	25.2774	0.699692	42.6881	0.883435	53.1631
0.281275	16.3222	0.0129426	0.672373	0.281289	16.2619	0.443189	26.1211	0.560864	32.9633	0.839473	49.8698	0.149109	9.289	0.42133	23.9508	0.699799	40.3983	0.883541	50.3467
0.281471	15.4958	0.0141156	0.699456	0.281485	15.4416	0.443407	24.7735	0.561071	31.2635	0.839581	47.2605	0.149477	9.12283	0.421554	22.7582	0.699913	38.3426	0.883653	47.8145
0.281678	14.7505	0.0153264	0.725939	0.281692	14.7015	0.443636	23.5599	0.56129	29.7321	0.839695	44.9114	0.149716	9.02016	0.421789	21.6804	0.700032	36.4868	0.883771	45.5258
0.281894	14.0752	0.0165735	0.751829	0.28191	14.0306	0.443876	22.4613	0.561519	28.3454	0.839814	42.7857	0.150063	8.87734	0.422036	20.7017	0.700157	34.8033	0.883894	43.4469
0.282121	13.4603	0.0178552	0.777127	0.282137	13.4197	0.444128	21.4622	0.561759	27.0837	0.839939	40.8529	0.150446	8.72818	0.422295	19.8091	0.700289	33.269	0.884023	41.5504
0.282358	12.8983	0.01917	0.801836	0.282375	12.861	0.444391	20.5497	0.56201	25.931	0.84007	39.088	0.150975	8.53483	0.422565	18.9917	0.700426	31.8651	0.884158	39.8133
0.282606	12.3826	0.0205164	0.825965	0.282623	12.3483	0.444666	19.7131	0.562272	24.8738	0.840207	37.47	0.15166	8.30483	0.422846	18.2405	0.700569	30.5756	0.884299	38.2163
0.282863	11.9077	0.021893	0.849523	0.282881	11.8762	0.444951	18.9433	0.562545	23.9008	0.840349	35.9813	0.152509	8.04636	0.423139	17.5479	0.700718	29.3872	0.884445	36.7432
0.283131	11.4692	0.0232985	0.872515	0.28315	11.44	0.445249	18.2327	0.562829	23.0023	0.840498	34.6071	0.153533	7.76768	0.423443	16.9072	0.700873	28.2883	0.884597	35.3801
0.283409	11.0629	0.0247315	0.894954	0.283429	11.0358	0.445557	17.5749	0.563123	22.1701	0.840652	33.3347	0.154746	7.4766	0.423758	16.313	0.701034	27.2694	0.884755	34.1151
0.283697	10.6855	0.0261907	0.916848	0.283718	10.6603	0.445877	16.964	0.563428	21.3973	0.840812	32.1531	0.155996	7.21234	0.424084	15.7603	0.701201	26.3219	0.884919	32.9381
0.283996	10.3341	0.027675	0.938206	0.284017	10.3106	0.446208	16.3954	0.563745	20.6777	0.840977	31.0531	0.157283	6.97151	0.424422	15.245	0.701374	25.4387	0.885088	31.8402
0.284305	10.0061	0.0291831	0.959042	0.284286	10.0249	0.44655	15.8649	0.564071	20.006	0.841148	30.0264	0.158604	6.75126	0.424771	14.7634	0.701552	24.6134	0.885263	30.8138
0.284624	9.6993	0.030714	0.979366	0.284522	9.79418	0.446903	15.3687	0.564409	19.3776	0.841326	29.066	0.159958	6.54917	0.425131	14.3125	0.701737	23.8406	0.885444	29.852
0.284953	9.4117	0.0322667	0.99919	0.284721	9.61167	0.447268	14.9037	0.564757	18.7886	0.841508	28.1657	0.161344	6.36318	0.425503	13.8893	0.701927	23.1154	0.885631	28.9489
0.285292	9.14159	0.03384	1.01853	0.284881	9.47237	0.447644	14.4671	0.565116	18.2353	0.841697	27.3201	0.16276	6.19152	0.425885	13.4915	0.702124	22.4336	0.885823	28.0994
0.285641	8.88746	0.0354332	1.03739	0.285	9.37263	0.44803	14.0564	0.565486	17.7147	0.841891	26.5243	0.164205	6.03267	0.426279	13.1168	0.702326	21.7913	0.886021	27.2989
0.286001	8.64795	0.0370451	1.05578	0.285077	9.30996	0.448428	13.6693	0.565867	17.2239	0.842092	25.774	0.165677	5.88532	0.426684	12.7634	0.702534	21.1854	0.886225	26.5432
0.286371	8.42187	0.038675	1.07372	0.285188	9.22142	0.448837	13.3039	0.566258	16.7605	0.842297	25.0655	0.167176	5.74832	0.4271	12.4294	0.702748	20.6127	0.886434	25.8288
0.286751	8.20814	0.0403221	1.09122	0.285311	9.12718	0.449256	12.9585	0.566659	16.3222	0.842509	24.3955	0.1687	5.62066	0.427527	12.1134	0.702968	20.0706	0.886649	25.1522
0.287141	8.00579	0.0419854	1.10829	0.28548	9.00225	0.449687	12.6314	0.567071	15.9072	0.842726	23.7607	0.170249	5.50147	0.427965	11.814	0.703194	19.5569	0.88687	24.5107
0.287541	7.81397	0.0436645	1.12495	0.285697	8.84938	0.450129	12.3214	0.567494	15.5136	0.842949	23.1587	0.17182	5.38997	0.428414	11.5298	0.703426	19.0692	0.887097	23.9015
0.287951	7.63189	0.0453584	1.14119	0.285964	8.67175	0.450581	12.027	0.567927	15.1398	0.843178	22.5868	0.173413	5.28546	0.428874	11.2599	0.703663	18.6057	0.887329	23.3223
0.288371	7.45884	0.0470665	1.15705	0.286285	8.47287	0.451044	11.7473	0.568371	14.7845	0.843413	22.0429	0.175027	5.18736	0.429345	11.0031	0.703907	18.1646	0.887566	22.7709
0.288802	7.29419	0.0487882	1.17252	0.286662	8.25638	0.451518	11.481	0.568825	14.4462	0.843653	21.5251	0.176661	5.0951	0.429827	10.7585	0.704156	17.7444	0.88781	22.2454
0.289242	7.13737	0.0505229	1.18761	0.28705	8.05149	0.452003	11.2273	0.56929	14.1238	0.843899	21.0314	0.178315	5.0082	0.430319	10.5254	0.704411	17.3437	0.888059	21.744
0.289693	6.98783	0.0522699	1.20235	0.287448	7.85731	0.452498	10.9854	0.569765	13.8162	0.844151	20.5603	0.179986	4.92624	0.430823	10.3029	0.704672	16.961	0.888314	21.2652
0.290154	6.84511	0.0540287	1.21673	0.287856	7.67305	0.453004	10.7544	0.57025	13.5225	0.844408	20.1102	0.181675	4.84882	0.431271	10.1172	0.704939	16.5953	0.888574	20.8073
0.290624	6.70875	0.0557989	1.23077	0.288274	7.49797	0.45352	10.5337	0.570746	13.2417	0.844671	19.6798	0.183381	4.7756	0.431659	9.96451	0.705212	16.2454	0.888841	20.3691
0.291105	6.57836	0.05758	1.24448	0.288702	7.33144	0.454047	10.3226	0.571252	12.973	0.84494	19.2678	0.185103	4.70624	0.431984	9.842	0.705491	15.9103	0.889112	19.9494
0.291596	6.45358	0.0593712	1.25787	0.28914	7.17286	0.454515	10.1459	0.571768	12.7157	0.845214	18.8731	0.18684	4.64048	0.432244	9.74742	0.705775	15.5892	0.88939	19.547
0.292096	6.33405	0.0611725	1.27094	0.289588	7.02169	0.45492	10.0005	0.572294	12.469	0.845495	18.4946	0.188591	4.57805	0.432437	9.67914	0.706065	15.2811	0.889673	19.1609
0.292607	6.21947	0.0629831	1.28371	0.290046	6.87743	0.45526	9.88358	0.572831	12.2324	0.84578	18.1313	0.190357	4.51871	0.432561	9.63599	0.706362	14.9854	0.889961	18.7901
0.293128	6.10954	0.0648028	1.29618	0.290515	6.73965	0.455531	9.79325	0.573378	12.0052	0.846072	17.7824	0.192136	4.46225	0.43274	9.57469	0.706664	14.7012	0.890255	18.4337
0.293658	6.00401	0.0666312	1.30837	0.290993	6.60792	0.455732	9.72798	0.573935	11.7869	0.846369	17.447	0.193927	4.40847	0.432937	9.50903	0.706971	14.428	0.890555	18.0909
0.294199	5.90263	0.0684678	1.32028	0.291482	6.48187	0.455861	9.68671	0.574502	11.5771	0.846672	17.1243	0.195732	4.3572	0.433206	9.4213	0.707285	14.165	0.890861	17.7609
0.294749	5.80516	0.0703124	1.33192	0.29198	6.36116	0.456048	9.62805	0.575079	11.3751	0.846981	16.8137	0.197547	4.30826	0.43355	9.31287	0.707605	13.9118	0.891172	17.4431
0.29531	5.71139	0.0721646	1.3433	0.292488	6.24546	0.456252	9.56516	0.575666	11.1807	0.847295	16.5145	0.199375	4.26152	0.433972	9.18536	0.70793	13.6679	0.891488	17.1368
0.29588	5.62113	0.0740242	1.35443	0.293007	6.13449	0.456532	9.48108	0.576264	10.9934	0.847615	16.2261	0.201212	4.21683	0.434473	9.04062	0.708261	13.4326	0.89181	16.8414
0.296461	5.5342	0.0758907	1.3653	0.293535	6.02797	0.456889	9.37705	0.576871	10.8128	0.84794	15.9479	0.203061	4.17406	0.435059	8.88064	0.708598	13.2057	0.892138	16.5563
0.297051	5.45042	0.0777639	1.37594	0.294073	5.92565	0.457327	9.25457	0.577488	10.6385	0.848271	15.6794	0.204919	4.13311	0.435655	8.72684	0.708941	12.9866	0.892471	16.2809
0.297651	5.36964	0.0796434	1.38634	0.294622	5.82729	0.457847	9.11534	0.578115	10.4704	0.848608	15.42	0.206787	4.09385	0.436262	8.57889	0.709289	12.7749	0.89281	16.0149
0.298261	5.2917	0.0815293	1.39652	0.29518	5.73269	0.458454	8.96119	0.578669	10.3285	0.84895	15.1694	0.208664	4.05619	0.436879	8.43646	0.709643	12.5704	0.893155	15.7577
0.298881	5.21647	0.0834209	1.40648	0.295748	5.64164	0.459071	8.81276	0.579147	10.2109	0.849298	14.9272	0.21055	4.02004	0.437507	8.29926	0.710004	12.3726	0.893504	15.509
0.29951	5.14381	0.0853183	1.41622	0.296326	5.55396	0.459698	8.66973	0.579547	10.1159	0.849652	14.6928	0.212444	3.98531	0.438145	8.16702	0.71037	12.1812	0.89386	15.2682
0.30015	5.07361	0.0872211	1.42575	0.296914	5.46947	0.460335	8.53182	0.579866	10.0421	0.850011	14.4659	0.214346	3.95192	0.438793	8.03948	0.710741	11.9959	0.894221	15.0351
0.300799	5.00576	0.0891291	1.43509	0.297512	5.38801	0.460981	8.39878	0.580101	9.98867	0.850376	14.2462	0.216256	3.91981	0.439452	7.91641	0.711119	11.8164	0.894587	14.8093
0.301458	4.94013	0.0910422	1.44422	0.298119	5.30943	0.461638	8.27036	0.580253	9.95478	0.850746	14.0334	0.218174	3.88889	0.440121	7.79759	0.711502	11.6426	0.894959	14.5904
0.302127	4.87664	0.0929601	1.45317	0.298737	5.23358	0.462305	8.14633	0.580472	9.9065	0.851122	13.8271	0.220099	3.85911	0.4408	7.6828	0.711891	11.474	0.895337	14.3782
0.302806	4.81518	0.0948826	1.46193	0.299364	5.16034	0.462982	8.02648	0.580711	9.85462	0.851504	13.627	0.22203	3.83041	0.441489	7.57186	0.712286	11.3105	0.89572	14.1723
0.303495	4.75567	0.0968095	1.47051	0.300002	5.08959	0.463668	7.9106	0.581038	9.78502	0.851891	13.4329	0.223969	3.80273	0.442188	7.46457	0.712686	11.1519	0.896108	13.9725
0.304103	4.70534	0.0987407	1.47892	0.300649	5.0212	0.464364	7.79852	0.581454	9.69856	0.852284	13.2446	0.225914	3.77602	0.442898	7.36078	0.713092	10.9979	0.896502	13.7784
0.304627	4.66351	0.100676	1.48715	0.301306	4.95507	0.46507	7.69004	0.581963	9.59626	0.852682	13.0616	0.227865	3.75023	0.443617	7.26031	0.713504	10.8484	0.896901	13.59
0.305065	4.62964	0.102615	1.49522	0.301972	4.89109	0.465785	7.58502	0.582567	9.47931	0.853086	12.8839	0.229822	3.72531	0.444346	7.16303	0.713922	10.7031	0.897306	13.4068
0.305413	4.60332	0.104558	1.50313	0.302649	4.82917	0.46651	7.48329	0.583268	9.34899	0.853495	12.7113	0.231785	3.70123	0.445086	7.06878	0.71429	10.5799	0.897716	13.2288
0.305671	4.58421	0.106505	1.51088	0.303335	4.76923	0.467244	7.3847	0.583979	9.22266	0.85391	12.5434	0.233753	3.67794	0.445835	6.97743	0.714608	10.4771	0.898132	13.0557
0.305837	4.5721	0.108455	1.51847	0.304031	4.71116	0.467988	7.28912	0.5847	9.10014	0.85433	12.3801	0.235727	3.65541	0.446594	6.88887	0.714873	10.3938	0.898553	12.8873
0.306076	4.55482	0.110409	1.52592	0.304737	4.6549	0.468741	7.19642	0.58543	8.98127	0.854756	12.2213	0.237705	3.6336	0.447363	6.80296	0.715084	10.3289	0.898979	12.7234
0.306337	4.53625	0.112366	1.53322	0.305453	4.60036	0.469504	7.10648	0.58617	8.86589	0.855188	12.0667	0.239689	3.61248	0.448142	6.7196	0.71524	10.2818	0.899411	12.5638
0.306694	4.5113	0.114326	1.54038	0.306179	4.54747	0.470276	7.01918	0.586918	8.75386	0.855625	11.9162	0.241678	3.59201	0.448931	6.63868	0.715341	10.2518	0.899848	12.4084
0.307149	4.48027	0.116036	1.54651	0.306914	4.49618	0.471057	6.93441	0.587677	8.64503	0.856068	11.7697	0.243671	3.57216	0.449729	6.5601	0.715485	10.2091	0.900291	12.2571
0.307703	4.44351	0.117496	1.55166	0.307659	4.4464	0.471847	6.85206	0.588444	8.53928	0.856516	11.6269	0.245669	3.55292	0.450537	6.48377	0.715643	10.1631	0.900739	12.1095
0.308361	4.4014	0.118705	1.55586	0.308414	4.39809	0.472647	6.77205	0.589221	8.43649	0.856969	11.4878	0.247671	3.53425	0.451354	6.40959	0.715859	10.1013	0.901192	11.9658
0.309125	4.3544	0.119661	1.55914	0.309179	4.35118	0.473455	6.69427	0.590007	8.33653	0.857428	11.3521	0.249677	3.51613	0.452181	6.33748	0.716134	10.0242	0.901651	11.8256
0.309899	4.30875	0.120364	1.56154	0.309953	4.30563	0.474273	6.61864	0.590802	8.2393	0.857892	11.2199	0.251687	3.49854	0.453018	6.26737	0.71647	9.93265	0.902115	11.6888
0.310682	4.2644	0.120815	1.56306	0.310737	4.26137	0.475099	6.54507	0.591606	8.14469	0.858362	11.0909	0.253701	3.48144	0.453864	6.19917	0.716868	9.82755	0.902584	11.5554
0.311476	4.2213	0.121463	1.56524	0.311531	4.21836	0.475935	6.47349	0.592419	8.05259	0.858838	10.965	0.255718	3.46483	0.454719	6.13281	0.717329	9.70986	0.903059	11.4252
0.312279	4.17941	0.122167	1.5676	0.312335	4.17655	0.476779	6.40382	0.593241	7.96292	0.859256	10.8578	0.25774	3.44868	0.455584	6.06822	0.717796	9.59517	0.903539	11.2981
0.313091	4.13868	0.123125	1.57078	0.313148	4.1359	0.477632	6.33599	0.594072	7.87559	0.859617	10.7682	0.259764	3.43298	0.456458	6.00534	0.718269	9.48338	0.904024	11.174
0.313914	4.09907	0.124338	1.57475	0.313971	4.09637	0.478494	6.26993	0.594912	7.7905	0.859917	10.6953	0.261793	3.4177	0.457342	5.9441	0.718748	9.37439	0.904514	11.0528
0.314746	4.06054	0.125807	1.5795	0.314805	4.05791	0.479365	6.20558	0.595761	7.70758	0.860155	10.6384	0.263824	3.40283	0.458234	5.88445	0.719232	9.26808	0.904946	10.9494
0.315589	4.02305	0.127531	1.58499	0.315647	4.02049	0.480244	6.14287	0.596619	7.62674	0.860332	10.5969	0.265858	3.38835	0.459136	5.82632	0.719722	9.16437	0.905317	10.8629
0.316441	3.98657	0.129511	1.59118	0.3165	3.98407	0.481131	6.08174	0.597485	7.54792	0.860445	10.5706	0.267896	3.37425	0.460047	5.76967	0.720218	9.06316	0.905626	10.7925
0.317303	3.95105	0.131494	1.59726	0.317363	3.94862	0.482028	6.02215	0.59836	7.47105	0.860608	10.533	0.269937	3.36052	0.460968	5.71443	0.720719	8.96436	0.905872	10.7375
0.318174	3.91647	0.133479	1.60322	0.318235	3.9141	0.482932	5.96403	0.599244	7.39604	0.860786	10.4925	0.27198	3.34713	0.461897	5.66057	0.721226	8.8679	0.906054	10.6975
0.319056	3.88279	0.135466	1.60908	0.319117	3.88048	0.483845	5.90734	0.600137	7.32285	0.86103	10.4378	0.274026	3.33409	0.462835	5.60804	0.721738	8.77369	0.90617	10.672
0.319947	3.84998	0.137455	1.61484	0.320009	3.84774	0.484767	5.85202	0.601038	7.25141	0.861339	10.3697	0.276075	3.32136	0.463782	5.55679	0.722256	8.68166	0.906338	10.6357
0.320849	3.81802	0.139446	1.62049	0.320912	3.81584	0.485697	5.79803	0.601948	7.18166	0.861717	10.2885	0.278126	3.30895	0.464738	5.50677	0.72278	8.59173	0.906522	10.5964
0.32176	3.78688	0.141439	1.62605	0.321824	3.78475	0.486635	5.74533	0.602866	7.11354	0.862163	10.195	0.28018	3.29684	0.465703	5.45795	0.723309	8.50384	0.906772	10.5436
0.322681	3.75654	0.143434	1.6315	0.322746	3.75446	0.487581	5.69387	0.603793	7.047	0.86268	10.0899	0.282236	3.28502	0.466677	5.41029	0.723844	8.41792	0.90709	10.4776
0.323612	3.72695	0.14543	1.63686	0.323678	3.72493	0.488535	5.64361	0.604728	6.982	0.863202	9.98719	0.284294	3.27348	0.46766	5.36374	0.724384	8.33391	0.907478	10.3989
0.324554	3.69811	0.147428	1.64213	0.32462	3.69614	0.489497	5.59451	0.605671	6.91847	0.86373	9.88673	0.286355	3.26221	0.468651	5.31828	0.72493	8.25174	0.907936	10.3083
0.325505	3.66999	0.149428	1.64731	0.325572	3.66807	0.490468	5.54654	0.606623	6.85637	0.864263	9.78844	0.288418	3.2512	0.469652	5.27387	0.725482	8.17136	0.908467	10.2063
0.326467	3.64257	0.151429	1.6524	0.326534	3.64069	0.491446	5.49966	0.607583	6.79566	0.864802	9.69227	0.290483	3.24045	0.47066	5.23048	0.726039	8.09271	0.909003	10.1066
0.327438	3.61582	0.153432	1.6574	0.327506	3.61399	0.492432	5.45383	0.608551	6.73629	0.865346	9.59814	0.29255	3.22994	0.471678	5.18807	0.726601	8.01573	0.909544	10.0089
0.32842	3.58973	0.155436	1.66232	0.328489	3.58794	0.493427	5.40903	0.609527	6.67822	0.865895	9.506	0.294619	3.21966	0.472704	5.14661	0.72717	7.94039	0.910091	9.91328
0.329412	3.56428	0.157442	1.66716	0.329482	3.56253	0.494428	5.36521	0.610512	6.62142	0.86645	9.41578	0.296689	3.20961	0.473738	5.10608	0.727743	7.86662	0.910642	9.81963
0.330415	3.53944	0.159448	1.67192	0.330485	3.53774	0.495438	5.32236	0.611505	6.56584	0.86701	9.32742	0.298762	3.19978	0.474781	5.06644	0.728322	7.79438	0.911199	9.7279
0.331428	3.51521	0.161457	1.6766	0.331498	3.51355	0.496455	5.28044	0.612505	6.51144	0.867575	9.24088	0.300836	3.19016	0.475832	5.02767	0.728907	7.72363	0.911761	9.63803
0.332451	3.49156	0.163466	1.6812	0.332522	3.48994	0.49748	5.23942	0.613514	6.4582	0.868146	9.15609	0.302912	3.18075	0.476892	4.98975	0.729498	7.65432	0.912328	9.54997
0.333485	3.46848	0.165477	1.68572	0.333557	3.4669	0.498513	5.19927	0.61453	6.40607	0.868721	9.07301	0.30499	3.17154	0.47796	4.95265	0.730093	7.58641	0.9129	9.46366
0.334529	3.44595	0.167488	1.69017	0.334602	3.4444	0.499553	5.15998	0.615555	6.35503	0.869302	8.99159	0.307069	3.16252	0.479037	4.91634	0.730695	7.51985	0.913477	9.37905
0.335584	3.42396	0.169501	1.69455	0.335658	3.42245	0.500601	5.12151	0.616587	6.30504	0.869889	8.91177	0.30915	3.15369	0.480121	4.8808	0.731301	7.45462	0.914059	9.2961
0.33665	3.40249	0.171515	1.69886	0.336724	3.40102	0.501656	5.08385	0.617627	6.25607	0.870481	8.83351	0.311232	3.14504	0.481214	4.84601	0.731914	7.39067	0.914646	9.21476
0.337727	3.38153	0.17353	1.7031	0.337802	3.38009	0.502718	5.04696	0.618675	6.2081	0.871077	8.75678	0.313316	3.13656	0.482315	4.81195	0.732531	7.32796	0.915238	9.13498
0.338815	3.36106	0.175546	1.70728	0.338891	3.35966	0.503788	5.01083	0.619731	6.16109	0.87168	8.68152	0.315401	3.12826	0.483424	4.77859	0.733154	7.26647	0.915836	9.05672
0.339913	3.34109	0.177563	1.71139	0.33999	3.33972	0.504865	4.97544	0.620794	6.11502	0.872287	8.6077	0.317487	3.12011	0.484541	4.74593	0.733783	7.20616	0.916438	8.97994
0.341024	3.32158	0.179581	1.71543	0.341101	3.32024	0.505949	4.94076	0.621865	6.06986	0.8729	8.53527	0.319574	3.11213	0.485667	4.71393	0.734417	7.14699	0.917046	8.9046
0.342145	3.30253	0.181599	1.71941	0.342223	3.30123	0.507041	4.90677	0.622943	6.02559	0.873518	8.4642	0.321663	3.10431	0.4868	4.68259	0.735057	7.08894	0.917658	8.83066
0.343278	3.28393	0.183619	1.72333	0.343357	3.28266	0.508139	4.87346	0.624029	5.98218	0.874141	8.39445	0.323753	3.09663	0.487941	4.65187	0.735702	7.03198	0.918275	8.75808
0.344422	3.26577	0.185639	1.72719	0.344502	3.26453	0.509245	4.84081	0.625122	5.93961	0.874769	8.32599	0.325844	3.08911	0.48909	4.62178	0.736352	6.97607	0.918898	8.68682
0.345579	3.24804	0.18766	1.73099	0.345659	3.24683	0.510357	4.8088	0.626223	5.89786	0.875402	8.25879	0.327936	3.08172	0.490247	4.59228	0.737008	6.92119	0.919525	8.61686
0.346747	3.23073	0.189682	1.73473	0.346828	3.22955	0.511477	4.7774	0.627331	5.8569	0.876041	8.1928	0.330029	3.07447	0.491412	4.56336	0.737669	6.86731	0.920157	8.54815
0.347927	3.21383	0.191705	1.73841	0.348009	3.21267	0.512603	4.74662	0.628446	5.81672	0.876685	8.128	0.332123	3.06735	0.492584	4.53501	0.738335	6.81441	0.920795	8.48067
0.34912	3.19733	0.193728	1.74204	0.349203	3.1962	0.513736	4.71642	0.629569	5.77729	0.877334	8.06435	0.334218	3.06037	0.493765	4.50722	0.739007	6.76246	0.921437	8.41438
0.350325	3.18122	0.195752	1.74562	0.350409	3.18012	0.514876	4.6868	0.630699	5.73859	0.877988	8.00184	0.336314	3.05351	0.494953	4.47996	0.739684	6.71144	0.922084	8.34925
0.351542	3.1655	0.197777	1.74914	0.351627	3.16442	0.516023	4.65774	0.631836	5.70061	0.878647	7.94042	0.338411	3.04677	0.496148	4.45323	0.740367	6.66132	0.922736	8.28526
0.352773	3.15015	0.199802	1.75261	0.352859	3.1491	0.517177	4.62922	0.63298	5.66333	0.879311	7.88008	0.340508	3.04016	0.497351	4.42701	0.741055	6.61208	0.923393	8.22237
0.354017	3.13517	0.201828	1.75603	0.354103	3.13414	0.518337	4.60123	0.634132	5.62673	0.879981	7.82078	0.342606	3.03365	0.498562	4.40128	0.741748	6.56371	0.924055	8.16056
0.355274	3.12056	0.203854	1.7594	0.355361	3.11955	0.519503	4.57376	0.63529	5.59079	0.880656	7.7625	0.344705	3.02727	0.49978	4.37605	0.742447	6.51617	0.924721	8.0998
0.356544	3.10629	0.205881	1.76271	0.356633	3.10532	0.520677	4.54679	0.636455	5.55549	0.881335	7.70521	0.346805	3.02099	0.501006	4.35128	0.743151	6.46944	0.925393	8.04007
0.357829	3.09238	0.207908	1.76598	0.357918	3.09143	0.521857	4.52032	0.637628	5.52083	0.88202	7.64889	0.348906	3.01482	0.50224	4.32698	0.74386	6.42352	0.926069	7.98134
0.359127	3.07882	0.209936	1.76921	0.359218	3.07789	0.523043	4.49432	0.638807	5.48677	0.88271	7.59352	0.351007	3.00875	0.50348	4.30313	0.744575	6.37837	0.926751	7.92359
0.36044	3.06559	0.211964	1.77238	0.360532	3.06468	0.524236	4.4688	0.639993	5.45332	0.883405	7.53907	0.353108	3.00278	0.504728	4.27971	0.745295	6.33398	0.927437	7.86679
0.361768	3.05269	0.213993	1.77552	0.36186	3.0518	0.525435	4.44372	0.641186	5.42045	0.884105	7.48553	0.355211	2.99692	0.505983	4.25673	0.74602	6.29034	0.928127	7.81092
0.36311	3.04011	0.216022	1.7786	0.363204	3.03925	0.52664	4.4191	0.642385	5.38815	0.88481	7.43287	0.357313	2.99114	0.507246	4.23416	0.74675	6.24742	0.928823	7.75596
0.364468	3.02786	0.218052	1.78165	0.364563	3.02703	0.527852	4.3949	0.643592	5.35641	0.88552	7.38106	0.359417	2.98547	0.508516	4.212	0.747486	6.20521	0.929523	7.70189
0.365841	3.01593	0.220082	1.78465	0.365937	3.01511	0.529069	4.37114	0.644805	5.32522	0.886235	7.3301	0.36152	2.97988	0.509793	4.19025	0.748227	6.16369	0.930229	7.64868
0.367231	3.00431	0.222112	1.78761	0.367328	3.00351	0.530293	4.34778	0.646024	5.29455	0.886955	7.27995	0.363624	2.97438	0.511077	4.16888	0.748973	6.12284	0.930939	7.59633
0.368636	2.99299	0.224143	1.79052	0.368734	2.99222	0.531524	4.32483	0.64725	5.2644	0.88768	7.23061	0.365729	2.96897	0.512368	4.14788	0.749725	6.08265	0.931653	7.5448
0.370058	2.98198	0.226174	1.7934	0.370158	2.98123	0.53276	4.30227	0.648483	5.23476	0.888411	7.18205	0.367834	2.96364	0.513667	4.12727	0.750482	6.04311	0.932373	7.49408
0.371497	2.97127	0.228205	1.79624	0.371598	2.97054	0.534002	4.2801	0.649722	5.20561	0.889146	7.13426	0.369939	2.95839	0.514972	4.10701	0.751244	6.0042	0.933097	7.44415
0.372954	2.96085	0.230237	1.79904	0.373056	2.96014	0.53525	4.25831	0.650968	5.17695	0.889886	7.08722	0.372044	2.95323	0.516285	4.08711	0.752011	5.96591	0.933826	7.395
0.374428	2.95073	0.232269	1.80179	0.374531	2.95004	0.536504	4.23688	0.65222	5.14875	0.890631	7.04091	0.37415	2.94814	0.517604	4.06755	0.752783	5.92822	0.934559	7.34661
0.37592	2.94089	0.234301	1.80452	0.376024	2.94022	0.537764	4.21581	0.653478	5.12102	0.891381	6.99531	0.376256	2.94313	0.51893	4.04833	0.753561	5.89112	0.935297	7.29895
0.37743	2.93134	0.236333	1.8072	0.377535	2.93069	0.53903	4.1951	0.654743	5.09374	0.892136	6.95042	0.378363	2.93819	0.520264	4.02945	0.754343	5.85459	0.93604	7.25202
0.378959	2.92207	0.238366	1.80985	0.379065	2.92144	0.540302	4.17472	0.656014	5.0669	0.892896	6.90621	0.380469	2.93333	0.521604	4.01089	0.755131	5.81863	0.936787	7.2058
0.380506	2.91308	0.240399	1.81247	0.380614	2.91246	0.54158	4.15468	0.657291	5.04049	0.893661	6.86267	0.382576	2.92853	0.522951	3.99264	0.755924	5.78323	0.93754	7.16027
0.382073	2.90436	0.242432	1.81504	0.382183	2.90376	0.542863	4.13497	0.658574	5.01451	0.89443	6.81978	0.384682	2.92381	0.524305	3.9747	0.756722	5.74836	0.938296	7.11541
0.38366	2.89591	0.244465	1.81759	0.383771	2.89533	0.544152	4.11558	0.659864	4.98893	0.895205	6.77754	0.386789	2.91915	0.525665	3.95706	0.757526	5.71402	0.939058	7.07123
0.385266	2.88773	0.246499	1.8201	0.385378	2.88717	0.545446	4.09651	0.661159	4.96376	0.895984	6.73593	0.388896	2.91455	0.527032	3.93973	0.758334	5.6802	0.939824	7.02769
0.386892	2.8798	0.248532	1.82258	0.387006	2.87926	0.546746	4.07774	0.662461	4.93899	0.896769	6.69493	0.391003	2.91003	0.528406	3.92268	0.759148	5.64688	0.940594	6.98479
0.388539	2.87214	0.250566	1.82502	0.388654	2.87162	0.548052	4.05927	0.663769	4.9146	0.897558	6.65454	0.39311	2.90556	0.529787	3.90591	0.759966	5.61407	0.941369	6.94251
0.390206	2.86474	0.2526	1.82744	0.390323	2.86423	0.549363	4.04109	0.665082	4.89059	0.898352	6.61474	0.395217	2.90115	0.531174	3.88942	0.76079	5.58173	0.942149	6.90085
0.391894	2.85758	0.254634	1.82982	0.392012	2.85709	0.55068	4.02321	0.666402	4.86695	0.899151	6.57551	0.397324	2.89681	0.532568	3.8732	0.761619	5.54988	0.942933	6.85978
0.393603	2.85067	0.256669	1.83217	0.393722	2.8502	0.552002	4.0056	0.667727	4.84367	0.899955	6.53685	0.399431	2.89252	0.533968	3.85725	0.762453	5.51849	0.943722	6.81929
0.395332	2.84401	0.258703	1.83449	0.395453	2.84355	0.553329	3.98827	0.669058	4.82074	0.900763	6.49874	0.401538	2.88829	0.535375	3.84156	0.763292	5.48756	0.944515	6.77938
0.397082	2.83758	0.260737	1.83678	0.397204	2.83714	0.554662	3.9712	0.670395	4.79816	0.901577	6.46118	0.403645	2.88412	0.536788	3.82612	0.764136	5.45707	0.945313	6.74003
0.398853	2.83138	0.262772	1.83904	0.398977	2.83096	0.556	3.95441	0.671738	4.77593	0.902395	6.42415	0.405751	2.88	0.538207	3.81093	0.764985	5.42702	0.946115	6.70124
0.400645	2.82542	0.264806	1.84128	0.40077	2.82501	0.557343	3.93787	0.673086	4.75402	0.903218	6.38764	0.407858	2.87593	0.539633	3.79598	0.765839	5.39741	0.946922	6.66298
0.402458	2.81968	0.266841	1.84348	0.402585	2.81929	0.558692	3.92158	0.67444	4.73244	0.904046	6.35164	0.409964	2.87192	0.541066	3.78128	0.766698	5.36821	0.947733	6.62526
0.404291	2.81415	0.268876	1.84566	0.404419	2.81378	0.560046	3.90554	0.6758	4.71118	0.904878	6.31615	0.41207	2.86795	0.542505	3.76681	0.767562	5.33943	0.948548	6.58805
0.406145	2.80884	0.27091	1.84781	0.406275	2.80848	0.561404	3.88974	0.677165	4.69024	0.905716	6.28114	0.414176	2.86404	0.54395	3.75256	0.768431	5.31106	0.949368	6.55135
0.408019	2.80373	0.272945	1.84993	0.40815	2.80339	0.562768	3.87419	0.678536	4.6696	0.906558	6.24662	0.416282	2.86017	0.545401	3.73855	0.769305	5.28308	0.950193	6.51515
0.409913	2.79883	0.27498	1.85203	0.410045	2.7985	0.564137	3.85886	0.679912	4.64926	0.907404	6.21257	0.418387	2.85635	0.546859	3.72475	0.770185	5.25549	0.951022	6.47944
0.411827	2.79412	0.277015	1.8541	0.41196	2.7938	0.565512	3.84376	0.681294	4.62921	0.908256	6.17899	0.420493	2.85258	0.548323	3.71117	0.771069	5.22828	0.951855	6.44421
0.41376	2.7896	0.27905	1.85614	0.413895	2.7893	0.566891	3.82889	0.682681	4.60946	0.909112	6.14586	0.422597	2.84885	0.549793	3.6978	0.771958	5.20145	0.952692	6.40945
0.415712	2.78527	0.281085	1.85816	0.415848	2.78497	0.568275	3.81423	0.684073	4.58999	0.909973	6.11317	0.424702	2.84517	0.551269	3.68464	0.772852	5.17499	0.953534	6.37516
0.417682	2.78111	0.28312	1.86016	0.41782	2.78082	0.569663	3.79979	0.685471	4.57079	0.910839	6.08093	0.426806	2.84153	0.552751	3.67168	0.773751	5.14889	0.954381	6.34131
0.419671	2.77712	0.285154	1.86213	0.419809	2.77685	0.571057	3.78556	0.686874	4.55187	0.911709	6.04911	0.42891	2.83793	0.554239	3.65892	0.774655	5.12314	0.955231	6.30792
0.421677	2.7733	0.287189	1.86407	0.421817	2.77304	0.572456	3.77154	0.688282	4.53321	0.912584	6.01772	0.431013	2.83438	0.555734	3.64636	0.775563	5.09774	0.956086	6.27496
0.4237	2.76963	0.289224	1.866	0.423841	2.76938	0.573859	3.75772	0.689696	4.51482	0.913463	5.98673	0.433116	2.83086	0.557234	3.63399	0.776477	5.07268	0.956946	6.24242
0.42574	2.76612	0.291259	1.8679	0.425883	2.76588	0.575267	3.7441	0.691114	4.49668	0.914348	5.95616	0.435219	2.82738	0.55874	3.62181	0.777396	5.04795	0.957809	6.21031
0.427797	2.76276	0.293294	1.86977	0.42794	2.76253	0.57668	3.73067	0.692538	4.47879	0.915237	5.92598	0.437321	2.82395	0.560253	3.60981	0.778319	5.02356	0.958677	6.17862
0.429868	2.75953	0.295328	1.87163	0.430013	2.75931	0.578098	3.71744	0.693967	4.46115	0.91613	5.8962	0.439422	2.82055	0.561771	3.59799	0.779247	4.99948	0.959549	6.14732
0.431955	2.75644	0.297363	1.87346	0.432101	2.75624	0.57952	3.70439	0.695401	4.44375	0.917028	5.8668	0.441523	2.81719	0.563295	3.58635	0.780181	4.97573	0.960426	6.11643
0.434057	2.75348	0.299398	1.87527	0.434203	2.75328	0.580947	3.69153	0.69684	4.42659	0.917931	5.83778	0.443624	2.81386	0.564825	3.57489	0.781119	4.95229	0.961306	6.08593
0.436173	2.75065	0.301432	1.87706	0.43632	2.75046	0.582378	3.67884	0.698284	4.40967	0.918838	5.80913	0.445724	2.81057	0.566361	3.5636	0.782061	4.92915	0.962191	6.05581
0.438302	2.74793	0.303467	1.87883	0.43845	2.74775	0.583814	3.66634	0.699733	4.39297	0.91975	5.78084	0.447823	2.80732	0.567903	3.55247	0.783009	4.90631	0.96308	6.02607
0.440444	2.74532	0.305501	1.88058	0.440593	2.74515	0.585255	3.654	0.701187	4.3765	0.920666	5.75291	0.449922	2.8041	0.56945	3.54151	0.783962	4.88377	0.963974	5.9967
0.442599	2.74283	0.307535	1.8823	0.442749	2.74266	0.5867	3.64184	0.702645	4.36025	0.921587	5.72534	0.452021	2.80091	0.571004	3.53071	0.784919	4.86151	0.964871	5.9677
0.444765	2.74043	0.309569	1.88401	0.444916	2.74027	0.58815	3.62984	0.704109	4.34421	0.922513	5.69811	0.454118	2.79776	0.572563	3.52007	0.785881	4.83955	0.965773	5.93905
0.446943	2.73813	0.311603	1.8857	0.447095	2.73798	0.589603	3.61801	0.705577	4.32839	0.923443	5.67121	0.456215	2.79464	0.574127	3.50959	0.786848	4.81786	0.966679	5.91075
0.449133	2.73593	0.313638	1.88737	0.449285	2.73578	0.591062	3.60634	0.70705	4.31278	0.924378	5.64465	0.458312	2.79155	0.575698	3.49926	0.78782	4.79644	0.967589	5.8828
0.451332	2.73381	0.315671	1.88901	0.451486	2.73367	0.592524	3.59483	0.708528	4.29737	0.925317	5.61842	0.460408	2.78849	0.577274	3.48908	0.788796	4.7753	0.968503	5.85519
0.453542	2.73178	0.317705	1.89064	0.453696	2.73164	0.593991	3.58348	0.71001	4.28216	0.92626	5.59252	0.462503	2.78546	0.578855	3.47905	0.789777	4.75443	0.969421	5.82792
0.455762	2.72983	0.319739	1.89225	0.455916	2.7297	0.595463	3.57227	0.711497	4.26715	0.927208	5.56692	0.464597	2.78246	0.580442	3.46916	0.790763	4.73381	0.970343	5.80097
0.457991	2.72796	0.321772	1.89385	0.458146	2.72783	0.596938	3.56122	0.712989	4.25234	0.928161	5.54164	0.466691	2.77949	0.582035	3.45942	0.791754	4.71345	0.97127	5.77435
0.460228	2.72616	0.323806	1.89542	0.460384	2.72603	0.598418	3.55031	0.714485	4.23771	0.929118	5.51667	0.468784	2.77655	0.583633	3.44981	0.792749	4.69334	0.9722	5.74804
0.462474	2.72442	0.325839	1.89698	0.462631	2.72431	0.599902	3.53955	0.715985	4.22327	0.930079	5.492	0.470876	2.77364	0.585237	3.44035	0.79375	4.67349	0.973135	5.72205
0.464728	2.72276	0.327872	1.89852	0.464885	2.72265	0.60139	3.52893	0.717491	4.20902	0.931045	5.46762	0.472967	2.77075	0.586846	3.43101	0.794754	4.65387	0.974074	5.69636
0.46699	2.72116	0.329905	1.90004	0.467147	2.72105	0.602882	3.51845	0.719	4.19495	0.932016	5.44354	0.475058	2.76789	0.588461	3.42181	0.795764	4.6345	0.975016	5.67097
0.469259	2.71961	0.331938	1.90154	0.469417	2.71951	0.604379	3.50811	0.720514	4.18105	0.93299	5.41974	0.477148	2.76506	0.590081	3.41275	0.796778	4.61536	0.975963	5.64589
0.471536	2.71813	0.333971	1.90303	0.471694	2.71803	0.605879	3.4979	0.722033	4.16734	0.93397	5.39622	0.479237	2.76225	0.591706	3.40381	0.797797	4.59646	0.976914	5.62109
0.473818	2.7167	0.336004	1.9045	0.473977	2.7166	0.607384	3.48783	0.723556	4.15379	0.934953	5.37298	0.481325	2.75946	0.593337	3.39499	0.79882	4.57778	0.977868	5.59658
0.476108	2.71532	0.338036	1.90596	0.476267	2.71522	0.608892	3.47789	0.725083	4.14041	0.935941	5.35001	0.483413	2.75671	0.594973	3.3863	0.799848	4.55933	0.978827	5.57235
0.478403	2.71399	0.340068	1.90739	0.478562	2.7139	0.610405	3.46807	0.726614	4.1272	0.936933	5.32731	0.485499	2.75397	0.596615	3.37773	0.800881	4.5411	0.97979	5.5484
0.480704	2.7127	0.3421	1.90882	0.480864	2.71262	0.611921	3.45838	0.72815	4.11415	0.93793	5.30487	0.487585	2.75126	0.598262	3.36928	0.801918	4.52309	0.980757	5.52473
0.483011	2.71146	0.344132	1.91022	0.483171	2.71138	0.613441	3.44881	0.72969	4.10126	0.938931	5.2827	0.48967	2.74858	0.599914	3.36095	0.80296	4.50529	0.981727	5.50132
0.485323	2.71027	0.346164	1.91162	0.485483	2.71019	0.614966	3.43936	0.731234	4.08853	0.939937	5.26078	0.491753	2.74591	0.601571	3.35274	0.804007	4.4877	0.982702	5.47818
0.48764	2.70911	0.348196	1.91299	0.487801	2.70903	0.616494	3.43004	0.732782	4.07595	0.940946	5.23911	0.493836	2.74327	0.603234	3.34463	0.805058	4.47032	0.98368	5.4553
0.489961	2.70799	0.350227	1.91435	0.490123	2.70792	0.618026	3.42083	0.734334	4.06352	0.94196	5.21769	0.495918	2.74065	0.604901	3.33664	0.806114	4.45314	0.984663	5.43268
0.492288	2.70691	0.352258	1.9157	0.492449	2.70684	0.619562	3.41174	0.735891	4.05125	0.942979	5.19651	0.497999	2.73806	0.606574	3.32876	0.807174	4.43617	0.985649	5.41031
0.494619	2.70587	0.354289	1.91703	0.494781	2.70579	0.621102	3.40276	0.737451	4.03912	0.944001	5.17557	0.50008	2.73548	0.608252	3.32099	0.808239	4.41939	0.986639	5.38819
0.496954	2.70485	0.35632	1.91835	0.497116	2.70478	0.622645	3.39389	0.739015	4.02714	0.945028	5.15487	0.502159	2.73293	0.609935	3.31333	0.809308	4.40281	0.987633	5.36632
0.499293	2.70387	0.358351	1.91965	0.499455	2.70381	0.624192	3.38513	0.740584	4.0153	0.946059	5.1344	0.504237	2.73039	0.611623	3.30577	0.810382	4.38642	0.988631	5.34468
0.501635	2.70292	0.360381	1.92094	0.501798	2.70286	0.625743	3.37648	0.742156	4.0036	0.947095	5.11416	0.506314	2.72788	0.613316	3.29831	0.811461	4.37022	0.989633	5.32328
0.503982	2.702	0.362412	1.92222	0.504145	2.70194	0.627298	3.36794	0.743733	3.99204	0.948134	5.09415	0.50839	2.72538	0.615014	3.29095	0.812544	4.3542	0.990638	5.30212
0.506332	2.70111	0.364442	1.92348	0.506495	2.70105	0.628856	3.3595	0.745313	3.98062	0.949178	5.07436	0.510465	2.72291	0.616718	3.28369	0.813631	4.33837	0.991648	5.28119
0.508685	2.70024	0.366472	1.92473	0.508848	2.70018	0.630418	3.35116	0.746897	3.96933	0.950227	5.05478	0.512539	2.72045	0.618426	3.27653	0.814723	4.32271	0.992661	5.26048
0.511041	2.6994	0.368501	1.92597	0.511205	2.69934	0.631984	3.34293	0.748485	3.95817	0.951279	5.03542	0.514613	2.71801	0.620139	3.26947	0.815819	4.30724	0.993678	5.24
0.513401	2.69858	0.370531	1.92719	0.513565	2.69853	0.633553	3.3348	0.750076	3.94714	0.952336	5.01628	0.516685	2.71559	0.621857	3.2625	0.81692	4.29194	0.994699	5.21974
0.515763	2.69779	0.37256	1.9284	0.515927	2.69773	0.635126	3.32676	0.751672	3.93623	0.953396	4.99734	0.518756	2.71319	0.62358	3.25563	0.818026	4.27681	0.995723	5.19969
0.518128	2.69701	0.374589	1.9296	0.518293	2.69696	0.636702	3.31882	0.753271	3.92545	0.954461	4.97861	0.520826	2.71081	0.625307	3.24885	0.819135	4.26185	0.996751	5.17986
0.520496	2.69626	0.376618	1.93078	0.520661	2.69621	0.638282	3.31097	0.754874	3.9148	0.955531	4.96008	0.522894	2.70844	0.62704	3.24215	0.820249	4.24706	0.997783	5.16024
0.522866	2.69553	0.378646	1.93195	0.523031	2.69548	0.639865	3.30322	0.75648	3.90427	0.956604	4.94175	0.524962	2.70609	0.628777	3.23555	0.821368	4.23244	0.998819	5.14082
0.525239	2.69482	0.380675	1.93311	0.525404	2.69477	0.641452	3.29556	0.758091	3.89385	0.957681	4.92362	0.527029	2.70376	0.63052	3.22903	0.822491	4.21797	0.999859	5.12161
0.527614	2.69413	0.382703	1.93426	0.527779	2.69408	0.643042	3.288	0.759704	3.88356	0.958763	4.90568	0.529094	2.70145	0.632267	3.2226	0.823618	4.20367	1.0009	5.10261
0.529991	2.69345	0.384731	1.9354	0.530156	2.69341	0.644636	3.28052	0.761322	3.87338	0.959849	4.88794	0.531159	2.69915	0.634018	3.21626	0.82475	4.18952		
0.532371	2.69279	0.386759	1.93652	0.532536	2.69275	0.646233	3.27313	0.762943	3.86331	0.960938	4.87038	0.533222	2.69686	0.635775	3.21	0.825886	4.17553		
0.534752	2.69215	0.388786	1.93763	0.534917	2.69211	0.647834	3.26582	0.764567	3.85336	0.962032	4.85301	0.535284	2.6946	0.637536	3.20382	0.827027	4.1617		
0.537135	2.69152	0.390814	1.93873	0.537301	2.69148	0.649437	3.2586	0.766195	3.84351	0.96313	4.83582	0.537345	2.69234	0.639301	3.19772	0.828172	4.14801		
0.53952	2.69091	0.392841	1.93982	0.539686	2.69087	0.651045	3.25147	0.767826	3.83378	0.964233	4.81881	0.539405	2.69011	0.641072	3.1917	0.829321	4.13447		
0.541907	2.69032	0.394867	1.9409	0.542073	2.69027	0.652655	3.24441	0.769461	3.82415	0.965339	4.80198	0.541464	2.68788	0.642847	3.18576	0.830475	4.12108		
0.544295	2.68973	0.396894	1.94197	0.544461	2.68969	0.654269	3.23744	0.771099	3.81463	0.966449	4.78532	0.543522	2.68568	0.644626	3.1799	0.831633	4.10784		
0.546686	2.68916	0.39892	1.94303	0.546851	2.68912	0.655886	3.23055	0.772741	3.80521	0.967563	4.76884	0.545578	2.68348	0.64641	3.17411	0.832795	4.09473		
0.549077	2.6886	0.400946	1.94407	0.549243	2.68857	0.657507	3.22374	0.774386	3.7959	0.968682	4.75253	0.547633	2.68131	0.648199	3.1684	0.833961	4.08177		
0.55147	2.68806	0.402972	1.94511	0.551636	2.68802	0.659131	3.217	0.776034	3.78668	0.969804	4.73639	0.549687	2.67914	0.649992	3.16276	0.835132	4.06894		
0.553865	2.68752	0.404998	1.94614	0.554031	2.68749	0.660758	3.21035	0.777686	3.77757	0.970931	4.72041	0.55174	2.67699	0.65179	3.15719	0.836307	4.05626		
0.55626	2.687	0.407023	1.94715	0.556427	2.68697	0.662388	3.20376	0.77934	3.76855	0.972061	4.70459	0.553792	2.67485	0.653592	3.1517	0.837486	4.0437		
0.558657	2.68649	0.409049	1.94816	0.558824	2.68645	0.664021	3.19726	0.780999	3.75963	0.973196	4.68894	0.555842	2.67273	0.655398	3.14627	0.83867	4.03128		
0.561055	2.68599	0.411073	1.94915	0.561222	2.68595	0.665658	3.19082	0.78266	3.7508	0.974334	4.67345	0.557892	2.67062	0.657209	3.14092	0.839858	4.01899		
0.563455	2.6855	0.413098	1.95014	0.563621	2.68546	0.667298	3.18446	0.784324	3.74207	0.975477	4.65811	0.55994	2.66852	0.659024	3.13563	0.84105	4.00683		
0.565855	2.68501	0.415122	1.95111	0.566022	2.68498	0.668941	3.17817	0.785992	3.73343	0.976623	4.64293	0.561987	2.66644	0.660843	3.13041	0.842246	3.9948		
0.568257	2.68454	0.417147	1.95208	0.568423	2.68451	0.670587	3.17195	0.787663	3.72488	0.977773	4.6279	0.564033	2.66437	0.662667	3.12525	0.843447	3.9829		
0.570659	2.68408	0.419171	1.95303	0.570826	2.68404	0.672236	3.1658	0.789336	3.71643	0.978928	4.61302	0.566077	2.66231	0.664495	3.12017	0.844652	3.97111		
0.573062	2.68362	0.421194	1.95398	0.573229	2.68359	0.673888	3.15972	0.791013	3.70805	0.980086	4.59829	0.56812	2.66026	0.666328	3.11514	0.84586	3.95945		
0.575466	2.68317	0.423218	1.95492	0.575633	2.68314	0.675543	3.1537	0.792693	3.69977	0.981248	4.5837	0.570162	2.65822	0.668164	3.11018	0.847074	3.94791		
0.577871	2.68273	0.425241	1.95584	0.578038	2.6827	0.677202	3.14775	0.794376	3.69157	0.982414	4.56927	0.572203	2.6562	0.670005	3.10528	0.848291	3.93649		
0.580277	2.6823	0.427264	1.95676	0.580444	2.68227	0.678863	3.14187	0.796062	3.68346	0.983584	4.55497	0.574243	2.65419	0.67185	3.10044	0.849512	3.92519		
0.582684	2.68187	0.429286	1.95767	0.582851	2.68184	0.680528	3.13605	0.797751	3.67543	0.984758	4.54081	0.576281	2.65219	0.673699	3.09567	0.850738	3.914		
0.585091	2.68145	0.431309	1.95857	0.585258	2.68142	0.682195	3.13029	0.799443	3.66748	0.985936	4.5268	0.578319	2.6502	0.675552	3.09095	0.851968	3.90293		
0.587499	2.68104	0.433331	1.95947	0.587666	2.68101	0.683866	3.1246	0.801138	3.65961	0.987117	4.51292	0.580354	2.64823	0.677409	3.08629	0.853201	3.89197		
0.589907	2.68063	0.435353	1.96035	0.590075	2.68061	0.685539	3.11897	0.802835	3.65183	0.988303	4.49917	0.582389	2.64626	0.67927	3.08169	0.854439	3.88113		
0.592316	2.68023	0.437374	1.96122	0.592484	2.68021	0.687216	3.1134	0.804536	3.64412	0.989492	4.48556	0.584423	2.64431	0.681135	3.07714	0.855682	3.87039		
0.594726	2.67984	0.439395	1.96209	0.594893	2.67981	0.688895	3.10789	0.806239	3.63649	0.990685	4.47208	0.586455	2.64236	0.683005	3.07265	0.856928	3.85976		
0.597136	2.67945	0.441417	1.96295	0.597303	2.67942	0.690578	3.10244	0.807946	3.62893	0.991882	4.45873	0.588486	2.64043	0.684878	3.06822	0.858178	3.84924		
0.599547	2.67907	0.443437	1.9638	0.599714	2.67904	0.692263	3.09705	0.809655	3.62146	0.993083	4.44551	0.590516	2.63851	0.686755	3.06384	0.859432	3.83882		
0.601958	2.67869	0.445458	1.96464	0.602125	2.67866	0.693952	3.09172	0.811366	3.61405	0.994288	4.43242	0.592545	2.6366	0.688636	3.05952	0.860691	3.82851		
0.604369	2.67831	0.447478	1.96547	0.604536	2.67829	0.695643	3.08644	0.813081	3.60672	0.995496	4.41945	0.594572	2.63469	0.690521	3.05524	0.861953	3.8183		
0.606781	2.67794	0.449498	1.9663	0.606948	2.67792	0.697337	3.08122	0.814798	3.59946	0.996709	4.40661	0.596598	2.6328	0.69241	3.05102	0.86322	3.80819		
0.609193	2.67758	0.451518	1.96712	0.60936	2.67755	0.699034	3.07605	0.816518	3.59227	0.997925	4.39388	0.598623	2.63092	0.694302	3.04685	0.864491	3.79819		
0.611605	2.67722	0.453537	1.96793	0.611773	2.67719	0.700734	3.07094	0.818241	3.58516	0.999145	4.38128	0.600647	2.62905	0.696199	3.04274	0.865765	3.78828		
0.614018	2.67686	0.455556	1.96873	0.614185	2.67684	0.702437	3.06589	0.819966	3.57811	1.00037	4.3688	0.60267	2.62719	0.698099	3.03867	0.867044	3.77847		
0.616431	2.67651	0.457575	1.96953	0.616598	2.67649	0.704143	3.06089	0.821694	3.57113			0.604691	2.62534	0.700002	3.03465	0.868327	3.76876		
0.618844	2.67616	0.459594	1.97031	0.619011	2.67614	0.705851	3.05594	0.823425	3.56422			0.606712	2.6235	0.70191	3.03068	0.869613	3.75914		
0.621257	2.67582	0.461612	1.97109	0.621424	2.67579	0.707563	3.05104	0.825158	3.55738			0.608731	2.62167	0.703821	3.02675	0.870904	3.74962		
0.62367	2.67547	0.463631	1.97187	0.623838	2.67545	0.709277	3.04619	0.826893	3.5506			0.610748	2.61985	0.705736	3.02287	0.872199	3.74019		
0.626084	2.67513	0.465648	1.97263	0.626251	2.67511	0.710994	3.0414	0.828632	3.54388			0.612765	2.61803	0.707654	3.01904	0.873497	3.73085		
0.628497	2.6748	0.467666	1.97339	0.628665	2.67478	0.712714	3.03665	0.830372	3.53723			0.61478	2.61623	0.709576	3.01526	0.8748	3.72161		
0.630911	2.67447	0.469683	1.97414	0.631078	2.67444	0.714437	3.03196	0.832116	3.53065			0.616795	2.61444	0.711502	3.01152	0.876106	3.71245		
0.633324	2.67414	0.4717	1.97488	0.633492	2.67411	0.716162	3.02731	0.833861	3.52412			0.618808	2.61265	0.713431	3.00782	0.877417	3.70338		
0.635738	2.67381	0.473717	1.97562	0.635905	2.67379	0.717891	3.02271	0.835609	3.51766			0.62082	2.61087	0.715363	3.00417	0.878731	3.6944		
0.638151	2.67348	0.475733	1.97635	0.638319	2.67346	0.719622	3.01816	0.83736	3.51126			0.622831	2.60911	0.717299	3.00056	0.88005	3.68551		
0.640565	2.67316	0.47775	1.97707	0.640732	2.67314	0.721356	3.01366	0.839113	3.50491			0.62484	2.60735	0.719239	2.99699	0.881372	3.6767		
0.642978	2.67284	0.479765	1.97779	0.643146	2.67282	0.723093	3.0092	0.840868	3.49863			0.626849	2.6056	0.721181	2.99346	0.882698	3.66798		
0.645391	2.67252	0.481781	1.9785	0.645559	2.6725	0.724832	3.00479	0.842626	3.49241			0.628856	2.60386	0.723128	2.98998	0.884028	3.65934		
0.647804	2.6722	0.483796	1.97921	0.647972	2.67218	0.726575	3.00042	0.844386	3.48624			0.630862	2.60213	0.725077	2.98653	0.885362	3.65078		
0.650217	2.67189	0.485812	1.9799	0.650385	2.67186	0.72832	2.9961	0.846148	3.48013			0.632867	2.60041	0.72703	2.98313	0.8867	3.6423		
0.65263	2.67157	0.487826	1.98059	0.652797	2.67155	0.730068	2.99183	0.847913	3.47407			0.634871	2.59869	0.728986	2.97976	0.888042	3.63391		
0.655042	2.67126	0.489841	1.98128	0.65521	2.67124	0.731818	2.98759	0.84968	3.46807			0.636874	2.59699	0.730945	2.97644	0.889387	3.62559		
0.657455	2.67095	0.491855	1.98196	0.657622	2.67093	0.733572	2.9834	0.851449	3.46213			0.638876	2.59529	0.732907	2.97315	0.890737	3.61735		
0.659866	2.67064	0.493869	1.98263	0.660034	2.67062	0.735328	2.97926	0.85322	3.45624			0.640876	2.5936	0.734873	2.96989	0.89209	3.60919		
0.662278	2.67033	0.495883	1.98329	0.662445	2.67031	0.737087	2.97515	0.854994	3.4504			0.642876	2.59192	0.736841	2.96668	0.893447	3.60111		
0.664689	2.67002	0.497896	1.98395	0.664857	2.67	0.738849	2.97109	0.85677	3.44461			0.644874	2.59025	0.738813	2.9635	0.894808	3.5931		
0.6671	2.66971	0.499909	1.98461	0.667267	2.66969	0.740614	2.96707	0.858548	3.43888			0.646872	2.58858	0.740788	2.96036	0.896173	3.58517		
0.669511	2.66941	0.501922	1.98525	0.669678	2.66939	0.742381	2.96309	0.860328	3.4332			0.648868	2.58692	0.742766	2.95725	0.897541	3.57731		
0.671921	2.6691	0.503935	1.9859	0.672088	2.66908	0.744151	2.95915	0.86211	3.42757			0.650863	2.58528	0.744747	2.95418	0.898914	3.56952		
0.67433	2.6688	0.505947	1.98653	0.674497	2.66878	0.745924	2.95525	0.863895	3.42199			0.652858	2.58364	0.746731	2.95114	0.90029	3.56181		
0.676739	2.66849	0.507959	1.98716	0.676907	2.66847	0.7477	2.9514	0.865681	3.41645			0.654851	2.582	0.748717	2.94814	0.90167	3.55417		
0.679148	2.66819	0.509971	1.98779	0.679315	2.66816	0.749478	2.94758	0.86747	3.41097			0.656843	2.58038	0.750707	2.94517	0.903054	3.5466		
0.681556	2.66788	0.511982	1.98841	0.681723	2.66786	0.75126	2.94379	0.86926	3.40554			0.658834	2.57876	0.7527	2.94223	0.904441	3.5391		
0.683963	2.66758	0.513993	1.98902	0.68413	2.66756	0.753044	2.94005	0.871053	3.40015			0.660824	2.57715	0.754695	2.93933	0.905832	3.53167		
0.68637	2.66727	0.516004	1.98963	0.686537	2.66725	0.754831	2.93635	0.872848	3.39481			0.662813	2.57555	0.756693	2.93646	0.907227	3.5243		
0.688776	2.66697	0.518015	1.99023	0.688943	2.66694	0.75662	2.93268	0.874644	3.38951			0.664801	2.57396	0.758694	2.93361	0.908626	3.51701		
0.691182	2.66666	0.520025	1.99083	0.691349	2.66664	0.758413	2.92905	0.876443	3.38426			0.666789	2.57237	0.760698	2.9308	0.910029	3.50978		
0.693587	2.66635	0.522035	1.99142	0.693754	2.66633	0.760208	2.92546	0.878243	3.37906			0.668775	2.5708	0.762704	2.92802	0.911435	3.50262		
0.695991	2.66605	0.524045	1.99201	0.696158	2.66603	0.762007	2.9219	0.880046	3.3739			0.67076	2.56923	0.764713	2.92527	0.912845	3.49552		
0.698394	2.66574	0.526054	1.99259	0.698561	2.66572	0.763808	2.91838	0.88185	3.36878			0.672744	2.56766	0.766725	2.92255	0.914258	3.48849		
0.700797	2.66543	0.528063	1.99317	0.700964	2.66541	0.765612	2.9149	0.883657	3.36371			0.674728	2.56611	0.768739	2.91986	0.915676	3.48152		
0.703199	2.66512	0.530072	1.99374	0.703365	2.6651	0.767418	2.91145	0.885465	3.35868			0.67671	2.56456	0.770756	2.9172	0.917097	3.47461		
0.7056	2.66481	0.532081	1.9943	0.705766	2.66479	0.769228	2.90804	0.887275	3.3537			0.678691	2.56302	0.772776	2.91456	0.918522	3.46777		
0.708	2.6645	0.534089	1.99486	0.708166	2.66448	0.771041	2.90466	0.889087	3.34875			0.680672	2.56149	0.774798	2.91196	0.91995	3.46099		
0.710399	2.66419	0.536097	1.99542	0.710565	2.66417	0.772856	2.90131	0.890901	3.34385			0.682652	2.55996	0.776822	2.90938	0.921382	3.45427		
0.712797	2.66387	0.538105	1.99597	0.712963	2.66385	0.774675	2.898	0.892716	3.33899			0.68463	2.55844	0.778849	2.90683	0.922818	3.44761		
0.715194	2.66356	0.540113	1.99652	0.71536	2.66354	0.776496	2.89473	0.894533	3.33417			0.686608	2.55693	0.780878	2.9043	0.924258	3.44101		
0.71759	2.66324	0.54212	1.99706	0.717756	2.66322	0.77832	2.89149	0.896353	3.32939			0.688585	2.55543	0.78291	2.9018	0.925701	3.43447		
0.719985	2.66292	0.544127	1.9976	0.720151	2.6629	0.780148	2.88828	0.898173	3.32464			0.690562	2.55393	0.784944	2.89933	0.927147	3.42799		
0.722379	2.6626	0.546133	1.99813	0.722545	2.66258	0.781978	2.8851	0.899996	3.31994			0.692537	2.55244	0.78698	2.89688	0.928598	3.42156		
0.724772	2.66228	0.54814	1.99866	0.724938	2.66225	0.783811	2.88196	0.90182	3.31528			0.694511	2.55096	0.789019	2.89446	0.930052	3.4152		
0.727163	2.66195	0.550146	1.99918	0.727329	2.66193	0.785648	2.87885	0.903646	3.31065			0.696485	2.54948	0.79106	2.89206	0.931509	3.40889		
0.729554	2.66162	0.552151	1.9997	0.72972	2.6616	0.787487	2.87577	0.905474	3.30606			0.698458	2.54802	0.793103	2.88969	0.932971	3.40263		
0.731943	2.66129	0.554157	2.00021	0.732109	2.66127	0.789329	2.87273	0.907304	3.30151			0.70043	2.54656	0.795148	2.88734	0.934435	3.39643		
0.734331	2.66096	0.556162	2.00072	0.734496	2.66094	0.791175	2.86971	0.909135	3.29699			0.702402	2.5451	0.797196	2.88501	0.935904	3.39029		
0.736717	2.66063	0.558167	2.00123	0.736883	2.6606	0.793024	2.86673	0.910967	3.29252			0.704372	2.54365	0.799245	2.88271	0.937376	3.3842		
0.739102	2.66029	0.560172	2.00173	0.739268	2.66026	0.794875	2.86378	0.912802	3.28807			0.706342	2.54221	0.801297	2.88043	0.938852	3.37817		
0.741486	2.65995	0.562176	2.00222	0.741651	2.65992	0.796731	2.86086	0.914638	3.28367			0.708311	2.54078	0.803351	2.87817	0.940331	3.37218		
0.743868	2.6596	0.56418	2.00272	0.744033	2.65958	0.798589	2.85797	0.916475	3.27929			0.710279	2.53935	0.805407	2.87594	0.941814	3.36625		
0.746248	2.65926	0.566184	2.0032	0.746413	2.65923	0.80045	2.85511	0.918314	3.27496			0.712247	2.53794	0.807464	2.87373	0.9433	3.36038		
0.748627	2.65891	0.568187	2.00369	0.748792	2.65888	0.802315	2.85228	0.920155	3.27065			0.714214	2.53652	0.809524	2.87154	0.94479	3.35455		
0.751005	2.65855	0.570191	2.00417	0.75117	2.65853	0.804183	2.84949	0.921997	3.26638			0.71618	2.53512	0.811586	2.86937	0.946284	3.34878		
0.75338	2.6582	0.572194	2.00464	0.753545	2.65817	0.806054	2.84672	0.923841	3.26215			0.718145	2.53372	0.813649	2.86722	0.947781	3.34305		
0.755754	2.65783	0.574196	2.00511	0.755919	2.65781	0.807929	2.84398	0.925686	3.25795			0.72011	2.53233	0.815715	2.86509	0.949282	3.33738		
0.758126	2.65747	0.576199	2.00558	0.758291	2.65744	0.809807	2.84128	0.927533	3.25378			0.722074	2.53094	0.817782	2.86298	0.950786	3.33175		
0.760497	2.6571	0.578201	2.00604	0.760661	2.65707	0.811689	2.8386	0.929381	3.24964			0.724038	2.52956	0.819851	2.86089	0.952293	3.32618		
0.762865	2.65673	0.580203	2.0065	0.76303	2.6567	0.813574	2.83595	0.931231	3.24553			0.726	2.52819	0.821922	2.85882	0.953805	3.32065		
0.765232	2.65635	0.582204	2.00696	0.765396	2.65632	0.815462	2.83333	0.933082	3.24146			0.727962	2.52682	0.823994	2.85677	0.95532	3.31517		
0.767596	2.65597	0.584206	2.00741	0.76776	2.65594	0.817354	2.83074	0.934934	3.23742			0.729924	2.52547	0.826069	2.85474	0.956838	3.30974		
0.769959	2.65558	0.586206	2.00786	0.770123	2.65555	0.81925	2.82818	0.936788	3.2334			0.731885	2.52411	0.828144	2.85273	0.95836	3.30435		
0.772319	2.65519	0.588207	2.0083	0.772483	2.65516	0.821149	2.82565	0.938644	3.22942			0.733845	2.52277	0.830222	2.85074	0.959885	3.29901		
0.774677	2.65479	0.590208	2.00874	0.774841	2.65477	0.823052	2.82315	0.9405	3.22547			0.735805	2.52143	0.832301	2.84877	0.961414	3.29372		
0.777033	2.65439	0.592208	2.00918	0.777197	2.65436	0.824959	2.82067	0.942358	3.22155			0.737764	2.5201	0.834382	2.84681	0.962946	3.28847		
0.779387	2.65399	0.594208	2.00961	0.77955	2.65396	0.826869	2.81823	0.944218	3.21766			0.739723	2.51877	0.836464	2.84487	0.964482	3.28327		
0.781738	2.65357	0.596207	2.01004	0.781901	2.65354	0.828784	2.81581	0.946079	3.2138			0.741681	2.51745	0.838548	2.84295	0.966021	3.27811		
0.784087	2.65316	0.598207	2.01046	0.78425	2.65313	0.830702	2.81342	0.947941	3.20996			0.743638	2.51614	0.840634	2.84105	0.967564	3.273		
0.786434	2.65273	0.600206	2.01089	0.786596	2.6527	0.832624	2.81106	0.949804	3.20616			0.745595	2.51483	0.84272	2.83916	0.969111	3.26793		
0.788777	2.6523	0.602204	2.0113	0.78894	2.65227	0.83455	2.80873	0.951669	3.20238			0.747552	2.51353	0.844809	2.83729	0.97066	3.26291		
0.791119	2.65187	0.604203	2.01172	0.791281	2.65184	0.83648	2.80642	0.953535	3.19863			0.749507	2.51224	0.846898	2.83543	0.972214	3.25793		
0.793457	2.65143	0.606201	2.01213	0.79362	2.6514	0.838414	2.80415	0.955402	3.19491			0.751463	2.51095	0.848989	2.8336	0.97377	3.25299		
0.795793	2.65098	0.608199	2.01254	0.795955	2.65095	0.840352	2.8019	0.957271	3.19122			0.753418	2.50967	0.851082	2.83177	0.975331	3.24809		
0.798126	2.65052	0.610197	2.01294	0.798288	2.65049	0.842295	2.79968	0.959141	3.18755			0.755372	2.5084	0.853175	2.82997	0.976894	3.24323		
0.800456	2.65006	0.612194	2.01334	0.800618	2.65003	0.844242	2.79749	0.961012	3.18391			0.757326	2.50713	0.85527	2.82817	0.978461	3.23842		
0.802784	2.64959	0.614191	2.01374	0.802945	2.64956	0.846193	2.79532	0.962884	3.18029			0.75928	2.50587	0.857366	2.8264	0.980032	3.23365		
0.805108	2.64912	0.616188	2.01414	0.805269	2.64909	0.848148	2.79318	0.964757	3.17671			0.761233	2.50461	0.859464	2.82464	0.981606	3.22891		
0.807429	2.64864	0.618184	2.01453	0.80759	2.6486	0.850108	2.79107	0.966632	3.17314			0.763185	2.50336	0.861562	2.82289	0.983183	3.22422		
0.809747	2.64815	0.620181	2.01491	0.809908	2.64811	0.852072	2.78899	0.968508	3.16961			0.765137	2.50212	0.863662	2.82116	0.984764	3.21957		
0.812061	2.64765	0.622177	2.0153	0.812222	2.64761	0.854041	2.78694	0.970385	3.1661			0.767089	2.50088	0.865763	2.81944	0.986349	3.21495		
0.814373	2.64714	0.624172	2.01568	0.814533	2.64711	0.856014	2.78491	0.972263	3.16261			0.76904	2.49965	0.867865	2.81774	0.987936	3.21038		
0.816681	2.64663	0.626168	2.01606	0.816841	2.6466	0.857992	2.78291	0.974142	3.15915			0.770991	2.49842	0.869968	2.81604	0.989528	3.20585		
0.818985	2.64611	0.628163	2.01643	0.819145	2.64607	0.859974	2.78093	0.976022	3.15571			0.772942	2.4972	0.872072	2.81437	0.991122	3.20135		
0.821286	2.64558	0.630158	2.01681	0.821446	2.64554	0.861962	2.77899	0.977904	3.1523			0.774892	2.49599	0.874177	2.8127	0.99272	3.19689		
0.823584	2.64504	0.632152	2.01717	0.823743	2.64501	0.863954	2.77707	0.979786	3.14891			0.776842	2.49479	0.876283	2.81105	0.994322	3.19247		
0.825878	2.6445	0.634147	2.01754	0.826037	2.64446	0.865951	2.77518	0.98167	3.14555			0.778791	2.49358	0.87839	2.80942	0.995927	3.18808		
0.828168	2.64394	0.636141	2.0179	0.828326	2.6439	0.867953	2.77331	0.983555	3.1422			0.78074	2.49239	0.880498	2.80779	0.997535	3.18374		
0.830454	2.64338	0.638135	2.01826	0.830612	2.64334	0.86996	2.77148	0.985441	3.13889			0.782689	2.4912	0.882607	2.80618	0.999147	3.17943		
0.832736	2.6428	0.640128	2.01862	0.832894	2.64276	0.871972	2.76966	0.987327	3.13559			0.784637	2.49002	0.884717	2.80458	1.00076	3.17515		
0.835015	2.64222	0.642121	2.01897	0.835173	2.64218	0.87399	2.76788	0.989215	3.13232			0.786585	2.48884	0.886827	2.80299				
0.837289	2.64163	0.644114	2.01932	0.837447	2.64159	0.876012	2.76612	0.991104	3.12907			0.788533	2.48767	0.888938	2.80141				
0.839559	2.64103	0.646107	2.01967	0.839717	2.64099	0.87804	2.76439	0.992994	3.12584			0.79048	2.48651	0.891051	2.79985				
0.841825	2.64042	0.648099	2.02002	0.841983	2.64038	0.880072	2.76269	0.994885	3.12263			0.792428	2.48535	0.893164	2.7983				
0.844087	2.6398	0.650092	2.02036	0.844244	2.63976	0.882111	2.76101	0.996777	3.11945			0.794374	2.48419	0.895277	2.79675				
0.846345	2.63917	0.652084	2.0207	0.846502	2.63913	0.884154	2.75936	0.99867	3.11629			0.796321	2.48305	0.897392	2.79522				
0.848599	2.63853	0.654075	2.02103	0.848755	2.63849	0.886203	2.75774	1.00056	3.11314			0.798267	2.48191	0.899507	2.7937				
0.850848	2.63788	0.656067	2.02137	0.851003	2.63784	0.888258	2.75614					0.800213	2.48077	0.901622	2.7922				
0.853092	2.63723	0.658058	2.0217	0.853248	2.63718	0.890318	2.75457					0.802159	2.47964	0.903738	2.7907				
0.855332	2.63656	0.660048	2.02203	0.855488	2.63651	0.892383	2.75302					0.804105	2.47852	0.905855	2.78921				
0.857568	2.63588	0.662039	2.02235	0.857723	2.63583	0.894454	2.7515					0.80605	2.4774	0.907973	2.78773				
0.859799	2.63519	0.664029	2.02268	0.859954	2.63514	0.896531	2.75001					0.807995	2.47628	0.910091	2.78626				
0.862025	2.63449	0.666019	2.023	0.86218	2.63444	0.898613	2.74854					0.80994	2.47518	0.912209	2.78481				
0.864247	2.63378	0.668009	2.02331	0.864401	2.63373	0.900701	2.7471					0.811885	2.47408	0.914328	2.78336				
0.866464	2.63306	0.669998	2.02363	0.866618	2.63301	0.902795	2.74569					0.813829	2.47298	0.916448	2.78192				
0.868677	2.63233	0.671988	2.02394	0.86883	2.63228	0.904895	2.74429					0.815773	2.47189	0.918568	2.78049				
0.870884	2.63159	0.673977	2.02425	0.871037	2.63154	0.907	2.74293					0.817717	2.4708	0.920688	2.77907				
0.873087	2.63084	0.675965	2.02456	0.87324	2.63079	0.909111	2.74159					0.819661	2.46973	0.922808	2.77766				
0.875285	2.63008	0.677954	2.02487	0.875438	2.63003	0.911228	2.74027					0.821605	2.46865	0.924929	2.77626				
0.877479	2.62931	0.679942	2.02517	0.877631	2.62926	0.91335	2.73898					0.823548	2.46758	0.927051	2.77487				
0.879667	2.62853	0.68193	2.02547	0.879819	2.62848	0.915478	2.73771					0.825492	2.46652	0.929172	2.77348				
0.881851	2.62774	0.683917	2.02577	0.882003	2.62769	0.917612	2.73647					0.827435	2.46546	0.931294	2.77211				
0.88403	2.62694	0.685905	2.02606	0.884181	2.62689	0.919752	2.73525					0.829378	2.46441	0.933416	2.77074				
0.886205	2.62613	0.687892	2.02635	0.886355	2.62607	0.921897	2.73406					0.831321	2.46337	0.935539	2.76938				
0.888374	2.62531	0.689879	2.02664	0.888524	2.62525	0.924048	2.73289					0.833264	2.46232	0.937661	2.76803				
0.890539	2.62448	0.691865	2.02693	0.890689	2.62442	0.926205	2.73174					0.835207	2.46129	0.939784	2.76669				
0.892699	2.62364	0.693852	2.02722	0.892848	2.62359	0.928368	2.73061					0.837149	2.46026	0.941907	2.76535				
0.894854	2.6228	0.695838	2.0275	0.895003	2.62274	0.930536	2.72951					0.839092	2.45923	0.94403	2.76402				
0.897004	2.62194	0.697823	2.02778	0.897154	2.62188	0.93271	2.72843					0.841034	2.45821	0.946153	2.7627				
0.89915	2.62107	0.699809	2.02806	0.899299	2.62101	0.934889	2.72737					0.842976	2.4572	0.948276	2.76139				
0.901292	2.6202	0.701794	2.02834	0.90144	2.62014	0.937074	2.72633					0.844919	2.45619	0.950399	2.76009				
0.903428	2.61932	0.703779	2.02861	0.903576	2.61926	0.939264	2.72532					0.846861	2.45519	0.952522	2.75879				
0.90556	2.61843	0.705764	2.02889	0.905708	2.61836	0.94146	2.72432					0.848803	2.45419	0.954646	2.7575				
0.907688	2.61753	0.707748	2.02916	0.907835	2.61746	0.943661	2.72335					0.850745	2.45319	0.956769	2.75621				
0.909811	2.61662	0.709733	2.02942	0.909958	2.61655	0.945867	2.7224					0.852687	2.45221	0.958892	2.75493				
0.91193	2.6157	0.711717	2.02969	0.912077	2.61564	0.948079	2.72147					0.854628	2.45122	0.961015	2.75366				
0.914044	2.61478	0.7137	2.02995	0.914191	2.61472	0.950296	2.72055					0.85657	2.45024	0.963138	2.7524				
0.916154	2.61385	0.715684	2.03021	0.916301	2.61378	0.952518	2.71966					0.858512	2.44927	0.965261	2.75114				
0.91826	2.61291	0.717667	2.03047	0.918406	2.61285	0.954745	2.71879					0.860454	2.4483	0.967384	2.74989				
0.920362	2.61197	0.71965	2.03073	0.920508	2.6119	0.956977	2.71793					0.862395	2.44734	0.969506	2.74864				
0.922459	2.61102	0.721633	2.03099	0.922605	2.61095	0.959214	2.71709					0.864337	2.44638	0.971629	2.7474				
0.924553	2.61006	0.723615	2.03124	0.924698	2.60999	0.961455	2.71628					0.866279	2.44543	0.973751	2.74617				
0.926643	2.6091	0.725598	2.03149	0.926788	2.60903	0.963702	2.71547					0.86822	2.44448	0.975873	2.74494				
0.928729	2.60813	0.727579	2.03174	0.928873	2.60806	0.965953	2.71469					0.870162	2.44354	0.977995	2.74372				
0.93081	2.60715	0.729561	2.03199	0.930955	2.60708	0.968208	2.71392					0.872103	2.4426	0.980116	2.7425				
0.932889	2.60617	0.731543	2.03223	0.933033	2.6061	0.970468	2.71317					0.874045	2.44166	0.982237	2.74129				
0.934963	2.60519	0.733524	2.03248	0.935107	2.60512	0.972733	2.71244					0.875987	2.44074	0.984358	2.74008				
0.937034	2.6042	0.735505	2.03272	0.937178	2.60413	0.975002	2.71172					0.877928	2.43981	0.986478	2.73888				
0.939102	2.6032	0.737485	2.03296	0.939245	2.60313	0.977275	2.71102					0.87987	2.43889	0.988598	2.73769				
0.941166	2.6022	0.739466	2.03319	0.941309	2.60213	0.979552	2.71033					0.881812	2.43798	0.990718	2.73649				
0.943226	2.6012	0.741446	2.03343	0.943369	2.60113	0.981834	2.70966					0.883753	2.43707	0.992837	2.73531				
0.945284	2.60019	0.743426	2.03366	0.945426	2.60012	0.984119	2.709					0.885695	2.43616	0.994956	2.73413				
0.947338	2.59918	0.745406	2.03389	0.94748	2.59911	0.986408	2.70835					0.887637	2.43526	0.997075	2.73295				
0.949389	2.59817	0.747385	2.03412	0.949531	2.5981	0.988701	2.70772					0.889578	2.43437	0.999193	2.73178				
0.951437	2.59715	0.749364	2.03435	0.951579	2.59708	0.990998	2.70711					0.89152	2.43348	1.00131	2.73062				
0.953482	2.59613	0.751343	2.03458	0.953624	2.59606	0.993299	2.7065					0.893462	2.43259						
0.955524	2.59511	0.753322	2.0348	0.955666	2.59504	0.995603	2.70591					0.895404	2.43171						
0.957564	2.59408	0.755301	2.03503	0.957705	2.59401	0.99791	2.70533					0.897346	2.43083						
0.9596	2.59305	0.757279	2.03525	0.959742	2.59298	1.00022	2.70476					0.899288	2.42996						
0.961634	2.59202	0.759257	2.03547	0.961775	2.59195							0.90123	2.4291						
0.963666	2.59099	0.761235	2.03568	0.963807	2.59092							0.903172	2.42823						
0.965694	2.58996	0.763212	2.0359	0.965835	2.58989							0.905114	2.42737						
0.967721	2.58893	0.765189	2.03611	0.967861	2.58885							0.907057	2.42652						
0.969745	2.58789	0.767166	2.03633	0.969885	2.58782							0.908999	2.42567						
0.971767	2.58685	0.769143	2.03654	0.971907	2.58678							0.910942	2.42482						
0.973786	2.58582	0.77112	2.03675	0.973926	2.58574							0.912884	2.42398						
0.975803	2.58478	0.773096	2.03695	0.975943	2.58471							0.914827	2.42315						
0.977819	2.58374	0.775072	2.03716	0.977959	2.58367							0.91677	2.42232						
0.979832	2.5827	0.777048	2.03736	0.979972	2.58263							0.918712	2.42149						
0.981843	2.58166	0.779023	2.03756	0.981983	2.58159							0.920655	2.42066						
0.983852	2.58062	0.780999	2.03777	0.983992	2.58055							0.922598	2.41985						
0.98586	2.57959	0.782974	2.03796	0.985999	2.57951							0.924542	2.41903						
0.987865	2.57855	0.784949	2.03816	0.988005	2.57848							0.926485	2.41822						
0.989869	2.57751	0.786923	2.03836	0.990008	2.57744							0.928428	2.41741						
0.991872	2.57647	0.788898	2.03855	0.992011	2.5764							0.930372	2.41661						
0.993872	2.57544	0.790872	2.03875	0.994011	2.57536							0.932315	2.41581						
0.995871	2.5744	0.792846	2.03894	0.99601	2.57433							0.934259	2.41502						
0.997869	2.57337	0.794819	2.03913	0.998007	2.5733							0.936203	2.41423						
0.999865	2.57233	0.796793	2.03932	1	2.57226							0.938147	2.41345						
1.00186	2.5713	0.798766	2.0395									0.940091	2.41266						
		0.800739	2.03969									0.942036	2.41189						
		0.802712	2.03987									0.94398	2.41111						
		0.804685	2.04005									0.945925	2.41035						
		0.806657	2.04024									0.947869	2.40958						
		0.808629	2.04042									0.949814	2.40882						
		0.810601	2.04059									0.951759	2.40806						
		0.812572	2.04077									0.953705	2.40731						
		0.814544	2.04095									0.95565	2.40656						
		0.816515	2.04112									0.957596	2.40581						
		0.818486	2.04129									0.959541	2.40507						
		0.820457	2.04146									0.961487	2.40434						
		0.822427	2.04163									0.963433	2.4036						
		0.824397	2.0418									0.965379	2.40287						
		0.826367	2.04197									0.967326	2.40215						
		0.828337	2.04214									0.969272	2.40142						
		0.830307	2.0423									0.971219	2.40071						
		0.832276	2.04246									0.973166	2.39999						
		0.834245	2.04263									0.975113	2.39928						
		0.836214	2.04279									0.97706	2.39857						
		0.838183	2.04295									0.979008	2.39787						
		0.840152	2.0431									0.980956	2.39717						
		0.84212	2.04326									0.982903	2.39647						
		0.844088	2.04342									0.984851	2.39578						
		0.846056	2.04357									0.9868	2.39509						
		0.848023	2.04373									0.988748	2.39441						
		0.849991	2.04388									0.990697	2.39372						
		0.851958	2.04403									0.992646	2.39305						
		0.853925	2.04418									0.994595	2.39237						
		0.855892	2.04433									0.996544	2.3917						
		0.857858	2.04447									0.998493	2.39103						
		0.859825	2.04462									1.00044	2.39037						
		0.861791	2.04477																
		0.863757	2.04491																
		0.865723	2.04505																
		0.867688	2.04519																
		0.869653	2.04534																
		0.871618	2.04547																
		0.873583	2.04561																
		0.875548	2.04575																
		0.877512	2.04589																
		0.879477	2.04602																
		0.881441	2.04616																
		0.883405	2.04629																
		0.885368	2.04642																
		0.887332	2.04655																
		0.889295	2.04668																
		0.891258	2.04681																
		0.893221	2.04694																
		0.895183	2.04707																
		0.897146	2.04719																
		0.899108	2.04732																
		0.90107	2.04744																
		0.903032	2.04756																
		0.904994	2.04769																
		0.906955	2.04781																
		0.908916	2.04793																
		0.910877	2.04805																
		0.912838	2.04816																
		0.914799	2.04828																
		0.916759	2.0484																
		0.91872	2.04851																
		0.92068	2.04863																
		0.92264	2.04874																
		0.924599	2.04885																
		0.926559	2.04897																
		0.928518	2.04908																
		0.930477	2.04919																
		0.932436	2.0493																
		0.934395	2.04941																
		0.936353	2.04951																
		0.938312	2.04962																
		0.94027	2.04973																
		0.942228	2.04983																
		0.944186	2.04994																
		0.946144	2.05004																
		0.948101	2.05014																
		0.950058	2.05024																
		0.952015	2.05034																
		0.953972	2.05044																
		0.955929	2.05054																
		0.957886	2.05064																
		0.959842	2.05074																
		0.961798	2.05084																
		0.963754	2.05093																
		0.96571	2.05103																
		0.967666	2.05112																
		0.969621	2.05122																
		0.971576	2.05131																
		0.973532	2.0514																
		0.975487	2.0515																
		0.977441	2.05159																
		0.979396	2.05168																
		0.98135	2.05177																
		0.983305	2.05186																
		0.985259	2.05194																
		0.987213	2.05203																
		0.989167	2.05212																
		0.99112	2.05221																
		0.993074	2.05229																
		0.995027	2.05238																
		0.99698	2.05246																
		0.998933	2.05254																
		1.00089	2.05263																
