Sym0		Asym0		Sym1		Sym2		Sym3		Sym4		Asym1		Asym2		Asym3		Asym4	
425  Points		529  Points		425  Points		405  Points		352  Points		253  Points		456  Points		400  Points		345  Points		216  Points	
Freq (MHz)	Vph (m/ms)	Freq (MHz)	Vph (m/ms)	Freq (MHz)	Vph (m/ms)	Freq (MHz)	Vph (m/ms)	Freq (MHz)	Vph (m/ms)	Freq (MHz)	Vph (m/ms)	Freq (MHz)	Vph (m/ms)	Freq (MHz)	Vph (m/ms)	Freq (MHz)	Vph (m/ms)	Freq (MHz)	Vph (m/ms)
0.279509	696.565	3.83732e-005	0.0382214	0.27951	534.089	0.441207	2279.81	0.559017	2345.95	0.838525	14771.7	0.139763	293.182	0.419267	513.863	0.698772	1279.23	0.882415	1138.92
0.279519	209.697	0.000142552	0.0736447	0.279521	192.106	0.441215	392.114	0.559026	477.806	0.838529	848.318	0.139831	99.283	0.419283	239.918	0.698779	472.806	0.882423	517.102
0.279539	123.435	0.000312463	0.108972	0.279542	117.123	0.441235	214.513	0.559045	265.999	0.838538	436.703	0.139965	59.8116	0.41931	156.5	0.698791	289.999	0.882436	334.488
0.279569	87.4649	0.000547647	0.144153	0.279573	84.2488	0.441267	147.649	0.559075	184.308	0.838553	294.038	0.140166	42.8406	0.419349	116.131	0.698809	209.141	0.882456	247.196
0.279609	67.7339	0.000847321	0.179109	0.279615	65.7899	0.44131	112.57	0.559117	141.011	0.838573	221.637	0.140432	33.4085	0.4194	92.3241	0.698833	163.545	0.882481	196.039
0.279659	55.2714	0.00121074	0.213819	0.279667	53.9708	0.441365	90.9655	0.559169	114.192	0.838599	177.849	0.140764	27.4116	0.419462	76.6226	0.698863	134.275	0.882512	162.428
0.27972	46.6866	0.00163695	0.248243	0.279728	45.7558	0.441431	76.3234	0.559233	95.9486	0.838631	148.511	0.141159	23.2672	0.419535	65.4902	0.698899	113.894	0.882548	138.657
0.279791	40.4139	0.00212475	0.282328	0.279801	39.715	0.44151	65.7459	0.559307	82.7359	0.838669	127.484	0.141618	20.2352	0.41962	57.1863	0.698941	98.8866	0.882591	120.958
0.279872	35.6305	0.00267294	0.316042	0.279883	35.0867	0.4416	57.7474	0.559393	72.7254	0.838713	111.675	0.142138	17.9235	0.419717	50.755	0.698989	87.3757	0.882639	107.268
0.279963	31.8628	0.00328007	0.349344	0.279976	31.4276	0.441701	51.4876	0.559489	64.8793	0.838762	99.3556	0.142719	16.1047	0.419825	45.6274	0.699042	78.2671	0.882693	96.3634
0.280064	28.8185	0.00394479	0.382213	0.280078	28.4624	0.441814	46.4555	0.559597	58.5644	0.838817	89.4861	0.14336	14.638	0.419945	41.4438	0.699102	70.8799	0.882753	87.4728
0.280176	26.3078	0.00466542	0.414608	0.280191	26.0111	0.441939	42.3225	0.559715	53.3726	0.838878	81.4017	0.144058	13.4315	0.420076	37.9659	0.699167	64.7684	0.882818	80.0856
0.280298	24.202	0.00544031	0.446501	0.280314	23.951	0.442075	38.8676	0.559845	49.0291	0.838945	74.6585	0.144812	12.4227	0.420218	35.0291	0.699239	59.6285	0.88289	73.8503
0.28043	22.4105	0.00626789	0.477881	0.280448	22.1955	0.442223	35.9369	0.559985	45.3417	0.839017	68.9482	0.14562	11.5675	0.420372	32.5165	0.699316	55.2457	0.882967	68.517
0.280572	20.8681	0.00714638	0.508722	0.280591	20.6818	0.442383	33.4195	0.560137	42.1726	0.839096	64.0507	0.146481	10.834	0.420538	30.3426	0.699399	51.4643	0.88305	63.9034
0.280724	19.5264	0.00807401	0.539008	0.280745	19.3634	0.442554	31.2341	0.560299	39.4196	0.83918	59.8039	0.147273	10.2755	0.420715	28.4433	0.699488	48.1686	0.883138	59.8729
0.280887	18.3486	0.00904904	0.568725	0.280909	18.2048	0.442737	29.319	0.560473	37.0061	0.839269	56.0863	0.147977	9.8491	0.420903	26.7698	0.699583	45.2706	0.883233	56.3218
0.28106	17.3066	0.0100697	0.597865	0.281083	17.1789	0.442931	27.6273	0.560657	34.873	0.839365	52.8049	0.14858	9.52634	0.421103	25.2843	0.699683	42.7025	0.883333	53.1693
0.281243	16.3782	0.0111343	0.626423	0.281268	16.264	0.443136	26.1221	0.560852	32.9742	0.839466	49.8872	0.149069	9.28821	0.421314	23.9568	0.69979	40.4112	0.883439	50.3519
0.281436	15.546	0.012241	0.654382	0.281462	15.4433	0.443354	24.7743	0.561058	31.2733	0.839573	47.276	0.149436	9.12193	0.421536	22.7635	0.699903	38.3541	0.883551	47.819
0.281639	14.7957	0.0133881	0.681751	0.281667	14.7029	0.443582	23.5604	0.561275	29.7409	0.839686	44.9254	0.149674	9.0192	0.42177	21.6851	0.700021	36.4972	0.883668	45.5295
0.281853	14.116	0.014574	0.708522	0.281882	14.0317	0.443822	22.4616	0.561503	28.3532	0.839804	42.7983	0.15002	8.8763	0.422016	20.7058	0.700145	34.8126	0.883791	43.4501
0.282076	13.4974	0.015797	0.734703	0.282107	13.4205	0.444073	21.4623	0.561742	27.0907	0.839929	40.8644	0.150401	8.72705	0.422272	19.8127	0.700275	33.2775	0.88392	41.5531
0.28231	12.9321	0.0170555	0.760288	0.282342	12.8616	0.444336	20.5497	0.561991	25.9373	0.840058	39.0984	0.150929	8.53358	0.42254	18.9949	0.700412	31.8728	0.884055	39.8155
0.282554	12.4134	0.018348	0.785289	0.282587	12.3487	0.44461	19.713	0.562252	24.8795	0.840194	37.4795	0.151611	8.30344	0.422819	18.2434	0.700553	30.5826	0.884196	38.2182
0.282808	11.936	0.0196729	0.809707	0.282842	11.8763	0.444896	18.9431	0.562523	23.9059	0.840336	35.99	0.152456	8.04481	0.42311	17.5504	0.700701	29.3935	0.884342	36.7448
0.283073	11.4952	0.0210288	0.833551	0.283108	11.4399	0.445193	18.2325	0.562805	23.007	0.840483	34.6151	0.153477	7.76596	0.423411	16.9094	0.700855	28.2942	0.884494	35.3814
0.283347	11.0868	0.0224144	0.85683	0.283384	11.0356	0.445501	17.5745	0.563098	22.1744	0.840636	33.342	0.154685	7.4747	0.423724	16.3149	0.701015	27.2747	0.884652	34.1162
0.283631	10.7076	0.0238283	0.87955	0.283669	10.6599	0.44582	16.9636	0.563401	21.4011	0.840794	32.1598	0.155931	7.21028	0.424049	15.7619	0.70118	26.3268	0.884815	32.939
0.283926	10.3545	0.0252691	0.901722	0.283965	10.3101	0.446151	16.395	0.563715	20.6811	0.840959	31.0593	0.157213	6.9693	0.424384	15.2464	0.701351	25.4432	0.884984	31.8409
0.284231	10.025	0.0267355	0.923353	0.284231	10.0242	0.446492	15.8644	0.56404	20.0091	0.841129	30.0321	0.158529	6.74891	0.424731	14.7646	0.701528	24.6175	0.885159	30.8143
0.284545	9.71682	0.0282266	0.94446	0.284464	9.79341	0.446845	15.3681	0.564376	19.3805	0.841305	29.0713	0.159878	6.54668	0.425088	14.3135	0.701711	23.8444	0.88534	29.8523
0.28487	9.42795	0.0297411	0.965051	0.284661	9.61081	0.447209	14.9031	0.564722	18.7912	0.841486	28.1707	0.161259	6.36057	0.425457	13.8901	0.7019	23.1189	0.885526	28.9491
0.285205	9.15669	0.031278	0.985135	0.284819	9.47145	0.447584	14.4664	0.565079	18.2376	0.841673	27.3247	0.16267	6.18879	0.425837	13.4921	0.702095	22.4368	0.885718	28.0996
0.28555	8.9015	0.032836	1.00473	0.284937	9.37167	0.44797	14.0557	0.565447	17.7168	0.841866	26.5285	0.16411	6.02984	0.426228	13.1173	0.702296	21.7943	0.885916	27.2989
0.285906	8.66102	0.0344146	1.02384	0.285014	9.30897	0.448367	13.6685	0.565825	17.2258	0.842065	25.778	0.165578	5.88239	0.42663	12.7637	0.702502	21.1881	0.886119	26.5431
0.286271	8.43404	0.0360124	1.04248	0.285124	9.22038	0.448775	13.3031	0.566214	16.7621	0.84227	25.0692	0.167072	5.74529	0.427043	12.4296	0.702714	20.6152	0.886329	25.8286
0.286646	8.21948	0.0376287	1.06066	0.285245	9.1261	0.449194	12.9577	0.566613	16.3237	0.84248	24.3988	0.168591	5.61754	0.427467	12.1135	0.702932	20.0729	0.886543	25.1519
0.287031	8.01636	0.0392626	1.07839	0.285412	9.00112	0.449624	12.6306	0.567023	15.9085	0.842695	23.7639	0.170134	5.49827	0.427902	11.8139	0.703156	19.5589	0.886764	24.5103
0.287427	7.82382	0.0409134	1.0957	0.285627	8.84818	0.450065	12.3205	0.567443	15.5148	0.842917	23.1616	0.171699	5.38668	0.428348	11.5296	0.703386	19.0711	0.88699	23.9011
0.287832	7.64107	0.0425802	1.11257	0.285891	8.67047	0.450517	12.0262	0.567874	15.1408	0.843144	22.5895	0.173287	5.2821	0.428805	11.2595	0.703622	18.6074	0.887222	23.3218
0.288247	7.4674	0.0442624	1.12904	0.286208	8.4715	0.450979	11.7464	0.568315	14.7853	0.843377	22.0455	0.174896	5.18392	0.429272	11.0026	0.703863	18.1662	0.887459	22.7704
0.288673	7.30217	0.0459591	1.14511	0.286582	8.25491	0.451452	11.4801	0.568766	14.4469	0.843615	21.5274	0.176525	5.09158	0.429751	10.758	0.70411	17.7459	0.887703	22.2449
0.289108	7.14479	0.0476699	1.16079	0.286965	8.04992	0.451936	11.2264	0.569228	14.1244	0.84386	21.0336	0.178173	5.00462	0.43024	10.5248	0.704364	17.345	0.887951	21.7434
0.289553	6.99474	0.0493939	1.17609	0.287359	7.85565	0.45243	10.9845	0.569701	13.8167	0.844109	20.5623	0.179839	4.9226	0.43074	10.3022	0.704623	16.9622	0.888206	21.2645
0.290009	6.85154	0.0511308	1.19102	0.287763	7.6713	0.452935	10.7535	0.570183	13.5228	0.844365	20.1121	0.181522	4.84512	0.431185	10.1164	0.704887	16.5963	0.888466	20.8067
0.290474	6.71473	0.0528798	1.2056	0.288176	7.49614	0.453451	10.5327	0.570676	13.2419	0.844626	19.6815	0.183222	4.77183	0.43157	9.96363	0.705158	16.2463	0.888732	20.3685
0.290949	6.58391	0.0546404	1.21983	0.2886	7.32952	0.453977	10.3216	0.571179	12.9731	0.844893	19.2694	0.184939	4.70242	0.431893	9.84106	0.705434	15.9111	0.889003	19.9487
0.291434	6.45872	0.0564122	1.23372	0.289034	7.17086	0.454443	10.1449	0.571693	12.7157	0.845166	18.8745	0.18667	4.6366	0.432151	9.74645	0.705716	15.5899	0.88928	19.5463
0.29193	6.33881	0.0581946	1.24728	0.289477	7.01961	0.454848	9.99946	0.572216	12.4689	0.845444	18.4959	0.188416	4.57412	0.432343	9.67813	0.706004	15.2817	0.889563	19.1601
0.292435	6.22386	0.0599871	1.26053	0.289931	6.87527	0.455186	9.88257	0.57275	12.2322	0.845728	18.1325	0.190176	4.51473	0.432466	9.63496	0.706298	14.9859	0.889851	18.7893
0.29295	6.1136	0.0617894	1.27347	0.290395	6.73741	0.455457	9.79223	0.573294	12.005	0.846017	17.7835	0.191949	4.45821	0.432644	9.57364	0.706598	14.7016	0.890145	18.4328
0.293475	6.00774	0.0636011	1.28611	0.290868	6.60561	0.455657	9.72695	0.573848	11.7866	0.846312	17.448	0.193735	4.40439	0.432839	9.50795	0.706903	14.4282	0.890444	18.09
0.294009	5.90604	0.0654216	1.29846	0.291352	6.4795	0.455786	9.68567	0.574412	11.5766	0.846613	17.1252	0.195534	4.35307	0.433107	9.42018	0.707214	14.1652	0.890749	17.7601
0.294554	5.80827	0.0672506	1.31053	0.291845	6.35871	0.455973	9.62701	0.574986	11.3746	0.846919	16.8145	0.197344	4.30409	0.433448	9.3117	0.707531	13.912	0.89106	17.4422
0.295108	5.71423	0.0690878	1.32233	0.292349	6.24295	0.456177	9.56412	0.575569	11.1801	0.847231	16.5152	0.199165	4.25731	0.433867	9.18413	0.707854	13.6679	0.891376	17.1359
0.295673	5.6237	0.0709329	1.33385	0.292862	6.13191	0.456456	9.48003	0.576163	10.9927	0.847549	16.2267	0.200997	4.21257	0.434365	9.03933	0.708182	13.4326	0.891698	16.8405
0.296247	5.53651	0.0727854	1.34512	0.293385	6.02533	0.456813	9.37599	0.576767	10.812	0.847872	15.9484	0.20284	4.16977	0.434947	8.87928	0.708516	13.2056	0.892025	16.5553
0.296831	5.45249	0.0746451	1.35614	0.293918	5.92294	0.457249	9.2535	0.577381	10.6378	0.848201	15.6798	0.204692	4.12877	0.43554	8.72541	0.708856	12.9864	0.892358	16.28
0.297425	5.37147	0.0765118	1.36692	0.294461	5.82453	0.457768	9.11426	0.578004	10.4695	0.848535	15.4204	0.206554	4.08947	0.436142	8.57738	0.709202	12.7747	0.892696	16.014
0.298029	5.29331	0.078385	1.37746	0.295014	5.72987	0.458374	8.9601	0.578556	10.3276	0.848875	15.1697	0.208425	4.05177	0.436755	8.43489	0.709554	12.5701	0.89304	15.7568
0.298642	5.21786	0.0802646	1.38776	0.295577	5.63876	0.458989	8.81165	0.579032	10.21	0.84922	14.9274	0.210305	4.01559	0.437379	8.29762	0.709911	12.3722	0.893389	15.508
0.299266	5.145	0.0821503	1.39785	0.296149	5.55102	0.459615	8.6686	0.579429	10.1149	0.849572	14.6929	0.212193	3.98082	0.438012	8.16532	0.710274	12.1807	0.893744	15.2673
0.299899	5.0746	0.0840417	1.40772	0.296732	5.46647	0.46025	8.53068	0.579746	10.0411	0.849928	14.466	0.214089	3.9474	0.438656	8.03772	0.710642	11.9954	0.894104	15.0341
0.300542	5.00655	0.0859388	1.41737	0.297324	5.38495	0.460896	8.39763	0.579981	9.98762	0.85029	14.2462	0.215994	3.91525	0.439311	7.91459	0.711017	11.8159	0.89447	14.8083
0.301195	4.94074	0.0878414	1.42683	0.297926	5.30632	0.461551	8.26919	0.580131	9.95371	0.850658	14.0333	0.217905	3.8843	0.439975	7.79571	0.711397	11.6419	0.894842	14.5894
0.301857	4.87707	0.089749	1.43608	0.298538	5.23042	0.462216	8.14515	0.580349	9.90542	0.851032	13.827	0.219824	3.85449	0.440649	7.68086	0.711783	11.4733	0.895218	14.3772
0.302529	4.81544	0.0916616	1.44514	0.29916	5.15713	0.462891	8.02528	0.580587	9.85352	0.851411	13.6269	0.22175	3.82576	0.441334	7.56986	0.712175	11.3098	0.895601	14.1713
0.303211	4.75577	0.0935789	1.45401	0.299791	5.08633	0.463575	7.90939	0.580912	9.78389	0.851795	13.4327	0.223682	3.79805	0.442029	7.46252	0.712572	11.1511	0.895989	13.9714
0.303814	4.7053	0.0955009	1.4627	0.300433	5.01789	0.46427	7.79728	0.581326	9.6974	0.852185	13.2443	0.225621	3.7713	0.442734	7.35867	0.712975	10.9971	0.896382	13.7774
0.304333	4.66335	0.0974273	1.47121	0.301084	4.95171	0.464974	7.68879	0.581832	9.59506	0.85258	13.0613	0.227566	3.74548	0.443448	7.25815	0.713384	10.8475	0.89678	13.5889
0.304767	4.6294	0.0993579	1.47955	0.301745	4.88768	0.465687	7.58375	0.582433	9.47806	0.852981	12.8835	0.229517	3.72054	0.444173	7.16082	0.713798	10.7022	0.897184	13.4058
0.305112	4.603	0.101293	1.48771	0.302415	4.82572	0.46641	7.482	0.583131	9.34769	0.853388	12.7108	0.231473	3.69643	0.444908	7.06651	0.714164	10.5789	0.897594	13.2278
0.305367	4.58384	0.103231	1.49572	0.303096	4.76572	0.467142	7.3834	0.583838	9.2213	0.8538	12.5429	0.233435	3.67311	0.445652	6.97512	0.714479	10.4761	0.898009	13.0546
0.305531	4.57169	0.105173	1.50356	0.303786	4.70761	0.467884	7.28781	0.584555	9.09873	0.854217	12.3796	0.235403	3.65055	0.446406	6.8865	0.714742	10.3928	0.898429	12.8862
0.305768	4.55438	0.107119	1.51126	0.304486	4.6513	0.468635	7.19509	0.585281	8.97981	0.854641	12.2207	0.237376	3.62872	0.44717	6.80055	0.714951	10.3279	0.898855	12.7223
0.306027	4.53575	0.109069	1.51879	0.305195	4.59672	0.469396	7.10513	0.586017	8.86439	0.855069	12.0661	0.239353	3.60756	0.447944	6.71714	0.715106	10.2807	0.899286	12.5627
0.30638	4.51073	0.111022	1.52619	0.305915	4.54379	0.470166	7.01781	0.586762	8.75231	0.855503	11.9155	0.241335	3.58707	0.448728	6.63617	0.715206	10.2507	0.899722	12.4073
0.306831	4.47962	0.112978	1.53344	0.306644	4.49245	0.470945	6.93302	0.587516	8.64343	0.855942	11.7689	0.243322	3.5672	0.449521	6.55755	0.715349	10.208	0.900164	12.256
0.307381	4.44275	0.114937	1.54054	0.307383	4.44264	0.471733	6.85066	0.588279	8.53764	0.856387	11.6261	0.245313	3.54793	0.450323	6.48117	0.715506	10.162	0.900611	12.1085
0.308033	4.40054	0.116646	1.54663	0.308131	4.39428	0.47253	6.77062	0.589052	8.4348	0.856838	11.4869	0.247309	3.52924	0.451136	6.40695	0.71572	10.1001	0.901064	11.9647
0.30879	4.35341	0.118106	1.55174	0.30889	4.34733	0.473336	6.69283	0.589834	8.3348	0.857293	11.3513	0.249309	3.51109	0.451957	6.3348	0.715993	10.023	0.901522	11.8245
0.309556	4.30763	0.119313	1.55591	0.309658	4.30174	0.474151	6.61718	0.590625	8.23753	0.857755	11.219	0.251312	3.49347	0.452789	6.26464	0.716326	9.93145	0.901985	11.6877
0.310333	4.26317	0.120269	1.55917	0.310435	4.25744	0.474975	6.54359	0.591425	8.14287	0.858221	11.0899	0.25332	3.47636	0.453629	6.1964	0.716721	9.82631	0.902453	11.5543
0.311119	4.21996	0.120972	1.56155	0.311223	4.21439	0.475808	6.47199	0.592234	8.05074	0.858694	10.964	0.255331	3.45972	0.45448	6.12999	0.717179	9.70858	0.902927	11.4241
0.311915	4.17796	0.121423	1.56306	0.31202	4.17254	0.476649	6.40231	0.593052	7.96103	0.859109	10.8568	0.257346	3.44355	0.455339	6.06536	0.717642	9.59385	0.903406	11.297
0.312721	4.13712	0.12207	1.56523	0.312827	4.13185	0.4775	6.33446	0.593879	7.87365	0.859467	10.7671	0.259364	3.42782	0.456208	6.00244	0.718112	9.48202	0.90389	11.1729
0.313536	4.0974	0.122774	1.56757	0.313644	4.09228	0.478359	6.26837	0.594715	7.78853	0.859765	10.6942	0.261386	3.41252	0.457086	5.94116	0.718587	9.37298	0.90438	11.0516
0.314362	4.05877	0.123732	1.57072	0.314471	4.05379	0.479226	6.204	0.595559	7.70557	0.860002	10.6373	0.263411	3.39763	0.457973	5.88147	0.719067	9.26664	0.904811	10.9483
0.315197	4.02118	0.124944	1.57467	0.315307	4.01633	0.480102	6.14127	0.596413	7.6247	0.860177	10.5958	0.265439	3.38313	0.458869	5.8233	0.719553	9.16288	0.905181	10.8618
0.316042	3.9846	0.126412	1.57939	0.316153	3.97988	0.480987	6.08013	0.597275	7.54584	0.86029	10.5695	0.26747	3.36901	0.459775	5.76661	0.720045	9.06164	0.90549	10.7914
0.316896	3.94899	0.128135	1.58484	0.317009	3.94439	0.48188	6.02051	0.598146	7.46893	0.860452	10.5319	0.269504	3.35525	0.460689	5.71134	0.720542	8.9628	0.905735	10.7364
0.317761	3.91431	0.130114	1.59099	0.317875	3.90984	0.482782	5.96237	0.599025	7.39389	0.860629	10.4913	0.271541	3.34185	0.461613	5.65744	0.721045	8.8663	0.905916	10.6964
0.318635	3.88054	0.132096	1.59703	0.31875	3.87618	0.483692	5.90565	0.599914	7.32067	0.860871	10.4367	0.27358	3.32878	0.462545	5.60487	0.721554	8.77206	0.906033	10.6709
0.319519	3.84765	0.13408	1.60296	0.319636	3.84341	0.48461	5.85031	0.60081	7.24919	0.861178	10.3685	0.275622	3.31603	0.463487	5.55358	0.722068	8.67999	0.9062	10.6345
0.320413	3.81561	0.136066	1.60878	0.320531	3.81147	0.485536	5.7963	0.601716	7.17941	0.861553	10.2872	0.277667	3.3036	0.464437	5.50353	0.722587	8.59003	0.906383	10.5953
0.321317	3.78439	0.138054	1.6145	0.321436	3.78035	0.486471	5.74358	0.602629	7.11126	0.861996	10.1937	0.279714	3.29147	0.465396	5.45467	0.723113	8.50211	0.906633	10.5425
0.322231	3.75396	0.140044	1.62012	0.322351	3.75003	0.487414	5.6921	0.603552	7.04469	0.862509	10.0886	0.281763	3.27963	0.466364	5.40698	0.723643	8.41615	0.906951	10.4764
0.323155	3.72429	0.142036	1.62564	0.323276	3.72046	0.488365	5.64181	0.604482	6.97965	0.863028	9.98588	0.283815	3.26807	0.467341	5.3604	0.72418	8.33211	0.907338	10.3978
0.324088	3.69538	0.144029	1.63106	0.324212	3.69164	0.489324	5.59269	0.605421	6.91609	0.863552	9.88537	0.285869	3.25678	0.468327	5.3149	0.724721	8.2499	0.907795	10.3071
0.325032	3.66718	0.146024	1.63639	0.325157	3.66354	0.49029	5.5447	0.606368	6.85396	0.864082	9.78705	0.287925	3.24576	0.469321	5.27046	0.725269	8.16949	0.908325	10.2052
0.325986	3.63968	0.148021	1.64163	0.326112	3.63613	0.491265	5.49779	0.607324	6.79322	0.864617	9.69085	0.289983	3.23498	0.470324	5.22703	0.725822	8.09081	0.90886	10.1054
0.32695	3.61286	0.15002	1.64678	0.327077	3.6094	0.492248	5.45194	0.608288	6.73382	0.865157	9.59669	0.292044	3.22445	0.471335	5.18459	0.72638	8.0138	0.9094	10.0077
0.327924	3.5867	0.15202	1.65184	0.328053	3.58332	0.493238	5.40712	0.609259	6.67573	0.865703	9.50451	0.294106	3.21415	0.472355	5.1431	0.726944	7.93842	0.909945	9.91211
0.328909	3.56118	0.154022	1.65682	0.329038	3.55788	0.494236	5.36328	0.610239	6.61889	0.866254	9.41426	0.29617	3.20408	0.473383	5.10253	0.727514	7.86463	0.910495	9.81845
0.329903	3.53627	0.156025	1.66171	0.330034	3.53305	0.495242	5.3204	0.611227	6.56328	0.86681	9.32587	0.298235	3.19424	0.47442	5.06286	0.728088	7.79236	0.911051	9.72672
0.330908	3.51197	0.158029	1.66652	0.331041	3.50883	0.496255	5.27845	0.612223	6.50886	0.867371	9.2393	0.300303	3.1846	0.475465	5.02406	0.728669	7.72157	0.911611	9.63684
0.331924	3.48825	0.160035	1.67125	0.332057	3.48519	0.497276	5.23741	0.613227	6.45559	0.867938	9.15448	0.302372	3.17517	0.476519	4.98611	0.729255	7.65223	0.912177	9.54878
0.332949	3.46511	0.162042	1.67591	0.333085	3.46212	0.498304	5.19724	0.614239	6.40343	0.86851	9.07137	0.304443	3.16594	0.477581	4.94897	0.729846	7.58429	0.912748	9.46246
0.333986	3.44251	0.16405	1.68048	0.334122	3.43959	0.49934	5.15793	0.615259	6.35236	0.869087	8.98992	0.306515	3.15691	0.478651	4.91263	0.730443	7.51771	0.913323	9.37785
0.335033	3.42046	0.16606	1.68499	0.335171	3.41761	0.500384	5.11943	0.616286	6.30235	0.869669	8.91007	0.308589	3.14806	0.47973	4.87707	0.731045	7.45244	0.913904	9.2949
0.336091	3.39892	0.16807	1.68942	0.33623	3.39614	0.501434	5.08174	0.617322	6.25336	0.870257	8.83179	0.310664	3.13939	0.480816	4.84225	0.731653	7.38846	0.91449	9.21355
0.337159	3.3779	0.170082	1.69377	0.3373	3.37519	0.502492	5.04483	0.618365	6.20536	0.87085	8.75502	0.312741	3.13089	0.481911	4.80816	0.732266	7.32573	0.915081	9.13376
0.338238	3.35738	0.172095	1.69806	0.338381	3.35473	0.503558	5.00868	0.619415	6.15832	0.871448	8.67974	0.314818	3.12257	0.483014	4.77478	0.732885	7.26421	0.915677	9.0555
0.339329	3.33734	0.174108	1.70228	0.339473	3.33475	0.50463	4.97326	0.620474	6.11223	0.872052	8.60588	0.316898	3.11441	0.484125	4.74208	0.733509	7.20387	0.916278	8.97871
0.34043	3.31777	0.176123	1.70644	0.340576	3.31524	0.50571	4.93855	0.62154	6.06704	0.87266	8.53343	0.318978	3.10642	0.485244	4.71006	0.734138	7.14468	0.916884	8.90337
0.341543	3.29866	0.178139	1.71053	0.34169	3.29619	0.506796	4.90454	0.622613	6.02275	0.873274	8.46233	0.32106	3.09857	0.48637	4.67868	0.734773	7.0866	0.917495	8.82942
0.342667	3.28001	0.180156	1.71455	0.342816	3.27759	0.50789	4.8712	0.623694	5.97932	0.873893	8.39256	0.323143	3.09088	0.487505	4.64794	0.735413	7.0296	0.918111	8.75683
0.343803	3.26179	0.182173	1.71852	0.343953	3.25943	0.508991	4.83852	0.624783	5.93672	0.874517	8.32407	0.325227	3.08334	0.488648	4.61782	0.736059	6.97367	0.918732	8.68557
0.34495	3.244	0.184191	1.72242	0.345102	3.2417	0.510099	4.80648	0.625878	5.89495	0.875146	8.25684	0.327312	3.07593	0.489798	4.58829	0.73671	6.91876	0.919358	8.6156
0.34611	3.22663	0.186211	1.72626	0.346262	3.22438	0.511213	4.77506	0.626982	5.85397	0.87578	8.19082	0.329397	3.06867	0.490957	4.55935	0.737366	6.86486	0.919988	8.54688
0.347281	3.20967	0.188231	1.73004	0.347435	3.20747	0.512335	4.74425	0.628092	5.81376	0.87642	8.12599	0.331484	3.06154	0.492123	4.53097	0.738028	6.81193	0.920624	8.4794
0.348464	3.19311	0.190251	1.73377	0.34862	3.19097	0.513463	4.71403	0.62921	5.77431	0.877065	8.06232	0.333572	3.05454	0.493297	4.50315	0.738695	6.75996	0.921265	8.4131
0.34966	3.17694	0.192273	1.73744	0.349817	3.17485	0.514598	4.68438	0.630335	5.73559	0.877714	7.99978	0.335661	3.04766	0.494478	4.47587	0.739367	6.70891	0.92191	8.34797
0.350868	3.16116	0.194295	1.74105	0.351027	3.15912	0.515739	4.65529	0.631467	5.69759	0.878369	7.93834	0.337751	3.04091	0.495667	4.44911	0.740045	6.65877	0.92256	8.28397
0.352089	3.14575	0.196318	1.74461	0.35225	3.14376	0.516888	4.62674	0.632606	5.66029	0.879029	7.87797	0.339841	3.03428	0.496864	4.42287	0.740728	6.60951	0.923216	8.22107
0.353322	3.13071	0.198341	1.74812	0.353485	3.12877	0.518043	4.59873	0.633752	5.62366	0.879694	7.81865	0.341932	3.02776	0.498068	4.39712	0.741416	6.5611	0.923876	8.15926
0.354569	3.11604	0.200365	1.75158	0.354734	3.11414	0.519204	4.57123	0.634906	5.5877	0.880364	7.76034	0.344024	3.02136	0.49928	4.37186	0.74211	6.51354	0.924541	8.09849
0.35583	3.10172	0.20239	1.75498	0.355996	3.09987	0.520372	4.54424	0.636066	5.55238	0.88104	7.70303	0.346116	3.01506	0.500499	4.34707	0.742809	6.46679	0.92521	8.03875
0.357104	3.08775	0.204415	1.75834	0.357272	3.08594	0.521546	4.51773	0.637233	5.5177	0.88172	7.64669	0.34821	3.00888	0.501726	4.32274	0.743513	6.42084	0.925885	7.98002
0.358392	3.07412	0.206441	1.76165	0.358562	3.07236	0.522727	4.49171	0.638407	5.48363	0.882405	7.59129	0.350303	3.0028	0.50296	4.29887	0.744223	6.37567	0.926564	7.92226
0.359694	3.06083	0.208467	1.7649	0.359866	3.05911	0.523914	4.46616	0.639588	5.45015	0.883096	7.53682	0.352398	2.99681	0.504201	4.27543	0.744938	6.33126	0.927249	7.86545
0.361011	3.04786	0.210494	1.76812	0.361184	3.04619	0.525107	4.44106	0.640776	5.41727	0.883791	7.48325	0.354493	2.99093	0.50545	4.25242	0.745658	6.28759	0.927937	7.80957
0.362342	3.03523	0.212521	1.77128	0.362517	3.0336	0.526307	4.4164	0.641971	5.38495	0.884492	7.43057	0.356588	2.98515	0.506706	4.22983	0.746383	6.24465	0.928631	7.7546
0.363688	3.02292	0.214549	1.7744	0.363866	3.02133	0.527513	4.39218	0.643172	5.35319	0.885197	7.37874	0.358684	2.97945	0.507969	4.20765	0.747114	6.20241	0.92933	7.70053
0.36505	3.01092	0.216577	1.77748	0.365229	3.00937	0.528725	4.36839	0.64438	5.32197	0.885908	7.32775	0.36078	2.97385	0.50924	4.18587	0.74785	6.16087	0.930033	7.64731
0.366427	2.99923	0.218605	1.78051	0.366609	2.99772	0.529943	4.345	0.645594	5.29128	0.886623	7.27758	0.362877	2.96834	0.510517	4.16448	0.748591	6.12	0.930741	7.59495
0.367821	2.98785	0.220634	1.7835	0.368004	2.98638	0.531167	4.32202	0.646815	5.26112	0.887343	7.22822	0.364974	2.96291	0.511802	4.14347	0.749337	6.07979	0.931453	7.54341
0.36923	2.97677	0.222663	1.78645	0.369416	2.97534	0.532397	4.29944	0.648043	5.23146	0.888069	7.17964	0.367072	2.95757	0.513094	4.12283	0.750088	6.04023	0.932171	7.49269
0.370657	2.96599	0.224693	1.78936	0.370845	2.9646	0.533633	4.27724	0.649277	5.20229	0.888799	7.13182	0.36917	2.95231	0.514392	4.10255	0.750845	6.00129	0.932893	7.44275
0.3721	2.95551	0.226723	1.79223	0.37229	2.95416	0.534875	4.25542	0.650517	5.17361	0.889535	7.08476	0.371268	2.94713	0.515698	4.08263	0.751607	5.96298	0.933619	7.39359
0.373561	2.94531	0.228753	1.79506	0.373753	2.944	0.536123	4.23396	0.651764	5.1454	0.890275	7.03842	0.373366	2.94203	0.517011	4.06305	0.752374	5.92526	0.934351	7.34519
0.375039	2.93541	0.230784	1.79785	0.375234	2.93413	0.537377	4.21287	0.653017	5.11765	0.89102	6.99281	0.375465	2.93701	0.518331	4.04381	0.753146	5.88814	0.935087	7.29753
0.376536	2.92578	0.232815	1.8006	0.376733	2.92454	0.538637	4.19212	0.654277	5.09035	0.89177	6.94789	0.377564	2.93206	0.519657	4.02491	0.753923	5.8516	0.935827	7.25059
0.37805	2.91644	0.234846	1.80332	0.37825	2.91523	0.539902	4.17172	0.655542	5.06349	0.892525	6.90366	0.379663	2.92718	0.520991	4.00632	0.754706	5.81561	0.936573	7.20436
0.379584	2.90737	0.236877	1.80599	0.379786	2.9062	0.541173	4.15165	0.656814	5.03707	0.893285	6.8601	0.381762	2.92237	0.522331	3.98806	0.755493	5.78018	0.937322	7.15882
0.381136	2.89858	0.238909	1.80864	0.381341	2.89744	0.54245	4.13191	0.658092	5.01107	0.89405	6.8172	0.383862	2.91763	0.523678	3.9701	0.756286	5.74529	0.938077	7.11396
0.382708	2.89005	0.240941	1.81124	0.382915	2.88895	0.543732	4.1125	0.659376	4.98548	0.894819	6.77493	0.385961	2.91296	0.525031	3.95245	0.757084	5.71093	0.938836	7.06976
0.384299	2.88179	0.242973	1.81381	0.384509	2.88073	0.54502	4.09339	0.660667	4.96029	0.895594	6.7333	0.38806	2.90835	0.526392	3.93509	0.757887	5.67709	0.939599	7.02622
0.38591	2.87379	0.245005	1.81635	0.386123	2.87277	0.546314	4.07459	0.661963	4.9355	0.896373	6.69228	0.39016	2.90381	0.527759	3.91802	0.758695	5.64376	0.940368	6.98331
0.387541	2.86606	0.247038	1.81886	0.387756	2.86506	0.547613	4.0561	0.663265	4.91109	0.897157	6.65187	0.39226	2.89933	0.529133	3.90123	0.759508	5.61092	0.94114	6.94102
0.389192	2.85857	0.24907	1.82133	0.38941	2.85761	0.548917	4.03789	0.664573	4.88706	0.897946	6.61204	0.394359	2.89492	0.530513	3.88473	0.760326	5.57857	0.941917	6.89934
0.390864	2.85134	0.251103	1.82377	0.391085	2.85041	0.550227	4.01998	0.665888	4.86341	0.89874	6.57279	0.396459	2.89056	0.5319	3.86849	0.761149	5.54669	0.942699	6.85827
0.392556	2.84435	0.253136	1.82618	0.39278	2.84345	0.551542	4.00234	0.667208	4.84011	0.899539	6.53411	0.398558	2.88626	0.533294	3.85252	0.761978	5.51528	0.943485	6.81777
0.394269	2.83761	0.255169	1.82855	0.394495	2.83674	0.552863	3.98498	0.668533	4.81717	0.900342	6.49599	0.400658	2.88202	0.534694	3.83681	0.762811	5.48433	0.944276	6.77785
0.396003	2.8311	0.257202	1.8309	0.396232	2.83027	0.554189	3.96789	0.669865	4.79458	0.901151	6.4584	0.402757	2.87783	0.5361	3.82135	0.76365	5.45382	0.945071	6.7385
0.397758	2.82483	0.259236	1.83322	0.397989	2.82403	0.55552	3.95106	0.671202	4.77232	0.901964	6.42135	0.404856	2.8737	0.537513	3.80615	0.764493	5.42376	0.945871	6.69969
0.399533	2.81879	0.261269	1.8355	0.399767	2.81801	0.556856	3.9345	0.672545	4.7504	0.902781	6.38482	0.406955	2.86962	0.538932	3.79118	0.765341	5.39412	0.946675	6.66143
0.401329	2.81297	0.263303	1.83776	0.401566	2.81222	0.558197	3.91818	0.673894	4.72881	0.903604	6.34881	0.409054	2.8656	0.540358	3.77646	0.766195	5.36491	0.947483	6.62369
0.403146	2.80737	0.265336	1.83999	0.403385	2.80665	0.559544	3.90211	0.675248	4.70754	0.904431	6.31329	0.411152	2.86162	0.54179	3.76197	0.767053	5.33611	0.948296	6.58647
0.404983	2.80198	0.26737	1.84219	0.405225	2.80129	0.560896	3.88629	0.676608	4.68658	0.905263	6.27827	0.413251	2.85769	0.543228	3.74772	0.767917	5.30771	0.949113	6.54976
0.40684	2.7968	0.269404	1.84436	0.407085	2.79614	0.562252	3.8707	0.677973	4.66592	0.9061	6.24373	0.415349	2.85382	0.544673	3.73368	0.768785	5.27971	0.949935	6.51355
0.408717	2.79182	0.271437	1.84651	0.408965	2.79119	0.563614	3.85535	0.679344	4.64557	0.906942	6.20966	0.417447	2.84999	0.546123	3.71987	0.769658	5.25211	0.950761	6.47784
0.410614	2.78704	0.273471	1.84862	0.410864	2.78643	0.564981	3.84022	0.68072	4.62551	0.907788	6.17605	0.419545	2.8462	0.54758	3.70627	0.770537	5.22488	0.951591	6.4426
0.41253	2.78246	0.275505	1.85072	0.412783	2.78187	0.566352	3.82532	0.682102	4.60574	0.908639	6.14291	0.421642	2.84246	0.549044	3.69289	0.77142	5.19803	0.952426	6.40783
0.414466	2.77805	0.277539	1.85278	0.414721	2.77749	0.567729	3.81064	0.683489	4.58625	0.909494	6.1102	0.423739	2.83877	0.550513	3.67971	0.772308	5.17155	0.953265	6.37352
0.41642	2.77383	0.279573	1.85483	0.416677	2.77329	0.56911	3.79617	0.684881	4.56704	0.910354	6.07794	0.425835	2.83512	0.551988	3.66674	0.773201	5.14543	0.954108	6.33967
0.418392	2.76978	0.281607	1.85684	0.418652	2.76926	0.570497	3.78191	0.686279	4.54811	0.911219	6.0461	0.427932	2.83151	0.55347	3.65397	0.774099	5.11966	0.954956	6.30626
0.420382	2.76589	0.283641	1.85883	0.420644	2.76539	0.571888	3.76786	0.687682	4.52943	0.912089	6.01469	0.430028	2.82795	0.554957	3.64139	0.775002	5.09424	0.955808	6.27329
0.42239	2.76217	0.285675	1.8608	0.422654	2.76169	0.573283	3.75402	0.68909	4.51103	0.912963	5.98369	0.432123	2.82442	0.556451	3.629	0.77591	5.06916	0.956664	6.24075
0.424414	2.7586	0.287709	1.86275	0.424681	2.75814	0.574684	3.74037	0.690503	4.49287	0.913842	5.9531	0.434218	2.82094	0.55795	3.61681	0.776823	5.04442	0.957525	6.20862
0.426455	2.75518	0.289743	1.86467	0.426723	2.75474	0.576089	3.72691	0.691921	4.47498	0.914725	5.9229	0.436313	2.81749	0.559456	3.60479	0.77774	5.02001	0.95839	6.17692
0.428511	2.7519	0.291776	1.86656	0.428782	2.75148	0.577499	3.71365	0.693345	4.45732	0.915613	5.8931	0.438407	2.81408	0.560967	3.59296	0.778662	4.99592	0.959259	6.14561
0.430583	2.74876	0.29381	1.86844	0.430856	2.74836	0.578913	3.70058	0.694773	4.43991	0.916506	5.86368	0.4405	2.81071	0.562485	3.58131	0.77959	4.97214	0.960132	6.11471
0.43267	2.74575	0.295844	1.87029	0.432944	2.74536	0.580333	3.68768	0.696207	4.42274	0.917403	5.83464	0.442593	2.80738	0.564008	3.56983	0.780522	4.94868	0.961009	6.0842
0.434771	2.74286	0.297878	1.87212	0.435047	2.74249	0.581756	3.67497	0.697645	4.4058	0.918305	5.80598	0.444686	2.80408	0.565537	3.55852	0.781459	4.92553	0.961891	6.05407
0.436886	2.7401	0.299911	1.87393	0.437164	2.73975	0.583184	3.66244	0.699088	4.38909	0.919211	5.77767	0.446778	2.80082	0.567072	3.54739	0.7824	4.90267	0.962777	6.02432
0.439014	2.73745	0.301945	1.87571	0.439293	2.73711	0.584617	3.65008	0.700536	4.37261	0.920122	5.74973	0.448869	2.79759	0.568612	3.53641	0.783347	4.88011	0.963667	5.99493
0.441154	2.73491	0.303979	1.87748	0.441436	2.73458	0.586054	3.63789	0.70199	4.35634	0.921037	5.72213	0.45096	2.79439	0.570159	3.5256	0.784298	4.85784	0.964561	5.96592
0.443307	2.73247	0.306012	1.87923	0.44359	2.73216	0.587495	3.62587	0.703447	4.34029	0.921957	5.69488	0.45305	2.79123	0.571711	3.51495	0.785254	4.83585	0.965459	5.93726
0.445472	2.73014	0.308045	1.88095	0.445757	2.72984	0.588941	3.61401	0.70491	4.32446	0.922881	5.66797	0.45514	2.7881	0.573269	3.50445	0.786215	4.81415	0.966361	5.90895
0.447648	2.7279	0.310079	1.88266	0.447934	2.72761	0.590392	3.60231	0.706377	4.30883	0.92381	5.6414	0.457229	2.785	0.574832	3.49411	0.787181	4.79272	0.967268	5.88099
0.449835	2.72575	0.312112	1.88434	0.450122	2.72547	0.591846	3.59078	0.707849	4.29341	0.924744	5.61515	0.459317	2.78193	0.576401	3.48391	0.788151	4.77156	0.968179	5.85337
0.452032	2.72368	0.314145	1.88601	0.45232	2.72342	0.593305	3.57939	0.709326	4.27819	0.925682	5.58922	0.461405	2.7789	0.577976	3.47387	0.789126	4.75067	0.969093	5.82608
0.454239	2.7217	0.316178	1.88765	0.454529	2.72145	0.594768	3.56816	0.710808	4.26317	0.926624	5.56362	0.463492	2.77589	0.579556	3.46397	0.790106	4.73004	0.970012	5.79913
0.456455	2.7198	0.318211	1.88928	0.456746	2.71955	0.596235	3.55708	0.712294	4.24834	0.927571	5.53832	0.465578	2.77291	0.581142	3.45421	0.79109	4.70966	0.970935	5.77249
0.45868	2.71797	0.320244	1.89089	0.458973	2.71773	0.597707	3.54615	0.713784	4.23371	0.928522	5.51333	0.467664	2.76996	0.582733	3.4446	0.792079	4.68954	0.971862	5.74617
0.460914	2.71621	0.322276	1.89248	0.461208	2.71599	0.599182	3.53536	0.715279	4.21926	0.929478	5.48864	0.469749	2.76704	0.58433	3.43512	0.793073	4.66966	0.972793	5.72017
0.463157	2.71452	0.324309	1.89406	0.463451	2.7143	0.600662	3.52472	0.716779	4.20499	0.930438	5.46425	0.471833	2.76415	0.585932	3.42577	0.794072	4.65003	0.973728	5.69447
0.465407	2.71289	0.326341	1.89561	0.465702	2.71269	0.602146	3.51421	0.718283	4.19091	0.931402	5.44014	0.473916	2.76128	0.58754	3.41656	0.795075	4.63064	0.974667	5.66907
0.467664	2.71133	0.328374	1.89715	0.467961	2.71113	0.603634	3.50385	0.719791	4.177	0.932371	5.41633	0.475998	2.75844	0.589153	3.40748	0.796083	4.61149	0.97561	5.64397
0.469929	2.70982	0.330406	1.89867	0.470226	2.70963	0.605126	3.49361	0.721304	4.16327	0.933345	5.3928	0.47808	2.75562	0.590772	3.39853	0.797096	4.59257	0.976557	5.61916
0.472201	2.70837	0.332438	1.90017	0.472499	2.70818	0.606622	3.48351	0.722821	4.14971	0.934322	5.36954	0.480161	2.75284	0.592396	3.3897	0.798113	4.57388	0.977507	5.59464
0.474479	2.70697	0.33447	1.90166	0.474778	2.70679	0.608122	3.47354	0.724342	4.13632	0.935304	5.34655	0.482241	2.75007	0.594025	3.381	0.799135	4.55541	0.978462	5.5704
0.476763	2.70562	0.336501	1.90313	0.477063	2.70545	0.609626	3.4637	0.725868	4.1231	0.936291	5.32384	0.48432	2.74733	0.59566	3.37242	0.800161	4.53717	0.979421	5.54644
0.479054	2.70432	0.338533	1.90458	0.479354	2.70415	0.611134	3.45398	0.727398	4.11004	0.937282	5.30139	0.486399	2.74461	0.5973	3.36396	0.801192	4.51914	0.980384	5.52275
0.48135	2.70306	0.340564	1.90602	0.481651	2.7029	0.612646	3.44439	0.728932	4.09714	0.938277	5.2792	0.488476	2.74192	0.598945	3.35562	0.802228	4.50132	0.98135	5.49933
0.483651	2.70185	0.342595	1.90744	0.483953	2.7017	0.614162	3.43492	0.73047	4.08439	0.939276	5.25726	0.490553	2.73925	0.600595	3.34739	0.803268	4.48372	0.982321	5.47618
0.485958	2.70068	0.344626	1.90885	0.48626	2.70053	0.615682	3.42557	0.732012	4.0718	0.94028	5.23558	0.492628	2.73661	0.602251	3.33928	0.804313	4.46632	0.983295	5.45329
0.488269	2.69955	0.346657	1.91024	0.488572	2.6994	0.617205	3.41634	0.733559	4.05937	0.941288	5.21414	0.494703	2.73398	0.603911	3.33128	0.805362	4.44913	0.984274	5.43065
0.490585	2.69846	0.348688	1.91162	0.490889	2.69831	0.618732	3.40722	0.73511	4.04708	0.9423	5.19295	0.496777	2.73138	0.605577	3.32339	0.806416	4.43214	0.985256	5.40827
0.492906	2.6974	0.350719	1.91298	0.49321	2.69726	0.620263	3.39821	0.736664	4.03495	0.943317	5.17199	0.49885	2.7288	0.607248	3.3156	0.807475	4.41535	0.986242	5.38614
0.495231	2.69637	0.352749	1.91432	0.495536	2.69624	0.621798	3.38932	0.738223	4.02295	0.944338	5.15128	0.500922	2.72624	0.608924	3.30793	0.808538	4.39875	0.987232	5.36425
0.49756	2.69538	0.354779	1.91565	0.497866	2.69525	0.623336	3.38054	0.739785	4.0111	0.945363	5.13079	0.502993	2.7237	0.610605	3.30035	0.809605	4.38235	0.988225	5.3426
0.499893	2.69442	0.356809	1.91697	0.500199	2.6943	0.624879	3.37187	0.741352	3.99939	0.946393	5.11054	0.505063	2.72118	0.612291	3.29289	0.810677	4.36613	0.989223	5.32119
0.50223	2.69349	0.358839	1.91827	0.502536	2.69337	0.626424	3.3633	0.742922	3.98782	0.947426	5.09051	0.507132	2.71868	0.613983	3.28552	0.811754	4.3501	0.990224	5.30001
0.50457	2.69259	0.360869	1.91956	0.504877	2.69247	0.627974	3.35484	0.744497	3.97639	0.948464	5.0707	0.5092	2.7162	0.615679	3.27825	0.812835	4.33425	0.991229	5.27907
0.506914	2.69171	0.362898	1.92084	0.507221	2.6916	0.629527	3.34648	0.746075	3.96508	0.949506	5.05111	0.511267	2.71374	0.61738	3.27108	0.81392	4.31859	0.992238	5.25835
0.509261	2.69086	0.364927	1.9221	0.509569	2.69075	0.631084	3.33822	0.747657	3.95391	0.950553	5.03174	0.513333	2.71129	0.619086	3.26401	0.81501	4.3031	0.993251	5.23785
0.511611	2.69003	0.366956	1.92335	0.511919	2.68993	0.632644	3.33006	0.749243	3.94287	0.951603	5.01258	0.515398	2.70887	0.620797	3.25703	0.816105	4.28778	0.994267	5.21758
0.513964	2.68923	0.368985	1.92458	0.514273	2.68913	0.634208	3.322	0.750832	3.93196	0.952658	4.99363	0.517462	2.70647	0.622513	3.25014	0.817203	4.27264	0.995287	5.19752
0.51632	2.68845	0.371014	1.92581	0.516629	2.68835	0.635775	3.31404	0.752425	3.92117	0.953717	4.97488	0.519525	2.70408	0.624234	3.24335	0.818307	4.25767	0.996311	5.17767
0.518678	2.68769	0.373042	1.92702	0.518988	2.6876	0.637346	3.30617	0.754022	3.91051	0.95478	4.95634	0.521587	2.70171	0.625959	3.23665	0.819414	4.24287	0.997338	5.15804
0.52104	2.68696	0.37507	1.92821	0.521349	2.68686	0.638921	3.29839	0.755623	3.89996	0.955847	4.938	0.523648	2.69936	0.627689	3.23004	0.820526	4.22823	0.99837	5.13861
0.523403	2.68624	0.377098	1.9294	0.523713	2.68615	0.640498	3.29071	0.757227	3.88954	0.956918	4.91985	0.525707	2.69702	0.629425	3.22351	0.821643	4.21375	0.999404	5.11939
0.525769	2.68554	0.379126	1.93057	0.526079	2.68545	0.64208	3.28312	0.758835	3.87923	0.957994	4.9019	0.527766	2.6947	0.631164	3.21707	0.822764	4.19943	1.00044	5.10037
0.528137	2.68486	0.381154	1.93173	0.528448	2.68477	0.643665	3.27562	0.760446	3.86904	0.959073	4.88414	0.529824	2.6924	0.632909	3.21071	0.823889	4.18527		
0.530508	2.6842	0.383181	1.93288	0.530819	2.68411	0.645253	3.2682	0.762061	3.85896	0.960157	4.86657	0.53188	2.69011	0.634658	3.20444	0.825019	4.17127		
0.53288	2.68355	0.385208	1.93401	0.533191	2.68347	0.646844	3.26088	0.763679	3.849	0.961245	4.84918	0.533935	2.68784	0.636412	3.19825	0.826153	4.15742		
0.535255	2.68292	0.387235	1.93514	0.535566	2.68284	0.648439	3.25364	0.765301	3.83915	0.962336	4.83198	0.53599	2.68559	0.638171	3.19215	0.827291	4.14372		
0.537631	2.68231	0.389262	1.93625	0.537943	2.68223	0.650037	3.24648	0.766927	3.8294	0.963432	4.81495	0.538043	2.68335	0.639934	3.18612	0.828434	4.13017		
0.540009	2.6817	0.391288	1.93735	0.540321	2.68163	0.651639	3.2394	0.768555	3.81976	0.964532	4.79811	0.540095	2.68113	0.641702	3.18017	0.829581	4.11676		
0.542389	2.68112	0.393314	1.93844	0.542701	2.68104	0.653243	3.23241	0.770187	3.81023	0.965636	4.78144	0.542146	2.67892	0.643474	3.17429	0.830732	4.1035		
0.54477	2.68054	0.39534	1.93952	0.545082	2.68047	0.654851	3.2255	0.771823	3.80081	0.966744	4.76495	0.544195	2.67672	0.645251	3.1685	0.831887	4.09039		
0.547153	2.67998	0.397366	1.94059	0.547466	2.67991	0.656463	3.21866	0.773462	3.79148	0.967857	4.74862	0.546244	2.67454	0.647033	3.16277	0.833047	4.07741		
0.549538	2.67944	0.399391	1.94164	0.54985	2.67936	0.658077	3.21191	0.775104	3.78226	0.968973	4.73246	0.548292	2.67238	0.648819	3.15713	0.834211	4.06457		
0.551924	2.6789	0.401416	1.94269	0.552237	2.67883	0.659695	3.20523	0.776749	3.77313	0.970093	4.71647	0.550338	2.67022	0.650609	3.15155	0.83538	4.05187		
0.554311	2.67837	0.403441	1.94373	0.554624	2.67831	0.661316	3.19862	0.778398	3.7641	0.971217	4.70065	0.552383	2.66809	0.652404	3.14605	0.836552	4.03931		
0.5567	2.67786	0.405466	1.94475	0.557013	2.67779	0.66294	3.19209	0.78005	3.75517	0.972345	4.68498	0.554427	2.66596	0.654203	3.14061	0.837729	4.02687		
0.559089	2.67736	0.407491	1.94577	0.559403	2.67729	0.664568	3.18564	0.781705	3.74634	0.973477	4.66947	0.55647	2.66385	0.656007	3.13525	0.838911	4.01457		
0.56148	2.67686	0.409515	1.94677	0.561794	2.6768	0.666198	3.17926	0.783363	3.7376	0.974613	4.65412	0.558512	2.66175	0.657815	3.12995	0.840096	4.0024		
0.563872	2.67638	0.411539	1.94777	0.564186	2.67632	0.667832	3.17294	0.785025	3.72895	0.975754	4.63893	0.560552	2.65967	0.659627	3.12472	0.841286	3.99035		
0.566266	2.6759	0.413563	1.94875	0.566579	2.67584	0.669469	3.1667	0.786689	3.72039	0.976898	4.62389	0.562591	2.65759	0.661443	3.11956	0.842479	3.97843		
0.56866	2.67544	0.415586	1.94973	0.568973	2.67538	0.671109	3.16053	0.788357	3.71192	0.978046	4.60899	0.56463	2.65554	0.663264	3.11446	0.843677	3.96664		
0.571055	2.67498	0.41761	1.95069	0.571369	2.67492	0.672752	3.15443	0.790028	3.70354	0.979197	4.59425	0.566667	2.65349	0.665089	3.10943	0.84488	3.95497		
0.573451	2.67453	0.419633	1.95165	0.573765	2.67447	0.674398	3.14839	0.791701	3.69525	0.980353	4.57965	0.568702	2.65145	0.666918	3.10445	0.846086	3.94342		
0.575848	2.67409	0.421655	1.9526	0.576162	2.67403	0.676047	3.14242	0.793378	3.68704	0.981513	4.5652	0.570737	2.64943	0.668752	3.09955	0.847296	3.93198		
0.578245	2.67366	0.423678	1.95353	0.57856	2.6736	0.677699	3.13652	0.795058	3.67891	0.982676	4.55089	0.57277	2.64742	0.670589	3.0947	0.848511	3.92067		
0.580644	2.67323	0.4257	1.95446	0.580958	2.67318	0.679354	3.13068	0.79674	3.67087	0.983844	4.53672	0.574803	2.64542	0.672431	3.08991	0.84973	3.90947		
0.583043	2.67281	0.427722	1.95538	0.583357	2.67276	0.681012	3.1249	0.798426	3.66292	0.985015	4.5227	0.576834	2.64343	0.674277	3.08519	0.850953	3.89839		
0.585443	2.6724	0.429744	1.95629	0.585757	2.67235	0.682673	3.11919	0.800114	3.65504	0.986191	4.5088	0.578864	2.64146	0.676127	3.08052	0.85218	3.88742		
0.587843	2.67199	0.431765	1.95719	0.588158	2.67194	0.684338	3.11354	0.801806	3.64724	0.98737	4.49505	0.580892	2.63949	0.67798	3.07591	0.853411	3.87656		
0.590244	2.67159	0.433787	1.95808	0.590559	2.67154	0.686005	3.10795	0.8035	3.63953	0.988553	4.48142	0.58292	2.63754	0.679838	3.07135	0.854647	3.86581		
0.592646	2.6712	0.435807	1.95897	0.592961	2.67115	0.687675	3.10242	0.805197	3.63189	0.989739	4.46793	0.584946	2.6356	0.6817	3.06686	0.855886	3.85517		
0.595048	2.67081	0.437828	1.95984	0.595363	2.67076	0.689348	3.09695	0.806897	3.62432	0.99093	4.45457	0.586972	2.63367	0.683566	3.06241	0.857129	3.84463		
0.597451	2.67043	0.439848	1.96071	0.597766	2.67038	0.691024	3.09154	0.808599	3.61683	0.992124	4.44134	0.588996	2.63175	0.685436	3.05803	0.858377	3.8342		
0.599854	2.67005	0.441869	1.96157	0.600169	2.67	0.692703	3.08619	0.810305	3.60942	0.993323	4.42823	0.591018	2.62984	0.687309	3.05369	0.859629	3.82388		
0.602257	2.66968	0.443889	1.96242	0.602572	2.66963	0.694384	3.08089	0.812013	3.60208	0.994525	4.41525	0.59304	2.62794	0.689187	3.04941	0.860884	3.81366		
0.604661	2.66931	0.445908	1.96326	0.604976	2.66926	0.696069	3.07565	0.813724	3.59481	0.99573	4.4024	0.59506	2.62605	0.691068	3.04518	0.862144	3.80354		
0.607066	2.66894	0.447927	1.96409	0.607381	2.6689	0.697757	3.07047	0.815437	3.58761	0.99694	4.38966	0.59708	2.62417	0.692953	3.041	0.863408	3.79353		
0.60947	2.66858	0.449947	1.96492	0.609785	2.66854	0.699447	3.06534	0.817154	3.58049	0.998153	4.37705	0.599098	2.6223	0.694842	3.03687	0.864675	3.78361		
0.611875	2.66823	0.451965	1.96574	0.61219	2.66818	0.70114	3.06027	0.818872	3.57343	0.99937	4.36455	0.601115	2.62045	0.696734	3.0328	0.865947	3.77379		
0.61428	2.66788	0.453984	1.96655	0.614595	2.66783	0.702837	3.05524	0.820594	3.56644	1.00059	4.35218	0.603131	2.6186	0.698631	3.02877	0.867223	3.76406		
0.616685	2.66753	0.456002	1.96735	0.617001	2.66749	0.704536	3.05028	0.822318	3.55952			0.605145	2.61676	0.700531	3.02479	0.868503	3.75444		
0.619091	2.66719	0.45802	1.96815	0.619406	2.66714	0.706238	3.04536	0.824044	3.55267			0.607159	2.61493	0.702434	3.02085	0.869787	3.7449		
0.621497	2.66685	0.460038	1.96893	0.621812	2.6668	0.707942	3.0405	0.825774	3.54588			0.609171	2.61311	0.704342	3.01697	0.871074	3.73546		
0.623902	2.66651	0.462055	1.96971	0.624218	2.66647	0.70965	3.03568	0.827505	3.53916			0.611182	2.6113	0.706252	3.01313	0.872366	3.72611		
0.626308	2.66618	0.464072	1.97049	0.626624	2.66613	0.71136	3.03092	0.829239	3.5325			0.613192	2.6095	0.708167	3.00933	0.873662	3.71686		
0.628714	2.66584	0.466089	1.97125	0.62903	2.6658	0.713073	3.02621	0.830976	3.5259			0.615201	2.60771	0.710085	3.00558	0.874961	3.70769		
0.63112	2.66552	0.468106	1.97201	0.631436	2.66547	0.714789	3.02154	0.832715	3.51937			0.617209	2.60593	0.712006	3.00188	0.876265	3.69861		
0.633527	2.66519	0.470122	1.97276	0.633842	2.66515	0.716508	3.01692	0.834457	3.51289			0.619216	2.60416	0.713931	2.99822	0.877572	3.68962		
0.635933	2.66487	0.472138	1.97351	0.636248	2.66483	0.71823	3.01236	0.836201	3.50648			0.621221	2.6024	0.715859	2.9946	0.878884	3.68072		
0.638339	2.66455	0.474154	1.97424	0.638654	2.66451	0.719954	3.00783	0.837947	3.50013			0.623226	2.60065	0.717791	2.99102	0.880199	3.6719		
0.640745	2.66423	0.476169	1.97497	0.64106	2.66419	0.721681	3.00336	0.839696	3.49384			0.625229	2.5989	0.719726	2.98748	0.881518	3.66316		
0.64315	2.66391	0.478185	1.9757	0.643466	2.66387	0.723411	2.99893	0.841447	3.4876			0.627232	2.59717	0.721664	2.98399	0.882841	3.65451		
0.645556	2.6636	0.4802	1.97641	0.645871	2.66356	0.725144	2.99455	0.8432	3.48143			0.629233	2.59544	0.723606	2.98054	0.884168	3.64594		
0.647962	2.66329	0.482214	1.97712	0.648277	2.66324	0.726879	2.99021	0.844956	3.47531			0.631233	2.59372	0.725551	2.97712	0.885499	3.63746		
0.650367	2.66297	0.484229	1.97783	0.650682	2.66293	0.728617	2.98592	0.846713	3.46924			0.633232	2.59201	0.727499	2.97375	0.886834	3.62905		
0.652772	2.66266	0.486243	1.97852	0.653087	2.66262	0.730358	2.98167	0.848474	3.46323			0.63523	2.59031	0.729451	2.97041	0.888173	3.62072		
0.655177	2.66236	0.488256	1.97922	0.655492	2.66232	0.732102	2.97746	0.850236	3.45728			0.637227	2.58862	0.731405	2.96711	0.889515	3.61248		
0.657582	2.66205	0.49027	1.9799	0.657897	2.66201	0.733849	2.9733	0.852001	3.45138			0.639222	2.58694	0.733363	2.96385	0.890861	3.6043		
0.659986	2.66174	0.492283	1.98058	0.660302	2.6617	0.735598	2.96918	0.853768	3.44553			0.641217	2.58526	0.735324	2.96063	0.892211	3.59621		
0.662391	2.66144	0.494296	1.98125	0.662706	2.6614	0.73735	2.9651	0.855537	3.43974			0.643211	2.58359	0.737288	2.95744	0.893565	3.58819		
0.664794	2.66114	0.496309	1.98192	0.665109	2.6611	0.739105	2.96106	0.857308	3.434			0.645204	2.58194	0.739255	2.95429	0.894923	3.58025		
0.667198	2.66083	0.498321	1.98258	0.667513	2.66079	0.740862	2.95706	0.859081	3.42831			0.647195	2.58029	0.741225	2.95118	0.896284	3.57238		
0.669601	2.66053	0.500333	1.98323	0.669916	2.66049	0.742623	2.95311	0.860857	3.42267			0.649186	2.57864	0.743198	2.9481	0.89765	3.56459		
0.672003	2.66023	0.502345	1.98388	0.672318	2.66019	0.744386	2.94919	0.862634	3.41707			0.651176	2.57701	0.745174	2.94505	0.899019	3.55686		
0.674406	2.65993	0.504357	1.98452	0.67472	2.65989	0.746152	2.94532	0.864414	3.41153			0.653164	2.57538	0.747153	2.94204	0.900392	3.54921		
0.676807	2.65963	0.506368	1.98516	0.677122	2.65959	0.74792	2.94148	0.866195	3.40604			0.655152	2.57377	0.749134	2.93906	0.901768	3.54163		
0.679208	2.65933	0.508379	1.98579	0.679523	2.65929	0.749692	2.93768	0.867979	3.4006			0.657139	2.57216	0.751119	2.93611	0.903149	3.53412		
0.681609	2.65903	0.51039	1.98641	0.681924	2.65899	0.751466	2.93392	0.869765	3.3952			0.659125	2.57056	0.753106	2.9332	0.904533	3.52668		
0.684009	2.65873	0.5124	1.98703	0.684324	2.65869	0.753243	2.9302	0.871552	3.38985			0.661109	2.56896	0.755097	2.93032	0.905921	3.51931		
0.686409	2.65842	0.51441	1.98764	0.686723	2.65839	0.755023	2.92652	0.873342	3.38454			0.663093	2.56738	0.75709	2.92747	0.907313	3.512		
0.688807	2.65812	0.51642	1.98825	0.689122	2.65808	0.756805	2.92287	0.875134	3.37929			0.665076	2.5658	0.759085	2.92465	0.908708	3.50476		
0.691206	2.65782	0.518429	1.98885	0.69152	2.65778	0.758591	2.91926	0.876927	3.37407			0.667058	2.56423	0.761084	2.92186	0.910107	3.49759		
0.693603	2.65752	0.520439	1.98945	0.693917	2.65748	0.760379	2.91569	0.878723	3.36891			0.669039	2.56266	0.763085	2.9191	0.91151	3.49048		
0.696	2.65722	0.522448	1.99004	0.696314	2.65718	0.76217	2.91215	0.88052	3.36378			0.671019	2.56111	0.765089	2.91637	0.912916	3.48344		
0.698396	2.65691	0.524456	1.99063	0.69871	2.65688	0.763964	2.90865	0.88232	3.3587			0.672999	2.55956	0.767095	2.91367	0.914327	3.47646		
0.700791	2.65661	0.526465	1.99121	0.701105	2.65657	0.76576	2.90519	0.884121	3.35366			0.674977	2.55802	0.769104	2.911	0.91574	3.46955		
0.703186	2.65631	0.528473	1.99179	0.703499	2.65627	0.76756	2.90176	0.885924	3.34867			0.676955	2.55649	0.771115	2.90836	0.917158	3.4627		
0.705579	2.656	0.530481	1.99236	0.705893	2.65596	0.769363	2.89836	0.887729	3.34371			0.678931	2.55496	0.773129	2.90574	0.918579	3.45591		
0.707972	2.65569	0.532488	1.99292	0.708286	2.65565	0.771168	2.895	0.889535	3.3388			0.680907	2.55345	0.775146	2.90315	0.920004	3.44918		
0.710364	2.65539	0.534495	1.99349	0.710677	2.65534	0.772976	2.89168	0.891344	3.33393			0.682882	2.55194	0.777164	2.90059	0.921433	3.44251		
0.712755	2.65508	0.536502	1.99404	0.713068	2.65503	0.774787	2.88839	0.893154	3.3291			0.684856	2.55043	0.779186	2.89806	0.922865	3.4359		
0.715145	2.65476	0.538509	1.99459	0.715458	2.65472	0.776601	2.88513	0.894966	3.32431			0.68683	2.54894	0.781209	2.89555	0.924301	3.42935		
0.717534	2.65445	0.540515	1.99514	0.717847	2.65441	0.778418	2.8819	0.89678	3.31956			0.688802	2.54745	0.783235	2.89307	0.925741	3.42286		
0.719921	2.65414	0.542521	1.99568	0.720234	2.6541	0.780238	2.87871	0.898595	3.31485			0.690774	2.54597	0.785263	2.89062	0.927184	3.41643		
0.722308	2.65382	0.544527	1.99622	0.722621	2.65378	0.782061	2.87555	0.900412	3.31017			0.692745	2.5445	0.787294	2.88818	0.92863	3.41005		
0.724694	2.6535	0.546533	1.99675	0.725006	2.65346	0.783887	2.87243	0.902231	3.30554			0.694715	2.54303	0.789327	2.88578	0.930081	3.40373		
0.727078	2.65318	0.548538	1.99728	0.727391	2.65314	0.785716	2.86933	0.904052	3.30094			0.696684	2.54157	0.791362	2.8834	0.931535	3.39747		
0.729461	2.65286	0.550543	1.9978	0.729774	2.65282	0.787548	2.86627	0.905874	3.29638			0.698653	2.54012	0.793399	2.88104	0.932992	3.39126		
0.731844	2.65253	0.552547	1.99832	0.732156	2.65249	0.789383	2.86324	0.907698	3.29186			0.700621	2.53868	0.795438	2.8787	0.934454	3.38511		
0.734224	2.65221	0.554552	1.99883	0.734536	2.65216	0.791221	2.86024	0.909523	3.28737			0.702588	2.53724	0.79748	2.87639	0.935919	3.37901		
0.736604	2.65188	0.556556	1.99934	0.736915	2.65183	0.793062	2.85727	0.91135	3.28292			0.704555	2.53581	0.799523	2.87411	0.937387	3.37296		
0.738982	2.65154	0.55856	1.99985	0.739293	2.6515	0.794907	2.85434	0.913179	3.2785			0.70652	2.53438	0.801569	2.87184	0.938859	3.36697		
0.741358	2.65121	0.560563	2.00035	0.74167	2.65116	0.796754	2.85143	0.915009	3.27412			0.708485	2.53297	0.803616	2.8696	0.940334	3.36104		
0.743733	2.65087	0.562566	2.00084	0.744044	2.65083	0.798605	2.84856	0.916841	3.26977			0.71045	2.53156	0.805666	2.86738	0.941814	3.35515		
0.746107	2.65053	0.564569	2.00133	0.746418	2.65048	0.800459	2.84571	0.918674	3.26546			0.712413	2.53015	0.807717	2.86518	0.943296	3.34931		
0.748479	2.65018	0.566572	2.00182	0.74879	2.65014	0.802316	2.8429	0.920509	3.26118			0.714376	2.52876	0.809771	2.863	0.944782	3.34353		
0.75085	2.64984	0.568574	2.00231	0.75116	2.64979	0.804177	2.84011	0.922345	3.25694			0.716339	2.52737	0.811826	2.86084	0.946272	3.3378		
0.753218	2.64948	0.570576	2.00278	0.753529	2.64944	0.80604	2.83736	0.924183	3.25273			0.718301	2.52599	0.813883	2.85871	0.947766	3.33211		
0.755585	2.64913	0.572578	2.00326	0.755895	2.64908	0.807907	2.83464	0.926023	3.24855			0.720262	2.52461	0.815942	2.85659	0.949262	3.32648		
0.757951	2.64877	0.574579	2.00373	0.758261	2.64872	0.809778	2.83194	0.927863	3.2444			0.722222	2.52324	0.818003	2.85449	0.950763	3.3209		
0.760314	2.64841	0.576581	2.0042	0.760624	2.64836	0.811652	2.82928	0.929706	3.24029			0.724182	2.52188	0.820066	2.85242	0.952267	3.31536		
0.762676	2.64804	0.578581	2.00466	0.762985	2.64799	0.813529	2.82664	0.931549	3.2362			0.726141	2.52053	0.82213	2.85036	0.953774	3.30987		
0.765036	2.64767	0.580582	2.00512	0.765345	2.64762	0.81541	2.82403	0.933394	3.23215			0.7281	2.51918	0.824196	2.84832	0.955285	3.30443		
0.767394	2.64729	0.582582	2.00557	0.767703	2.64724	0.817294	2.82146	0.935241	3.22813			0.730058	2.51784	0.826264	2.8463	0.9568	3.29904		
0.76975	2.64691	0.584582	2.00603	0.770058	2.64686	0.819182	2.81891	0.937089	3.22414			0.732016	2.5165	0.828333	2.8443	0.958317	3.29369		
0.772103	2.64653	0.586582	2.00647	0.772412	2.64647	0.821074	2.81639	0.938938	3.22018			0.733973	2.51518	0.830404	2.84232	0.959839	3.28839		
0.774455	2.64614	0.588582	2.00692	0.774763	2.64608	0.822969	2.81389	0.940788	3.21625			0.735929	2.51385	0.832476	2.84036	0.961364	3.28313		
0.776804	2.64574	0.590581	2.00736	0.777112	2.64569	0.824868	2.81143	0.94264	3.21235			0.737885	2.51254	0.83455	2.83841	0.962892	3.27792		
0.779152	2.64534	0.59258	2.00779	0.779459	2.64529	0.826771	2.809	0.944494	3.20848			0.739841	2.51123	0.836626	2.83648	0.964424	3.27276		
0.781496	2.64494	0.594578	2.00822	0.781804	2.64488	0.828677	2.80659	0.946348	3.20463			0.741796	2.50993	0.838703	2.83457	0.96596	3.26764		
0.783839	2.64452	0.596577	2.00865	0.784146	2.64447	0.830588	2.80421	0.948204	3.20082			0.74375	2.50863	0.840782	2.83268	0.967498	3.26256		
0.786179	2.64411	0.598575	2.00908	0.786485	2.64405	0.832502	2.80186	0.950061	3.19704			0.745704	2.50734	0.842862	2.8308	0.969041	3.25753		
0.788517	2.64369	0.600572	2.0095	0.788823	2.64363	0.83442	2.79954	0.95192	3.19328			0.747657	2.50606	0.844943	2.82894	0.970587	3.25254		
0.790852	2.64326	0.60257	2.00992	0.791157	2.6432	0.836342	2.79724	0.953779	3.18955			0.74961	2.50479	0.847026	2.82709	0.972136	3.24759		
0.793184	2.64282	0.604567	2.01033	0.793489	2.64277	0.838268	2.79497	0.95564	3.18584			0.751563	2.50352	0.84911	2.82526	0.973689	3.24268		
0.795514	2.64238	0.606564	2.01074	0.795819	2.64232	0.840198	2.79273	0.957502	3.18217			0.753515	2.50225	0.851195	2.82345	0.975245	3.23782		
0.79784	2.64193	0.608561	2.01115	0.798145	2.64188	0.842133	2.79052	0.959366	3.17852			0.755467	2.501	0.853282	2.82165	0.976804	3.233		
0.800164	2.64148	0.610557	2.01155	0.800469	2.64142	0.844071	2.78834	0.96123	3.1749			0.757418	2.49975	0.85537	2.81986	0.978367	3.22821		
0.802486	2.64102	0.612553	2.01195	0.802789	2.64096	0.846014	2.78618	0.963096	3.1713			0.759369	2.4985	0.857459	2.8181	0.979934	3.22347		
0.804804	2.64055	0.614549	2.01235	0.805107	2.64049	0.847961	2.78405	0.964963	3.16773			0.761319	2.49726	0.859549	2.81634	0.981504	3.21877		
0.807119	2.64008	0.616544	2.01274	0.807422	2.64002	0.849913	2.78195	0.966831	3.16418			0.763269	2.49603	0.861641	2.8146	0.983077	3.21411		
0.809431	2.6396	0.618539	2.01313	0.809734	2.63953	0.851869	2.77987	0.9687	3.16066			0.765219	2.49481	0.863733	2.81288	0.984654	3.20949		
0.81174	2.63911	0.620534	2.01352	0.812042	2.63904	0.853829	2.77783	0.970571	3.15717			0.767168	2.49359	0.865827	2.81117	0.986234	3.20491		
0.814045	2.63861	0.622529	2.0139	0.814347	2.63855	0.855795	2.7758	0.972442	3.1537			0.769117	2.49237	0.867922	2.80947	0.987818	3.20037		
0.816347	2.63811	0.624523	2.01429	0.816649	2.63804	0.857764	2.77381	0.974315	3.15025			0.771066	2.49117	0.870018	2.80778	0.989405	3.19586		
0.818646	2.63759	0.626518	2.01466	0.818947	2.63753	0.859739	2.77184	0.976188	3.14683			0.773014	2.48997	0.872114	2.80611	0.990995	3.19139		
0.820942	2.63707	0.628511	2.01504	0.821242	2.637	0.861718	2.7699	0.978063	3.14343			0.774962	2.48877	0.874212	2.80446	0.992589	3.18696		
0.823233	2.63654	0.630505	2.01541	0.823533	2.63647	0.863701	2.76799	0.979939	3.14006			0.776909	2.48758	0.876311	2.80281	0.994186	3.18257		
0.825522	2.63601	0.632498	2.01578	0.825821	2.63594	0.86569	2.76611	0.981816	3.13671			0.778857	2.4864	0.878411	2.80118	0.995787	3.17822		
0.827806	2.63546	0.634491	2.01614	0.828105	2.63539	0.867684	2.76425	0.983694	3.13338			0.780804	2.48522	0.880511	2.79956	0.997391	3.1739		
0.830087	2.63491	0.636484	2.0165	0.830385	2.63483	0.869682	2.76241	0.985573	3.13008			0.78275	2.48405	0.882613	2.79796	0.998999	3.16962		
0.832364	2.63434	0.638476	2.01686	0.832662	2.63427	0.871686	2.76061	0.987453	3.1268			0.784697	2.48289	0.884715	2.79636	1.00061	3.16537		
0.834637	2.63377	0.640468	2.01722	0.834934	2.63369	0.873695	2.75883	0.989334	3.12354			0.786643	2.48173	0.886819	2.79478				
0.836906	2.63319	0.64246	2.01757	0.837203	2.63311	0.875708	2.75708	0.991216	3.1203			0.788588	2.48058	0.888922	2.79321				
0.839171	2.6326	0.644452	2.01792	0.839467	2.63252	0.877727	2.75535	0.993099	3.11709			0.790534	2.47943	0.891027	2.79165				
0.841432	2.632	0.646443	2.01827	0.841728	2.63192	0.879752	2.75365	0.994983	3.11389			0.792479	2.47829	0.893133	2.7901				
0.843689	2.63139	0.648434	2.01861	0.843984	2.63131	0.881781	2.75198	0.996867	3.11072			0.794424	2.47716	0.895239	2.78856				
0.845941	2.63077	0.650425	2.01895	0.846236	2.63069	0.883816	2.75033	0.998753	3.10757			0.796369	2.47603	0.897346	2.78704				
0.84819	2.63014	0.652415	2.01929	0.848484	2.63006	0.885856	2.74871	1.00064	3.10444			0.798314	2.4749	0.899453	2.78552				
0.850434	2.6295	0.654405	2.01963	0.850727	2.62942	0.887902	2.74712					0.800258	2.47379	0.901561	2.78402				
0.852673	2.62885	0.656395	2.01996	0.852966	2.62877	0.889953	2.74555					0.802202	2.47267	0.90367	2.78252				
0.854908	2.6282	0.658385	2.02029	0.855201	2.62811	0.89201	2.74401					0.804146	2.47157	0.905779	2.78104				
0.857139	2.62753	0.660374	2.02062	0.857431	2.62744	0.894072	2.74249					0.80609	2.47047	0.907889	2.77957				
0.859365	2.62685	0.662363	2.02094	0.859657	2.62676	0.89614	2.741					0.808033	2.46937	0.91	2.7781				
0.861587	2.62616	0.664352	2.02127	0.861878	2.62607	0.898214	2.73954					0.809977	2.46828	0.91211	2.77665				
0.863804	2.62546	0.666341	2.02159	0.864094	2.62537	0.900293	2.7381					0.81192	2.4672	0.914222	2.77521				
0.866017	2.62476	0.668329	2.0219	0.866306	2.62466	0.902378	2.73668					0.813863	2.46612	0.916334	2.77377				
0.868224	2.62404	0.670317	2.02222	0.868513	2.62394	0.904468	2.73529					0.815806	2.46505	0.918446	2.77235				
0.870427	2.62331	0.672305	2.02253	0.870716	2.62321	0.906564	2.73393					0.817749	2.46398	0.920558	2.77093				
0.872626	2.62257	0.674292	2.02284	0.872913	2.62247	0.908666	2.73259					0.819691	2.46292	0.922671	2.76952				
0.874819	2.62182	0.676279	2.02315	0.875107	2.62172	0.910774	2.73128					0.821634	2.46187	0.924785	2.76813				
0.877008	2.62106	0.678266	2.02345	0.877295	2.62096	0.912887	2.72999					0.823576	2.46082	0.926898	2.76674				
0.879193	2.62029	0.680253	2.02375	0.879478	2.62019	0.915006	2.72872					0.825518	2.45977	0.929012	2.76536				
0.881372	2.61952	0.682239	2.02405	0.881657	2.61941	0.917131	2.72748					0.827461	2.45874	0.931126	2.76398				
0.883547	2.61873	0.684226	2.02435	0.883831	2.61862	0.919262	2.72626					0.829403	2.4577	0.933241	2.76262				
0.885716	2.61793	0.686211	2.02464	0.886	2.61782	0.921398	2.72507					0.831344	2.45667	0.935355	2.76126				
0.887882	2.61712	0.688197	2.02493	0.888165	2.61702	0.92354	2.7239					0.833286	2.45565	0.93747	2.75992				
0.890042	2.61631	0.690182	2.02522	0.890325	2.6162	0.925688	2.72275					0.835228	2.45463	0.939585	2.75858				
0.892198	2.61548	0.692167	2.02551	0.89248	2.61537	0.927842	2.72163					0.83717	2.45362	0.9417	2.75724				
0.894349	2.61464	0.694152	2.0258	0.89463	2.61453	0.930001	2.72052					0.839111	2.45261	0.943815	2.75592				
0.896495	2.6138	0.696137	2.02608	0.896776	2.61369	0.932165	2.71944					0.841053	2.45161	0.94593	2.7546				
0.898637	2.61294	0.698121	2.02636	0.898917	2.61283	0.934335	2.71839					0.842994	2.45062	0.948046	2.75329				
0.900774	2.61208	0.700105	2.02664	0.901053	2.61197	0.936511	2.71735					0.844936	2.44963	0.950161	2.75199				
0.902906	2.61121	0.702088	2.02691	0.903185	2.6111	0.938692	2.71634					0.846877	2.44864	0.952277	2.75069				
0.905034	2.61033	0.704072	2.02719	0.905313	2.61022	0.940879	2.71534					0.848818	2.44766	0.954392	2.7494				
0.907158	2.60944	0.706055	2.02746	0.907435	2.60933	0.943071	2.71437					0.85076	2.44668	0.956507	2.74812				
0.909277	2.60855	0.708038	2.02773	0.909554	2.60843	0.945268	2.71342					0.852701	2.44571	0.958623	2.74685				
0.911391	2.60764	0.710021	2.02799	0.911668	2.60753	0.947471	2.71249					0.854642	2.44475	0.960738	2.74558				
0.913501	2.60673	0.712003	2.02826	0.913778	2.60661	0.949678	2.71157					0.856583	2.44379	0.962853	2.74431				
0.915607	2.60582	0.713985	2.02852	0.915883	2.60569	0.951891	2.71068					0.858525	2.44283	0.964968	2.74306				
0.917709	2.60489	0.715967	2.02878	0.917984	2.60477	0.954109	2.70981					0.860466	2.44188	0.967083	2.74181				
0.919807	2.60396	0.717949	2.02904	0.920081	2.60383	0.956332	2.70895					0.862407	2.44094	0.969198	2.74057				
0.9219	2.60302	0.71993	2.02929	0.922174	2.6029	0.95856	2.70812					0.864348	2.44	0.971312	2.73933				
0.92399	2.60207	0.721911	2.02955	0.924263	2.60195	0.960792	2.7073					0.866289	2.43906	0.973427	2.7381				
0.926075	2.60112	0.723892	2.0298	0.926348	2.601	0.96303	2.7065					0.868231	2.43813	0.975541	2.73687				
0.928157	2.60016	0.725872	2.03005	0.92843	2.60004	0.965272	2.70571					0.870172	2.43721	0.977654	2.73565				
0.930235	2.5992	0.727853	2.0303	0.930507	2.59907	0.967518	2.70495					0.872113	2.43629	0.979768	2.73444				
0.932309	2.59823	0.729833	2.03055	0.932581	2.59811	0.96977	2.7042					0.874054	2.43537	0.981881	2.73323				
0.934379	2.59726	0.731813	2.03079	0.934651	2.59713	0.972025	2.70346					0.875996	2.43446	0.983994	2.73202				
0.936446	2.59628	0.733792	2.03103	0.936717	2.59615	0.974285	2.70274					0.877937	2.43356	0.986107	2.73082				
0.93851	2.5953	0.735772	2.03127	0.93878	2.59517	0.976549	2.70204					0.879879	2.43265	0.988219	2.72963				
0.94057	2.59431	0.737751	2.03151	0.940839	2.59418	0.978818	2.70135					0.88182	2.43176	0.990331	2.72844				
0.942626	2.59332	0.739729	2.03175	0.942895	2.59319	0.98109	2.70068					0.883762	2.43087	0.992442	2.72726				
0.94468	2.59232	0.741708	2.03198	0.944948	2.59219	0.983367	2.70002					0.885703	2.42998	0.994553	2.72608				
0.94673	2.59132	0.743686	2.03221	0.946998	2.59119	0.985647	2.69938					0.887645	2.4291	0.996664	2.72491				
0.948777	2.59032	0.745664	2.03244	0.949045	2.59019	0.987931	2.69875					0.889587	2.42822	0.998774	2.72374				
0.950821	2.58931	0.747642	2.03267	0.951088	2.58918	0.990219	2.69813					0.891528	2.42735	1.00088	2.72257				
0.952861	2.5883	0.749619	2.0329	0.953129	2.58817	0.992511	2.69753					0.89347	2.42648						
0.9549	2.58729	0.751597	2.03312	0.955166	2.58716	0.994806	2.69694					0.895412	2.42562						
0.956935	2.58628	0.753574	2.03335	0.957201	2.58614	0.997105	2.69636					0.897354	2.42476						
0.958967	2.58526	0.755551	2.03357	0.959233	2.58513	0.999407	2.69579					0.899296	2.4239						
0.960997	2.58424	0.757527	2.03379	0.961263	2.58411	1.00171	2.69524					0.901239	2.42305						
0.963024	2.58322	0.759503	2.03401	0.96329	2.58309							0.903181	2.42221						
0.965049	2.5822	0.761479	2.03422	0.965314	2.58207							0.905123	2.42137						
0.967071	2.58118	0.763455	2.03444	0.967336	2.58104							0.907066	2.42053						
0.969091	2.58015	0.765431	2.03465	0.969356	2.58002							0.909008	2.4197						
0.971109	2.57912	0.767406	2.03486	0.971373	2.57899							0.910951	2.41887						
0.973124	2.5781	0.769381	2.03507	0.973388	2.57796							0.912894	2.41805						
0.975138	2.57707	0.771356	2.03528	0.975401	2.57694							0.914837	2.41723						
0.977149	2.57604	0.77333	2.03549	0.977412	2.57591							0.91678	2.41641						
0.979158	2.57501	0.775305	2.03569	0.979421	2.57488							0.918723	2.4156						
0.981165	2.57399	0.777279	2.03589	0.981428	2.57385							0.920667	2.4148						
0.98317	2.57296	0.779252	2.03609	0.983433	2.57282							0.92261	2.414						
0.985173	2.57193	0.781226	2.03629	0.985436	2.57179							0.924554	2.4132						
0.987175	2.5709	0.783199	2.03649	0.987437	2.57077							0.926498	2.41241						
0.989175	2.56987	0.785172	2.03669	0.989436	2.56974							0.928441	2.41162						
0.991173	2.56885	0.787145	2.03688	0.991434	2.56871							0.930385	2.41083						
0.993169	2.56782	0.789118	2.03708	0.993431	2.56769							0.93233	2.41005						
0.995164	2.5668	0.79109	2.03727	0.995425	2.56666							0.934274	2.40927						
0.997158	2.56577	0.793062	2.03746	0.997419	2.56564							0.936219	2.4085						
0.999149	2.56475	0.795034	2.03765	0.99941	2.56461							0.938163	2.40773						
1.00114	2.56373	0.797006	2.03783	1.0014	2.56359							0.940108	2.40697						
		0.798977	2.03802									0.942053	2.40621						
		0.800949	2.0382									0.943998	2.40545						
		0.80292	2.03839									0.945944	2.4047						
		0.80489	2.03857									0.947889	2.40395						
		0.806861	2.03875									0.949835	2.40321						
		0.808831	2.03893									0.951781	2.40247						
		0.810801	2.0391									0.953727	2.40173						
		0.812771	2.03928									0.955673	2.401						
		0.81474	2.03945									0.957619	2.40027						
		0.81671	2.03962									0.959566	2.39955						
		0.818679	2.0398									0.961513	2.39883						
		0.820648	2.03997									0.963459	2.39811						
		0.822616	2.04013									0.965407	2.3974						
		0.824585	2.0403									0.967354	2.39669						
		0.826553	2.04047									0.969302	2.39598						
		0.828521	2.04063									0.971249	2.39528						
		0.830489	2.0408									0.973197	2.39458						
		0.832456	2.04096									0.975145	2.39389						
		0.834423	2.04112									0.977094	2.3932						
		0.83639	2.04128									0.979042	2.39251						
		0.838357	2.04144									0.980991	2.39183						
		0.840324	2.04159									0.98294	2.39115						
		0.84229	2.04175									0.984889	2.39047						
		0.844256	2.0419									0.986839	2.3898						
		0.846222	2.04206									0.988788	2.38913						
		0.848188	2.04221									0.990738	2.38846						
		0.850154	2.04236									0.992688	2.3878						
		0.852119	2.04251									0.994638	2.38714						
		0.854084	2.04266									0.996589	2.38649						
		0.856049	2.04281									0.99854	2.38584						
		0.858013	2.04295									1.00049	2.38519						
		0.859978	2.0431																
		0.861942	2.04324																
		0.863906	2.04338																
		0.86587	2.04352																
		0.867833	2.04366																
		0.869797	2.0438																
		0.87176	2.04394																
		0.873723	2.04408																
		0.875685	2.04421																
		0.877648	2.04435																
		0.87961	2.04448																
		0.881572	2.04462																
		0.883534	2.04475																
		0.885496	2.04488																
		0.887457	2.04501																
		0.889418	2.04514																
		0.89138	2.04526																
		0.89334	2.04539																
		0.895301	2.04552																
		0.897261	2.04564																
		0.899222	2.04576																
		0.901182	2.04589																
		0.903142	2.04601																
		0.905101	2.04613																
		0.907061	2.04625																
		0.90902	2.04637																
		0.910979	2.04649																
		0.912938	2.0466																
		0.914896	2.04672																
		0.916855	2.04683																
		0.918813	2.04695																
		0.920771	2.04706																
		0.922729	2.04717																
		0.924687	2.04728																
		0.926644	2.0474																
		0.928601	2.04751																
		0.930558	2.04761																
		0.932515	2.04772																
		0.934472	2.04783																
		0.936429	2.04794																
		0.938385	2.04804																
		0.940341	2.04814																
		0.942297	2.04825																
		0.944253	2.04835																
		0.946208	2.04845																
		0.948164	2.04855																
		0.950119	2.04866																
		0.952074	2.04875																
		0.954029	2.04885																
		0.955983	2.04895																
		0.957938	2.04905																
		0.959892	2.04915																
		0.961846	2.04924																
		0.9638	2.04934																
		0.965754	2.04943																
		0.967708	2.04952																
		0.969661	2.04962																
		0.971614	2.04971																
		0.973567	2.0498																
		0.97552	2.04989																
		0.977473	2.04998																
		0.979425	2.05007																
		0.981378	2.05016																
		0.98333	2.05025																
		0.985282	2.05033																
		0.987234	2.05042																
		0.989185	2.0505																
		0.991137	2.05059																
		0.993088	2.05067																
		0.995039	2.05076																
		0.99699	2.05084																
		0.998941	2.05092																
		1.00089	2.051																
