Sym0		Asym0		Sym1		Sym2		Sym3		Sym4		Asym1		Asym2		Asym3		Asym4	
427  Points		528  Points		427  Points		407  Points		354  Points		254  Points		458  Points		402  Points		347  Points		217  Points	
Freq (MHz)	Vph (m/ms)	Freq (MHz)	Vph (m/ms)	Freq (MHz)	Vph (m/ms)	Freq (MHz)	Vph (m/ms)	Freq (MHz)	Vph (m/ms)	Freq (MHz)	Vph (m/ms)	Freq (MHz)	Vph (m/ms)	Freq (MHz)	Vph (m/ms)	Freq (MHz)	Vph (m/ms)	Freq (MHz)	Vph (m/ms)
0.279509	919.326	0.000249144	0.0970827	0.27951	540.262	0.441132	2331.02	0.559017	2451.63	0.838525	18151.3	0.139763	286.904	0.419267	519.333	0.698772	1302.97	0.882266	1147.87
0.279517	226.196	0.000462163	0.132122	0.279521	192.899	0.441141	393.546	0.559025	482.037	0.838529	857.486	0.139831	98.5533	0.419283	241.104	0.698779	476.011	0.882274	518.89
0.279536	128.971	0.000739576	0.166959	0.279541	117.417	0.44116	214.924	0.559045	267.305	0.838538	439.12	0.139966	59.5463	0.41931	157.003	0.698791	291.201	0.882287	335.215
0.279564	90.2075	0.00108081	0.201592	0.279572	84.4005	0.441192	147.836	0.559075	184.934	0.838552	295.132	0.140166	42.7044	0.419348	116.408	0.698808	209.766	0.882306	247.582
0.279602	69.3662	0.00148473	0.235931	0.279613	65.882	0.441235	112.674	0.559115	141.376	0.838572	222.257	0.140431	33.3255	0.419398	92.4986	0.698832	163.927	0.882331	196.275
0.279651	56.3527	0.00195042	0.269962	0.279663	54.0325	0.44129	91.0304	0.559167	114.431	0.838598	178.248	0.140761	27.3555	0.419459	76.7426	0.698862	134.532	0.882362	162.585
0.279709	47.4549	0.00247659	0.303635	0.279724	45.7998	0.441356	76.367	0.55923	96.1176	0.83863	148.789	0.141155	23.2265	0.419532	65.5776	0.698897	114.078	0.882399	138.768
0.279778	40.9876	0.0030619	0.33691	0.279795	39.7479	0.441434	65.7767	0.559304	82.8612	0.838667	127.689	0.141611	20.2042	0.419616	57.2527	0.698938	99.0256	0.882441	121.04
0.279856	36.0751	0.00370503	0.369768	0.279875	35.1121	0.441524	57.7699	0.559388	72.8221	0.83871	111.832	0.142129	17.8988	0.419711	50.8071	0.698985	87.4841	0.882489	107.33
0.279945	32.2172	0.0044043	0.402161	0.279966	31.4476	0.441625	51.5045	0.559484	64.956	0.838759	99.4798	0.142707	16.0844	0.419818	45.6692	0.699038	78.3539	0.882543	96.412
0.280043	29.1075	0.00515824	0.434076	0.280067	28.4786	0.441738	46.4685	0.55959	58.6267	0.838813	89.5867	0.143344	14.6209	0.419936	41.4781	0.699097	70.9509	0.882603	87.5115
0.280152	26.5479	0.00596517	0.465485	0.280178	26.0243	0.441863	42.3326	0.559708	53.4242	0.838874	81.4849	0.144038	13.4167	0.420065	37.9945	0.699161	64.8276	0.882668	80.1169
0.28027	24.4045	0.00682334	0.496364	0.280299	23.9619	0.441999	38.8755	0.559836	49.0724	0.83894	74.7283	0.144788	12.4095	0.420206	35.0532	0.699232	59.6785	0.882739	73.8759
0.280399	22.5835	0.00773105	0.526698	0.28043	22.2045	0.442146	35.9431	0.559975	45.3786	0.839011	69.0077	0.145592	11.5557	0.420358	32.5371	0.699308	55.2886	0.882816	68.5382
0.280537	21.0175	0.00868666	0.556479	0.28057	20.6894	0.442306	33.4245	0.560125	42.2043	0.839088	64.1018	0.146448	10.8233	0.420522	30.3603	0.69939	51.5014	0.882899	63.921
0.280686	19.6566	0.00968825	0.585685	0.280721	19.3697	0.442476	31.238	0.560285	39.4472	0.839171	59.8484	0.147236	10.2655	0.420697	28.4586	0.699477	48.2009	0.882988	59.8878
0.280845	18.4631	0.0107342	0.614313	0.280882	18.2102	0.442659	29.3222	0.560457	37.0302	0.83926	56.1253	0.147937	9.83957	0.420883	26.7832	0.699571	45.299	0.883082	56.3343
0.281013	17.4079	0.0118227	0.64236	0.281053	17.1833	0.442852	27.6298	0.56064	34.8942	0.839354	52.8394	0.148536	9.51716	0.42108	25.296	0.69967	42.7277	0.883182	53.1799
0.281192	16.4685	0.0129521	0.669816	0.281234	16.2677	0.443058	26.1241	0.560833	32.993	0.839454	49.9179	0.149023	9.27928	0.421289	23.967	0.699775	40.4336	0.883288	50.361
0.28138	15.6268	0.0141207	0.69668	0.281425	15.4463	0.443274	24.7758	0.561037	31.29	0.83956	47.3034	0.149388	9.11316	0.421509	22.7725	0.699886	38.3741	0.883399	47.8267
0.281579	14.8685	0.0153268	0.722956	0.281626	14.7053	0.443502	23.5615	0.561252	29.7558	0.839671	44.9501	0.149624	9.01053	0.42174	21.6931	0.700003	36.5152	0.883516	45.5362
0.281788	14.1818	0.0165689	0.748645	0.281837	14.0336	0.443742	22.4624	0.561477	28.3666	0.839788	42.8206	0.149968	8.86776	0.421982	20.7129	0.700126	34.8289	0.883639	43.4558
0.282006	13.5571	0.0178455	0.77375	0.282058	13.422	0.443993	21.4629	0.561714	27.1028	0.839911	40.8845	0.150347	8.71865	0.422236	19.819	0.700254	33.2922	0.883768	41.558
0.282235	12.9865	0.0191549	0.798279	0.282289	12.8627	0.444255	20.55	0.561961	25.9482	0.84004	39.1168	0.150872	8.52536	0.422501	19.0005	0.700388	31.8862	0.883903	39.8197
0.282473	12.4631	0.0204958	0.822232	0.282529	12.3494	0.444528	19.7131	0.562219	24.8894	0.840174	37.4962	0.15155	8.2954	0.422777	18.2483	0.700529	30.5948	0.884043	38.2218
0.282722	11.9816	0.0218667	0.845622	0.28278	11.8767	0.444813	18.943	0.562487	23.9149	0.840313	36.0054	0.152392	8.03697	0.423064	17.5547	0.700674	29.4047	0.884189	36.7478
0.28298	11.537	0.0232662	0.868454	0.283041	11.44	0.445109	18.2322	0.562767	23.0151	0.840459	34.6292	0.153407	7.7583	0.423362	16.9132	0.700826	28.3043	0.884341	35.384
0.283249	11.1253	0.0246931	0.890739	0.283312	11.0353	0.445417	17.5741	0.563057	22.1817	0.84061	33.3549	0.154608	7.46722	0.423671	16.3182	0.700983	27.284	0.884498	34.1184
0.283527	10.7431	0.0261462	0.912487	0.283592	10.6594	0.445735	16.9631	0.563357	21.4078	0.840767	32.1718	0.155847	7.20294	0.423992	15.7648	0.701147	26.3354	0.884661	32.9408
0.283816	10.3874	0.0276242	0.933707	0.283883	10.3093	0.446065	16.3944	0.563669	20.6872	0.840929	31.0703	0.157122	6.96207	0.424323	15.2489	0.701315	25.4511	0.88483	31.8424
0.284114	10.0554	0.0291259	0.954411	0.284145	10.0233	0.446406	15.8637	0.56399	20.0147	0.841097	30.0424	0.158432	6.74176	0.424666	14.7668	0.70149	24.6248	0.885005	30.8155
0.284422	9.74497	0.0306504	0.974611	0.284373	9.79229	0.446758	15.3674	0.564323	19.3855	0.841271	29.0808	0.159774	6.5396	0.42502	14.3153	0.701671	23.8511	0.885185	29.8533
0.284741	9.45408	0.0321965	0.994315	0.284567	9.60956	0.447121	14.9023	0.564666	18.7957	0.841451	28.1794	0.161147	6.35354	0.425384	13.8917	0.701857	23.125	0.885371	28.9499
0.285069	9.18097	0.0337632	1.01354	0.284722	9.4701	0.447495	14.4656	0.56502	18.2418	0.841636	27.3328	0.162551	6.1818	0.42576	13.4934	0.702049	22.4424	0.885562	28.1001
0.285407	8.92408	0.0353497	1.03229	0.284838	9.37025	0.44788	14.0547	0.565384	17.7205	0.841826	26.5361	0.163983	6.02287	0.426146	13.1183	0.702247	21.7995	0.88576	27.2993
0.285755	8.68204	0.0369548	1.05058	0.284913	9.3075	0.448276	13.6676	0.565758	17.2291	0.842023	25.785	0.165443	5.87543	0.426544	12.7644	0.702451	21.1929	0.885963	26.5434
0.286113	8.45361	0.038578	1.06843	0.285021	9.21885	0.448683	13.3021	0.566143	16.7652	0.842225	25.0758	0.166929	5.73834	0.426952	12.4301	0.70266	20.6196	0.886171	25.8286
0.286481	8.23771	0.0402183	1.08584	0.285141	9.1245	0.449101	12.9566	0.566539	16.3264	0.842433	24.405	0.16844	5.61059	0.427372	12.1137	0.702876	20.077	0.886386	25.1519
0.286859	8.03335	0.0418749	1.10282	0.285305	8.99943	0.44953	12.6295	0.566945	15.9109	0.842646	23.7696	0.169975	5.4913	0.427802	11.8139	0.703097	19.5627	0.886606	24.5101
0.287246	7.83966	0.0435471	1.11939	0.285515	8.84637	0.449969	12.3194	0.567361	15.5169	0.842865	23.1669	0.171533	5.37971	0.428242	11.5294	0.703323	19.0745	0.886832	23.9008
0.287644	7.65584	0.0452341	1.13556	0.285775	8.66853	0.450419	12.025	0.567788	15.1427	0.843089	22.5945	0.173113	5.27511	0.428694	11.2592	0.703556	18.6106	0.887063	23.3214
0.288051	7.48117	0.0469354	1.15134	0.286087	8.46941	0.450881	11.7451	0.568225	14.7869	0.843319	22.0501	0.174714	5.1769	0.429157	11.0021	0.703794	18.1691	0.8873	22.7699
0.288469	7.315	0.0486503	1.16674	0.286454	8.25265	0.451352	11.4788	0.568673	14.4483	0.843555	21.5317	0.176334	5.08455	0.42963	10.7573	0.704038	17.7485	0.887543	22.2443
0.288896	7.15675	0.0503781	1.18177	0.286831	8.04751	0.451835	11.2251	0.569131	14.1255	0.843797	21.0375	0.177974	4.99757	0.430114	10.5239	0.704288	17.3473	0.887791	21.7428
0.289333	7.00587	0.0521183	1.19645	0.287218	7.85309	0.452327	10.9831	0.569599	13.8176	0.844044	20.566	0.179631	4.91551	0.430608	10.3012	0.704543	16.9643	0.888045	21.2638
0.28978	6.86189	0.0538704	1.21077	0.287615	7.66858	0.452831	10.7521	0.570077	13.5236	0.844296	20.1155	0.181306	4.838	0.431048	10.1152	0.704805	16.5983	0.888304	20.8059
0.290237	6.72435	0.0556337	1.22476	0.288022	7.49329	0.453345	10.5313	0.570565	13.2425	0.844554	19.6847	0.182998	4.76469	0.431429	9.96235	0.705072	16.248	0.88857	20.3676
0.290703	6.59285	0.057408	1.23842	0.288439	7.32653	0.453869	10.3202	0.571064	12.9735	0.844818	19.2723	0.184705	4.69525	0.431748	9.83969	0.705344	15.9127	0.88884	19.9478
0.29118	6.46701	0.0591925	1.25175	0.288865	7.16774	0.454335	10.1435	0.571573	12.7159	0.845088	18.8772	0.186428	4.6294	0.432004	9.74501	0.705623	15.5912	0.889117	19.5453
0.291666	6.34648	0.0609871	1.26478	0.289302	7.01636	0.454738	9.99798	0.572092	12.469	0.845363	18.4984	0.188165	4.56688	0.432193	9.67665	0.705907	15.2829	0.889399	19.1591
0.292162	6.23096	0.062791	1.27751	0.289748	6.8719	0.455075	9.88107	0.572621	12.2321	0.845643	18.1348	0.189917	4.50745	0.432315	9.63344	0.706197	14.9869	0.889686	18.7882
0.292668	6.12014	0.0646041	1.28995	0.290204	6.73392	0.455345	9.79072	0.573159	12.0047	0.845929	17.7856	0.191681	4.45091	0.432491	9.57208	0.706493	14.7024	0.88998	18.4318
0.293184	6.01376	0.0664259	1.3021	0.29067	6.602	0.455544	9.72543	0.573708	11.7862	0.846221	17.4499	0.193458	4.39705	0.432684	9.50633	0.706794	14.429	0.890278	18.0889
0.293709	5.91156	0.068256	1.31398	0.291146	6.47577	0.455673	9.68415	0.574267	11.5761	0.846518	17.127	0.195248	4.3457	0.432949	9.4185	0.707101	14.1658	0.890583	17.7589
0.294245	5.81332	0.070094	1.32558	0.291631	6.35488	0.455859	9.62547	0.574836	11.374	0.846821	16.8161	0.197049	4.29668	0.433287	9.30994	0.707414	13.9124	0.890892	17.4411
0.29479	5.71882	0.0719397	1.33693	0.292127	6.23901	0.456062	9.56258	0.575415	11.1794	0.84713	16.5167	0.198861	4.24986	0.433701	9.18228	0.707733	13.6682	0.891208	17.1347
0.295344	5.62786	0.0737928	1.34803	0.292632	6.12786	0.45634	9.47847	0.576004	10.9918	0.847444	16.228	0.200684	4.20509	0.434194	9.03737	0.708057	13.4328	0.891529	16.8392
0.295909	5.54026	0.0756528	1.35888	0.293147	6.02117	0.456696	9.37442	0.576603	10.811	0.847763	15.9495	0.202518	4.16225	0.434769	8.8772	0.708387	13.2056	0.891855	16.5541
0.296483	5.45585	0.0775197	1.36949	0.293672	5.91869	0.457131	9.25191	0.577211	10.6366	0.848088	15.6808	0.204361	4.12122	0.435355	8.72321	0.708722	12.9863	0.892187	16.2787
0.297068	5.37445	0.079393	1.37988	0.294206	5.82017	0.457648	9.11264	0.577829	10.4683	0.848419	15.4213	0.206213	4.08189	0.435951	8.57508	0.709064	12.7745	0.892525	16.0127
0.297661	5.29593	0.0812725	1.39003	0.294751	5.72542	0.458252	8.95846	0.578376	10.3263	0.848755	15.1705	0.208075	4.04416	0.436558	8.43247	0.709411	12.5697	0.892868	15.7555
0.298265	5.22013	0.0831579	1.39997	0.295305	5.63421	0.458865	8.80998	0.578847	10.2086	0.849096	14.928	0.209946	4.00793	0.437174	8.2951	0.709763	12.3717	0.893216	15.5067
0.298878	5.14694	0.0850491	1.4097	0.295869	5.54638	0.459488	8.66691	0.579241	10.1134	0.849444	14.6934	0.211825	3.97314	0.437801	8.16269	0.710122	12.1802	0.89357	15.2659
0.299501	5.07622	0.0869458	1.41922	0.296442	5.46174	0.460121	8.52897	0.579556	10.0396	0.849796	14.4663	0.213712	3.93968	0.438438	8.03499	0.710485	11.9947	0.89393	15.0328
0.300134	5.00787	0.0888477	1.42854	0.297026	5.38014	0.460764	8.39588	0.579788	9.98608	0.850154	14.2465	0.215606	3.9075	0.439086	7.91176	0.710855	11.8151	0.894295	14.8069
0.300777	4.94177	0.0907547	1.43766	0.297619	5.30141	0.461417	8.26742	0.579938	9.95215	0.850518	14.0335	0.217509	3.87651	0.439743	7.79278	0.71123	11.6411	0.894665	14.588
0.301429	4.87781	0.0926666	1.4466	0.298222	5.22543	0.462079	8.14335	0.580153	9.90382	0.850887	13.827	0.219418	3.84667	0.44041	7.67784	0.711611	11.4724	0.895041	14.3757
0.302091	4.81591	0.0945831	1.45535	0.298834	5.15206	0.462751	8.02346	0.580389	9.85188	0.851262	13.6268	0.221334	3.8179	0.441088	7.56675	0.711998	11.3088	0.895422	14.1698
0.302762	4.75598	0.0965042	1.46392	0.299457	5.08117	0.463433	7.90754	0.580711	9.78221	0.851642	13.4325	0.223257	3.79016	0.441775	7.45932	0.71239	11.15	0.895809	13.97
0.303355	4.70529	0.0984296	1.47232	0.300089	5.01265	0.464125	7.79541	0.581122	9.69566	0.852028	13.244	0.225186	3.76338	0.442472	7.35538	0.712788	10.9959	0.896201	13.7759
0.303867	4.66316	0.100359	1.48055	0.300731	4.94639	0.464826	7.68689	0.581624	9.59325	0.852419	13.0609	0.227121	3.73753	0.44318	7.25478	0.713192	10.8462	0.896599	13.5875
0.304294	4.62905	0.102293	1.48862	0.301382	4.88229	0.465536	7.58182	0.582219	9.47617	0.852815	12.8831	0.229063	3.71255	0.443897	7.15735	0.713601	10.7008	0.897002	13.4043
0.304634	4.60254	0.10423	1.49652	0.302043	4.82024	0.466256	7.48005	0.582911	9.34571	0.853217	12.7103	0.23101	3.68841	0.444624	7.06297	0.713962	10.5774	0.89741	13.2263
0.304885	4.5833	0.106171	1.50427	0.302714	4.76017	0.466985	7.38142	0.583613	9.21924	0.853625	12.5422	0.232962	3.66506	0.44536	6.97149	0.714273	10.4746	0.897824	13.0531
0.305047	4.5711	0.108116	1.51186	0.303395	4.70199	0.467724	7.2858	0.584324	9.09659	0.854037	12.3789	0.23492	3.64247	0.446107	6.8828	0.714533	10.3912	0.898243	12.8847
0.30528	4.5537	0.110064	1.51931	0.304085	4.6456	0.468472	7.19305	0.585044	8.97759	0.854456	12.2199	0.236882	3.6206	0.446863	6.79676	0.71474	10.3263	0.898668	12.7208
0.305535	4.535	0.112015	1.52661	0.304785	4.59095	0.469229	7.10306	0.585773	8.86208	0.854879	12.0652	0.23885	3.59942	0.447629	6.71328	0.714893	10.2791	0.899098	12.5612
0.305884	4.50987	0.11397	1.53378	0.305495	4.53795	0.469995	7.01571	0.586512	8.74992	0.855309	11.9146	0.240822	3.57889	0.448404	6.63223	0.714991	10.2491	0.899533	12.4058
0.306327	4.47863	0.115928	1.5408	0.306214	4.48655	0.47077	6.93089	0.58726	8.64098	0.855743	11.7679	0.242799	3.55899	0.449189	6.55353	0.715133	10.2064	0.899973	12.2544
0.306869	4.4416	0.117636	1.54682	0.306943	4.43666	0.471555	6.8485	0.588018	8.53511	0.856183	11.625	0.244781	3.53969	0.449984	6.47708	0.715288	10.1603	0.900419	12.1069
0.307511	4.3992	0.119094	1.55186	0.307681	4.38824	0.472348	6.76844	0.588784	8.4322	0.856629	11.4858	0.246766	3.52097	0.450788	6.40279	0.715499	10.0984	0.90087	11.9631
0.308258	4.35187	0.120301	1.55599	0.30843	4.34123	0.47315	6.69061	0.589559	8.33213	0.857079	11.35	0.248756	3.50279	0.451601	6.33056	0.715769	10.0213	0.901327	11.8229
0.309013	4.3059	0.121256	1.55921	0.309188	4.29557	0.473961	6.61493	0.590344	8.23479	0.857535	11.2177	0.25075	3.48514	0.452424	6.26034	0.716097	9.92965	0.901789	11.6861
0.309779	4.26125	0.121958	1.56156	0.309955	4.2512	0.474781	6.54131	0.591137	8.14006	0.857997	11.0885	0.252747	3.468	0.453256	6.19202	0.716487	9.82445	0.902256	11.5527
0.310554	4.21785	0.122408	1.56306	0.310733	4.20809	0.47561	6.46968	0.59194	8.04786	0.858464	10.9626	0.254748	3.45133	0.454098	6.12555	0.716939	9.70664	0.902728	11.4225
0.311339	4.17567	0.123055	1.5652	0.31152	4.16618	0.476447	6.39996	0.592751	7.95809	0.858875	10.8553	0.256753	3.43513	0.454949	6.06086	0.717397	9.59185	0.903206	11.2953
0.312133	4.13466	0.123759	1.56752	0.312317	4.12543	0.477293	6.33208	0.593571	7.87065	0.859229	10.7656	0.258761	3.41937	0.455809	5.99787	0.717861	9.47995	0.903689	11.1712
0.312938	4.09478	0.124716	1.57064	0.313123	4.0858	0.478148	6.26596	0.594401	7.78546	0.859524	10.6926	0.260772	3.40404	0.456678	5.93652	0.71833	9.37085	0.904177	11.05
0.313752	4.05598	0.125927	1.57455	0.313939	4.04725	0.479011	6.20156	0.595238	7.70244	0.859758	10.6356	0.262787	3.38912	0.457556	5.87677	0.718804	9.26444	0.904606	10.9466
0.314575	4.01823	0.127393	1.57921	0.314765	4.00973	0.479882	6.13879	0.596085	7.62151	0.859931	10.5942	0.264804	3.37459	0.458444	5.81854	0.719284	9.16062	0.904975	10.8601
0.315409	3.9815	0.129115	1.5846	0.315601	3.97322	0.480762	6.07761	0.596941	7.5426	0.860042	10.5678	0.266825	3.36045	0.45934	5.76178	0.71977	9.05931	0.905283	10.7897
0.316252	3.94573	0.131093	1.59069	0.316446	3.93768	0.481651	6.01796	0.597805	7.46563	0.860203	10.5302	0.268849	3.34666	0.460246	5.70645	0.720261	8.96042	0.905528	10.7347
0.317105	3.91091	0.133073	1.59666	0.317301	3.90307	0.482547	5.95979	0.598677	7.39053	0.860378	10.4896	0.270875	3.33323	0.46116	5.65249	0.720758	8.86386	0.905708	10.6947
0.317967	3.877	0.135055	1.60253	0.318166	3.86936	0.483452	5.90304	0.599559	7.31725	0.860617	10.4349	0.272904	3.32013	0.462084	5.59986	0.72126	8.76956	0.905824	10.6692
0.31884	3.84397	0.137039	1.6083	0.319041	3.83653	0.484365	5.84766	0.600448	7.24572	0.860921	10.3667	0.274936	3.30736	0.463016	5.54851	0.721768	8.67743	0.905991	10.6329
0.319722	3.81179	0.139025	1.61396	0.319925	3.80454	0.485287	5.79362	0.601347	7.17588	0.861291	10.2854	0.27697	3.2949	0.463957	5.4984	0.722281	8.58741	0.906174	10.5936
0.320614	3.78043	0.141013	1.61952	0.32082	3.77337	0.486216	5.74086	0.602253	7.10768	0.86173	10.1918	0.279006	3.28274	0.464907	5.44949	0.7228	8.49943	0.906423	10.5408
0.321516	3.74987	0.143003	1.62499	0.321724	3.74299	0.487153	5.68934	0.603168	7.04106	0.862238	10.0867	0.281045	3.27087	0.465866	5.40173	0.723325	8.41342	0.906739	10.4747
0.322428	3.72009	0.144995	1.63036	0.322638	3.71337	0.488098	5.63902	0.604092	6.97597	0.862751	9.98389	0.283086	3.25929	0.466833	5.3551	0.723854	8.32932	0.907125	10.3961
0.32335	3.69104	0.146989	1.63564	0.323562	3.6845	0.489052	5.58986	0.605024	6.91236	0.863269	9.88333	0.285129	3.24797	0.467809	5.30955	0.72439	8.24706	0.907581	10.3054
0.324282	3.66273	0.148984	1.64083	0.324496	3.65634	0.490013	5.54183	0.605963	6.85018	0.863793	9.78495	0.287175	3.23692	0.468794	5.26505	0.72493	8.16659	0.908109	10.2035
0.325223	3.63511	0.15098	1.64593	0.32544	3.62888	0.490982	5.49489	0.606912	6.78939	0.864322	9.68869	0.289222	3.22611	0.469787	5.22157	0.725477	8.08786	0.908642	10.1037
0.326175	3.60817	0.152979	1.65095	0.326394	3.6021	0.491958	5.449	0.607868	6.72994	0.864857	9.59448	0.291272	3.21556	0.470789	5.17907	0.726028	8.0108	0.90918	10.006
0.327137	3.5819	0.154978	1.65588	0.327359	3.57597	0.492942	5.40413	0.608832	6.6718	0.865396	9.50225	0.293323	3.20523	0.471799	5.13753	0.726585	7.93537	0.909723	9.91036
0.328109	3.55626	0.156979	1.66073	0.328333	3.55048	0.493934	5.36025	0.609805	6.61492	0.865941	9.41194	0.295376	3.19514	0.472818	5.09691	0.727148	7.86152	0.910272	9.81669
0.329091	3.53125	0.158982	1.6655	0.329318	3.52561	0.494934	5.31734	0.610786	6.55926	0.866491	9.32351	0.297431	3.18527	0.473845	5.05719	0.727716	7.7892	0.910825	9.72495
0.330084	3.50684	0.160986	1.67019	0.330312	3.50133	0.495941	5.27535	0.611774	6.5048	0.867047	9.23688	0.299488	3.1756	0.474881	5.01834	0.72829	7.71837	0.911384	9.63507
0.331086	3.48302	0.162991	1.6748	0.331317	3.47764	0.496955	5.23427	0.612771	6.45148	0.867607	9.15201	0.301546	3.16615	0.475925	4.98034	0.728869	7.64898	0.911948	9.54699
0.3321	3.45976	0.164997	1.67934	0.332333	3.45452	0.497977	5.19406	0.613775	6.39928	0.868173	9.06885	0.303606	3.15689	0.476977	4.94315	0.729453	7.58099	0.912516	9.46067
0.333123	3.43707	0.167005	1.68381	0.333359	3.43194	0.499006	5.1547	0.614787	6.34817	0.868744	8.98735	0.305667	3.14783	0.478037	4.90676	0.730043	7.51435	0.91309	9.37605
0.334157	3.41491	0.169014	1.6882	0.334396	3.40991	0.500043	5.11617	0.615807	6.29811	0.86932	8.90745	0.30773	3.13896	0.479106	4.87115	0.730638	7.44904	0.913669	9.29308
0.335202	3.39328	0.171024	1.69252	0.335443	3.38839	0.501087	5.07844	0.616835	6.24908	0.869901	8.82912	0.309794	3.13026	0.480182	4.83628	0.731238	7.38502	0.914252	9.21172
0.336257	3.37215	0.173034	1.69678	0.336501	3.36739	0.502138	5.04149	0.61787	6.20104	0.870488	8.75231	0.311859	3.12175	0.481267	4.80215	0.731844	7.32224	0.914841	9.13193
0.337324	3.35153	0.175046	1.70097	0.337569	3.34688	0.503196	5.00529	0.618914	6.15396	0.87108	8.67698	0.313926	3.1134	0.48236	4.76872	0.732455	7.26067	0.915435	9.05366
0.338401	3.33139	0.177059	1.70509	0.338649	3.32685	0.504261	4.96983	0.619964	6.10783	0.871676	8.60308	0.315994	3.10522	0.483461	4.73598	0.733072	7.20029	0.916034	8.97686
0.339489	3.31173	0.179073	1.70915	0.339739	3.30729	0.505334	4.93508	0.621022	6.0626	0.872278	8.53058	0.318064	3.0972	0.48457	4.70391	0.733694	7.14105	0.916637	8.9015
0.340588	3.29253	0.181088	1.71315	0.340841	3.28819	0.506413	4.90103	0.622088	6.01827	0.872886	8.45944	0.320134	3.08933	0.485686	4.67249	0.734322	7.08292	0.917246	8.82754
0.341698	3.27378	0.183104	1.71708	0.341954	3.26954	0.507499	4.86765	0.623161	5.9748	0.873498	8.38962	0.322206	3.08161	0.486811	4.6417	0.734954	7.02589	0.917859	8.75495
0.34282	3.25546	0.18512	1.72095	0.343078	3.25133	0.508592	4.83493	0.624242	5.93217	0.874115	8.32109	0.324278	3.07404	0.487944	4.61154	0.735592	6.96991	0.918478	8.68367
0.343953	3.23758	0.187137	1.72477	0.344214	3.23354	0.509692	4.80284	0.62533	5.89035	0.874738	8.25381	0.326352	3.06662	0.489084	4.58197	0.736236	6.91496	0.919101	8.61369
0.345098	3.22012	0.189156	1.72853	0.345362	3.21617	0.510799	4.77138	0.626425	5.84934	0.875365	8.18775	0.328427	3.05933	0.490232	4.55298	0.736885	6.86101	0.919729	8.54497
0.346255	3.20306	0.191174	1.73223	0.346521	3.19921	0.511912	4.74053	0.627528	5.80909	0.875998	8.12288	0.330502	3.05217	0.491388	4.52457	0.737539	6.80804	0.920362	8.47747
0.347423	3.18641	0.193194	1.73587	0.347692	3.18265	0.513033	4.71026	0.628638	5.76961	0.876636	8.05917	0.332579	3.04515	0.492551	4.4967	0.738198	6.75603	0.921	8.41116
0.348604	3.17015	0.195214	1.73946	0.348876	3.16648	0.514159	4.68057	0.629755	5.73085	0.877279	7.99658	0.334656	3.03825	0.493722	4.46938	0.738863	6.70494	0.921643	8.34602
0.349797	3.15427	0.197235	1.743	0.350072	3.15069	0.515293	4.65144	0.630879	5.69282	0.877927	7.9351	0.336734	3.03148	0.494901	4.44258	0.739533	6.65475	0.922291	8.28201
0.351002	3.13877	0.199257	1.74648	0.35128	3.13528	0.516433	4.62285	0.632011	5.65548	0.87858	7.87469	0.338813	3.02482	0.496088	4.41629	0.740208	6.60545	0.922943	8.2191
0.352221	3.12364	0.201279	1.74992	0.352501	3.12023	0.517579	4.59479	0.633149	5.61882	0.879238	7.81532	0.340893	3.01828	0.497281	4.39051	0.740888	6.55701	0.923601	8.15727
0.353452	3.10887	0.203302	1.7533	0.353736	3.10554	0.518732	4.56725	0.634294	5.58282	0.879901	7.75698	0.342973	3.01186	0.498483	4.3652	0.741574	6.5094	0.924263	8.0965
0.354696	3.09446	0.205325	1.75664	0.354983	3.09121	0.519891	4.54021	0.635446	5.54747	0.880569	7.69963	0.345055	3.00554	0.499692	4.34038	0.742265	6.46261	0.92493	8.03675
0.355954	3.08039	0.207349	1.75993	0.356244	3.07722	0.521057	4.51366	0.636606	5.51275	0.881242	7.64324	0.347136	2.99933	0.500908	4.31601	0.742961	6.41662	0.925601	7.978
0.357225	3.06667	0.209374	1.76317	0.357518	3.06357	0.522229	4.4876	0.637772	5.47865	0.88192	7.58781	0.349218	2.99323	0.502131	4.2921	0.743663	6.37141	0.926278	7.92022
0.35851	3.05328	0.211399	1.76636	0.358806	3.05026	0.523407	4.462	0.638945	5.44514	0.882603	7.5333	0.351301	2.98723	0.503362	4.26863	0.74437	6.32696	0.926959	7.8634
0.359809	3.04022	0.213424	1.76951	0.360109	3.03727	0.524591	4.43685	0.640124	5.41222	0.883292	7.47969	0.353385	2.98132	0.5046	4.24558	0.745082	6.28326	0.927645	7.80752
0.361123	3.02748	0.21545	1.77261	0.361426	3.02461	0.525782	4.41216	0.641311	5.37988	0.883985	7.42697	0.355469	2.97551	0.505846	4.22296	0.745799	6.24028	0.928336	7.75254
0.362451	3.01507	0.217476	1.77567	0.362757	3.01227	0.526979	4.38789	0.642504	5.34808	0.884683	7.3751	0.357553	2.9698	0.507099	4.20074	0.746521	6.198	0.929031	7.69844
0.363795	3.00297	0.219503	1.77869	0.364104	3.00024	0.528181	4.36405	0.643703	5.31684	0.885386	7.32408	0.359638	2.96418	0.508358	4.17892	0.747249	6.15642	0.929731	7.64522
0.365153	2.99118	0.22153	1.78166	0.365466	2.98852	0.52939	4.34062	0.64491	5.28612	0.886094	7.27387	0.361723	2.95864	0.509625	4.1575	0.747981	6.11551	0.930436	7.59284
0.366527	2.9797	0.223558	1.7846	0.366844	2.97711	0.530605	4.3176	0.646123	5.25592	0.886807	7.22447	0.363808	2.9532	0.510899	4.13645	0.748719	6.07527	0.931145	7.54129
0.367917	2.96851	0.225585	1.78749	0.368238	2.96599	0.531825	4.29497	0.647342	5.22623	0.887525	7.17585	0.365894	2.94783	0.51218	4.11578	0.749462	6.03567	0.931859	7.49056
0.369324	2.95763	0.227614	1.79035	0.369648	2.95518	0.533052	4.27273	0.648568	5.19704	0.888247	7.128	0.36798	2.94255	0.513469	4.09546	0.750211	5.9967	0.932578	7.44061
0.370747	2.94703	0.229642	1.79316	0.371075	2.94465	0.534284	4.25086	0.6498	5.16833	0.888975	7.0809	0.370067	2.93735	0.514764	4.07551	0.750964	5.95835	0.933301	7.39143
0.372187	2.93673	0.231671	1.79594	0.372519	2.93441	0.535522	4.22936	0.651038	5.14009	0.889708	7.03453	0.372153	2.93223	0.516066	4.0559	0.751723	5.9206	0.934029	7.34302
0.373644	2.92671	0.2337	1.79868	0.37398	2.92446	0.536766	4.20822	0.652283	5.11231	0.890445	6.98888	0.37424	2.92719	0.517375	4.03663	0.752486	5.88344	0.934761	7.29534
0.375118	2.91697	0.23573	1.80138	0.375459	2.91478	0.538016	4.18743	0.653534	5.08498	0.891187	6.94392	0.376327	2.92222	0.518691	4.01769	0.753255	5.84686	0.935499	7.24839
0.376611	2.90752	0.237759	1.80404	0.376955	2.90539	0.539271	4.16698	0.654792	5.0581	0.891935	6.89966	0.378415	2.91732	0.520013	3.99907	0.754029	5.81084	0.93624	7.20214
0.378122	2.89833	0.239789	1.80668	0.37847	2.89627	0.540532	4.14687	0.656055	5.03165	0.892687	6.85606	0.380502	2.91249	0.521343	3.98078	0.754808	5.77538	0.936986	7.15659
0.379651	2.88942	0.24182	1.80927	0.380004	2.88742	0.541798	4.12708	0.657325	5.00562	0.893443	6.81312	0.38259	2.90773	0.522679	3.96279	0.755592	5.74046	0.937737	7.11171
0.381199	2.88078	0.24385	1.81183	0.381557	2.87883	0.54307	4.10762	0.658601	4.98	0.894205	6.77083	0.384677	2.90304	0.524022	3.9451	0.756381	5.70606	0.938492	7.0675
0.382767	2.8724	0.245881	1.81436	0.383128	2.87052	0.544348	4.08847	0.659883	4.95479	0.894972	6.72916	0.386765	2.89842	0.525372	3.92771	0.757175	5.67218	0.939252	7.02394
0.384354	2.86428	0.247911	1.81685	0.38472	2.86246	0.54563	4.06963	0.661171	4.92997	0.895743	6.68811	0.388852	2.89386	0.526728	3.91062	0.757974	5.63882	0.940016	6.98102
0.38596	2.85642	0.249942	1.81932	0.386331	2.85465	0.546919	4.05109	0.662465	4.90554	0.896519	6.64766	0.39094	2.88936	0.528091	3.8938	0.758779	5.60594	0.940785	6.93872
0.387586	2.84881	0.251974	1.82175	0.387962	2.8471	0.548212	4.03284	0.663764	4.88148	0.8973	6.6078	0.393028	2.88492	0.529461	3.87726	0.759588	5.57356	0.941558	6.89703
0.389233	2.84145	0.254005	1.82414	0.389613	2.8398	0.549511	4.01487	0.66507	4.8578	0.898086	6.56852	0.395115	2.88055	0.530837	3.861	0.760402	5.54165	0.942336	6.85593
0.390899	2.83434	0.256036	1.82651	0.391284	2.83275	0.550816	3.99719	0.666382	4.83448	0.898877	6.5298	0.397203	2.87623	0.53222	3.845	0.761222	5.51021	0.943118	6.81542
0.392587	2.82747	0.258068	1.82885	0.392976	2.82594	0.552125	3.97979	0.667699	4.81151	0.899672	6.49164	0.39929	2.87197	0.533609	3.82926	0.762046	5.47922	0.943905	6.77549
0.394294	2.82084	0.2601	1.83116	0.394688	2.81936	0.55344	3.96265	0.669022	4.7889	0.900472	6.45403	0.401378	2.86776	0.535004	3.81378	0.762876	5.44868	0.944696	6.73612
0.396022	2.81445	0.262131	1.83344	0.396421	2.81302	0.55476	3.94578	0.670351	4.76662	0.901277	6.41695	0.403465	2.86361	0.536407	3.79854	0.76371	5.41859	0.945491	6.6973
0.397771	2.80828	0.264163	1.83569	0.398174	2.8069	0.556085	3.92917	0.671685	4.74467	0.902086	6.38038	0.405552	2.85952	0.537815	3.78355	0.76455	5.38892	0.946291	6.65902
0.39954	2.80234	0.266195	1.83791	0.399948	2.80101	0.557415	3.91281	0.673025	4.72306	0.902901	6.34434	0.407639	2.85547	0.53923	3.7688	0.765394	5.35967	0.947095	6.62126
0.40133	2.79662	0.268227	1.8401	0.401743	2.79534	0.55875	3.8967	0.674371	4.70176	0.90372	6.30879	0.409726	2.85148	0.540651	3.75429	0.766243	5.33084	0.947904	6.58403
0.40314	2.79111	0.27026	1.84227	0.403558	2.78988	0.560091	3.88083	0.675722	4.68077	0.904543	6.27373	0.411812	2.84754	0.542078	3.74001	0.767098	5.30241	0.948717	6.54731
0.404971	2.78581	0.272292	1.84441	0.405393	2.78463	0.561436	3.8652	0.677079	4.6601	0.905372	6.23916	0.413898	2.84364	0.543512	3.72595	0.767957	5.27438	0.949534	6.51108
0.406821	2.78072	0.274324	1.84652	0.407248	2.77958	0.562786	3.8498	0.678441	4.63972	0.906205	6.20506	0.415984	2.8398	0.544952	3.71211	0.768821	5.24675	0.950355	6.47534
0.408691	2.77583	0.276356	1.8486	0.409122	2.77473	0.564141	3.83463	0.679809	4.61964	0.907042	6.17143	0.41807	2.836	0.546398	3.69849	0.76969	5.21949	0.951181	6.44009
0.410581	2.77112	0.278389	1.85066	0.411016	2.77007	0.565501	3.81968	0.681182	4.59984	0.907885	6.13825	0.420155	2.83224	0.54785	3.68508	0.770564	5.19261	0.952011	6.4053
0.41249	2.76661	0.280421	1.8527	0.41293	2.7656	0.566866	3.80495	0.68256	4.58034	0.908732	6.10551	0.42224	2.82853	0.549309	3.67188	0.771443	5.1661	0.952846	6.37098
0.414418	2.76228	0.282453	1.85471	0.414862	2.76131	0.568235	3.79044	0.683944	4.5611	0.909583	6.07322	0.424325	2.82487	0.550773	3.65888	0.772327	5.13995	0.953684	6.33711
0.416364	2.75812	0.284486	1.8567	0.416812	2.7572	0.569609	3.77614	0.685333	4.54214	0.91044	6.04135	0.426409	2.82124	0.552244	3.64608	0.773215	5.11415	0.954527	6.30368
0.418328	2.75414	0.286518	1.85866	0.41878	2.75325	0.570988	3.76205	0.686727	4.52345	0.9113	6.00991	0.428493	2.81766	0.553721	3.63348	0.774109	5.0887	0.955374	6.2707
0.42031	2.75031	0.28855	1.8606	0.420766	2.74946	0.572372	3.74816	0.688126	4.50502	0.912166	5.97888	0.430576	2.81412	0.555203	3.62107	0.775007	5.06359	0.956226	6.23814
0.422309	2.74665	0.290583	1.86251	0.422769	2.74583	0.573761	3.73446	0.689531	4.48685	0.913036	5.94826	0.432659	2.81062	0.556692	3.60885	0.77591	5.03882	0.957081	6.206
0.424325	2.74314	0.292615	1.86441	0.424788	2.74235	0.575154	3.72096	0.69094	4.46893	0.913911	5.91804	0.434742	2.80716	0.558187	3.59681	0.776818	5.01438	0.957941	6.17427
0.426356	2.73977	0.294648	1.86628	0.426824	2.73902	0.576551	3.70766	0.692355	4.45125	0.91479	5.8882	0.436824	2.80373	0.559687	3.58496	0.777731	4.99026	0.958805	6.14295
0.428404	2.73654	0.29668	1.86812	0.428875	2.73582	0.577953	3.69454	0.693775	4.43382	0.915674	5.85876	0.438905	2.80035	0.561193	3.57328	0.778649	4.96646	0.959673	6.11203
0.430467	2.73345	0.298712	1.86995	0.430941	2.73276	0.57936	3.6816	0.695199	4.41663	0.916562	5.82969	0.440986	2.797	0.562706	3.56178	0.779572	4.94297	0.960545	6.0815
0.432544	2.73049	0.300744	1.87176	0.433022	2.72983	0.580771	3.66885	0.696629	4.39967	0.917455	5.80099	0.443067	2.79369	0.564224	3.55045	0.780499	4.91978	0.961422	6.05135
0.434635	2.72765	0.302776	1.87354	0.435116	2.72702	0.582187	3.65627	0.698063	4.38294	0.918352	5.77266	0.445147	2.79041	0.565748	3.53929	0.781431	4.8969	0.962302	6.02158
0.436741	2.72493	0.304808	1.8753	0.437224	2.72432	0.583607	3.64387	0.699503	4.36643	0.919254	5.74468	0.447226	2.78717	0.567277	3.5283	0.782368	4.87431	0.963187	5.99218
0.438859	2.72232	0.30684	1.87704	0.439345	2.72174	0.585031	3.63164	0.700947	4.35015	0.920161	5.71706	0.449305	2.78396	0.568813	3.51746	0.78331	4.85202	0.964076	5.96315
0.440989	2.71982	0.308872	1.87876	0.441479	2.71926	0.58646	3.61957	0.702396	4.33408	0.921072	5.68978	0.451384	2.78078	0.570354	3.50679	0.784256	4.83	0.964969	5.93447
0.443132	2.71742	0.310904	1.88047	0.443625	2.71688	0.587893	3.60767	0.70385	4.31822	0.921987	5.66285	0.453461	2.77764	0.571901	3.49627	0.785207	4.80827	0.965866	5.90614
0.445287	2.71512	0.312936	1.88215	0.445782	2.7146	0.58933	3.59593	0.705308	4.30258	0.922907	5.63624	0.455538	2.77453	0.573453	3.48591	0.786163	4.78681	0.966767	5.87817
0.447452	2.71291	0.314967	1.88381	0.44795	2.71242	0.590772	3.58435	0.706771	4.28714	0.923831	5.60997	0.457615	2.77145	0.575012	3.4757	0.787123	4.76563	0.967672	5.85052
0.449629	2.71079	0.316999	1.88546	0.450128	2.71032	0.592218	3.57293	0.708239	4.2719	0.92476	5.58402	0.45969	2.7684	0.576575	3.46563	0.788089	4.74471	0.968581	5.82322
0.451815	2.70876	0.31903	1.88708	0.452317	2.7083	0.593668	3.56165	0.709711	4.25686	0.925693	5.55838	0.461766	2.76538	0.578145	3.45571	0.789059	4.72405	0.969494	5.79624
0.454011	2.7068	0.321062	1.88869	0.454515	2.70637	0.595122	3.55053	0.711188	4.24201	0.926631	5.53306	0.46384	2.76239	0.579719	3.44593	0.790033	4.70365	0.970411	5.76959
0.456217	2.70493	0.323093	1.89028	0.456723	2.70451	0.59658	3.53956	0.71267	4.22736	0.927573	5.50804	0.465914	2.75943	0.5813	3.4363	0.791013	4.6835	0.971332	5.74325
0.458431	2.70313	0.325124	1.89185	0.45894	2.70272	0.598043	3.52873	0.714156	4.21289	0.92852	5.48332	0.467987	2.75649	0.582886	3.4268	0.791997	4.6636	0.972257	5.71722
0.460654	2.70139	0.327155	1.8934	0.461164	2.70101	0.599509	3.51804	0.715646	4.1986	0.92947	5.4589	0.470059	2.75359	0.584477	3.41743	0.792986	4.64394	0.973186	5.6915
0.462886	2.69973	0.329186	1.89494	0.463397	2.69935	0.60098	3.5075	0.717141	4.1845	0.930426	5.43478	0.47213	2.75071	0.586074	3.4082	0.793979	4.62453	0.974119	5.66609
0.465124	2.69812	0.331216	1.89645	0.465638	2.69777	0.602455	3.49709	0.718641	4.17058	0.931385	5.41093	0.474201	2.74786	0.587676	3.3991	0.794977	4.60535	0.975056	5.64097
0.467371	2.69658	0.333247	1.89796	0.467886	2.69624	0.603933	3.48681	0.720144	4.15683	0.932349	5.38737	0.476271	2.74503	0.589283	3.39013	0.79598	4.5864	0.975997	5.61614
0.469624	2.6951	0.335277	1.89944	0.470141	2.69476	0.605416	3.47667	0.721652	4.14325	0.933318	5.36409	0.47834	2.74223	0.590896	3.38129	0.796987	4.56769	0.976942	5.5916
0.471885	2.69366	0.337308	1.90091	0.472403	2.69334	0.606903	3.46666	0.723165	4.12984	0.934291	5.34108	0.480408	2.73945	0.592515	3.37257	0.797999	4.54919	0.97789	5.56734
0.474151	2.69228	0.339338	1.90236	0.474671	2.69198	0.608393	3.45678	0.724681	4.1166	0.935268	5.31834	0.482475	2.7367	0.594138	3.36397	0.799015	4.53092	0.978843	5.54336
0.476424	2.69095	0.341368	1.9038	0.476945	2.69066	0.609888	3.44702	0.726202	4.10352	0.936249	5.29586	0.484542	2.73398	0.595767	3.35549	0.800036	4.51287	0.979799	5.51965
0.478703	2.68967	0.343398	1.90522	0.479226	2.68938	0.611386	3.43739	0.727727	4.0906	0.937235	5.27365	0.486608	2.73128	0.597401	3.34713	0.801062	4.49503	0.98076	5.49621
0.480987	2.68843	0.345427	1.90662	0.481511	2.68816	0.612888	3.42788	0.729256	4.07784	0.938225	5.25169	0.488673	2.7286	0.59904	3.33889	0.802092	4.4774	0.981724	5.47304
0.483277	2.68724	0.347457	1.90801	0.483802	2.68697	0.614394	3.41849	0.730789	4.06523	0.939219	5.22998	0.490737	2.72594	0.600685	3.33076	0.803127	4.45998	0.982692	5.45013
0.485572	2.68608	0.349486	1.90939	0.486098	2.68582	0.615903	3.40921	0.732327	4.05278	0.940218	5.20851	0.4928	2.72331	0.602334	3.32274	0.804166	4.44277	0.983663	5.42747
0.487872	2.68497	0.351515	1.91075	0.488399	2.68472	0.617417	3.40005	0.733868	4.04048	0.94122	5.1873	0.494862	2.72069	0.603989	3.31483	0.80521	4.42575	0.984639	5.40507
0.490176	2.68389	0.353544	1.91209	0.490705	2.68364	0.618934	3.39101	0.735413	4.02832	0.942228	5.16632	0.496923	2.7181	0.605649	3.30703	0.806258	4.40894	0.985618	5.38291
0.492485	2.68284	0.355573	1.91342	0.493015	2.68261	0.620455	3.38208	0.736963	4.01631	0.943239	5.14558	0.498984	2.71554	0.607314	3.29933	0.807311	4.39232	0.986602	5.361
0.494798	2.68183	0.357601	1.91474	0.495329	2.68161	0.621979	3.37326	0.738516	4.00444	0.944254	5.12507	0.501043	2.71299	0.608984	3.29175	0.808368	4.37589	0.987588	5.33933
0.497116	2.68085	0.35963	1.91604	0.497647	2.68063	0.623508	3.36455	0.740073	3.99272	0.945274	5.10479	0.503102	2.71046	0.610659	3.28426	0.80943	4.35965	0.988579	5.3179
0.499437	2.67991	0.361658	1.91733	0.499969	2.67969	0.62504	3.35594	0.741634	3.98113	0.946298	5.08474	0.505159	2.70795	0.612339	3.27688	0.810496	4.34359	0.989574	5.29671
0.501762	2.67899	0.363686	1.9186	0.502294	2.67878	0.626575	3.34744	0.743199	3.96967	0.947327	5.06491	0.507216	2.70547	0.614024	3.26959	0.811567	4.32772	0.990572	5.27574
0.50409	2.6781	0.365714	1.91987	0.504624	2.6779	0.628114	3.33904	0.744768	3.95836	0.948359	5.04529	0.509272	2.703	0.615714	3.26241	0.812642	4.31203	0.991574	5.255
0.506422	2.67723	0.367741	1.92111	0.506956	2.67704	0.629657	3.33074	0.746341	3.94717	0.949396	5.0259	0.511326	2.70055	0.617409	3.25532	0.813722	4.29652	0.992579	5.23448
0.508757	2.67639	0.369769	1.92235	0.509292	2.67621	0.631203	3.32255	0.747917	3.93611	0.950436	5.00671	0.51338	2.69812	0.619109	3.24832	0.814806	4.28118	0.993588	5.21418
0.511095	2.67558	0.371796	1.92357	0.511631	2.6754	0.632753	3.31445	0.749497	3.92518	0.951481	4.98774	0.515433	2.69571	0.620814	3.24142	0.815894	4.26602	0.994601	5.1941
0.513436	2.67479	0.373823	1.92478	0.513972	2.67461	0.634306	3.30645	0.751081	3.91437	0.952531	4.96897	0.517485	2.69331	0.622523	3.23461	0.816987	4.25102	0.995618	5.17424
0.515779	2.67402	0.37585	1.92598	0.516317	2.67385	0.635862	3.29854	0.752669	3.90369	0.953584	4.9504	0.519535	2.69094	0.624238	3.22789	0.818084	4.2362	0.996638	5.15458
0.518126	2.67327	0.377876	1.92716	0.518664	2.6731	0.637423	3.29073	0.75426	3.89313	0.954641	4.93204	0.521585	2.68858	0.625957	3.22126	0.819186	4.22154	0.997662	5.13513
0.520475	2.67255	0.379903	1.92833	0.521013	2.67238	0.638986	3.28301	0.755854	3.88269	0.955703	4.91387	0.523633	2.68624	0.627681	3.21472	0.820292	4.20704	0.99869	5.11589
0.522827	2.67184	0.381929	1.92949	0.523365	2.67168	0.640553	3.27539	0.757453	3.87237	0.956768	4.89589	0.525681	2.68391	0.629409	3.20826	0.821403	4.1927	0.999721	5.09684
0.52518	2.67115	0.383955	1.93064	0.52572	2.67099	0.642123	3.26785	0.759054	3.86216	0.957838	4.87811	0.527727	2.68161	0.631143	3.20189	0.822517	4.17852	1.00076	5.078
0.527537	2.67048	0.38598	1.93177	0.528076	2.67033	0.643697	3.2604	0.76066	3.85207	0.958912	4.86052	0.529773	2.67932	0.632881	3.19561	0.823637	4.16449		
0.529895	2.66982	0.388006	1.9329	0.530435	2.66968	0.645274	3.25303	0.762269	3.84209	0.95999	4.84311	0.531817	2.67704	0.634623	3.1894	0.82476	4.15062		
0.532255	2.66919	0.390031	1.93401	0.532796	2.66904	0.646855	3.24576	0.763881	3.83222	0.961072	4.82588	0.533861	2.67478	0.636371	3.18328	0.825888	4.1369		
0.534617	2.66856	0.392056	1.93511	0.535158	2.66842	0.648438	3.23856	0.765497	3.82246	0.962158	4.80884	0.535903	2.67254	0.638123	3.17723	0.82702	4.12332		
0.536981	2.66796	0.394081	1.9362	0.537523	2.66782	0.650025	3.23145	0.767116	3.8128	0.963248	4.79197	0.537944	2.67031	0.639879	3.17127	0.828156	4.1099		
0.539347	2.66736	0.396105	1.93728	0.539889	2.66723	0.651616	3.22442	0.768738	3.80326	0.964342	4.77528	0.539984	2.6681	0.64164	3.16538	0.829297	4.09662		
0.541715	2.66679	0.398129	1.93835	0.542257	2.66665	0.653209	3.21747	0.770364	3.79381	0.96544	4.75876	0.542023	2.6659	0.643406	3.15957	0.830442	4.08348		
0.544084	2.66622	0.400153	1.9394	0.544627	2.66609	0.654806	3.2106	0.771993	3.78447	0.966542	4.74242	0.544061	2.66372	0.645176	3.15383	0.831591	4.07048		
0.546455	2.66567	0.402177	1.94045	0.546998	2.66554	0.656406	3.20381	0.773626	3.77523	0.967648	4.72624	0.546098	2.66155	0.64695	3.14817	0.832745	4.05762		
0.548827	2.66513	0.404201	1.94149	0.549371	2.665	0.658009	3.1971	0.775261	3.76609	0.968758	4.71023	0.548133	2.65939	0.648729	3.14258	0.833903	4.0449		
0.551201	2.6646	0.406224	1.94251	0.551745	2.66448	0.659615	3.19046	0.7769	3.75705	0.969873	4.69438	0.550168	2.65725	0.650513	3.13706	0.835065	4.03232		
0.553576	2.66408	0.408247	1.94353	0.55412	2.66396	0.661225	3.1839	0.778542	3.7481	0.970991	4.67869	0.552202	2.65513	0.652301	3.13161	0.836231	4.01986		
0.555952	2.66357	0.41027	1.94453	0.556497	2.66346	0.662838	3.17741	0.780188	3.73925	0.972113	4.66316	0.554234	2.65301	0.654093	3.12623	0.837402	4.00754		
0.55833	2.66308	0.412293	1.94553	0.558874	2.66296	0.664453	3.17099	0.781836	3.73049	0.973239	4.64779	0.556265	2.65091	0.655889	3.12092	0.838576	3.99535		
0.560708	2.66259	0.414315	1.94651	0.561253	2.66248	0.666072	3.16465	0.783488	3.72183	0.974369	4.63258	0.558295	2.64883	0.65769	3.11567	0.839755	3.98328		
0.563088	2.66211	0.416337	1.94749	0.563633	2.66201	0.667694	3.15837	0.785142	3.71325	0.975503	4.61751	0.560324	2.64675	0.659495	3.11049	0.840938	3.97135		
0.565469	2.66165	0.418359	1.94845	0.566014	2.66154	0.669319	3.15217	0.7868	3.70477	0.976641	4.6026	0.562352	2.64469	0.661304	3.10538	0.842126	3.95953		
0.567851	2.66119	0.42038	1.94941	0.568397	2.66108	0.670947	3.14603	0.788461	3.69637	0.977782	4.58784	0.564379	2.64265	0.663118	3.10033	0.843317	3.94784		
0.570234	2.66074	0.422402	1.95036	0.57078	2.66063	0.672579	3.13996	0.790125	3.68806	0.978928	4.57322	0.566405	2.64061	0.664935	3.09535	0.844513	3.93627		
0.572618	2.66029	0.424423	1.95129	0.573164	2.66019	0.674213	3.13396	0.791792	3.67984	0.980077	4.55875	0.568429	2.63859	0.666757	3.09042	0.845713	3.92482		
0.575002	2.65986	0.426443	1.95222	0.575548	2.65976	0.67585	3.12802	0.793461	3.6717	0.981231	4.54442	0.570453	2.63658	0.668583	3.08556	0.846917	3.91348		
0.577388	2.65943	0.428464	1.95314	0.577934	2.65934	0.67749	3.12215	0.795134	3.66365	0.982388	4.53023	0.572475	2.63458	0.670413	3.08076	0.848125	3.90226		
0.579774	2.65901	0.430484	1.95405	0.58032	2.65892	0.679134	3.11634	0.796809	3.65567	0.983549	4.51618	0.574496	2.6326	0.672247	3.07602	0.849337	3.89116		
0.582161	2.6586	0.432504	1.95495	0.582708	2.65851	0.68078	3.1106	0.798488	3.64778	0.984714	4.50227	0.576516	2.63062	0.674085	3.07134	0.850553	3.88017		
0.584549	2.65819	0.434524	1.95585	0.585095	2.6581	0.682429	3.10492	0.800169	3.63997	0.985883	4.4885	0.578535	2.62866	0.675928	3.06671	0.851773	3.86929		
0.586937	2.65779	0.436543	1.95673	0.587484	2.6577	0.684081	3.0993	0.801853	3.63224	0.987056	4.47485	0.580553	2.62671	0.677774	3.06214	0.852998	3.85852		
0.589326	2.6574	0.438563	1.9576	0.589873	2.65731	0.685736	3.09374	0.80354	3.62458	0.988232	4.46134	0.58257	2.62477	0.679624	3.05763	0.854226	3.84786		
0.591715	2.65701	0.440581	1.95847	0.592262	2.65692	0.687394	3.08823	0.80523	3.617	0.989413	4.44796	0.584585	2.62284	0.681478	3.05318	0.855459	3.83731		
0.594105	2.65663	0.4426	1.95933	0.594652	2.65654	0.689055	3.08279	0.806923	3.6095	0.990597	4.43471	0.5866	2.62092	0.683336	3.04877	0.856696	3.82687		
0.596496	2.65625	0.444618	1.96018	0.597043	2.65616	0.690719	3.07741	0.808618	3.60207	0.991785	4.42159	0.588613	2.61901	0.685197	3.04443	0.857936	3.81652		
0.598887	2.65588	0.446637	1.96102	0.599434	2.65579	0.692386	3.07208	0.810316	3.59471	0.992977	4.40859	0.590625	2.61712	0.687063	3.04013	0.859181	3.80629		
0.601278	2.65551	0.448654	1.96186	0.601826	2.65543	0.694055	3.06681	0.812016	3.58743	0.994172	4.39571	0.592636	2.61523	0.688933	3.03589	0.86043	3.79615		
0.60367	2.65515	0.450672	1.96268	0.604217	2.65507	0.695728	3.0616	0.81372	3.58022	0.995371	4.38296	0.594646	2.61336	0.690806	3.03169	0.861683	3.78611		
0.606062	2.65479	0.452689	1.9635	0.60661	2.65471	0.697403	3.05644	0.815426	3.57308	0.996574	4.37033	0.596655	2.61149	0.692683	3.02755	0.86294	3.77618		
0.608454	2.65444	0.454706	1.96431	0.609002	2.65436	0.699081	3.05133	0.817134	3.56601	0.997781	4.35781	0.598663	2.60964	0.694563	3.02346	0.864201	3.76634		
0.610847	2.65409	0.456723	1.96511	0.611395	2.65401	0.700762	3.04628	0.818845	3.559	0.998992	4.34542	0.60067	2.60779	0.696448	3.01942	0.865465	3.7566		
0.61324	2.65374	0.458739	1.96591	0.613788	2.65366	0.702446	3.04129	0.820559	3.55207	1.00021	4.33314	0.602675	2.60596	0.698336	3.01542	0.866734	3.74695		
0.615633	2.6534	0.460756	1.9667	0.616181	2.65332	0.704133	3.03634	0.822275	3.5452			0.60468	2.60414	0.700227	3.01147	0.868007	3.7374		
0.618027	2.65306	0.462771	1.96748	0.618575	2.65299	0.705822	3.03145	0.823994	3.53839			0.606683	2.60232	0.702123	3.00757	0.869284	3.72794		
0.62042	2.65273	0.464787	1.96825	0.620968	2.65265	0.707515	3.0266	0.825715	3.53166			0.608685	2.60052	0.704021	3.00372	0.870564	3.71858		
0.622814	2.6524	0.466802	1.96902	0.623362	2.65232	0.70921	3.02181	0.827439	3.52498			0.610687	2.59873	0.705924	2.99991	0.871849	3.7093		
0.625208	2.65207	0.468817	1.96977	0.625756	2.652	0.710907	3.01707	0.829165	3.51837			0.612687	2.59694	0.707829	2.99615	0.873138	3.70012		
0.627602	2.65175	0.470832	1.97053	0.62815	2.65167	0.712608	3.01237	0.830894	3.51182			0.614686	2.59517	0.709739	2.99243	0.87443	3.69102		
0.629996	2.65142	0.472847	1.97127	0.630544	2.65135	0.714312	3.00773	0.832625	3.50534			0.616684	2.5934	0.711651	2.98875	0.875726	3.68201		
0.63239	2.6511	0.474861	1.97201	0.632938	2.65103	0.716018	3.00313	0.834358	3.49891			0.618681	2.59164	0.713568	2.98512	0.877027	3.67309		
0.634784	2.65079	0.476875	1.97274	0.635332	2.65071	0.717727	2.99858	0.836094	3.49254			0.620677	2.5899	0.715487	2.98153	0.878331	3.66426		
0.637178	2.65047	0.478888	1.97346	0.637726	2.6504	0.719439	2.99408	0.837832	3.48623			0.622672	2.58816	0.71741	2.97798	0.879639	3.6555		
0.639572	2.65016	0.480902	1.97418	0.64012	2.65009	0.721153	2.98962	0.839573	3.47998			0.624666	2.58643	0.719336	2.97447	0.880951	3.64684		
0.641966	2.64985	0.482915	1.97489	0.642514	2.64978	0.72287	2.98521	0.841315	3.47379			0.626659	2.58471	0.721266	2.971	0.882267	3.63825		
0.64436	2.64954	0.484927	1.97559	0.644908	2.64947	0.72459	2.98085	0.84306	3.46766			0.628651	2.583	0.723198	2.96757	0.883587	3.62975		
0.646754	2.64923	0.48694	1.97629	0.647302	2.64916	0.726313	2.97652	0.844808	3.46158			0.630642	2.5813	0.725134	2.96419	0.88491	3.62132		
0.649147	2.64893	0.488952	1.97698	0.649695	2.64886	0.728039	2.97225	0.846557	3.45556			0.632632	2.57961	0.727073	2.96084	0.886238	3.61298		
0.651541	2.64862	0.490964	1.97767	0.652088	2.64856	0.729767	2.96801	0.848309	3.44959			0.634621	2.57792	0.729016	2.95752	0.887569	3.60472		
0.653934	2.64832	0.492975	1.97834	0.654482	2.64825	0.731498	2.96382	0.850063	3.44367			0.636609	2.57625	0.730961	2.95425	0.888904	3.59653		
0.656327	2.64802	0.494987	1.97902	0.656874	2.64795	0.733232	2.95967	0.851819	3.43781			0.638596	2.57458	0.732909	2.95101	0.890243	3.58842		
0.658719	2.64772	0.496998	1.97968	0.659267	2.64765	0.734968	2.95557	0.853577	3.432			0.640582	2.57293	0.734861	2.94781	0.891585	3.58039		
0.661112	2.64742	0.499008	1.98034	0.661659	2.64736	0.736707	2.9515	0.855337	3.42625			0.642567	2.57128	0.736816	2.94465	0.892932	3.57243		
0.663504	2.64713	0.501019	1.981	0.664051	2.64706	0.738449	2.94748	0.8571	3.42054			0.644551	2.56964	0.738773	2.94152	0.894282	3.56454		
0.665895	2.64683	0.503029	1.98164	0.666443	2.64676	0.740194	2.9435	0.858864	3.41488			0.646534	2.568	0.740734	2.93842	0.895636	3.55673		
0.668287	2.64653	0.505039	1.98228	0.668834	2.64647	0.741941	2.93956	0.860631	3.40928			0.648516	2.56638	0.742697	2.93536	0.896994	3.54899		
0.670678	2.64624	0.507048	1.98292	0.671225	2.64617	0.743691	2.93565	0.8624	3.40372			0.650498	2.56476	0.744663	2.93234	0.898356	3.54133		
0.673068	2.64595	0.509058	1.98355	0.673616	2.64588	0.745444	2.93179	0.86417	3.39822			0.652478	2.56316	0.746633	2.92934	0.899721	3.53373		
0.675458	2.64565	0.511067	1.98418	0.676006	2.64558	0.7472	2.92797	0.865943	3.39276			0.654458	2.56156	0.748605	2.92638	0.90109	3.5262		
0.677848	2.64536	0.513075	1.9848	0.678395	2.64529	0.748958	2.92418	0.867718	3.38734			0.656436	2.55997	0.75058	2.92346	0.902463	3.51875		
0.680237	2.64506	0.515084	1.98541	0.680784	2.645	0.75072	2.92043	0.869495	3.38198			0.658414	2.55838	0.752557	2.92056	0.90384	3.51136		
0.682626	2.64477	0.517092	1.98602	0.683173	2.6447	0.752483	2.91672	0.871273	3.37666			0.660391	2.55681	0.754538	2.9177	0.90522	3.50404		
0.685014	2.64448	0.5191	1.98662	0.68556	2.64441	0.75425	2.91305	0.873054	3.37139			0.662367	2.55524	0.756521	2.91486	0.906604	3.49678		
0.687401	2.64418	0.521107	1.98722	0.687948	2.64411	0.75602	2.90942	0.874836	3.36616			0.664342	2.55368	0.758506	2.91206	0.907992	3.4896		
0.689788	2.64389	0.523114	1.98781	0.690334	2.64382	0.757792	2.90582	0.876621	3.36098			0.666316	2.55213	0.760495	2.90929	0.909383	3.48247		
0.692174	2.64359	0.525121	1.98839	0.69272	2.64353	0.759567	2.90226	0.878407	3.35584			0.66829	2.55059	0.762486	2.90655	0.910778	3.47542		
0.69456	2.6433	0.527128	1.98898	0.695106	2.64323	0.761345	2.89873	0.880195	3.35074			0.670262	2.54905	0.764479	2.90383	0.912177	3.46842		
0.696944	2.643	0.529134	1.98955	0.69749	2.64293	0.763125	2.89524	0.881985	3.34569			0.672234	2.54753	0.766476	2.90115	0.91358	3.46149		
0.699328	2.64271	0.53114	1.99012	0.699874	2.64264	0.764909	2.89178	0.883777	3.34068			0.674205	2.546	0.768474	2.89849	0.914986	3.45463		
0.701712	2.64241	0.533146	1.99069	0.702257	2.64234	0.766695	2.88836	0.88557	3.33571			0.676175	2.54449	0.770475	2.89586	0.916396	3.44782		
0.704094	2.64211	0.535151	1.99125	0.70464	2.64204	0.768484	2.88498	0.887366	3.33079			0.678145	2.54299	0.772479	2.89326	0.917809	3.44108		
0.706476	2.64181	0.537156	1.9918	0.707021	2.64174	0.770276	2.88163	0.889163	3.3259			0.680113	2.54149	0.774485	2.89069	0.919226	3.43439		
0.708857	2.64151	0.539161	1.99236	0.709402	2.64144	0.772071	2.87831	0.890962	3.32106			0.682081	2.54	0.776493	2.88814	0.920647	3.42777		
0.711236	2.64121	0.541166	1.9929	0.711781	2.64114	0.773869	2.87502	0.892763	3.31625			0.684049	2.53852	0.778504	2.88562	0.922072	3.4212		
0.713615	2.64091	0.54317	1.99344	0.71416	2.64084	0.775669	2.87177	0.894565	3.31149			0.686015	2.53705	0.780517	2.88312	0.9235	3.4147		
0.715993	2.6406	0.545174	1.99398	0.716538	2.64053	0.777473	2.86855	0.896369	3.30676			0.687981	2.53558	0.782533	2.88065	0.924931	3.40825		
0.71837	2.6403	0.547178	1.99451	0.718914	2.64023	0.779279	2.86537	0.898175	3.30207			0.689946	2.53412	0.78455	2.87821	0.926367	3.40186		
0.720746	2.63999	0.549181	1.99504	0.72129	2.63992	0.781089	2.86222	0.899982	3.29742			0.69191	2.53267	0.78657	2.87579	0.927805	3.39553		
0.723121	2.63968	0.551184	1.99556	0.723665	2.63961	0.782901	2.8591	0.901791	3.29281			0.693873	2.53122	0.788592	2.8734	0.929248	3.38925		
0.725495	2.63937	0.553187	1.99608	0.726038	2.6393	0.784716	2.85601	0.903602	3.28823			0.695836	2.52978	0.790616	2.87102	0.930694	3.38303		
0.727868	2.63905	0.555189	1.99659	0.728411	2.63898	0.786535	2.85295	0.905414	3.2837			0.697799	2.52835	0.792643	2.86868	0.932144	3.37686		
0.730239	2.63874	0.557191	1.9971	0.730782	2.63867	0.788356	2.84993	0.907228	3.27919			0.69976	2.52693	0.794671	2.86635	0.933597	3.37075		
0.732609	2.63842	0.559193	1.9976	0.733152	2.63835	0.79018	2.84693	0.909044	3.27473			0.701721	2.52551	0.796702	2.86405	0.935054	3.36469		
0.734978	2.6381	0.561195	1.9981	0.73552	2.63803	0.792008	2.84397	0.910861	3.2703			0.703681	2.52411	0.798734	2.86177	0.936514	3.35868		
0.737346	2.63778	0.563196	1.9986	0.737888	2.6377	0.793839	2.84104	0.912679	3.2659			0.705641	2.5227	0.800769	2.85952	0.937978	3.35273		
0.739712	2.63745	0.565197	1.99909	0.740254	2.63738	0.795672	2.83814	0.9145	3.26154			0.7076	2.52131	0.802805	2.85728	0.939446	3.34683		
0.742077	2.63712	0.567198	1.99958	0.742618	2.63705	0.797509	2.83527	0.916321	3.25722			0.709559	2.51992	0.804844	2.85507	0.940917	3.34098		
0.74444	2.63679	0.569198	2.00006	0.744981	2.63671	0.799349	2.83243	0.918144	3.25292			0.711516	2.51854	0.806884	2.85288	0.942391	3.33519		
0.746802	2.63646	0.571198	2.00054	0.747343	2.63638	0.801192	2.82962	0.919969	3.24866			0.713474	2.51717	0.808926	2.85071	0.943869	3.32944		
0.749163	2.63612	0.573198	2.00101	0.749703	2.63604	0.803039	2.82684	0.921795	3.24444			0.71543	2.5158	0.81097	2.84856	0.945351	3.32374		
0.751521	2.63578	0.575198	2.00148	0.752061	2.6357	0.804888	2.82409	0.923623	3.24024			0.717387	2.51444	0.813016	2.84643	0.946836	3.31809		
0.753879	2.63543	0.577197	2.00195	0.754418	2.63535	0.806741	2.82136	0.925452	3.23608			0.719342	2.51309	0.815064	2.84432	0.948325	3.3125		
0.756234	2.63509	0.579196	2.00241	0.756773	2.63501	0.808598	2.81867	0.927282	3.23196			0.721297	2.51175	0.817114	2.84223	0.949817	3.30695		
0.758588	2.63473	0.581194	2.00287	0.759127	2.63465	0.810457	2.81601	0.929114	3.22786			0.723252	2.51041	0.819165	2.84017	0.951313	3.30144		
0.76094	2.63438	0.583193	2.00333	0.761478	2.6343	0.81232	2.81337	0.930947	3.22379			0.725206	2.50907	0.821218	2.83811	0.952812	3.29599		
0.76329	2.63402	0.585191	2.00378	0.763828	2.63394	0.814187	2.81077	0.932782	3.21976			0.727159	2.50775	0.823272	2.83608	0.954315	3.29058		
0.765639	2.63365	0.587188	2.00422	0.766176	2.63357	0.816057	2.80819	0.934618	3.21575			0.729112	2.50643	0.825329	2.83407	0.955821	3.28522		
0.767985	2.63329	0.589186	2.00466	0.768522	2.6332	0.81793	2.80564	0.936455	3.21178			0.731065	2.50512	0.827386	2.83208	0.95733	3.27991		
0.770329	2.63291	0.591183	2.0051	0.770866	2.63283	0.819807	2.80312	0.938294	3.20783			0.733017	2.50382	0.829446	2.8301	0.958844	3.27464		
0.772672	2.63254	0.59318	2.00554	0.773208	2.63245	0.821688	2.80063	0.940133	3.20392			0.734968	2.50252	0.831507	2.82814	0.96036	3.26941		
0.775012	2.63215	0.595176	2.00597	0.775548	2.63207	0.823572	2.79817	0.941975	3.20003			0.736919	2.50123	0.833569	2.8262	0.96188	3.26424		
0.77735	2.63177	0.597173	2.0064	0.777885	2.63168	0.82546	2.79573	0.943817	3.19618			0.73887	2.49994	0.835633	2.82428	0.963404	3.2591		
0.779686	2.63138	0.599168	2.00682	0.78022	2.63129	0.827352	2.79333	0.945661	3.19235			0.74082	2.49866	0.837699	2.82237	0.964931	3.25401		
0.78202	2.63098	0.601164	2.00724	0.782554	2.63089	0.829247	2.79095	0.947506	3.18855			0.74277	2.49739	0.839765	2.82048	0.966461	3.24896		
0.784351	2.63058	0.603159	2.00766	0.784884	2.63048	0.831146	2.78859	0.949353	3.18478			0.744719	2.49613	0.841834	2.81861	0.967995	3.24396		
0.78668	2.63017	0.605155	2.00807	0.787213	2.63007	0.83305	2.78627	0.9512	3.18103			0.746668	2.49487	0.843903	2.81675	0.969533	3.239		
0.789006	2.62976	0.607149	2.00848	0.789539	2.62966	0.834957	2.78397	0.953049	3.17731			0.748617	2.49362	0.845974	2.81491	0.971074	3.23408		
0.79133	2.62934	0.609144	2.00889	0.791862	2.62924	0.836868	2.7817	0.954899	3.17362			0.750565	2.49237	0.848046	2.81308	0.972618	3.2292		
0.793651	2.62891	0.611138	2.00929	0.794183	2.62881	0.838783	2.77946	0.95675	3.16996			0.752513	2.49113	0.85012	2.81127	0.974165	3.22437		
0.79597	2.62848	0.613132	2.00969	0.796501	2.62838	0.840702	2.77725	0.958602	3.16632			0.754461	2.4899	0.852195	2.80948	0.975717	3.21957		
0.798286	2.62804	0.615126	2.01009	0.798816	2.62794	0.842625	2.77506	0.960456	3.16271			0.756408	2.48867	0.85427	2.8077	0.977271	3.21482		
0.800599	2.6276	0.617119	2.01048	0.801128	2.62749	0.844552	2.7729	0.96231	3.15913			0.758355	2.48745	0.856348	2.80593	0.978829	3.21011		
0.802909	2.62715	0.619112	2.01087	0.803438	2.62704	0.846484	2.77076	0.964166	3.15557			0.760301	2.48624	0.858426	2.80418	0.98039	3.20543		
0.805217	2.62669	0.621105	2.01126	0.805745	2.62658	0.84842	2.76866	0.966023	3.15203			0.762247	2.48503	0.860505	2.80244	0.981955	3.2008		
0.807521	2.62622	0.623097	2.01164	0.808048	2.62612	0.85036	2.76658	0.967881	3.14852			0.764193	2.48383	0.862586	2.80072	0.983523	3.1962		
0.809822	2.62575	0.625089	2.01202	0.810349	2.62564	0.852305	2.76452	0.96974	3.14504			0.766138	2.48264	0.864668	2.79901	0.985095	3.19165		
0.812121	2.62527	0.627081	2.01239	0.812646	2.62516	0.854254	2.7625	0.971601	3.14158			0.768084	2.48145	0.86675	2.79732	0.98667	3.18713		
0.814416	2.62478	0.629073	2.01277	0.81494	2.62467	0.856208	2.7605	0.973462	3.13815			0.770029	2.48027	0.868834	2.79564	0.988248	3.18265		
0.816707	2.62429	0.631064	2.01314	0.817231	2.62418	0.858166	2.75853	0.975324	3.13473			0.771973	2.47909	0.870919	2.79397	0.98983	3.17821		
0.818996	2.62379	0.633055	2.0135	0.819519	2.62367	0.860129	2.75658	0.977188	3.13135			0.773918	2.47792	0.873004	2.79231	0.991415	3.1738		
0.82128	2.62328	0.635046	2.01387	0.821803	2.62316	0.862096	2.75466	0.979052	3.12798			0.775862	2.47676	0.875091	2.79067	0.993004	3.16943		
0.823562	2.62276	0.637036	2.01423	0.824084	2.62264	0.864069	2.75277	0.980917	3.12464			0.777806	2.4756	0.877179	2.78904	0.994596	3.1651		
0.82584	2.62223	0.639026	2.01459	0.826361	2.62211	0.866046	2.7509	0.982784	3.12132			0.779749	2.47445	0.879267	2.78742	0.996191	3.16081		
0.828114	2.6217	0.641016	2.01494	0.828634	2.62158	0.868028	2.74906	0.984651	3.11803			0.781693	2.4733	0.881356	2.78582	0.99779	3.15655		
0.830384	2.62116	0.643006	2.01529	0.830904	2.62103	0.870015	2.74725	0.98652	3.11475			0.783636	2.47216	0.883446	2.78423	0.999392	3.15233		
0.832651	2.6206	0.644995	2.01564	0.83317	2.62048	0.872007	2.74546	0.988389	3.1115			0.785579	2.47103	0.885537	2.78264	1.001	3.14814		
0.834914	2.62004	0.646984	2.01599	0.835432	2.61991	0.874004	2.7437	0.99026	3.10827			0.787522	2.4699	0.887629	2.78108				
0.837173	2.61947	0.648973	2.01633	0.83769	2.61934	0.876006	2.74197	0.992131	3.10507			0.789464	2.46878	0.889721	2.77952				
0.839428	2.61889	0.650961	2.01667	0.839944	2.61876	0.878014	2.74026	0.994003	3.10188			0.791407	2.46767	0.891814	2.77797				
0.841679	2.61831	0.652949	2.01701	0.842194	2.61817	0.880026	2.73858	0.995876	3.09872			0.793349	2.46656	0.893908	2.77643				
0.843926	2.61771	0.654937	2.01734	0.84444	2.61757	0.882044	2.73692	0.99775	3.09558			0.795291	2.46545	0.896003	2.77491				
0.846169	2.6171	0.656925	2.01767	0.846682	2.61696	0.884067	2.73529	0.999625	3.09245			0.797233	2.46435	0.898098	2.7734				
0.848407	2.61649	0.658912	2.018	0.848919	2.61634	0.886095	2.73368	1.0015	3.08935			0.799175	2.46326	0.900193	2.77189				
0.850642	2.61586	0.660899	2.01833	0.851153	2.61572	0.888129	2.73211					0.801116	2.46218	0.90229	2.7704				
0.852872	2.61523	0.662886	2.01865	0.853382	2.61508	0.890169	2.73055					0.803058	2.4611	0.904387	2.76892				
0.855097	2.61458	0.664872	2.01897	0.855606	2.61443	0.892213	2.72903					0.804999	2.46002	0.906484	2.76744				
0.857319	2.61393	0.666858	2.01929	0.857826	2.61377	0.894264	2.72752					0.80694	2.45895	0.908582	2.76598				
0.859535	2.61326	0.668844	2.01961	0.860042	2.61311	0.89632	2.72605					0.808881	2.45789	0.91068	2.76453				
0.861747	2.61259	0.67083	2.01992	0.862253	2.61243	0.898381	2.7246					0.810822	2.45683	0.912779	2.76309				
0.863955	2.6119	0.672815	2.02023	0.86446	2.61174	0.900448	2.72317					0.812763	2.45578	0.914879	2.76165				
0.866158	2.61121	0.6748	2.02054	0.866662	2.61105	0.902521	2.72177					0.814704	2.45473	0.916978	2.76023				
0.868357	2.6105	0.676785	2.02084	0.86886	2.61034	0.904599	2.7204					0.816644	2.45369	0.919078	2.75881				
0.870551	2.60979	0.678769	2.02115	0.871052	2.60962	0.906683	2.71904					0.818585	2.45266	0.921179	2.7574				
0.87274	2.60906	0.680753	2.02145	0.873241	2.6089	0.908773	2.71772					0.820526	2.45163	0.92328	2.75601				
0.874925	2.60833	0.682737	2.02174	0.875424	2.60816	0.910869	2.71642					0.822466	2.4506	0.925381	2.75462				
0.877104	2.60759	0.684721	2.02204	0.877603	2.60741	0.91297	2.71514					0.824406	2.44958	0.927482	2.75324				
0.87928	2.60683	0.686704	2.02233	0.879777	2.60666	0.915077	2.71388					0.826347	2.44857	0.929584	2.75186				
0.88145	2.60607	0.688687	2.02262	0.881946	2.60589	0.917189	2.71265					0.828287	2.44756	0.931685	2.7505				
0.883616	2.6053	0.69067	2.02291	0.884111	2.60512	0.919308	2.71145					0.830227	2.44656	0.933788	2.74914				
0.885777	2.60451	0.692653	2.0232	0.886271	2.60433	0.921432	2.71027					0.832167	2.44556	0.93589	2.7478				
0.887933	2.60372	0.694635	2.02348	0.888426	2.60354	0.923561	2.70911					0.834108	2.44457	0.937992	2.74646				
0.890085	2.60292	0.696617	2.02376	0.890577	2.60273	0.925697	2.70797					0.836048	2.44359	0.940095	2.74512				
0.892232	2.60211	0.698598	2.02404	0.892723	2.60192	0.927838	2.70685					0.837988	2.4426	0.942197	2.7438				
0.894374	2.60129	0.70058	2.02432	0.894864	2.6011	0.929984	2.70576					0.839928	2.44163	0.9443	2.74248				
0.896512	2.60046	0.702561	2.02459	0.897001	2.60027	0.932137	2.70469					0.841868	2.44066	0.946403	2.74117				
0.898645	2.59962	0.704542	2.02486	0.899133	2.59943	0.934294	2.70364					0.843808	2.43969	0.948506	2.73987				
0.900774	2.59877	0.706522	2.02513	0.901261	2.59858	0.936458	2.70262					0.845748	2.43873	0.950609	2.73857				
0.902898	2.59792	0.708503	2.0254	0.903384	2.59772	0.938626	2.70161					0.847688	2.43778	0.952712	2.73728				
0.905017	2.59705	0.710483	2.02566	0.905502	2.59686	0.9408	2.70063					0.849628	2.43683	0.954814	2.736				
0.907132	2.59618	0.712463	2.02593	0.907616	2.59598	0.94298	2.69966					0.851569	2.43588	0.956917	2.73473				
0.909243	2.5953	0.714442	2.02619	0.909726	2.5951	0.945165	2.69872					0.853509	2.43494	0.95902	2.73346				
0.911349	2.59442	0.716421	2.02645	0.911831	2.59421	0.947355	2.6978					0.855449	2.43401	0.961123	2.73219				
0.913451	2.59352	0.7184	2.0267	0.913932	2.59331	0.94955	2.69689					0.857389	2.43308	0.963225	2.73094				
0.915549	2.59262	0.720379	2.02696	0.916029	2.59241	0.95175	2.69601					0.85933	2.43216	0.965327	2.72969				
0.917643	2.59171	0.722357	2.02721	0.918122	2.5915	0.953955	2.69514					0.86127	2.43124	0.96743	2.72844				
0.919732	2.59079	0.724336	2.02746	0.92021	2.59058	0.956166	2.69429					0.86321	2.43032	0.969532	2.72721				
0.921818	2.58987	0.726314	2.02771	0.922295	2.58966	0.958381	2.69346					0.865151	2.42941	0.971634	2.72597				
0.923899	2.58894	0.728291	2.02795	0.924375	2.58873	0.960601	2.69265					0.867091	2.42851	0.973735	2.72475				
0.925977	2.58801	0.730269	2.0282	0.926452	2.58779	0.962826	2.69186					0.869032	2.42761	0.975836	2.72353				
0.92805	2.58706	0.732246	2.02844	0.928524	2.58685	0.965055	2.69108					0.870973	2.42671	0.977938	2.72231				
0.93012	2.58612	0.734222	2.02868	0.930593	2.5859	0.967289	2.69032					0.872913	2.42582	0.980038	2.7211				
0.932186	2.58517	0.736199	2.02892	0.932659	2.58495	0.969528	2.68958					0.874854	2.42494	0.982139	2.7199				
0.934249	2.58421	0.738175	2.02916	0.93472	2.58399	0.971771	2.68885					0.876795	2.42406	0.984239	2.7187				
0.936308	2.58325	0.740151	2.02939	0.936779	2.58303	0.974018	2.68814					0.878736	2.42318	0.986339	2.71751				
0.938363	2.58228	0.742127	2.02962	0.938833	2.58206	0.976269	2.68744					0.880677	2.42231	0.988438	2.71632				
0.940415	2.58131	0.744103	2.02985	0.940885	2.58109	0.978525	2.68676					0.882619	2.42145	0.990538	2.71514				
0.942464	2.58033	0.746078	2.03008	0.942933	2.58011	0.980785	2.6861					0.88456	2.42059	0.992636	2.71396				
0.944509	2.57935	0.748053	2.03031	0.944977	2.57913	0.983049	2.68544					0.886501	2.41973	0.994735	2.71278				
0.946552	2.57837	0.750028	2.03053	0.947019	2.57814	0.985317	2.6848					0.888443	2.41888	0.996832	2.71162				
0.948591	2.57738	0.752002	2.03076	0.949057	2.57716	0.987588	2.68418					0.890385	2.41803	0.99893	2.71045				
0.950627	2.57639	0.753976	2.03098	0.951093	2.57617	0.989864	2.68357					0.892326	2.41719	1.00103	2.70929				
0.95266	2.5754	0.75595	2.0312	0.953125	2.57517	0.992143	2.68297					0.894268	2.41635						
0.954691	2.57441	0.757924	2.03142	0.955155	2.57418	0.994425	2.68238					0.89621	2.41552						
0.956718	2.57341	0.759898	2.03163	0.957182	2.57318	0.996711	2.68181					0.898152	2.41469						
0.958743	2.57241	0.761871	2.03185	0.959206	2.57218	0.999001	2.68125					0.900095	2.41386						
0.960765	2.57141	0.763844	2.03206	0.961228	2.57118	1.00129	2.6807					0.902037	2.41304						
0.962785	2.5704	0.765816	2.03227	0.963247	2.57017							0.90398	2.41223						
0.964802	2.5694	0.767789	2.03248	0.965264	2.56917							0.905923	2.41142						
0.966817	2.56839	0.769761	2.03269	0.967278	2.56816							0.907865	2.41061						
0.968829	2.56738	0.771733	2.03289	0.96929	2.56715							0.909808	2.40981						
0.97084	2.56637	0.773705	2.0331	0.971299	2.56614							0.911752	2.40901						
0.972847	2.56536	0.775676	2.0333	0.973307	2.56513							0.913695	2.40822						
0.974853	2.56435	0.777647	2.0335	0.975312	2.56412							0.915639	2.40743						
0.976857	2.56334	0.779618	2.0337	0.977315	2.56311							0.917582	2.40664						
0.978859	2.56233	0.781589	2.0339	0.979317	2.56209							0.919526	2.40586						
0.980858	2.56131	0.783559	2.03409	0.981316	2.56108							0.92147	2.40508						
0.982856	2.5603	0.785529	2.03429	0.983313	2.56007							0.923414	2.40431						
0.984852	2.55929	0.787499	2.03448	0.985309	2.55906							0.925359	2.40354						
0.986846	2.55828	0.789469	2.03467	0.987303	2.55805							0.927303	2.40278						
0.988839	2.55727	0.791438	2.03486	0.989295	2.55704							0.929248	2.40202						
0.99083	2.55626	0.793408	2.03505	0.991285	2.55603							0.931193	2.40126						
0.992819	2.55525	0.795376	2.03523	0.993274	2.55502							0.933138	2.40051						
0.994807	2.55424	0.797345	2.03542	0.995262	2.55401							0.935083	2.39977						
0.996793	2.55323	0.799314	2.0356	0.997248	2.553							0.937029	2.39902						
0.998778	2.55222	0.801282	2.03578	0.999232	2.55199							0.938975	2.39828						
1.00076	2.55122	0.80325	2.03596	1.00122	2.55099							0.94092	2.39755						
		0.805217	2.03614									0.942867	2.39682						
		0.807185	2.03632									0.944813	2.39609						
		0.809152	2.0365									0.946759	2.39537						
		0.811119	2.03667									0.948706	2.39465						
		0.813086	2.03685									0.950653	2.39393						
		0.815053	2.03702									0.9526	2.39322						
		0.817019	2.03719									0.954548	2.39251						
		0.818985	2.03736									0.956495	2.39181						
		0.820951	2.03752									0.958443	2.39111						
		0.822916	2.03769									0.960391	2.39041						
		0.824882	2.03786									0.962339	2.38972						
		0.826847	2.03802									0.964288	2.38903						
		0.828812	2.03818									0.966236	2.38834						
		0.830776	2.03834									0.968185	2.38766						
		0.832741	2.0385									0.970135	2.38699						
		0.834705	2.03866									0.972084	2.38631						
		0.836669	2.03882									0.974034	2.38564						
		0.838632	2.03898									0.975983	2.38497						
		0.840596	2.03913									0.977933	2.38431						
		0.842559	2.03928									0.979884	2.38365						
		0.844522	2.03944									0.981834	2.383						
		0.846485	2.03959									0.983785	2.38234						
		0.848448	2.03974									0.985736	2.38169						
		0.85041	2.03989									0.987688	2.38105						
		0.852372	2.04003									0.989639	2.38041						
		0.854334	2.04018									0.991591	2.37977						
		0.856296	2.04032									0.993543	2.37913						
		0.858257	2.04047									0.995495	2.3785						
		0.860218	2.04061									0.997448	2.37787						
		0.862179	2.04075									0.999401	2.37725						
		0.86414	2.04089									1.00135	2.37663						
		0.866101	2.04103																
		0.868061	2.04117																
		0.870021	2.04131																
		0.871981	2.04144																
		0.873941	2.04158																
		0.8759	2.04171																
		0.87786	2.04184																
		0.879819	2.04198																
		0.881778	2.04211																
		0.883736	2.04224																
		0.885695	2.04236																
		0.887653	2.04249																
		0.889611	2.04262																
		0.891569	2.04274																
		0.893526	2.04287																
		0.895483	2.04299																
		0.897441	2.04311																
		0.899398	2.04323																
		0.901354	2.04335																
		0.903311	2.04347																
		0.905267	2.04359																
		0.907223	2.04371																
		0.909179	2.04383																
		0.911135	2.04394																
		0.91309	2.04406																
		0.915046	2.04417																
		0.917001	2.04428																
		0.918956	2.04439																
		0.920911	2.0445																
		0.922865	2.04461																
		0.924819	2.04472																
		0.926773	2.04483																
		0.928727	2.04494																
		0.930681	2.04505																
		0.932635	2.04515																
		0.934588	2.04526																
		0.936541	2.04536																
		0.938494	2.04546																
		0.940447	2.04557																
		0.942399	2.04567																
		0.944352	2.04577																
		0.946304	2.04587																
		0.948256	2.04597																
		0.950208	2.04606																
		0.952159	2.04616																
		0.954111	2.04626																
		0.956062	2.04635																
		0.958013	2.04645																
		0.959964	2.04654																
		0.961915	2.04664																
		0.963865	2.04673																
		0.965816	2.04682																
		0.967766	2.04691																
		0.969716	2.047																
		0.971666	2.04709																
		0.973615	2.04718																
		0.975565	2.04727																
		0.977514	2.04736																
		0.979463	2.04745																
		0.981412	2.04753																
		0.983361	2.04762																
		0.985309	2.0477																
		0.987257	2.04779																
		0.989206	2.04787																
		0.991154	2.04795																
		0.993102	2.04803																
		0.995049	2.04812																
		0.996997	2.0482																
		0.998944	2.04828																
		1.00089	2.04836																
