Sym0		Asym0		Sym1		Sym2		Sym3		Sym4		Asym1		Asym2		Asym3		Asym4	
427  Points		528  Points		427  Points		407  Points		353  Points		254  Points		458  Points		402  Points		347  Points		217  Points	
Freq (MHz)	Vph (m/ms)	Freq (MHz)	Vph (m/ms)	Freq (MHz)	Vph (m/ms)	Freq (MHz)	Vph (m/ms)	Freq (MHz)	Vph (m/ms)	Freq (MHz)	Vph (m/ms)	Freq (MHz)	Vph (m/ms)	Freq (MHz)	Vph (m/ms)	Freq (MHz)	Vph (m/ms)	Freq (MHz)	Vph (m/ms)
0.279509	875.274	0.000230322	0.0933827	0.27951	539.233	0.441143	2322.78	0.559017	2433.47	0.838526	17476.7	0.139763	286.443	0.419267	518.422	0.698772	1298.92	0.882288	1146.44
0.279518	223.429	0.000436572	0.128474	0.279521	192.767	0.441151	393.318	0.559025	481.331	0.838529	855.926	0.139831	98.4991	0.419283	240.907	0.698778	475.469	0.882296	518.606
0.279536	128.067	0.00070741	0.163381	0.279541	117.369	0.441171	214.859	0.559045	267.088	0.838538	438.71	0.139966	59.5266	0.41931	156.92	0.698791	290.998	0.882309	335.099
0.279565	89.7645	0.00104205	0.198052	0.279572	84.3754	0.441203	147.806	0.559075	184.83	0.838552	294.947	0.140166	42.6944	0.419348	116.362	0.698809	209.66	0.882328	247.52
0.279603	69.1041	0.00143962	0.232451	0.279613	65.8668	0.441246	112.658	0.559116	141.316	0.838572	222.153	0.140432	33.3195	0.419398	92.4698	0.698832	163.863	0.882353	196.237
0.279652	56.1797	0.00189915	0.26655	0.279664	54.0223	0.441301	91.02	0.559168	114.391	0.838598	178.18	0.140763	27.3516	0.419459	76.7227	0.698862	134.489	0.882384	162.56
0.279711	47.3323	0.00241928	0.300286	0.279725	45.7926	0.441367	76.3599	0.55923	96.0895	0.83863	148.742	0.141157	23.2238	0.419532	65.5631	0.698897	114.047	0.882421	138.751
0.27978	40.8963	0.00299881	0.333635	0.279796	39.7425	0.441445	65.7717	0.559304	82.8404	0.838668	127.654	0.141614	20.2023	0.419616	57.2417	0.698939	99.0022	0.882463	121.027
0.279858	36.0044	0.00363624	0.366557	0.279877	35.1079	0.441535	57.7662	0.559389	72.806	0.838711	111.805	0.142132	17.8974	0.419712	50.7985	0.698986	87.4659	0.882511	107.32
0.279947	32.1609	0.00433012	0.399027	0.279968	31.4443	0.441636	51.5017	0.559485	64.9433	0.83876	99.4588	0.142711	16.0834	0.419819	45.6623	0.699039	78.3393	0.882565	96.4042
0.280046	29.0616	0.00507889	0.431021	0.280069	28.4759	0.441749	46.4663	0.559591	58.6164	0.838814	89.5697	0.143348	14.6201	0.419937	41.4725	0.699098	70.939	0.882625	87.5052
0.280155	26.5098	0.00588081	0.462507	0.28018	26.0221	0.441874	42.3309	0.559709	53.4157	0.838874	81.4708	0.144043	13.4161	0.420067	37.9897	0.699162	64.8176	0.88269	80.1118
0.280274	24.3724	0.00673414	0.493461	0.280301	23.9601	0.44201	38.8742	0.559837	49.0652	0.83894	74.7165	0.144794	12.4092	0.420208	35.0492	0.699233	59.6701	0.882762	73.8717
0.280404	22.5561	0.00763738	0.523881	0.280433	22.203	0.442158	35.9421	0.559976	45.3725	0.839012	68.9976	0.145599	11.5555	0.42036	32.5337	0.699309	55.2813	0.882838	68.5347
0.280543	20.9939	0.00858853	0.553736	0.280574	20.6881	0.442317	33.4237	0.560127	42.199	0.83909	64.0932	0.146456	10.8232	0.420524	30.3574	0.699391	51.4951	0.882921	63.9181
0.280692	19.636	0.00958599	0.583023	0.280725	19.3687	0.442488	31.2373	0.560288	39.4426	0.839173	59.8409	0.147244	10.2655	0.420699	28.4561	0.699479	48.1954	0.88301	59.8853
0.280851	18.4449	0.010628	0.611735	0.280887	18.2093	0.44267	29.3216	0.560459	37.0262	0.839261	56.1187	0.147946	9.83964	0.420886	26.781	0.699573	45.2942	0.883104	56.3322
0.28102	17.3919	0.0117128	0.639859	0.281058	17.1826	0.442864	27.6294	0.560642	34.8907	0.839356	52.8336	0.148546	9.51729	0.421084	25.294	0.699672	42.7234	0.883204	53.1781
0.2812	16.4542	0.0128386	0.667395	0.281239	16.2671	0.443069	26.1237	0.560836	32.9899	0.839456	49.9127	0.149033	9.27944	0.421293	23.9653	0.699778	40.4298	0.88331	50.3595
0.281389	15.614	0.0140039	0.694339	0.281431	15.4458	0.443286	24.7755	0.56104	31.2872	0.839562	47.2988	0.149398	9.11336	0.421513	22.771	0.699889	38.3707	0.883421	47.8254
0.281588	14.857	0.0152069	0.720694	0.281632	14.7049	0.443514	23.5613	0.561255	29.7533	0.839674	44.9459	0.149635	9.01074	0.421745	21.6917	0.700006	36.5122	0.883539	45.535
0.281798	14.1714	0.016446	0.74646	0.281844	14.0333	0.443754	22.4623	0.561481	28.3644	0.839791	42.8168	0.149979	8.868	0.421987	20.7117	0.700129	34.8261	0.883662	43.4548
0.282017	13.5477	0.0177198	0.771641	0.282065	13.4217	0.444005	21.4628	0.561718	27.1008	0.839914	40.8811	0.150359	8.7189	0.422241	19.8179	0.700258	33.2897	0.883791	41.5571
0.282247	12.9779	0.0190265	0.796241	0.282297	12.8625	0.444267	20.5499	0.561966	25.9464	0.840043	39.1137	0.150884	8.52564	0.422507	18.9996	0.700392	31.8839	0.883925	39.819
0.282486	12.4553	0.0203649	0.820267	0.282538	12.3492	0.444541	19.713	0.562224	24.8877	0.840177	37.4934	0.151563	8.29572	0.422783	18.2475	0.700532	30.5927	0.884065	38.2211
0.282735	11.9744	0.0217334	0.843729	0.28279	11.8766	0.444825	18.943	0.562493	23.9134	0.840317	36.0028	0.152405	8.03733	0.423071	17.554	0.700679	29.4028	0.884211	36.7473
0.282995	11.5304	0.0231308	0.866631	0.283051	11.4399	0.445122	18.2322	0.562773	23.0137	0.840463	34.6268	0.153421	7.75871	0.42337	16.9126	0.70083	28.3026	0.884363	35.3835
0.283264	11.1193	0.0245557	0.888984	0.283323	11.0354	0.445429	17.5742	0.563063	22.1805	0.840614	33.3527	0.154624	7.46768	0.42368	16.3177	0.700988	27.2825	0.884521	34.118
0.283544	10.7375	0.0260068	0.910799	0.283605	10.6595	0.445748	16.9632	0.563364	21.4067	0.840771	32.1698	0.155864	7.20344	0.424001	15.7643	0.701152	26.3339	0.884684	32.9405
0.283833	10.3822	0.0274831	0.932085	0.283896	10.3094	0.446078	16.3944	0.563676	20.6862	0.840934	31.0685	0.15714	6.96261	0.424333	15.2485	0.701321	25.4497	0.884853	31.8421
0.284132	10.0506	0.0289831	0.952851	0.284158	10.0234	0.446419	15.8638	0.563998	20.0137	0.841102	30.0406	0.15845	6.74233	0.424676	14.7664	0.701496	24.6236	0.885027	30.8152
0.284442	9.74052	0.030506	0.973111	0.284388	9.79245	0.446771	15.3675	0.564331	19.3847	0.841276	29.0792	0.159794	6.54021	0.42503	14.315	0.701677	23.8499	0.885208	29.8531
0.284761	9.44995	0.0320507	0.992876	0.284582	9.60974	0.447134	14.9024	0.564675	18.795	0.841456	28.178	0.161168	6.35418	0.425396	13.8914	0.701864	23.124	0.885394	28.9497
0.28509	9.17713	0.0336161	1.01216	0.284738	9.47029	0.447508	14.4657	0.565029	18.2411	0.841642	27.3314	0.162573	6.18247	0.425772	13.4932	0.702057	22.4415	0.885585	28.1
0.285429	8.92051	0.0352013	1.03096	0.284854	9.37045	0.447893	14.0548	0.565394	17.7199	0.841833	26.5348	0.164007	6.02357	0.426159	13.1181	0.702255	21.7986	0.885783	27.2992
0.285778	8.67871	0.0368054	1.04931	0.284929	9.30772	0.44829	13.6677	0.565769	17.2285	0.842029	25.7838	0.165468	5.87615	0.426557	12.7643	0.702459	21.192	0.885986	26.5433
0.286138	8.45052	0.0384274	1.06721	0.285038	9.21908	0.448697	13.3022	0.566154	16.7646	0.842232	25.0746	0.166956	5.73909	0.426967	12.43	0.702669	20.6188	0.886195	25.8286
0.286507	8.23483	0.0400667	1.08467	0.285157	9.12474	0.449115	12.9567	0.566551	16.326	0.84244	24.4039	0.168468	5.61136	0.427387	12.1136	0.702884	20.0763	0.886409	25.1518
0.286886	8.03067	0.0417224	1.1017	0.285321	8.99968	0.449544	12.6296	0.566957	15.9105	0.842654	23.7686	0.170004	5.4921	0.427817	11.8139	0.703106	19.562	0.886629	24.5101
0.287274	7.83716	0.0433938	1.11832	0.285533	8.84664	0.449984	12.3195	0.567374	15.5165	0.842873	23.166	0.171563	5.38052	0.428259	11.5294	0.703333	19.0739	0.886855	23.9008
0.287673	7.6535	0.0450801	1.13454	0.285793	8.66882	0.450434	12.0251	0.567802	15.1424	0.843098	22.5936	0.173145	5.27594	0.428712	11.2592	0.703566	18.61	0.887086	23.3214
0.288082	7.47899	0.0467807	1.15037	0.286106	8.46973	0.450895	11.7453	0.568239	14.7867	0.843328	22.0493	0.174746	5.17776	0.429175	11.0022	0.703805	18.1686	0.887324	22.7699
0.2885	7.31297	0.0484949	1.16581	0.286474	8.253	0.451367	11.479	0.568688	14.448	0.843565	21.5309	0.176368	5.08542	0.429649	10.7574	0.704049	17.748	0.887566	22.2443
0.288929	7.15486	0.0502221	1.18088	0.286852	8.04787	0.45185	11.2253	0.569146	14.1253	0.843806	21.0369	0.178009	4.99845	0.430133	10.524	0.7043	17.3469	0.887815	21.7429
0.289367	7.00411	0.0519618	1.1956	0.28724	7.85348	0.452343	10.9833	0.569615	13.8174	0.844054	20.5653	0.179668	4.91642	0.430629	10.3013	0.704556	16.9639	0.888069	21.2639
0.289816	6.86025	0.0537134	1.20996	0.287638	7.669	0.452846	10.7523	0.570094	13.5234	0.844307	20.1149	0.181344	4.83892	0.431069	10.1154	0.704818	16.5979	0.888328	20.806
0.290274	6.72283	0.0554763	1.22398	0.288046	7.49372	0.453361	10.5315	0.570583	13.2424	0.844566	19.6841	0.183038	4.76562	0.431451	9.96254	0.705085	16.2477	0.888594	20.3677
0.290742	6.59144	0.0572502	1.23768	0.288464	7.32699	0.453885	10.3204	0.571082	12.9734	0.84483	19.2718	0.184746	4.69619	0.431771	9.83989	0.705359	15.9124	0.888865	19.9479
0.29122	6.4657	0.0590345	1.25105	0.288892	7.16822	0.454351	10.1437	0.571591	12.7159	0.8451	18.8768	0.186471	4.63036	0.432027	9.74522	0.705638	15.591	0.889141	19.5454
0.291707	6.34527	0.0608287	1.26412	0.289329	7.01686	0.454754	9.9982	0.572111	12.469	0.845375	18.4979	0.188209	4.56785	0.432217	9.67687	0.705922	15.2827	0.889423	19.1593
0.292205	6.22983	0.0626324	1.27688	0.289776	6.87242	0.455092	9.88129	0.572641	12.2321	0.845656	18.1344	0.189962	4.50844	0.432339	9.63367	0.706213	14.9867	0.889711	18.7884
0.292712	6.1191	0.0644452	1.28935	0.290234	6.73446	0.455362	9.79094	0.573181	12.0047	0.845943	17.7852	0.191728	4.45191	0.432515	9.57231	0.706509	14.7023	0.890004	18.4319
0.293229	6.0128	0.0662668	1.30153	0.290701	6.60256	0.455562	9.72565	0.57373	11.7863	0.846235	17.4495	0.193506	4.39806	0.432709	9.50657	0.706811	14.4288	0.890303	18.0891
0.293756	5.91068	0.0680967	1.31343	0.291178	6.47635	0.45569	9.68437	0.57429	11.5762	0.846533	17.1267	0.195297	4.34672	0.432974	9.41875	0.707119	14.1657	0.890607	17.7591
0.294293	5.81252	0.0699346	1.32507	0.291665	6.35547	0.455876	9.6257	0.57486	11.3741	0.846837	16.8158	0.1971	4.29772	0.433312	9.3102	0.707432	13.9123	0.890917	17.4412
0.294839	5.71809	0.0717802	1.33645	0.292161	6.23962	0.456079	9.5628	0.575439	11.1795	0.847146	16.5164	0.198914	4.25091	0.433727	9.18256	0.707752	13.6681	0.891233	17.1349
0.295396	5.6272	0.0736332	1.34757	0.292668	6.12849	0.456358	9.4787	0.576029	10.9919	0.84746	16.2277	0.200738	4.20615	0.434221	9.03767	0.708076	13.4327	0.891554	16.8394
0.295962	5.53967	0.0754933	1.35845	0.293184	6.02182	0.456714	9.37465	0.576628	10.8112	0.84778	15.9493	0.202573	4.16332	0.434797	8.87751	0.708407	13.2056	0.89188	16.5543
0.296538	5.45531	0.07736	1.36909	0.29371	5.91935	0.457149	9.25214	0.577238	10.6368	0.848106	15.6806	0.204418	4.1223	0.435384	8.72355	0.708743	12.9863	0.892212	16.2789
0.297123	5.37397	0.0792334	1.3795	0.294246	5.82085	0.457666	9.11288	0.577857	10.4685	0.848437	15.4211	0.206272	4.08298	0.435981	8.57543	0.709085	12.7745	0.89255	16.0129
0.297719	5.29551	0.0811128	1.38968	0.294792	5.72611	0.45827	8.9587	0.578404	10.3265	0.848774	15.1703	0.208135	4.04525	0.436589	8.43284	0.709433	12.5698	0.892893	15.7557
0.298324	5.21977	0.0829983	1.39964	0.295347	5.63492	0.458884	8.81023	0.578876	10.2088	0.849116	14.9278	0.210007	4.00904	0.437206	8.29548	0.709786	12.3718	0.893242	15.5069
0.298939	5.14663	0.0848896	1.40939	0.295913	5.5471	0.459507	8.66716	0.579271	10.1137	0.849464	14.6933	0.211887	3.97425	0.437834	8.16309	0.710145	12.1802	0.893596	15.2661
0.299564	5.07596	0.0867863	1.41893	0.296488	5.46248	0.460141	8.52922	0.579586	10.0398	0.849817	14.4663	0.213776	3.94081	0.438473	8.03541	0.71051	11.9948	0.893956	15.033
0.300198	5.00765	0.0886883	1.42827	0.297072	5.38089	0.460784	8.39615	0.579818	9.9863	0.850176	14.2464	0.215672	3.90863	0.439121	7.9122	0.710881	11.8152	0.894321	14.8071
0.300842	4.9416	0.0905955	1.43742	0.297667	5.30218	0.461437	8.26769	0.579968	9.95238	0.85054	14.0334	0.217576	3.87766	0.439779	7.79323	0.711257	11.6412	0.894691	14.5882
0.301496	4.87769	0.0925074	1.44637	0.298271	5.22621	0.4621	8.14362	0.580184	9.90405	0.85091	13.827	0.219487	3.84782	0.440448	7.67831	0.711638	11.4725	0.895067	14.3759
0.302159	4.81583	0.0944241	1.45514	0.298885	5.15285	0.462773	8.02373	0.58042	9.85212	0.851285	13.6268	0.221404	3.81906	0.441126	7.56723	0.712026	11.3089	0.895449	14.17
0.302833	4.75594	0.0963453	1.46373	0.299509	5.08197	0.463455	7.90782	0.580743	9.78246	0.851666	13.4325	0.223329	3.79132	0.441815	7.45981	0.712419	11.1501	0.895836	13.9702
0.303427	4.70528	0.0982709	1.47215	0.300143	5.01347	0.464147	7.79569	0.581154	9.69591	0.852052	13.244	0.225259	3.76456	0.442513	7.35589	0.712818	10.996	0.896228	13.7761
0.30394	4.66318	0.100201	1.48039	0.300786	4.94722	0.464848	7.68718	0.581657	9.59352	0.852444	13.0609	0.227196	3.73871	0.443222	7.2553	0.713222	10.8464	0.896626	13.5877
0.304368	4.6291	0.102134	1.48847	0.301439	4.88313	0.465559	7.58212	0.582253	9.47645	0.852841	12.8831	0.229139	3.71374	0.44394	7.15789	0.713632	10.701	0.897029	13.4045
0.304709	4.60261	0.104072	1.49639	0.302102	4.8211	0.46628	7.48034	0.582946	9.34601	0.853244	12.7103	0.231087	3.68961	0.444668	7.06352	0.713994	10.5777	0.897438	13.2265
0.304961	4.58338	0.106013	1.50416	0.302774	4.76104	0.467009	7.38172	0.583648	9.21955	0.853652	12.5423	0.233041	3.66627	0.445406	6.97205	0.714306	10.4749	0.897852	13.0533
0.305123	4.57118	0.107958	1.51177	0.303456	4.70286	0.467748	7.2861	0.58436	9.09691	0.854066	12.3789	0.235	3.64368	0.446154	6.88337	0.714566	10.3915	0.898271	12.8849
0.305357	4.5538	0.109906	1.51923	0.304148	4.64649	0.468497	7.19336	0.585081	8.97793	0.854485	12.22	0.236965	3.62182	0.446911	6.79735	0.714773	10.3265	0.898696	12.721
0.305612	4.53511	0.111858	1.52655	0.304849	4.59185	0.469254	7.10338	0.585812	8.86243	0.854909	12.0653	0.238934	3.60064	0.447678	6.71387	0.714926	10.2793	0.899126	12.5614
0.305961	4.51	0.113813	1.53372	0.30556	4.53887	0.470021	7.01603	0.586551	8.75029	0.855339	11.9147	0.240908	3.58012	0.448455	6.63284	0.715025	10.2494	0.899561	12.406
0.306406	4.47878	0.115771	1.54076	0.306281	4.48747	0.470797	6.93122	0.5873	8.64135	0.855774	11.768	0.242886	3.56023	0.449241	6.55415	0.715167	10.2066	0.900002	12.2546
0.306949	4.44178	0.117479	1.54679	0.307012	4.43759	0.471582	6.84883	0.588059	8.5355	0.856215	11.6252	0.244869	3.54094	0.450037	6.47771	0.715322	10.1606	0.900448	12.1071
0.307593	4.39941	0.118937	1.55184	0.307752	4.38919	0.472376	6.76877	0.588826	8.4326	0.856661	11.4859	0.246857	3.52222	0.450842	6.40343	0.715534	10.0987	0.900899	11.9633
0.308341	4.35211	0.120144	1.55597	0.308502	4.34218	0.473179	6.69095	0.589602	8.33254	0.857113	11.3502	0.248848	3.50405	0.451657	6.33122	0.715804	10.0215	0.901356	11.8231
0.309098	4.30617	0.1211	1.5592	0.309261	4.29653	0.47399	6.61527	0.590388	8.2352	0.85757	11.2178	0.250843	3.4864	0.452481	6.26101	0.716133	9.92992	0.901818	11.6863
0.309866	4.26154	0.121802	1.56156	0.310031	4.25218	0.474811	6.54166	0.591182	8.14049	0.858032	11.0887	0.252842	3.46926	0.453315	6.1927	0.716524	9.82472	0.902285	11.5529
0.310642	4.21818	0.122252	1.56306	0.31081	4.20908	0.47564	6.47003	0.591986	8.0483	0.8585	10.9628	0.254845	3.4526	0.454158	6.12624	0.716977	9.70693	0.902758	11.4227
0.311429	4.17603	0.122899	1.56521	0.311598	4.16718	0.476478	6.40032	0.592798	7.95854	0.858912	10.8555	0.256851	3.43641	0.45501	6.06156	0.717436	9.59215	0.903236	11.2956
0.312225	4.13504	0.123603	1.56752	0.312397	4.12644	0.477325	6.33244	0.59362	7.87111	0.859266	10.7658	0.258861	3.42066	0.455871	5.99858	0.7179	9.48026	0.903719	11.1715
0.313031	4.09519	0.12456	1.57065	0.313205	4.08682	0.47818	6.26633	0.59445	7.78593	0.859561	10.6928	0.260874	3.40533	0.456742	5.93725	0.71837	9.37117	0.904207	11.0502
0.313847	4.05642	0.125771	1.57456	0.314022	4.04827	0.479044	6.20193	0.595289	7.70292	0.859796	10.6359	0.26289	3.39042	0.457622	5.8775	0.718846	9.26477	0.904637	10.9469
0.314672	4.01869	0.127238	1.57924	0.31485	4.01077	0.479916	6.13917	0.596137	7.622	0.85997	10.5944	0.264909	3.37589	0.45851	5.81928	0.719327	9.16096	0.905006	10.8604
0.315508	3.98198	0.12896	1.58464	0.315687	3.97426	0.480797	6.078	0.596993	7.5431	0.860081	10.5681	0.266931	3.36175	0.459408	5.76253	0.719813	9.05966	0.905314	10.79
0.316353	3.94624	0.130938	1.59074	0.316534	3.93873	0.481686	6.01836	0.597858	7.46614	0.860242	10.5304	0.268957	3.34797	0.460315	5.70721	0.720305	8.96078	0.905559	10.735
0.317207	3.91144	0.132918	1.59672	0.317391	3.90413	0.482584	5.96019	0.598732	7.39105	0.860417	10.4898	0.270985	3.33454	0.461231	5.65326	0.720803	8.86423	0.905739	10.6949
0.318072	3.87755	0.134901	1.6026	0.318258	3.87043	0.483489	5.90344	0.599614	7.31778	0.860657	10.4352	0.273015	3.32145	0.462156	5.60064	0.721306	8.76994	0.905856	10.6695
0.318946	3.84454	0.136885	1.60837	0.319134	3.8376	0.484403	5.84807	0.600505	7.24626	0.860961	10.3669	0.275049	3.30868	0.46309	5.5493	0.721815	8.67782	0.906023	10.6331
0.31983	3.81239	0.138871	1.61404	0.32002	3.80562	0.485325	5.79403	0.601404	7.17643	0.861332	10.2857	0.277084	3.29623	0.464032	5.4992	0.722329	8.58781	0.906205	10.5939
0.320724	3.78105	0.14086	1.61962	0.320916	3.77446	0.486255	5.74128	0.602312	7.10823	0.861771	10.1921	0.279122	3.28408	0.464984	5.4503	0.722849	8.49984	0.906454	10.541
0.321628	3.75051	0.14285	1.62509	0.321822	3.74409	0.487194	5.68976	0.603228	7.04162	0.86228	10.087	0.281163	3.27221	0.465944	5.40255	0.723375	8.41384	0.906771	10.475
0.322542	3.72074	0.144842	1.63047	0.322738	3.71448	0.48814	5.63945	0.604153	6.97654	0.862794	9.98419	0.283206	3.26063	0.466913	5.35593	0.723905	8.32974	0.907157	10.3963
0.323465	3.69172	0.146836	1.63576	0.323664	3.68561	0.489094	5.5903	0.605086	6.91293	0.863314	9.88364	0.285251	3.24932	0.46789	5.31039	0.724442	8.24749	0.907613	10.3057
0.324399	3.66342	0.148831	1.64096	0.3246	3.65747	0.490056	5.54227	0.606027	6.85076	0.863839	9.78527	0.287298	3.23827	0.468877	5.2659	0.724983	8.16704	0.908141	10.2037
0.325343	3.63582	0.150828	1.64606	0.325546	3.63002	0.491025	5.49533	0.606976	6.78998	0.864369	9.68901	0.289347	3.22748	0.469871	5.22242	0.725531	8.08831	0.908675	10.1039
0.326296	3.60891	0.152827	1.65109	0.326501	3.60324	0.492003	5.44945	0.607934	6.73054	0.864904	9.59481	0.291398	3.21692	0.470875	5.17993	0.726083	8.01126	0.909213	10.0063
0.32726	3.58265	0.154827	1.65603	0.327467	3.57712	0.492988	5.40459	0.608899	6.67241	0.865444	9.50259	0.293451	3.20661	0.471886	5.1384	0.726642	7.93584	0.909757	9.91062
0.328234	3.55703	0.156828	1.66088	0.328444	3.55164	0.493981	5.36072	0.609873	6.61554	0.86599	9.41229	0.295506	3.19652	0.472907	5.09779	0.727205	7.862	0.910305	9.81695
0.329218	3.53203	0.158831	1.66566	0.32943	3.52677	0.494981	5.31781	0.610855	6.55989	0.866541	9.32387	0.297562	3.18665	0.473935	5.05808	0.727775	7.78969	0.910859	9.72521
0.330213	3.50764	0.160835	1.67035	0.330427	3.50251	0.495989	5.27583	0.611845	6.50543	0.867098	9.23725	0.299621	3.17699	0.474972	5.01924	0.728349	7.71886	0.911418	9.63533
0.331218	3.48383	0.162841	1.67497	0.331433	3.47882	0.497005	5.23476	0.612842	6.45212	0.867659	9.15239	0.301681	3.16754	0.476018	4.98124	0.728929	7.64948	0.911982	9.54725
0.332233	3.4606	0.164847	1.67952	0.332451	3.45571	0.498028	5.19455	0.613848	6.39993	0.868226	9.06924	0.303742	3.15829	0.477071	4.94406	0.729515	7.5815	0.912551	9.46093
0.333258	3.43792	0.166855	1.68399	0.333479	3.43314	0.499058	5.1552	0.614861	6.34882	0.868798	8.98774	0.305805	3.14923	0.478133	4.90768	0.730105	7.51487	0.913125	9.37632
0.334294	3.41577	0.168864	1.68839	0.334517	3.41111	0.500096	5.11668	0.615882	6.29877	0.869375	8.90785	0.30787	3.14036	0.479203	4.87207	0.730702	7.44957	0.913704	9.29335
0.335341	3.39416	0.170874	1.69272	0.335566	3.38961	0.501141	5.07895	0.616911	6.24974	0.869957	8.82953	0.309936	3.13167	0.480282	4.83721	0.731303	7.38555	0.914288	9.212
0.336399	3.37305	0.172886	1.69698	0.336626	3.36861	0.502193	5.04201	0.617948	6.20171	0.870545	8.75273	0.312003	3.12316	0.481368	4.80309	0.73191	7.32278	0.914877	9.1322
0.337467	3.35245	0.174898	1.70118	0.337696	3.34811	0.503252	5.00582	0.618992	6.15464	0.871137	8.6774	0.314072	3.11482	0.482462	4.76966	0.732523	7.26122	0.915472	9.05393
0.338546	3.33232	0.176911	1.7053	0.338778	3.32809	0.504318	4.97036	0.620044	6.10851	0.871735	8.60351	0.316141	3.10664	0.483565	4.73693	0.733141	7.20084	0.916071	8.97714
0.339636	3.31267	0.178925	1.70937	0.33987	3.30854	0.505392	4.93562	0.621104	6.06329	0.872338	8.53102	0.318212	3.09862	0.484675	4.70487	0.733764	7.14161	0.916675	8.90178
0.340737	3.29349	0.18094	1.71337	0.340974	3.28945	0.506472	4.90157	0.622171	6.01897	0.872947	8.45988	0.320285	3.09076	0.485794	4.67346	0.734392	7.08349	0.917284	8.82782
0.34185	3.27475	0.182956	1.71731	0.342089	3.2708	0.50756	4.8682	0.623245	5.9755	0.87356	8.39007	0.322358	3.08305	0.48692	4.64268	0.735026	7.02646	0.917897	8.75523
0.342974	3.25645	0.184973	1.72118	0.343216	3.2526	0.508654	4.83549	0.624327	5.93288	0.874178	8.32154	0.324432	3.07548	0.488054	4.61252	0.735666	6.97049	0.918516	8.68396
0.344109	3.23858	0.186991	1.725	0.344353	3.23482	0.509755	4.80341	0.625416	5.89107	0.874802	8.25427	0.326508	3.06806	0.489196	4.58296	0.73631	6.91555	0.91914	8.61398
0.345256	3.22113	0.189009	1.72877	0.345503	3.21746	0.510863	4.77196	0.626513	5.85006	0.875431	8.18822	0.328584	3.06077	0.490346	4.55398	0.73696	6.86161	0.919769	8.54526
0.346415	3.20409	0.191028	1.73247	0.346664	3.20051	0.511978	4.74111	0.627617	5.80982	0.876064	8.12336	0.330662	3.05362	0.491503	4.52557	0.737615	6.80865	0.920402	8.47776
0.347586	3.18746	0.193048	1.73612	0.347838	3.18395	0.513099	4.71085	0.628728	5.77034	0.876703	8.05965	0.33274	3.0466	0.492668	4.49771	0.738276	6.75664	0.921041	8.41145
0.348769	3.17121	0.195069	1.73971	0.349024	3.16779	0.514228	4.68116	0.629846	5.73159	0.877347	7.99708	0.334819	3.03971	0.493841	4.47039	0.738942	6.70555	0.921684	8.34631
0.349965	3.15535	0.19709	1.74325	0.350222	3.15201	0.515362	4.65204	0.630971	5.69356	0.877996	7.9356	0.336899	3.03294	0.495021	4.4436	0.739613	6.65538	0.922332	8.2823
0.351173	3.13986	0.199112	1.74674	0.351432	3.1366	0.516504	4.62345	0.632104	5.65623	0.87865	7.8752	0.33898	3.02629	0.496209	4.41732	0.740289	6.60608	0.922985	8.2194
0.352393	3.12475	0.201134	1.75018	0.352656	3.12157	0.517651	4.5954	0.633244	5.61957	0.879309	7.81584	0.341061	3.01975	0.497405	4.39154	0.740971	6.55764	0.923643	8.15757
0.353627	3.10999	0.203157	1.75357	0.353892	3.10689	0.518806	4.56787	0.63439	5.58358	0.879974	7.7575	0.343144	3.01333	0.498608	4.36625	0.741658	6.51004	0.924305	8.0968
0.354874	3.09559	0.205181	1.75691	0.355142	3.09256	0.519966	4.54084	0.635544	5.54824	0.880643	7.70015	0.345226	3.00702	0.499818	4.34142	0.74235	6.46326	0.924973	8.03705
0.356134	3.08154	0.207205	1.7602	0.356405	3.07858	0.521133	4.5143	0.636704	5.51353	0.881317	7.64378	0.34731	3.00081	0.501036	4.31707	0.743048	6.41728	0.925645	7.9783
0.357408	3.06783	0.20923	1.76344	0.357681	3.06495	0.522306	4.48824	0.637871	5.47943	0.881996	7.58835	0.349394	2.99471	0.502261	4.29316	0.743751	6.37208	0.926322	7.92053
0.358695	3.05446	0.211255	1.76664	0.358972	3.05164	0.523486	4.46264	0.639046	5.44593	0.882681	7.53385	0.351479	2.98871	0.503494	4.26969	0.744459	6.32763	0.927003	7.86371
0.359997	3.04141	0.213281	1.76979	0.360277	3.03867	0.524672	4.43751	0.640226	5.41301	0.88337	7.48024	0.353564	2.98281	0.504734	4.24665	0.745172	6.28393	0.92769	7.80783
0.361314	3.0287	0.215307	1.77289	0.361597	3.02602	0.525864	4.41282	0.641414	5.38067	0.884064	7.42752	0.355649	2.97701	0.505981	4.22403	0.74589	6.24096	0.928381	7.75285
0.362645	3.0163	0.217334	1.77596	0.362931	3.01369	0.527062	4.38856	0.642608	5.34888	0.884763	7.37566	0.357736	2.9713	0.507235	4.20182	0.746614	6.19869	0.929077	7.69876
0.363991	3.00421	0.219361	1.77898	0.36428	3.00167	0.528266	4.36472	0.643809	5.31764	0.885468	7.32464	0.359822	2.96568	0.508497	4.18001	0.747343	6.15711	0.929777	7.64554
0.365353	2.99244	0.221388	1.78195	0.365645	2.98996	0.529476	4.3413	0.645017	5.28693	0.886177	7.27445	0.361909	2.96015	0.509765	4.15859	0.748077	6.11621	0.930482	7.59316
0.36673	2.98097	0.223416	1.78489	0.367026	2.97856	0.530692	4.31829	0.646231	5.25673	0.886891	7.22505	0.363996	2.95471	0.511041	4.13755	0.748816	6.07597	0.931192	7.54162
0.368123	2.9698	0.225444	1.78779	0.368423	2.96746	0.531914	4.29567	0.647452	5.22705	0.88761	7.17644	0.366084	2.94935	0.512324	4.11688	0.749561	6.03638	0.931907	7.49088
0.369532	2.95893	0.227473	1.79064	0.369836	2.95665	0.533142	4.27343	0.648679	5.19786	0.888334	7.12859	0.368172	2.94407	0.513614	4.09657	0.75031	5.99741	0.932626	7.44093
0.370959	2.94836	0.229502	1.79346	0.371265	2.94614	0.534376	4.25157	0.649912	5.16915	0.889063	7.0815	0.37026	2.93887	0.51491	4.07662	0.751065	5.95907	0.93335	7.39176
0.372402	2.93807	0.231531	1.79624	0.372712	2.93591	0.535616	4.23007	0.651152	5.14092	0.889797	7.03513	0.372349	2.93375	0.516214	4.05702	0.751825	5.92133	0.934078	7.34335
0.373862	2.92807	0.23356	1.79898	0.374176	2.92597	0.536861	4.20894	0.652398	5.11314	0.890535	6.98949	0.374438	2.92871	0.517525	4.03775	0.75259	5.88417	0.934811	7.29567
0.37534	2.91835	0.23559	1.80168	0.375658	2.91631	0.538113	4.18816	0.653651	5.08582	0.891279	6.94454	0.376527	2.92374	0.518842	4.01882	0.75336	5.8476	0.935549	7.24872
0.376836	2.90891	0.23762	1.80435	0.377158	2.90693	0.539369	4.16772	0.654909	5.05894	0.892027	6.90028	0.378616	2.91885	0.520167	4.00021	0.754135	5.81159	0.936291	7.20248
0.37835	2.89975	0.23965	1.80699	0.378676	2.89782	0.540632	4.14761	0.656174	5.03249	0.89278	6.85669	0.380705	2.91403	0.521498	3.98192	0.754915	5.77613	0.937038	7.15693
0.379883	2.89085	0.24168	1.80958	0.380213	2.88899	0.5419	4.12784	0.657445	5.00647	0.893539	6.81376	0.382794	2.90927	0.522836	3.96393	0.755701	5.74121	0.937789	7.11206
0.381435	2.88223	0.243711	1.81215	0.381769	2.88042	0.543173	4.10838	0.658723	4.98085	0.894302	6.77146	0.384884	2.90458	0.524181	3.94625	0.756491	5.70682	0.938545	7.06785
0.383006	2.87387	0.245742	1.81467	0.383345	2.87211	0.544453	4.08924	0.660006	4.95565	0.895069	6.7298	0.386973	2.89996	0.525532	3.92887	0.757287	5.67295	0.939305	7.02429
0.384597	2.86577	0.247773	1.81717	0.384939	2.86407	0.545737	4.0704	0.661295	4.93083	0.895842	6.68876	0.389063	2.89541	0.52689	3.91178	0.758087	5.63959	0.94007	6.98137
0.386207	2.85792	0.249804	1.81963	0.386554	2.85628	0.547027	4.05187	0.66259	4.9064	0.896619	6.64831	0.391152	2.89091	0.528255	3.89497	0.758893	5.60672	0.94084	6.93907
0.387838	2.85034	0.251836	1.82207	0.388188	2.84875	0.548322	4.03362	0.663891	4.88235	0.897402	6.60846	0.393242	2.88648	0.529626	3.87843	0.759704	5.57434	0.941614	6.89738
0.389488	2.843	0.253867	1.82447	0.389843	2.84146	0.549623	4.01567	0.665198	4.85868	0.898189	6.56918	0.395331	2.88211	0.531004	3.86217	0.76052	5.54243	0.942392	6.85629
0.391159	2.83591	0.255899	1.82683	0.391518	2.83442	0.550929	3.998	0.666511	4.83536	0.898981	6.53047	0.397421	2.87779	0.532388	3.84618	0.76134	5.511	0.943175	6.81578
0.39285	2.82906	0.257931	1.82917	0.393214	2.82763	0.55224	3.9806	0.66783	4.8124	0.899777	6.49232	0.39951	2.87353	0.533779	3.83044	0.762166	5.48002	0.943962	6.77585
0.394562	2.82245	0.259963	1.83148	0.39493	2.82107	0.553557	3.96347	0.669154	4.78978	0.900578	6.45471	0.401599	2.86933	0.535176	3.81496	0.762997	5.44948	0.944753	6.73648
0.396294	2.81607	0.261995	1.83376	0.396667	2.81474	0.554879	3.94661	0.670484	4.76751	0.901385	6.41763	0.403688	2.86519	0.53658	3.79973	0.763833	5.41939	0.94555	6.69766
0.398047	2.80992	0.264027	1.83601	0.398424	2.80864	0.556205	3.93	0.67182	4.74557	0.902195	6.38108	0.405777	2.86109	0.53799	3.78475	0.764674	5.38973	0.94635	6.65938
0.39982	2.804	0.266059	1.83824	0.400202	2.80277	0.557537	3.91365	0.673162	4.72396	0.903011	6.34503	0.407866	2.85705	0.539407	3.77	0.76552	5.36049	0.947155	6.62164
0.401614	2.7983	0.268092	1.84043	0.402	2.79711	0.558874	3.89754	0.674509	4.70266	0.903831	6.30949	0.409955	2.85306	0.54083	3.75549	0.76637	5.33166	0.947964	6.5844
0.403429	2.79281	0.270124	1.8426	0.403819	2.79167	0.560216	3.88168	0.675861	4.68168	0.904656	6.27444	0.412043	2.84912	0.542259	3.74121	0.767226	5.30324	0.948778	6.54768
0.405263	2.78753	0.272157	1.84474	0.405658	2.78643	0.561563	3.86606	0.677219	4.66101	0.905486	6.23987	0.414131	2.84523	0.543694	3.72716	0.768087	5.27522	0.949595	6.51146
0.407118	2.78246	0.274189	1.84685	0.407517	2.7814	0.562915	3.85066	0.678583	4.64063	0.90632	6.20578	0.416219	2.84138	0.545136	3.71332	0.768952	5.24758	0.950418	6.47573
0.408992	2.77758	0.276222	1.84894	0.409395	2.77656	0.564272	3.8355	0.679952	4.62056	0.907159	6.17215	0.418306	2.83759	0.546584	3.69971	0.769823	5.22033	0.951244	6.44047
0.410886	2.7729	0.278254	1.851	0.411293	2.77192	0.565634	3.82056	0.681326	4.60077	0.908003	6.13897	0.420394	2.83384	0.548038	3.6863	0.770698	5.19346	0.952075	6.40569
0.412799	2.7684	0.280287	1.85304	0.41321	2.76747	0.567	3.80584	0.682706	4.58126	0.908851	6.10624	0.42248	2.83013	0.549498	3.6731	0.771579	5.16695	0.95291	6.37137
0.414731	2.76409	0.282319	1.85505	0.415146	2.76319	0.568372	3.79134	0.684091	4.56203	0.909704	6.07395	0.424567	2.82646	0.550964	3.66011	0.772464	5.1408	0.95375	6.3375
0.416681	2.75995	0.284352	1.85703	0.4171	2.75909	0.569748	3.77704	0.685481	4.54308	0.910562	6.04209	0.426653	2.82284	0.552436	3.64732	0.773354	5.11501	0.954593	6.30408
0.41865	2.75598	0.286385	1.859	0.419072	2.75515	0.571129	3.76296	0.686877	4.52439	0.911424	6.01065	0.428739	2.81926	0.553915	3.63472	0.774249	5.08957	0.955441	6.27109
0.420636	2.75217	0.288417	1.86094	0.421062	2.75138	0.572515	3.74907	0.688277	4.50596	0.912291	5.97963	0.430824	2.81573	0.555399	3.62231	0.775149	5.06446	0.956293	6.23854
0.422639	2.74852	0.29045	1.86285	0.423069	2.74776	0.573905	3.73538	0.689683	4.48779	0.913162	5.94901	0.432909	2.81223	0.556889	3.6101	0.776053	5.0397	0.95715	6.2064
0.424658	2.74502	0.292482	1.86475	0.425092	2.74429	0.5753	3.72189	0.691094	4.46987	0.914038	5.91879	0.434993	2.80877	0.558386	3.59806	0.776963	5.01526	0.95801	6.17468
0.426694	2.74167	0.294515	1.86662	0.427131	2.74097	0.576699	3.70859	0.69251	4.4522	0.914919	5.88897	0.437077	2.80535	0.559888	3.58621	0.777877	4.99114	0.958875	6.14336
0.428745	2.73846	0.296548	1.86847	0.429186	2.73779	0.578103	3.69548	0.693931	4.43477	0.915804	5.85953	0.439161	2.80197	0.561396	3.57454	0.778797	4.96735	0.959744	6.11244
0.430812	2.73538	0.29858	1.87029	0.431255	2.73474	0.579512	3.68255	0.695357	4.41758	0.916694	5.83046	0.441244	2.79862	0.56291	3.56304	0.779721	4.94386	0.960617	6.08191
0.432893	2.73243	0.300612	1.8721	0.433339	2.73181	0.580925	3.66981	0.696788	4.40063	0.917588	5.80177	0.443326	2.79531	0.56443	3.55172	0.780649	4.92068	0.961494	6.05177
0.434988	2.7296	0.302645	1.87388	0.435437	2.72901	0.582343	3.65724	0.698224	4.3839	0.918487	5.77344	0.445408	2.79203	0.565956	3.54056	0.781583	4.8978	0.962376	6.022
0.437097	2.72689	0.304677	1.87565	0.437549	2.72632	0.583765	3.64484	0.699665	4.3674	0.91939	5.74547	0.44749	2.78879	0.567487	3.52957	0.782521	4.87522	0.963261	5.99261
0.439219	2.72429	0.306709	1.87739	0.439673	2.72375	0.585191	3.63261	0.70111	4.35112	0.920298	5.71785	0.44957	2.78559	0.569024	3.51874	0.783465	4.85293	0.964151	5.96357
0.441353	2.7218	0.308741	1.87911	0.44181	2.72128	0.586622	3.62055	0.702561	4.33505	0.921211	5.69058	0.451651	2.78241	0.570567	3.50807	0.784412	4.83092	0.965045	5.9349
0.443499	2.71941	0.310773	1.88081	0.443959	2.71891	0.588057	3.60866	0.704016	4.3192	0.922127	5.66365	0.45373	2.77927	0.572116	3.49755	0.785365	4.80919	0.965942	5.90658
0.445657	2.71712	0.312805	1.8825	0.446119	2.71664	0.589496	3.59693	0.705476	4.30356	0.923049	5.63705	0.455809	2.77616	0.57367	3.48719	0.786323	4.78774	0.966844	5.8786
0.447826	2.71492	0.314837	1.88416	0.448291	2.71446	0.59094	3.58535	0.70694	4.28812	0.923974	5.61078	0.457887	2.77308	0.57523	3.47698	0.787285	4.76656	0.96775	5.85096
0.450005	2.71281	0.316869	1.8858	0.450472	2.71237	0.592388	3.57394	0.708409	4.27288	0.924905	5.58483	0.459965	2.77004	0.576795	3.46692	0.788251	4.74564	0.96866	5.82366
0.452195	2.71079	0.318901	1.88743	0.452664	2.71036	0.59384	3.56267	0.709883	4.25784	0.925839	5.5592	0.462042	2.76702	0.578366	3.45701	0.789223	4.72498	0.969574	5.79669
0.454395	2.70884	0.320932	1.88904	0.454866	2.70844	0.595296	3.55156	0.711362	4.243	0.926778	5.53388	0.464118	2.76403	0.579943	3.44723	0.790199	4.70459	0.970492	5.77003
0.456603	2.70697	0.322964	1.89063	0.457076	2.70658	0.596756	3.54059	0.712845	4.22835	0.927722	5.50887	0.466194	2.76107	0.581525	3.4376	0.79118	4.68444	0.971414	5.7437
0.458821	2.70518	0.324995	1.8922	0.459296	2.7048	0.598221	3.52977	0.714332	4.21388	0.92867	5.48415	0.468268	2.75814	0.583112	3.4281	0.792166	4.66455	0.97234	5.71768
0.461047	2.70345	0.327026	1.89375	0.461523	2.70309	0.59969	3.51909	0.715824	4.1996	0.929622	5.45974	0.470342	2.75524	0.584705	3.41874	0.793156	4.6449	0.97327	5.69196
0.463281	2.70179	0.329057	1.89529	0.463759	2.70145	0.601162	3.50855	0.71732	4.1855	0.930579	5.43561	0.472416	2.75236	0.586304	3.40951	0.794151	4.62548	0.974204	5.66655
0.465523	2.7002	0.331088	1.8968	0.466003	2.69986	0.602639	3.49814	0.718821	4.17158	0.93154	5.41178	0.474488	2.74951	0.587908	3.40042	0.79515	4.60631	0.975142	5.64143
0.467772	2.69866	0.333119	1.89831	0.468254	2.69834	0.60412	3.48788	0.720326	4.15783	0.932506	5.38822	0.47656	2.74668	0.589517	3.39145	0.796155	4.58737	0.976084	5.6166
0.470029	2.69718	0.33515	1.89979	0.470511	2.69687	0.605605	3.47774	0.721835	4.14426	0.933475	5.36494	0.478631	2.74389	0.591132	3.38261	0.797163	4.56865	0.977029	5.59207
0.472292	2.69575	0.33718	1.90126	0.472776	2.69545	0.607093	3.46774	0.723349	4.13085	0.93445	5.34194	0.480701	2.74111	0.592752	3.37389	0.798177	4.55017	0.977979	5.56781
0.474561	2.69438	0.33921	1.90271	0.475047	2.69409	0.608586	3.45786	0.724867	4.11761	0.935428	5.3192	0.48277	2.73836	0.594377	3.36529	0.799195	4.5319	0.978933	5.54383
0.476837	2.69305	0.341241	1.90415	0.477324	2.69278	0.610083	3.44811	0.726389	4.10454	0.936411	5.29673	0.484839	2.73564	0.596007	3.35682	0.800218	4.51385	0.97989	5.52013
0.479118	2.69177	0.343271	1.90557	0.479606	2.69151	0.611583	3.43848	0.727916	4.09162	0.937398	5.27451	0.486906	2.73294	0.597643	3.34846	0.801245	4.49601	0.980851	5.49669
0.481405	2.69054	0.345301	1.90698	0.481895	2.69028	0.613087	3.42898	0.729446	4.07886	0.93839	5.25256	0.488973	2.73026	0.599284	3.34022	0.802276	4.47839	0.981816	5.47352
0.483698	2.68935	0.34733	1.90836	0.484188	2.6891	0.614595	3.41959	0.730981	4.06626	0.939385	5.23085	0.491039	2.72761	0.60093	3.33209	0.803313	4.46097	0.982785	5.45062
0.485995	2.6882	0.34936	1.90974	0.486487	2.68796	0.616107	3.41033	0.73252	4.05381	0.940386	5.20939	0.493104	2.72497	0.602582	3.32408	0.804354	4.44376	0.983758	5.42796
0.488298	2.68708	0.351389	1.9111	0.48879	2.68685	0.617623	3.40118	0.734063	4.04151	0.94139	5.18818	0.495168	2.72236	0.604238	3.31617	0.805399	4.42675	0.984735	5.40556
0.490605	2.68601	0.353418	1.91245	0.491098	2.68578	0.619142	3.39214	0.735609	4.02936	0.942398	5.16721	0.497231	2.71978	0.6059	3.30837	0.806449	4.40994	0.985715	5.38341
0.492916	2.68497	0.355447	1.91378	0.493411	2.68475	0.620665	3.38321	0.73716	4.01735	0.943411	5.14647	0.499293	2.71721	0.607567	3.30068	0.807503	4.39332	0.986699	5.36151
0.495232	2.68396	0.357476	1.91509	0.495727	2.68375	0.622192	3.3744	0.738715	4.00549	0.944428	5.12596	0.501355	2.71466	0.609239	3.2931	0.808562	4.3769	0.987687	5.33984
0.497552	2.68298	0.359505	1.91639	0.498048	2.68278	0.623722	3.36569	0.740274	3.99376	0.94545	5.10569	0.503415	2.71214	0.610915	3.28561	0.809625	4.36066	0.988679	5.31841
0.499875	2.68204	0.361533	1.91768	0.500372	2.68184	0.625256	3.35709	0.741836	3.98217	0.946475	5.08564	0.505474	2.70963	0.612597	3.27823	0.810693	4.34461	0.989675	5.29722
0.502203	2.68112	0.363561	1.91896	0.5027	2.68093	0.626794	3.3486	0.743403	3.97072	0.947505	5.06581	0.507533	2.70714	0.614284	3.27095	0.811766	4.32874	0.990674	5.27626
0.504533	2.68023	0.365589	1.92022	0.505032	2.68005	0.628335	3.3402	0.744973	3.95941	0.948539	5.0462	0.50959	2.70468	0.615976	3.26377	0.812843	4.31306	0.991677	5.25552
0.506868	2.67937	0.367617	1.92147	0.507366	2.67919	0.62988	3.33191	0.746547	3.94822	0.949577	5.02681	0.511647	2.70223	0.617672	3.25668	0.813924	4.29755	0.992683	5.23501
0.509205	2.67854	0.369645	1.9227	0.509705	2.67836	0.631428	3.32372	0.748125	3.93717	0.95062	5.00763	0.513702	2.6998	0.619374	3.24969	0.815009	4.28222	0.993694	5.21471
0.511545	2.67772	0.371672	1.92392	0.512046	2.67755	0.63298	3.31563	0.749706	3.92624	0.951666	4.98866	0.515757	2.69739	0.62108	3.24279	0.8161	4.26705	0.994708	5.19463
0.513889	2.67694	0.373699	1.92513	0.514389	2.67677	0.634536	3.30764	0.751292	3.91544	0.952717	4.96989	0.51781	2.695	0.622792	3.23598	0.817194	4.25206	0.995726	5.17477
0.516235	2.67617	0.375726	1.92633	0.516736	2.67601	0.636095	3.29974	0.752881	3.90476	0.953771	4.95133	0.519862	2.69262	0.624508	3.22926	0.818293	4.23724	0.996747	5.15512
0.518583	2.67542	0.377753	1.92751	0.519086	2.67527	0.637657	3.29193	0.754473	3.8942	0.95483	4.93297	0.521914	2.69026	0.626229	3.22264	0.819396	4.22258	0.997772	5.13567
0.520935	2.6747	0.37978	1.92869	0.521437	2.67454	0.639223	3.28422	0.756069	3.88376	0.955893	4.9148	0.523964	2.68792	0.627954	3.2161	0.820504	4.20809	0.998801	5.11643
0.523289	2.67399	0.381806	1.92984	0.523792	2.67384	0.640792	3.2766	0.757669	3.87344	0.956961	4.89683	0.526014	2.6856	0.629685	3.20964	0.821616	4.19375	0.999833	5.09739
0.525645	2.6733	0.383832	1.93099	0.526148	2.67316	0.642365	3.26906	0.759273	3.86324	0.958032	4.87905	0.528062	2.68329	0.63142	3.20328	0.822733	4.17957	1.00087	5.07855
0.528003	2.67263	0.385858	1.93213	0.528507	2.67249	0.643941	3.26162	0.760879	3.85315	0.959107	4.86146	0.530109	2.681	0.63316	3.19699	0.823853	4.16555		
0.530364	2.67198	0.387884	1.93325	0.530868	2.67184	0.64552	3.25426	0.76249	3.84317	0.960187	4.84406	0.532155	2.67873	0.634904	3.19079	0.824978	4.15168		
0.532726	2.67134	0.389909	1.93436	0.533231	2.67121	0.647103	3.24699	0.764104	3.8333	0.96127	4.82684	0.5342	2.67647	0.636653	3.18467	0.826108	4.13796		
0.535091	2.67072	0.391934	1.93547	0.535596	2.67059	0.648689	3.2398	0.765721	3.82354	0.962358	4.8098	0.536244	2.67423	0.638407	3.17863	0.827242	4.12439		
0.537457	2.67012	0.393959	1.93656	0.537963	2.66999	0.650278	3.2327	0.767341	3.81389	0.963449	4.79293	0.538287	2.672	0.640165	3.17266	0.82838	4.11097		
0.539825	2.66952	0.395984	1.93763	0.540331	2.6694	0.65187	3.22567	0.768965	3.80435	0.964545	4.77625	0.540329	2.66979	0.641928	3.16678	0.829522	4.0977		
0.542195	2.66895	0.398009	1.9387	0.542701	2.66882	0.653466	3.21873	0.770593	3.79491	0.965645	4.75973	0.542369	2.66759	0.643695	3.16097	0.830669	4.08456		
0.544566	2.66838	0.400033	1.93976	0.545073	2.66826	0.655065	3.21187	0.772223	3.78557	0.966748	4.74339	0.544409	2.66541	0.645467	3.15523	0.83182	4.07157		
0.546939	2.66783	0.402057	1.94081	0.547446	2.66771	0.656668	3.20508	0.773857	3.77633	0.967856	4.72721	0.546447	2.66324	0.647244	3.14957	0.832975	4.05871		
0.549314	2.66729	0.404081	1.94184	0.549821	2.66718	0.658273	3.19837	0.775495	3.76719	0.968968	4.7112	0.548485	2.66109	0.649024	3.14398	0.834135	4.04599		
0.551689	2.66676	0.406104	1.94287	0.552197	2.66665	0.659882	3.19174	0.777135	3.75815	0.970083	4.69536	0.550521	2.65895	0.650809	3.13847	0.835298	4.03341		
0.554066	2.66624	0.408128	1.94388	0.554574	2.66614	0.661493	3.18518	0.778779	3.74921	0.971203	4.67968	0.552556	2.65682	0.652599	3.13302	0.836466	4.02096		
0.556445	2.66574	0.410151	1.94489	0.556953	2.66563	0.663108	3.1787	0.780426	3.74036	0.972327	4.66415	0.55459	2.65471	0.654393	3.12764	0.837638	4.00864		
0.558825	2.66524	0.412173	1.94588	0.559333	2.66514	0.664727	3.17229	0.782076	3.7316	0.973454	4.64878	0.556623	2.65261	0.656191	3.12233	0.838815	3.99645		
0.561205	2.66476	0.414196	1.94687	0.561714	2.66465	0.666348	3.16595	0.783729	3.72294	0.974586	4.63357	0.558655	2.65052	0.657994	3.11709	0.839995	3.98439		
0.563587	2.66428	0.416218	1.94784	0.564096	2.66418	0.667972	3.15968	0.785385	3.71437	0.975722	4.61851	0.560686	2.64845	0.659801	3.11191	0.84118	3.97246		
0.56597	2.66381	0.41824	1.94881	0.566479	2.66371	0.669599	3.15348	0.787044	3.70589	0.976861	4.6036	0.562715	2.64639	0.661612	3.1068	0.842369	3.96064		
0.568354	2.66335	0.420262	1.94976	0.568864	2.66326	0.67123	3.14735	0.788706	3.69749	0.978004	4.58884	0.564744	2.64434	0.663427	3.10176	0.843562	3.94895		
0.570739	2.6629	0.422284	1.95071	0.571249	2.66281	0.672863	3.14128	0.790372	3.68919	0.979152	4.57423	0.566771	2.64231	0.665246	3.09678	0.84476	3.93739		
0.573125	2.66246	0.424305	1.95165	0.573635	2.66237	0.6745	3.13529	0.79204	3.68097	0.980303	4.55976	0.568797	2.64029	0.66707	3.09185	0.845961	3.92594		
0.575512	2.66203	0.426326	1.95258	0.576022	2.66194	0.67614	3.12935	0.793711	3.67283	0.981458	4.54543	0.570822	2.63828	0.668898	3.087	0.847167	3.91461		
0.577899	2.6616	0.428347	1.9535	0.578409	2.66151	0.677782	3.12349	0.795386	3.66478	0.982617	4.53125	0.572846	2.63628	0.67073	3.0822	0.848376	3.90339		
0.580287	2.66118	0.430367	1.95441	0.580798	2.66109	0.679428	3.11768	0.797063	3.65681	0.983779	4.5172	0.574869	2.63429	0.672566	3.07746	0.84959	3.89229		
0.582676	2.66077	0.432387	1.95531	0.583187	2.66068	0.681076	3.11195	0.798743	3.64892	0.984946	4.50329	0.57689	2.63232	0.674406	3.07278	0.850808	3.8813		
0.585066	2.66036	0.434407	1.9562	0.585577	2.66027	0.682728	3.10627	0.800426	3.64111	0.986116	4.48952	0.578911	2.63035	0.67625	3.06815	0.85203	3.87043		
0.587456	2.65996	0.436427	1.95708	0.587967	2.65988	0.684382	3.10065	0.802111	3.63338	0.987291	4.47588	0.58093	2.6284	0.678098	3.06359	0.853256	3.85966		
0.589847	2.65957	0.438446	1.95796	0.590358	2.65948	0.68604	3.0951	0.8038	3.62572	0.988469	4.46237	0.582948	2.62646	0.679949	3.05908	0.854487	3.84901		
0.592239	2.65918	0.440466	1.95883	0.59275	2.6591	0.6877	3.0896	0.805491	3.61815	0.989651	4.449	0.584965	2.62453	0.681805	3.05462	0.855721	3.83846		
0.594631	2.6588	0.442484	1.95968	0.595142	2.65871	0.689363	3.08416	0.807185	3.61065	0.990837	4.43575	0.586981	2.62262	0.683665	3.05022	0.856959	3.82801		
0.597023	2.65842	0.444503	1.96053	0.597534	2.65834	0.69103	3.07878	0.808882	3.60322	0.992026	4.42263	0.588996	2.62071	0.685529	3.04588	0.858202	3.81768		
0.599416	2.65805	0.446521	1.96138	0.599927	2.65797	0.692699	3.07346	0.810582	3.59587	0.993219	4.40963	0.59101	2.61881	0.687396	3.04158	0.859448	3.80744		
0.601809	2.65768	0.448539	1.96221	0.602321	2.6576	0.694371	3.0682	0.812284	3.58859	0.994417	4.39676	0.593022	2.61693	0.689267	3.03734	0.860699	3.79731		
0.604203	2.65732	0.450557	1.96304	0.604715	2.65724	0.696046	3.06299	0.813989	3.58138	0.995617	4.38401	0.595034	2.61505	0.691143	3.03315	0.861953	3.78727		
0.606597	2.65696	0.452575	1.96386	0.607109	2.65688	0.697723	3.05783	0.815696	3.57424	0.996822	4.37138	0.597044	2.61319	0.693021	3.02901	0.863212	3.77734		
0.608992	2.65661	0.454592	1.96467	0.609503	2.65653	0.699404	3.05273	0.817407	3.56717	0.99803	4.35887	0.599053	2.61133	0.694904	3.02492	0.864475	3.76751		
0.611386	2.65626	0.456609	1.96547	0.611898	2.65618	0.701087	3.04769	0.819119	3.56017	0.999243	4.34648	0.601062	2.60949	0.69679	3.02088	0.865741	3.75777		
0.613781	2.65591	0.458626	1.96626	0.614293	2.65584	0.702773	3.04269	0.820835	3.55323	1.00046	4.3342	0.603069	2.60765	0.69868	3.01689	0.867012	3.74812		
0.616176	2.65557	0.460642	1.96705	0.616688	2.6555	0.704462	3.03775	0.822552	3.54637			0.605075	2.60583	0.700573	3.01294	0.868286	3.73858		
0.618572	2.65523	0.462658	1.96783	0.619083	2.65516	0.706154	3.03286	0.824273	3.53957			0.607079	2.60401	0.702471	3.00905	0.869565	3.72912		
0.620967	2.65489	0.464674	1.9686	0.621479	2.65482	0.707849	3.02803	0.825996	3.53283			0.609083	2.60221	0.704371	3.00519	0.870847	3.71976		
0.623363	2.65456	0.46669	1.96937	0.623875	2.65449	0.709546	3.02324	0.827721	3.52616			0.611086	2.60041	0.706275	3.00139	0.872133	3.71049		
0.625759	2.65423	0.468705	1.97013	0.626271	2.65416	0.711247	3.0185	0.829449	3.51955			0.613087	2.59863	0.708183	2.99763	0.873424	3.7013		
0.628155	2.65391	0.47072	1.97088	0.628667	2.65384	0.71295	3.01381	0.831179	3.513			0.615088	2.59685	0.710094	2.99391	0.874718	3.69221		
0.630551	2.65359	0.472735	1.97162	0.631062	2.65352	0.714656	3.00917	0.832912	3.50652			0.617087	2.59509	0.712009	2.99023	0.876016	3.68321		
0.632947	2.65327	0.474749	1.97236	0.633458	2.6532	0.716364	3.00458	0.834647	3.50009			0.619086	2.59333	0.713927	2.9866	0.877318	3.67429		
0.635343	2.65295	0.476763	1.97309	0.635854	2.65288	0.718076	3.00003	0.836384	3.49373			0.621083	2.59158	0.715848	2.98301	0.878624	3.66545		
0.637739	2.65263	0.478777	1.97382	0.63825	2.65257	0.71979	2.99553	0.838124	3.48742			0.623079	2.58984	0.717773	2.97947	0.879934	3.6567		
0.640134	2.65232	0.480791	1.97453	0.640646	2.65225	0.721507	2.99108	0.839866	3.48118			0.625075	2.58811	0.719701	2.97596	0.881248	3.64804		
0.64253	2.65201	0.482804	1.97524	0.643042	2.65194	0.723226	2.98667	0.841611	3.47499			0.627069	2.58639	0.721633	2.9725	0.882565	3.63946		
0.644926	2.6517	0.484817	1.97595	0.645438	2.65163	0.724949	2.98231	0.843357	3.46886			0.629062	2.58468	0.723567	2.96907	0.883887	3.63096		
0.647321	2.65139	0.48683	1.97664	0.647833	2.65133	0.726674	2.978	0.845106	3.46278			0.631054	2.58298	0.725505	2.96568	0.885212	3.62254		
0.649717	2.65109	0.488842	1.97733	0.650228	2.65102	0.728402	2.97372	0.846857	3.45676			0.633046	2.58129	0.727446	2.96234	0.886541	3.61419		
0.652112	2.65078	0.490854	1.97802	0.652624	2.65072	0.730133	2.96949	0.848611	3.45079			0.635036	2.5796	0.72939	2.95903	0.887874	3.60593		
0.654507	2.65048	0.492866	1.9787	0.655019	2.65042	0.731866	2.96531	0.850366	3.44488			0.637025	2.57793	0.731338	2.95575	0.889211	3.59775		
0.656902	2.65018	0.494878	1.97937	0.657413	2.65011	0.733602	2.96116	0.852124	3.43902			0.639013	2.57626	0.733288	2.95252	0.890552	3.58964		
0.659296	2.64988	0.496889	1.98004	0.659808	2.64981	0.735341	2.95706	0.853884	3.43321			0.641	2.5746	0.735242	2.94932	0.891896	3.58161		
0.66169	2.64958	0.4989	1.9807	0.662202	2.64952	0.737083	2.953	0.855646	3.42746			0.642987	2.57295	0.737198	2.94616	0.893244	3.57365		
0.664084	2.64928	0.500911	1.98135	0.664595	2.64922	0.738827	2.94898	0.85741	3.42175			0.644972	2.57131	0.739157	2.94303	0.894596	3.56577		
0.666478	2.64898	0.502921	1.982	0.666989	2.64892	0.740574	2.945	0.859177	3.4161			0.646956	2.56967	0.74112	2.93994	0.895952	3.55796		
0.668871	2.64869	0.504931	1.98264	0.669382	2.64862	0.742324	2.94107	0.860945	3.4105			0.64894	2.56805	0.743085	2.93688	0.897312	3.55023		
0.671264	2.64839	0.506941	1.98327	0.671775	2.64833	0.744077	2.93717	0.862715	3.40495			0.650922	2.56643	0.745054	2.93386	0.898675	3.54256		
0.673656	2.6481	0.50895	1.98391	0.674167	2.64803	0.745832	2.93331	0.864488	3.39944			0.652904	2.56482	0.747025	2.93087	0.900042	3.53497		
0.676048	2.6478	0.51096	1.98453	0.676559	2.64774	0.74759	2.92949	0.866262	3.39398			0.654884	2.56322	0.748999	2.92791	0.901413	3.52744		
0.678439	2.64751	0.512969	1.98515	0.67895	2.64744	0.749351	2.92571	0.868039	3.38857			0.656864	2.56163	0.750976	2.92498	0.902788	3.51999		
0.68083	2.64721	0.514977	1.98576	0.68134	2.64715	0.751115	2.92196	0.869817	3.38321			0.658843	2.56004	0.752955	2.92209	0.904166	3.5126		
0.68322	2.64692	0.516986	1.98637	0.683731	2.64685	0.752881	2.91826	0.871597	3.3779			0.660821	2.55847	0.754938	2.91923	0.905548	3.50529		
0.68561	2.64662	0.518994	1.98697	0.68612	2.64656	0.754651	2.91459	0.87338	3.37262			0.662798	2.5569	0.756923	2.9164	0.906934	3.49803		
0.687999	2.64633	0.521001	1.98757	0.688509	2.64626	0.756423	2.91096	0.875164	3.3674			0.664774	2.55534	0.758911	2.9136	0.908324	3.49085		
0.690388	2.64603	0.523009	1.98816	0.690898	2.64597	0.758197	2.90737	0.87695	3.36222			0.66675	2.55378	0.760901	2.91083	0.909717	3.48373		
0.692775	2.64573	0.525016	1.98875	0.693285	2.64567	0.759975	2.90381	0.878738	3.35708			0.668724	2.55224	0.762894	2.90808	0.911114	3.47667		
0.695163	2.64544	0.527023	1.98933	0.695672	2.64538	0.761755	2.90028	0.880528	3.35199			0.670698	2.5507	0.76489	2.90537	0.912514	3.46968		
0.697549	2.64514	0.52903	1.98991	0.698059	2.64508	0.763538	2.8968	0.88232	3.34694			0.672671	2.54917	0.766888	2.90269	0.913919	3.46276		
0.699935	2.64484	0.531036	1.99048	0.700444	2.64478	0.765324	2.89335	0.884113	3.34193			0.674643	2.54765	0.768888	2.90004	0.915327	3.45589		
0.70232	2.64455	0.533042	1.99104	0.702829	2.64448	0.767113	2.88993	0.885909	3.33697			0.676614	2.54614	0.770892	2.89741	0.916738	3.44909		
0.704704	2.64425	0.535048	1.9916	0.705213	2.64418	0.768905	2.88655	0.887706	3.33204			0.678584	2.54463	0.772897	2.89481	0.918154	3.44235		
0.707087	2.64395	0.537053	1.99216	0.707596	2.64388	0.770699	2.8832	0.889505	3.32716			0.680554	2.54313	0.774905	2.89224	0.919572	3.43566		
0.709469	2.64364	0.539058	1.99271	0.709978	2.64358	0.772497	2.87989	0.891305	3.32232			0.682523	2.54164	0.776916	2.88969	0.920995	3.42904		
0.711851	2.64334	0.541063	1.99326	0.712359	2.64328	0.774297	2.87661	0.893108	3.31751			0.684491	2.54016	0.778928	2.88718	0.922421	3.42248		
0.714231	2.64304	0.543068	1.9938	0.71474	2.64297	0.7761	2.87336	0.894912	3.31275			0.686459	2.53868	0.780943	2.88468	0.923851	3.41598		
0.716611	2.64273	0.545072	1.99433	0.717119	2.64266	0.777906	2.87015	0.896718	3.30803			0.688425	2.53721	0.782961	2.88221	0.925285	3.40953		
0.718989	2.64242	0.547076	1.99487	0.719497	2.64236	0.779715	2.86697	0.898525	3.30334			0.690391	2.53575	0.78498	2.87977	0.926722	3.40314		
0.721367	2.64211	0.549079	1.99539	0.721875	2.64205	0.781527	2.86382	0.900335	3.29869			0.692356	2.53429	0.787002	2.87736	0.928162	3.39681		
0.723743	2.6418	0.551083	1.99592	0.724251	2.64174	0.783342	2.8607	0.902146	3.29408			0.694321	2.53285	0.789026	2.87496	0.929607	3.39054		
0.726119	2.64149	0.553086	1.99643	0.726626	2.64142	0.78516	2.85762	0.903958	3.28951			0.696285	2.53141	0.791053	2.87259	0.931055	3.38432		
0.728493	2.64117	0.555089	1.99695	0.729	2.64111	0.786981	2.85456	0.905772	3.28497			0.698248	2.52997	0.793081	2.87025	0.932506	3.37815		
0.730865	2.64086	0.557091	1.99746	0.731372	2.64079	0.788805	2.85154	0.907588	3.28047			0.70021	2.52855	0.795111	2.86793	0.933961	3.37204		
0.733237	2.64054	0.559093	1.99796	0.733744	2.64047	0.790632	2.84855	0.909405	3.27601			0.702172	2.52713	0.797144	2.86563	0.93542	3.36599		
0.735607	2.64021	0.561095	1.99846	0.736114	2.64014	0.792462	2.8456	0.911224	3.27158			0.704133	2.52572	0.799179	2.86335	0.936882	3.35998		
0.737977	2.63989	0.563097	1.99896	0.738482	2.63982	0.794295	2.84267	0.913044	3.26719			0.706094	2.52432	0.801215	2.8611	0.938348	3.35403		
0.740344	2.63956	0.565098	1.99945	0.74085	2.63949	0.796132	2.83977	0.914866	3.26283			0.708054	2.52292	0.803254	2.85887	0.939817	3.34814		
0.74271	2.63923	0.567099	1.99993	0.743216	2.63916	0.797971	2.83691	0.91669	3.25851			0.710013	2.52153	0.805294	2.85666	0.94129	3.34229		
0.745075	2.6389	0.5691	2.00042	0.74558	2.63883	0.799814	2.83407	0.918515	3.25422			0.711972	2.52015	0.807337	2.85447	0.942766	3.33649		
0.747439	2.63856	0.5711	2.0009	0.747943	2.63849	0.80166	2.83126	0.920341	3.24996			0.71393	2.51877	0.809381	2.8523	0.944246	3.33075		
0.7498	2.63822	0.5731	2.00137	0.750305	2.63815	0.803509	2.82849	0.922169	3.24574			0.715887	2.5174	0.811427	2.85015	0.94573	3.32505		
0.75216	2.63788	0.5751	2.00184	0.752664	2.6378	0.805361	2.82574	0.923999	3.24154			0.717844	2.51604	0.813475	2.84802	0.947217	3.31941		
0.754519	2.63753	0.577099	2.00231	0.755022	2.63746	0.807217	2.82302	0.92583	3.23739			0.719801	2.51469	0.815525	2.84592	0.948707	3.31381		
0.756876	2.63718	0.579099	2.00277	0.757379	2.63711	0.809076	2.82033	0.927662	3.23326			0.721756	2.51334	0.817576	2.84383	0.950201	3.30826		
0.759231	2.63683	0.581098	2.00323	0.759734	2.63675	0.810939	2.81767	0.929495	3.22916			0.723712	2.512	0.81963	2.84176	0.951699	3.30276		
0.761584	2.63647	0.583096	2.00368	0.762087	2.63639	0.812804	2.81504	0.931331	3.2251			0.725666	2.51066	0.821685	2.83971	0.9532	3.29731		
0.763935	2.63611	0.585094	2.00413	0.764438	2.63603	0.814674	2.81244	0.933167	3.22107			0.727621	2.50933	0.823741	2.83769	0.954704	3.29191		
0.766285	2.63574	0.587093	2.00458	0.766787	2.63566	0.816546	2.80987	0.935005	3.21707			0.729574	2.50801	0.8258	2.83567	0.956212	3.28655		
0.768633	2.63537	0.58909	2.00502	0.769134	2.63529	0.818423	2.80733	0.936844	3.21309			0.731528	2.5067	0.827859	2.83368	0.957724	3.28124		
0.770978	2.63499	0.591088	2.00546	0.771479	2.63491	0.820303	2.80481	0.938685	3.20915			0.73348	2.50539	0.829921	2.83171	0.959239	3.27597		
0.773322	2.63461	0.593085	2.0059	0.773822	2.63453	0.822186	2.80232	0.940526	3.20524			0.735433	2.50409	0.831984	2.82975	0.960757	3.27075		
0.775663	2.63423	0.595082	2.00633	0.776163	2.63415	0.824073	2.79987	0.942369	3.20135			0.737384	2.5028	0.834048	2.82781	0.962279	3.26557		
0.778002	2.63384	0.597078	2.00676	0.778502	2.63376	0.825964	2.79743	0.944214	3.1975			0.739336	2.50151	0.836114	2.82589	0.963805	3.26044		
0.780339	2.63344	0.599075	2.00718	0.780838	2.63336	0.827859	2.79503	0.94606	3.19367			0.741287	2.50023	0.838182	2.82398	0.965334	3.25535		
0.782674	2.63304	0.601071	2.0076	0.783172	2.63296	0.829757	2.79266	0.947907	3.18988			0.743237	2.49896	0.840251	2.8221	0.966866	3.25031		
0.785006	2.63264	0.603066	2.00802	0.785504	2.63255	0.831659	2.79031	0.949755	3.18611			0.745187	2.49769	0.842321	2.82022	0.968402	3.24531		
0.787336	2.63223	0.605062	2.00843	0.787833	2.63214	0.833565	2.78799	0.951604	3.18236			0.747137	2.49643	0.844393	2.81837	0.969941	3.24035		
0.789664	2.63181	0.607057	2.00884	0.79016	2.63172	0.835475	2.7857	0.953455	3.17865			0.749086	2.49517	0.846466	2.81653	0.971484	3.23543		
0.791988	2.63139	0.609052	2.00925	0.792485	2.6313	0.837389	2.78343	0.955307	3.17496			0.751035	2.49392	0.84854	2.81471	0.97303	3.23055		
0.794311	2.63096	0.611046	2.00965	0.794806	2.63087	0.839307	2.78119	0.95716	3.1713			0.752983	2.49268	0.850615	2.8129	0.974579	3.22572		
0.79663	2.63053	0.613041	2.01005	0.797125	2.63043	0.84123	2.77898	0.959014	3.16767			0.754932	2.49145	0.852692	2.8111	0.976132	3.22093		
0.798947	2.63008	0.615035	2.01045	0.799441	2.62999	0.843156	2.7768	0.96087	3.16406			0.756879	2.49022	0.85477	2.80933	0.977689	3.21618		
0.801261	2.62964	0.617028	2.01084	0.801755	2.62954	0.845086	2.77464	0.962726	3.16047			0.758827	2.489	0.85685	2.80756	0.979249	3.21147		
0.803572	2.62918	0.619022	2.01123	0.804065	2.62908	0.847021	2.77252	0.964584	3.15692			0.760774	2.48778	0.85893	2.80581	0.980812	3.20679		
0.80588	2.62872	0.621015	2.01161	0.806373	2.62862	0.84896	2.77041	0.966443	3.15339			0.76272	2.48657	0.861011	2.80408	0.982379	3.20216		
0.808185	2.62825	0.623007	2.012	0.808677	2.62815	0.850904	2.76834	0.968303	3.14988			0.764667	2.48537	0.863094	2.80236	0.983949	3.19757		
0.810487	2.62778	0.625	2.01238	0.810978	2.62767	0.852851	2.76629	0.970164	3.1464			0.766613	2.48417	0.865178	2.80065	0.985522	3.19301		
0.812786	2.62729	0.626992	2.01275	0.813276	2.62719	0.854804	2.76427	0.972026	3.14294			0.768559	2.48298	0.867263	2.79896	0.987099	3.1885		
0.815081	2.6268	0.628984	2.01313	0.815571	2.6267	0.856761	2.76228	0.973889	3.13951			0.770504	2.48179	0.869348	2.79728	0.988679	3.18402		
0.817374	2.6263	0.630976	2.0135	0.817863	2.6262	0.858722	2.76031	0.975753	3.1361			0.772449	2.48061	0.871435	2.79561	0.990263	3.17958		
0.819663	2.6258	0.632967	2.01386	0.820151	2.62569	0.860688	2.75837	0.977619	3.13271			0.774394	2.47944	0.873523	2.79396	0.99185	3.17518		
0.821948	2.62528	0.634958	2.01423	0.822436	2.62517	0.862659	2.75645	0.979485	3.12935			0.776339	2.47827	0.875612	2.79232	0.99344	3.17081		
0.82423	2.62476	0.636949	2.01459	0.824717	2.62465	0.864635	2.75457	0.981353	3.12601			0.778283	2.47711	0.877701	2.79069	0.995034	3.16648		
0.826508	2.62423	0.638939	2.01495	0.826994	2.62411	0.866616	2.7527	0.983221	3.12269			0.780227	2.47596	0.879792	2.78907	0.996631	3.16219		
0.828783	2.62369	0.64093	2.0153	0.829268	2.62357	0.868601	2.75087	0.98509	3.1194			0.782171	2.47481	0.881883	2.78747	0.998232	3.15793		
0.831054	2.62314	0.64292	2.01565	0.831538	2.62302	0.870591	2.74906	0.986961	3.11613			0.784115	2.47367	0.883975	2.78588	0.999836	3.15371		
0.833321	2.62259	0.644909	2.016	0.833805	2.62247	0.872587	2.74728	0.988832	3.11288			0.786058	2.47253	0.886068	2.7843	1.00144	3.14953		
0.835584	2.62202	0.646899	2.01635	0.836067	2.6219	0.874587	2.74553	0.990705	3.10965			0.788002	2.4714	0.888162	2.78273				
0.837844	2.62145	0.648888	2.01669	0.838326	2.62132	0.876593	2.7438	0.992578	3.10645			0.789945	2.47028	0.890256	2.78118				
0.840099	2.62086	0.650876	2.01703	0.84058	2.62074	0.878604	2.74209	0.994452	3.10327			0.791888	2.46916	0.892351	2.77963				
0.84235	2.62027	0.652865	2.01737	0.842831	2.62014	0.88062	2.74042	0.996327	3.10011			0.79383	2.46805	0.894447	2.7781				
0.844597	2.61967	0.654853	2.01771	0.845077	2.61954	0.882641	2.73877	0.998203	3.09696			0.795773	2.46694	0.896544	2.77657				
0.84684	2.61906	0.656841	2.01804	0.847319	2.61892	0.884668	2.73714	1.00008	3.09384			0.797715	2.46584	0.898641	2.77506				
0.849079	2.61844	0.658829	2.01837	0.849557	2.6183	0.8867	2.73554					0.799657	2.46474	0.900739	2.77356				
0.851314	2.6178	0.660816	2.01869	0.85179	2.61767	0.888737	2.73397					0.801599	2.46365	0.902837	2.77207				
0.853544	2.61716	0.662803	2.01902	0.85402	2.61703	0.89078	2.73242					0.803541	2.46257	0.904936	2.77059				
0.85577	2.61651	0.66479	2.01934	0.856244	2.61637	0.892828	2.7309					0.805482	2.46149	0.907035	2.76912				
0.857991	2.61585	0.666777	2.01966	0.858465	2.61571	0.894882	2.72941					0.807424	2.46042	0.909135	2.76765				
0.860208	2.61518	0.668763	2.01997	0.860681	2.61504	0.896942	2.72794					0.809365	2.45935	0.911236	2.7662				
0.86242	2.6145	0.670749	2.02029	0.862892	2.61436	0.899007	2.72649					0.811307	2.45829	0.913337	2.76476				
0.864628	2.61381	0.672734	2.0206	0.865099	2.61367	0.901078	2.72507					0.813248	2.45724	0.915438	2.76333				
0.866831	2.61311	0.67472	2.0209	0.867301	2.61296	0.903154	2.72368					0.815189	2.45619	0.91754	2.7619				
0.869029	2.6124	0.676705	2.02121	0.869498	2.61225	0.905236	2.72231					0.81713	2.45514	0.919642	2.76049				
0.871223	2.61169	0.67869	2.02151	0.871691	2.61153	0.907324	2.72096					0.819071	2.45411	0.921744	2.75909				
0.873412	2.61096	0.680674	2.02181	0.873879	2.6108	0.909417	2.71964					0.821012	2.45307	0.923847	2.75769				
0.875597	2.61022	0.682659	2.02211	0.876063	2.61006	0.911517	2.71834					0.822952	2.45205	0.92595	2.7563				
0.877777	2.60947	0.684643	2.02241	0.878242	2.60931	0.913622	2.71707					0.824893	2.45102	0.928053	2.75492				
0.879952	2.60871	0.686626	2.0227	0.880416	2.60854	0.915732	2.71582					0.826834	2.45001	0.930157	2.75355				
0.882122	2.60794	0.68861	2.02299	0.882585	2.60777	0.917849	2.7146					0.828774	2.449	0.932261	2.75219				
0.884288	2.60716	0.690593	2.02328	0.88475	2.60699	0.919971	2.7134					0.830715	2.44799	0.934365	2.75083				
0.886449	2.60637	0.692576	2.02356	0.88691	2.6062	0.922098	2.71222					0.832655	2.44699	0.936469	2.74949				
0.888605	2.60557	0.694559	2.02385	0.889065	2.6054	0.924232	2.71107					0.834596	2.446	0.938574	2.74815				
0.890757	2.60477	0.696541	2.02413	0.891216	2.60459	0.926371	2.70994					0.836536	2.44501	0.940678	2.74682				
0.892904	2.60395	0.698523	2.02441	0.893362	2.60377	0.928516	2.70883					0.838476	2.44402	0.942783	2.74549				
0.895046	2.60312	0.700505	2.02468	0.895503	2.60295	0.930666	2.70774					0.840417	2.44304	0.944888	2.74418				
0.897183	2.60229	0.702487	2.02496	0.897639	2.60211	0.932822	2.70668					0.842357	2.44207	0.946992	2.74287				
0.899316	2.60145	0.704468	2.02523	0.899772	2.60126	0.934983	2.70563					0.844297	2.4411	0.949097	2.74157				
0.901445	2.60059	0.706449	2.0255	0.901899	2.60041	0.93715	2.70461					0.846238	2.44014	0.951202	2.74027				
0.903569	2.59973	0.70843	2.02577	0.904022	2.59955	0.939323	2.70361					0.848178	2.43918	0.953307	2.73898				
0.905688	2.59887	0.71041	2.02603	0.90614	2.59868	0.9415	2.70263					0.850118	2.43823	0.955412	2.7377				
0.907803	2.59799	0.71239	2.0263	0.908254	2.5978	0.943683	2.70167					0.852059	2.43728	0.957516	2.73643				
0.909914	2.5971	0.71437	2.02656	0.910364	2.59691	0.945872	2.70073					0.853999	2.43634	0.959621	2.73516				
0.91202	2.59621	0.71635	2.02682	0.91247	2.59602	0.948065	2.69981					0.855939	2.4354	0.961726	2.7339				
0.914122	2.59531	0.718329	2.02707	0.914571	2.59512	0.950264	2.69892					0.85788	2.43447	0.96383	2.73264				
0.91622	2.5944	0.720308	2.02733	0.916667	2.59421	0.952468	2.69804					0.85982	2.43354	0.965934	2.73139				
0.918313	2.59349	0.722287	2.02758	0.91876	2.59329	0.954677	2.69717					0.861761	2.43262	0.968039	2.73015				
0.920403	2.59257	0.724266	2.02783	0.920849	2.59237	0.956891	2.69633					0.863701	2.4317	0.970143	2.72891				
0.922488	2.59164	0.726244	2.02808	0.922933	2.59144	0.959109	2.69551					0.865642	2.43079	0.972246	2.72768				
0.92457	2.59071	0.728222	2.02833	0.925014	2.59051	0.961333	2.6947					0.867583	2.42988	0.97435	2.72646				
0.926647	2.58977	0.7302	2.02857	0.927091	2.58957	0.963561	2.69391					0.869523	2.42898	0.976453	2.72524				
0.928721	2.58882	0.732178	2.02881	0.929163	2.58862	0.965794	2.69314					0.871464	2.42808	0.978556	2.72402				
0.930791	2.58787	0.734155	2.02905	0.931233	2.58767	0.968032	2.69238					0.873405	2.42719	0.980659	2.72282				
0.932857	2.58692	0.736132	2.02929	0.933298	2.58671	0.970274	2.69164					0.875346	2.4263	0.982761	2.72161				
0.93492	2.58596	0.738109	2.02953	0.93536	2.58575	0.97252	2.69092					0.877287	2.42541	0.984864	2.72042				
0.936979	2.58499	0.740085	2.02976	0.937418	2.58478	0.974771	2.69021					0.879228	2.42454	0.986965	2.71922				
0.939034	2.58402	0.742061	2.03	0.939473	2.58381	0.977025	2.68952					0.881169	2.42366	0.989067	2.71804				
0.941087	2.58304	0.744037	2.03023	0.941525	2.58283	0.979284	2.68884					0.88311	2.42279	0.991168	2.71685				
0.943136	2.58206	0.746013	2.03046	0.943573	2.58185	0.981548	2.68818					0.885052	2.42193	0.993268	2.71568				
0.945181	2.58108	0.747988	2.03068	0.945618	2.58087	0.983815	2.68753					0.886993	2.42107	0.995368	2.7145				
0.947224	2.58009	0.749964	2.03091	0.94766	2.57988	0.986086	2.68689					0.888935	2.42021	0.997468	2.71333				
0.949263	2.5791	0.751938	2.03113	0.949699	2.57889	0.98836	2.68627					0.890877	2.41936	0.999567	2.71217				
0.9513	2.57811	0.753913	2.03135	0.951734	2.5779	0.990639	2.68567					0.892818	2.41852	1.00167	2.71101				
0.953333	2.57711	0.755887	2.03157	0.953767	2.5769	0.992921	2.68507					0.89476	2.41767						
0.955364	2.57612	0.757862	2.03179	0.955797	2.5759	0.995207	2.68449					0.896702	2.41684						
0.957392	2.57511	0.759836	2.03201	0.957825	2.5749	0.997496	2.68392					0.898645	2.41601						
0.959417	2.57411	0.761809	2.03222	0.959849	2.5739	0.999788	2.68336					0.900587	2.41518						
0.96144	2.57311	0.763783	2.03244	0.961872	2.57289	1.00208	2.68281					0.902529	2.41435						
0.96346	2.5721	0.765756	2.03265	0.963891	2.57188							0.904472	2.41354						
0.965478	2.57109	0.767729	2.03286	0.965908	2.57087							0.906415	2.41272						
0.967493	2.57008	0.769701	2.03306	0.967923	2.56986							0.908358	2.41191						
0.969506	2.56907	0.771674	2.03327	0.969935	2.56885							0.910301	2.41111						
0.971516	2.56806	0.773646	2.03347	0.971945	2.56784							0.912244	2.4103						
0.973525	2.56704	0.775618	2.03368	0.973953	2.56683							0.914187	2.40951						
0.975531	2.56603	0.777589	2.03388	0.975959	2.56581							0.916131	2.40872						
0.977535	2.56501	0.779561	2.03408	0.977963	2.5648							0.918074	2.40793						
0.979537	2.564	0.781532	2.03428	0.979965	2.56378							0.920018	2.40714						
0.981537	2.56299	0.783503	2.03447	0.981964	2.56277							0.921962	2.40636						
0.983536	2.56197	0.785473	2.03467	0.983963	2.56175							0.923906	2.40559						
0.985532	2.56096	0.787444	2.03486	0.985959	2.56074							0.925851	2.40482						
0.987527	2.55994	0.789414	2.03505	0.987953	2.55973							0.927795	2.40405						
0.98952	2.55893	0.791384	2.03524	0.989946	2.55871							0.92974	2.40329						
0.991512	2.55792	0.793353	2.03543	0.991937	2.5577							0.931685	2.40253						
0.993502	2.5569	0.795323	2.03562	0.993927	2.55669							0.93363	2.40177						
0.99549	2.55589	0.797292	2.0358	0.995915	2.55568							0.935575	2.40102						
0.997477	2.55488	0.799261	2.03599	0.997901	2.55467							0.93752	2.40028						
0.999463	2.55387	0.80123	2.03617	0.999887	2.55366							0.939466	2.39953						
1.00145	2.55287	0.803198	2.03635	1.00187	2.55265							0.941412	2.39879						
		0.805166	2.03653									0.943358	2.39806						
		0.807134	2.03671									0.945304	2.39733						
		0.809102	2.03688									0.94725	2.3966						
		0.811069	2.03706									0.949197	2.39588						
		0.813037	2.03723									0.951144	2.39516						
		0.815004	2.0374									0.953091	2.39445						
		0.81697	2.03757									0.955038	2.39374						
		0.818937	2.03774									0.956985	2.39303						
		0.820903	2.03791									0.958933	2.39232						
		0.822869	2.03808									0.960881	2.39163						
		0.824835	2.03824									0.962829	2.39093						
		0.826801	2.03841									0.964777	2.39024						
		0.828766	2.03857									0.966726	2.38955						
		0.830731	2.03873									0.968675	2.38886						
		0.832696	2.03889									0.970623	2.38818						
		0.834661	2.03905									0.972573	2.38751						
		0.836625	2.03921									0.974522	2.38683						
		0.838589	2.03937									0.976472	2.38616						
		0.840553	2.03952									0.978422	2.3855						
		0.842517	2.03968									0.980372	2.38483						
		0.844481	2.03983									0.982322	2.38418						
		0.846444	2.03998									0.984273	2.38352						
		0.848407	2.04013									0.986224	2.38287						
		0.85037	2.04028									0.988175	2.38222						
		0.852333	2.04043									0.990126	2.38157						
		0.854295	2.04057									0.992078	2.38093						
		0.856257	2.04072									0.994029	2.38029						
		0.858219	2.04086									0.995982	2.37966						
		0.860181	2.04101									0.997934	2.37903						
		0.862142	2.04115									0.999886	2.3784						
		0.864104	2.04129									1.00184	2.37778						
		0.866065	2.04143																
		0.868026	2.04157																
		0.869986	2.0417																
		0.871947	2.04184																
		0.873907	2.04197																
		0.875867	2.04211																
		0.877827	2.04224																
		0.879786	2.04237																
		0.881746	2.0425																
		0.883705	2.04263																
		0.885664	2.04276																
		0.887622	2.04289																
		0.889581	2.04302																
		0.891539	2.04314																
		0.893497	2.04327																
		0.895455	2.04339																
		0.897413	2.04351																
		0.89937	2.04364																
		0.901328	2.04376																
		0.903285	2.04388																
		0.905242	2.04399																
		0.907198	2.04411																
		0.909155	2.04423																
		0.911111	2.04435																
		0.913067	2.04446																
		0.915023	2.04457																
		0.916978	2.04469																
		0.918934	2.0448																
		0.920889	2.04491																
		0.922844	2.04502																
		0.924799	2.04513																
		0.926754	2.04524																
		0.928708	2.04535																
		0.930662	2.04545																
		0.932616	2.04556																
		0.93457	2.04566																
		0.936524	2.04577																
		0.938478	2.04587																
		0.940431	2.04598																
		0.942384	2.04608																
		0.944337	2.04618																
		0.94629	2.04628																
		0.948242	2.04638																
		0.950194	2.04648																
		0.952147	2.04657																
		0.954099	2.04667																
		0.95605	2.04677																
		0.958002	2.04686																
		0.959953	2.04696																
		0.961905	2.04705																
		0.963856	2.04714																
		0.965807	2.04724																
		0.967757	2.04733																
		0.969708	2.04742																
		0.971658	2.04751																
		0.973608	2.0476																
		0.975558	2.04769																
		0.977508	2.04777																
		0.979458	2.04786																
		0.981407	2.04795																
		0.983356	2.04803																
		0.985306	2.04812																
		0.987254	2.0482																
		0.989203	2.04829																
		0.991152	2.04837																
		0.9931	2.04845																
		0.995048	2.04853																
		0.996997	2.04862																
		0.998944	2.0487																
		1.00089	2.04878																
