Sym0		Asym0		Sym1		Sym2		Sym3		Sym4		Asym1		Asym2		Asym3		Asym4	
426  Points		527  Points		425  Points		405  Points		353  Points		253  Points		457  Points		401  Points		346  Points		216  Points	
Freq (MHz)	Vph (m/ms)	Freq (MHz)	Vph (m/ms)	Freq (MHz)	Vph (m/ms)	Freq (MHz)	Vph (m/ms)	Freq (MHz)	Vph (m/ms)	Freq (MHz)	Vph (m/ms)	Freq (MHz)	Vph (m/ms)	Freq (MHz)	Vph (m/ms)	Freq (MHz)	Vph (m/ms)	Freq (MHz)	Vph (m/ms)
0.279509	748.269	0.000351985	0.115557	0.27951	535.777	0.441185	2294.11	0.559017	2373.96	0.838526	15554.8	0.139763	294.002	0.419267	515.356	0.698772	1285.6	0.882371	1141.45
0.279518	214.152	0.000599235	0.150649	0.279521	192.324	0.441193	392.518	0.559026	478.957	0.838529	850.777	0.13983	99.3766	0.419283	240.243	0.698779	473.673	0.882378	517.608
0.279538	124.965	0.000910758	0.185514	0.279542	117.204	0.441213	214.629	0.559045	266.355	0.838538	437.354	0.139964	59.8453	0.41931	156.638	0.698791	290.325	0.882392	334.694
0.279567	88.2298	0.00128573	0.220118	0.279573	84.2906	0.441244	147.702	0.559075	184.479	0.838552	294.333	0.140165	42.8577	0.419349	116.207	0.698809	209.31	0.882411	247.305
0.279607	68.1915	0.00172317	0.254426	0.279614	65.8152	0.441288	112.599	0.559116	141.111	0.838573	221.804	0.14043	33.4186	0.419399	92.372	0.698833	163.649	0.882436	196.105
0.279657	55.5755	0.00222196	0.288399	0.279666	53.9878	0.441342	90.9837	0.559169	114.257	0.838599	177.956	0.140761	27.4182	0.419461	76.6556	0.698863	134.345	0.882467	162.472
0.279717	46.9031	0.00278081	0.321996	0.279727	45.7679	0.441409	76.3356	0.559232	95.9948	0.838631	148.586	0.141156	23.2717	0.419534	65.5142	0.698899	113.944	0.882504	138.689
0.279787	40.5758	0.00339821	0.355169	0.279799	39.7241	0.441487	65.7545	0.559306	82.7701	0.838669	127.539	0.141614	20.2385	0.419619	57.2046	0.69894	98.9243	0.882546	120.981
0.279867	35.7562	0.0040728	0.387902	0.279881	35.0937	0.441577	57.7537	0.559392	72.7518	0.838712	111.717	0.142133	17.9259	0.419715	50.7693	0.698988	87.4052	0.882594	107.286
0.279958	31.963	0.00480296	0.420161	0.279973	31.4331	0.441679	51.4923	0.559488	64.9003	0.838761	99.3892	0.142713	16.1064	0.419823	45.6389	0.699041	78.2907	0.882648	96.3771
0.280058	28.9003	0.00558708	0.451921	0.280075	28.4668	0.441792	46.4591	0.559595	58.5814	0.838816	89.5133	0.143352	14.6392	0.419942	41.4533	0.6991	70.8992	0.882708	87.4837
0.280169	26.3758	0.00642341	0.483158	0.280187	26.0147	0.441916	42.3253	0.559713	53.3867	0.838877	81.4242	0.144049	13.4323	0.420073	37.9737	0.699166	64.7844	0.882774	80.0943
0.28029	24.2594	0.00731028	0.513856	0.28031	23.954	0.442053	38.8698	0.559842	49.0409	0.838944	74.6773	0.144801	12.4232	0.420215	35.0357	0.699237	59.6421	0.882845	73.8574
0.280421	22.4596	0.00824594	0.543998	0.280443	22.1979	0.442201	35.9386	0.559982	45.3518	0.839016	68.9643	0.145608	11.5677	0.420368	32.5222	0.699313	55.2573	0.882922	68.5229
0.280562	20.9105	0.00922854	0.573568	0.280585	20.6839	0.44236	33.4209	0.560133	42.1812	0.839094	64.0645	0.146467	10.8341	0.420533	30.3475	0.699396	51.4744	0.883005	63.9083
0.280713	19.5633	0.0102565	0.602562	0.280738	19.3651	0.442531	31.2351	0.560295	39.4271	0.839177	59.8159	0.147258	10.2755	0.420709	28.4475	0.699485	48.1773	0.883093	59.877
0.280875	18.3811	0.0113279	0.630972	0.280901	18.2063	0.442713	29.3199	0.560468	37.0127	0.839267	56.0969	0.147961	9.8489	0.420897	26.7735	0.699579	45.2783	0.883188	56.3252
0.281046	17.3353	0.0124411	0.65879	0.281075	17.1801	0.442907	27.628	0.560652	34.8788	0.839362	52.8142	0.148563	9.52605	0.421096	25.2875	0.69968	42.7094	0.883288	53.1722
0.281228	16.4038	0.0135945	0.686017	0.281258	16.265	0.443113	26.1226	0.560846	32.9794	0.839463	49.8955	0.149051	9.28785	0.421307	23.9596	0.699786	40.4172	0.883394	50.3544
0.28142	15.5689	0.0147861	0.712646	0.281451	15.4441	0.44333	24.7746	0.561052	31.2778	0.839569	47.2834	0.149418	9.12153	0.421528	22.7659	0.699898	38.3595	0.883506	47.8211
0.281622	14.8164	0.0160146	0.738686	0.281655	14.7035	0.443558	23.5607	0.561268	29.7449	0.839682	44.9321	0.149655	9.01877	0.421762	21.6872	0.700016	36.5021	0.883623	45.5313
0.281834	14.1347	0.0172783	0.764135	0.281869	14.0322	0.443798	22.4618	0.561496	28.3568	0.8398	42.8043	0.15	8.87583	0.422006	20.7077	0.70014	34.817	0.883746	43.4516
0.282056	13.5144	0.0185756	0.788999	0.282093	13.4208	0.444049	21.4624	0.561734	27.094	0.839924	40.8698	0.150381	8.72654	0.422262	19.8144	0.700269	33.2815	0.883875	41.5544
0.282289	12.9475	0.0199052	0.813286	0.282326	12.8619	0.444312	20.5497	0.561983	25.9403	0.840053	39.1034	0.150908	8.53302	0.422529	18.9964	0.700405	31.8764	0.88401	39.8167
0.282531	12.4276	0.0212654	0.837	0.28257	12.3488	0.444586	19.713	0.562242	24.8822	0.840188	37.484	0.151588	8.30282	0.422807	18.2447	0.700546	30.5859	0.88415	38.2191
0.282783	11.949	0.0226549	0.86015	0.282825	11.8764	0.444871	18.943	0.562513	23.9084	0.840329	35.9941	0.152433	8.04412	0.423097	17.5516	0.700694	29.3965	0.884296	36.7455
0.283046	11.5071	0.0240726	0.882747	0.283089	11.4399	0.445168	18.2323	0.562794	23.0092	0.840476	34.6189	0.153452	7.76519	0.423397	16.9104	0.700847	28.2969	0.884448	35.382
0.283319	11.0978	0.0255169	0.904797	0.283363	11.0355	0.445476	17.5743	0.563086	22.1764	0.840628	33.3455	0.154658	7.47385	0.423709	16.3158	0.701006	27.2772	0.884606	34.1167
0.283601	10.7177	0.0269867	0.926313	0.283647	10.6598	0.445795	16.9634	0.563389	21.403	0.840787	32.1631	0.155901	7.20935	0.424032	15.7627	0.70117	26.3291	0.884769	32.9394
0.283894	10.3639	0.0284808	0.947303	0.283942	10.3098	0.446125	16.3948	0.563702	20.6828	0.84095	31.0623	0.157181	6.9683	0.424367	15.2471	0.701341	25.4453	0.884938	31.8413
0.284197	10.0337	0.0299982	0.967782	0.284207	10.024	0.446467	15.8641	0.564026	20.0106	0.84112	30.0349	0.158495	6.74784	0.424712	14.7652	0.701518	24.6195	0.885113	30.8145
0.28451	9.72482	0.0315376	0.987757	0.284438	9.79307	0.446819	15.3679	0.564361	19.3818	0.841295	29.0739	0.159842	6.54556	0.425069	14.314	0.7017	23.8462	0.885294	29.8525
0.284833	9.43538	0.0330983	1.00724	0.284634	9.61044	0.447183	14.9028	0.564706	18.7924	0.841476	28.173	0.161221	6.35938	0.425436	13.8905	0.701888	23.1205	0.88548	28.9493
0.285166	9.16359	0.034679	1.02625	0.284792	9.47104	0.447558	14.4662	0.565062	18.2387	0.841663	27.3269	0.16263	6.18756	0.425815	13.4925	0.702082	22.4383	0.885672	28.0997
0.285509	8.90792	0.036279	1.04479	0.284909	9.37124	0.447944	14.0554	0.565429	17.7178	0.841855	26.5305	0.164067	6.02855	0.426205	13.1176	0.702282	21.7957	0.885869	27.299
0.285862	8.667	0.0378972	1.06288	0.284985	9.30853	0.44834	13.6682	0.565806	17.2266	0.842053	25.7798	0.165533	5.88106	0.426605	12.7639	0.702487	21.1893	0.886073	26.5432
0.286225	8.4396	0.039533	1.08052	0.285095	9.21993	0.448748	13.3028	0.566194	16.7629	0.842257	25.071	0.167024	5.74392	0.427017	12.4297	0.702699	20.6163	0.886282	25.8285
0.286599	8.22466	0.0411854	1.09773	0.285215	9.12563	0.449167	12.9573	0.566592	16.3244	0.842466	24.4005	0.168541	5.61613	0.42744	12.1135	0.702916	20.074	0.886497	25.1519
0.286982	8.02119	0.0428538	1.11452	0.285381	9.00062	0.449596	12.6303	0.567	15.9092	0.842681	23.7654	0.170081	5.49681	0.427873	11.8138	0.703139	19.5599	0.886717	24.5102
0.287375	7.82832	0.0445374	1.1309	0.285595	8.84765	0.450037	12.3202	0.56742	15.5153	0.842902	23.163	0.171645	5.38519	0.428318	11.5295	0.703368	19.072	0.886943	23.9009
0.287778	7.64527	0.0462354	1.14689	0.285858	8.6699	0.450488	12.0258	0.567849	15.1413	0.843128	22.5908	0.17323	5.28057	0.428773	11.2594	0.703603	18.6083	0.887175	23.3216
0.288191	7.47131	0.0479474	1.16249	0.286174	8.47089	0.45095	11.746	0.568289	14.7857	0.84336	22.0467	0.174836	5.18235	0.429239	11.0025	0.703843	18.167	0.887412	22.7702
0.288614	7.30581	0.0496725	1.17771	0.286545	8.25425	0.451423	11.4797	0.56874	14.4472	0.843598	21.5285	0.176463	5.08999	0.429716	10.7578	0.70409	17.7466	0.887655	22.2446
0.289047	7.14819	0.0514103	1.19257	0.286927	8.04922	0.451906	11.226	0.5692	14.1247	0.843842	21.0346	0.178108	5.003	0.430204	10.5245	0.704342	17.3456	0.887904	21.7432
0.28949	6.99791	0.0531602	1.20707	0.287319	7.8549	0.4524	10.9841	0.569672	13.8169	0.844091	20.5633	0.179772	4.92094	0.430702	10.3019	0.7046	16.9627	0.888158	21.2643
0.289943	6.85448	0.0549216	1.22123	0.287721	7.67051	0.452904	10.7531	0.570153	13.523	0.844345	20.113	0.181453	4.84343	0.431146	10.116	0.704864	16.5968	0.888418	20.8064
0.290406	6.71746	0.0566941	1.23506	0.288132	7.49531	0.453419	10.5323	0.570645	13.242	0.844606	19.6823	0.18315	4.77012	0.43153	9.96325	0.705133	16.2467	0.888684	20.3682
0.290879	6.58645	0.0584772	1.24856	0.288554	7.32866	0.453945	10.3212	0.571146	12.9732	0.844872	19.2701	0.184864	4.70068	0.431852	9.84065	0.705409	15.9115	0.888955	19.9484
0.291361	6.46107	0.0602703	1.26175	0.288986	7.16996	0.454412	10.1445	0.571658	12.7157	0.845143	18.8752	0.186593	4.63484	0.432109	9.74602	0.70569	15.5902	0.889232	19.546
0.291854	6.34099	0.0620731	1.27463	0.289427	7.01867	0.454815	9.99902	0.572181	12.4689	0.845421	18.4965	0.188336	4.57233	0.4323	9.67769	0.705977	15.282	0.889514	19.1598
0.292357	6.22588	0.0638851	1.28721	0.289879	6.8743	0.455154	9.88212	0.572713	12.2322	0.845704	18.1331	0.190094	4.51292	0.432423	9.63451	0.706269	14.9861	0.889802	18.7889
0.292869	6.11545	0.0657059	1.2995	0.29034	6.73641	0.455424	9.79178	0.573255	12.0049	0.845992	17.784	0.191864	4.45638	0.432601	9.57317	0.706568	14.7018	0.890096	18.4325
0.293391	6.00945	0.0675353	1.31151	0.290812	6.60457	0.455624	9.7265	0.573808	11.7865	0.846286	17.4485	0.193648	4.40254	0.432795	9.50747	0.706872	14.4284	0.890395	18.0897
0.293923	5.90761	0.0693728	1.32326	0.291293	6.47842	0.455753	9.68522	0.57437	11.5765	0.846586	17.1257	0.195444	4.3512	0.433062	9.41968	0.707182	14.1653	0.8907	17.7597
0.294465	5.8097	0.071218	1.33473	0.291784	6.35761	0.455939	9.62655	0.574943	11.3744	0.846891	16.8149	0.197251	4.3022	0.433402	9.31118	0.707498	13.912	0.89101	17.4419
0.295017	5.71553	0.0730707	1.34595	0.292285	6.24182	0.456143	9.56366	0.575525	11.1799	0.847202	16.5156	0.19907	4.25539	0.43382	9.18359	0.707819	13.668	0.891326	17.1355
0.295579	5.62488	0.0749305	1.35692	0.292796	6.13075	0.456422	9.47957	0.576118	10.9924	0.847519	16.227	0.200899	4.21064	0.434316	9.03875	0.708146	13.4326	0.891648	16.8401
0.29615	5.53757	0.0767972	1.36765	0.293317	6.02413	0.456778	9.37552	0.57672	10.8117	0.847841	15.9487	0.202739	4.16781	0.434896	8.87867	0.708479	13.2055	0.891975	16.5549
0.296732	5.45344	0.0786705	1.37815	0.293848	5.92172	0.457215	9.25303	0.577332	10.6374	0.848168	15.68	0.204589	4.1268	0.435487	8.72477	0.708818	12.9863	0.892307	16.2796
0.297323	5.37231	0.08055	1.38841	0.294388	5.82328	0.457733	9.11378	0.577954	10.4691	0.848502	15.4206	0.206448	4.08748	0.436088	8.57671	0.709163	12.7746	0.892645	16.0136
0.297924	5.29404	0.0824356	1.39845	0.294939	5.72859	0.458338	8.95961	0.578504	10.3272	0.848841	15.1699	0.208316	4.04977	0.436699	8.43418	0.709513	12.5699	0.892989	15.7564
0.298534	5.2185	0.084327	1.40828	0.295499	5.63745	0.458953	8.81115	0.578979	10.2096	0.849185	14.9275	0.210194	4.01356	0.43732	8.29689	0.709869	12.372	0.893338	15.5076
0.299155	5.14554	0.086224	1.4179	0.296069	5.54969	0.459578	8.6681	0.579376	10.1145	0.849535	14.693	0.212079	3.97878	0.437952	8.16456	0.71023	12.1805	0.893693	15.2668
0.299785	5.07505	0.0881264	1.42731	0.296649	5.46511	0.460212	8.53018	0.579692	10.0407	0.849891	14.4661	0.213973	3.94535	0.438594	8.03693	0.710598	11.9952	0.894053	15.0337
0.300425	5.00692	0.0900338	1.43653	0.297239	5.38357	0.460857	8.39711	0.579926	9.98716	0.850252	14.2463	0.215874	3.91318	0.439246	7.91377	0.710971	11.8156	0.894418	14.8079
0.301075	4.94102	0.0919462	1.44555	0.297838	5.30491	0.461512	8.26867	0.580076	9.95325	0.850618	14.0333	0.217783	3.88222	0.439909	7.79486	0.711349	11.6417	0.894789	14.589
0.301735	4.87727	0.0938634	1.45439	0.298448	5.22899	0.462176	8.14462	0.580293	9.90494	0.85099	13.827	0.219699	3.85239	0.440581	7.67999	0.711734	11.473	0.895166	14.3767
0.302404	4.81557	0.0957851	1.46305	0.299067	5.15568	0.46285	8.02474	0.58053	9.85303	0.851368	13.6268	0.221622	3.82364	0.441264	7.56896	0.712124	11.3095	0.895548	14.1708
0.303083	4.75582	0.0977112	1.47153	0.299696	5.08485	0.463534	7.90884	0.580854	9.78339	0.851751	13.4326	0.223552	3.79592	0.441956	7.46159	0.71252	11.1508	0.895936	13.971
0.303683	4.70529	0.0996415	1.47983	0.300334	5.01639	0.464227	7.79673	0.581268	9.69688	0.85214	13.2441	0.225488	3.76916	0.442659	7.35772	0.712922	10.9967	0.896328	13.777
0.3042	4.66329	0.101576	1.48797	0.300983	4.95018	0.464931	7.68824	0.581773	9.59452	0.852534	13.0611	0.22743	3.74333	0.443372	7.25718	0.713329	10.8471	0.896727	13.5885
0.304631	4.62929	0.103514	1.49595	0.301641	4.88614	0.465643	7.58319	0.582372	9.4775	0.852934	12.8834	0.229378	3.71837	0.444094	7.15982	0.713742	10.7018	0.897131	13.4053
0.304975	4.60286	0.105456	1.50376	0.302309	4.82415	0.466365	7.48143	0.583068	9.3471	0.853339	12.7106	0.231332	3.69425	0.444827	7.06549	0.714106	10.5784	0.89754	13.2273
0.305229	4.58368	0.107402	1.51143	0.302987	4.76413	0.467097	7.38282	0.583774	9.2207	0.85375	12.5427	0.233291	3.67092	0.445569	6.97408	0.71442	10.4757	0.897954	13.0542
0.305393	4.57152	0.109351	1.51894	0.303674	4.706	0.467838	7.28722	0.584489	9.09811	0.854166	12.3793	0.235256	3.64835	0.446321	6.88544	0.714682	10.3923	0.898374	12.8857
0.305629	4.55418	0.111303	1.52631	0.304371	4.64967	0.468588	7.19449	0.585213	8.97916	0.854588	12.2204	0.237226	3.6265	0.447083	6.79946	0.714891	10.3274	0.8988	12.7218
0.305886	4.53552	0.113259	1.53353	0.305078	4.59507	0.469347	7.10453	0.585947	8.86371	0.855015	12.0658	0.2392	3.60533	0.447854	6.71603	0.715045	10.2802	0.89923	12.5623
0.306238	4.51048	0.115217	1.54062	0.305795	4.54212	0.470116	7.0172	0.586691	8.75161	0.855448	11.9152	0.24118	3.58483	0.448635	6.63504	0.715144	10.2503	0.899667	12.4069
0.306687	4.47933	0.116927	1.54668	0.306521	4.49076	0.470894	6.9324	0.587443	8.64272	0.855886	11.7686	0.243164	3.56495	0.449426	6.55639	0.715287	10.2075	0.900108	12.2555
0.307234	4.44242	0.118386	1.55177	0.307257	4.44092	0.471681	6.85003	0.588205	8.5369	0.856329	11.6258	0.245152	3.54567	0.450226	6.47999	0.715444	10.1615	0.900555	12.108
0.307883	4.40015	0.119593	1.55593	0.308003	4.39255	0.472477	6.76999	0.588975	8.43405	0.856778	11.4866	0.247145	3.52696	0.451036	6.40575	0.715657	10.0996	0.901007	11.9642
0.308637	4.35296	0.120549	1.55918	0.308758	4.34558	0.473282	6.69218	0.589755	8.33402	0.857232	11.3509	0.249142	3.5088	0.451856	6.33358	0.715929	10.0225	0.901464	11.824
0.309401	4.30713	0.121252	1.56155	0.309523	4.29997	0.474096	6.61652	0.590545	8.23673	0.857692	11.2186	0.251142	3.49117	0.452685	6.2634	0.716261	9.93092	0.901927	11.6872
0.310174	4.26261	0.121702	1.56306	0.310298	4.25565	0.474919	6.54293	0.591343	8.14206	0.858157	11.0895	0.253147	3.47405	0.453523	6.19514	0.716654	9.82576	0.902395	11.5538
0.310957	4.21935	0.122349	1.56522	0.311083	4.21258	0.47575	6.47132	0.59215	8.0499	0.858628	10.9636	0.255155	3.4574	0.45437	6.12872	0.71711	9.70801	0.902869	11.4236
0.31175	4.1773	0.123053	1.56755	0.311877	4.17072	0.476591	6.40162	0.592966	7.96018	0.859042	10.8563	0.257167	3.44122	0.455227	6.06407	0.717572	9.59326	0.903347	11.2965
0.312553	4.13641	0.124011	1.5707	0.312681	4.13002	0.47744	6.33376	0.593791	7.87278	0.859399	10.7667	0.259183	3.42548	0.456094	6.00113	0.71804	9.48141	0.903831	11.1724
0.313365	4.09665	0.125223	1.57464	0.313495	4.09043	0.478298	6.26768	0.594625	7.78764	0.859696	10.6937	0.261201	3.41017	0.456969	5.93983	0.718513	9.37236	0.90432	11.0511
0.314187	4.05797	0.12669	1.57934	0.314319	4.05192	0.479164	6.20329	0.595468	7.70466	0.859932	10.6368	0.263223	3.39527	0.457854	5.88012	0.718992	9.26599	0.904751	10.9478
0.315019	4.02033	0.128412	1.58477	0.315152	4.01444	0.480039	6.14055	0.596319	7.62378	0.860107	10.5953	0.265248	3.38076	0.458748	5.82193	0.719476	9.16222	0.905121	10.8613
0.315861	3.98371	0.130391	1.59091	0.315995	3.97797	0.480922	6.0794	0.597179	7.5449	0.860219	10.569	0.267276	3.36663	0.459651	5.76523	0.719966	9.06096	0.905429	10.7909
0.316712	3.94805	0.132373	1.59693	0.316848	3.94247	0.481814	6.01977	0.598048	7.46798	0.860381	10.5314	0.269307	3.35286	0.460563	5.70994	0.720462	8.96211	0.905674	10.7359
0.317573	3.91334	0.134356	1.60284	0.317711	3.9079	0.482714	5.96162	0.598926	7.39292	0.860557	10.4908	0.271341	3.33945	0.461483	5.65602	0.720963	8.86559	0.905855	10.6959
0.318444	3.87953	0.136342	1.60864	0.318583	3.87423	0.483623	5.9049	0.599812	7.31968	0.860798	10.4362	0.273378	3.32637	0.462413	5.60344	0.72147	8.77133	0.905972	10.6704
0.319325	3.8466	0.138329	1.61435	0.319466	3.84144	0.484539	5.84955	0.600707	7.24819	0.861105	10.3679	0.275417	3.31361	0.463352	5.55213	0.721982	8.67925	0.906139	10.634
0.320215	3.81451	0.140318	1.61995	0.320358	3.80949	0.485464	5.79553	0.60161	7.17839	0.861478	10.2867	0.277458	3.30117	0.4643	5.50206	0.7225	8.58927	0.906322	10.5948
0.321116	3.78325	0.14231	1.62545	0.32126	3.77836	0.486397	5.74279	0.602522	7.11023	0.86192	10.1932	0.279502	3.28903	0.465257	5.45319	0.723023	8.50133	0.906571	10.542
0.322026	3.75279	0.144303	1.63086	0.322172	3.74801	0.487339	5.6913	0.603442	7.04364	0.862432	10.0881	0.281549	3.27718	0.466222	5.40547	0.723552	8.41536	0.906889	10.4759
0.322947	3.72309	0.146297	1.63618	0.323094	3.71843	0.488288	5.64101	0.604371	6.97859	0.862949	9.98529	0.283597	3.26561	0.467196	5.35888	0.724087	8.3313	0.907275	10.3973
0.323877	3.69413	0.148294	1.6414	0.324026	3.6896	0.489245	5.59188	0.605308	6.91501	0.863472	9.88477	0.285648	3.25432	0.468179	5.31337	0.724627	8.24908	0.907732	10.3066
0.324818	3.6659	0.150292	1.64654	0.324968	3.66148	0.49021	5.54387	0.606253	6.85287	0.864	9.78644	0.287701	3.24328	0.46917	5.26891	0.725172	8.16865	0.908261	10.2047
0.325768	3.63837	0.152291	1.65159	0.32592	3.63406	0.491183	5.49695	0.607206	6.79211	0.864533	9.69021	0.289756	3.2325	0.47017	5.22546	0.725723	8.08995	0.908796	10.1049
0.326728	3.61152	0.154293	1.65655	0.326882	3.60731	0.492164	5.45109	0.608168	6.7327	0.865071	9.59604	0.291813	3.22196	0.471179	5.18301	0.72628	8.01293	0.909335	10.0072
0.327699	3.58532	0.156295	1.66143	0.327854	3.58122	0.493153	5.40625	0.609137	6.67459	0.865615	9.50385	0.293872	3.21165	0.472196	5.1415	0.726842	7.93754	0.90988	9.91159
0.32868	3.55977	0.158299	1.66623	0.328837	3.55576	0.494149	5.36241	0.610115	6.61775	0.866164	9.41358	0.295933	3.20157	0.473222	5.10092	0.727409	7.86373	0.91043	9.81793
0.329671	3.53483	0.160304	1.67095	0.32983	3.53092	0.495153	5.31952	0.611101	6.56213	0.866719	9.32518	0.297996	3.19172	0.474256	5.06124	0.727982	7.79144	0.910985	9.72619
0.330672	3.5105	0.162311	1.67559	0.330833	3.50669	0.496164	5.27756	0.612095	6.50769	0.867278	9.23859	0.30006	3.18207	0.475298	5.02243	0.728561	7.72065	0.911545	9.63632
0.331684	3.48675	0.164318	1.68016	0.331846	3.48303	0.497184	5.2365	0.613097	6.45441	0.867843	9.15376	0.302126	3.17264	0.476349	4.98446	0.729144	7.65129	0.91211	9.54825
0.332706	3.46358	0.166327	1.68465	0.33287	3.45994	0.49821	5.19633	0.614106	6.40224	0.868414	9.07064	0.304194	3.1634	0.477408	4.94731	0.729734	7.58333	0.91268	9.46193
0.333739	3.44095	0.168337	1.68907	0.333904	3.43741	0.499244	5.157	0.615124	6.35116	0.868989	8.98917	0.306263	3.15435	0.478476	4.91095	0.730329	7.51674	0.913255	9.37732
0.334782	3.41887	0.170349	1.69342	0.334949	3.41541	0.500286	5.11849	0.616149	6.30113	0.86957	8.90931	0.308334	3.1455	0.479551	4.87537	0.730929	7.45146	0.913835	9.29436
0.335836	3.39731	0.172361	1.6977	0.336005	3.39393	0.501334	5.08079	0.617183	6.25213	0.870156	8.83101	0.310406	3.13682	0.480635	4.84054	0.731535	7.38747	0.914421	9.21301
0.336901	3.37626	0.174374	1.70191	0.337072	3.37296	0.50239	5.04387	0.618223	6.20411	0.870747	8.75424	0.312479	3.12832	0.481727	4.80644	0.732146	7.32472	0.915011	9.13322
0.337977	3.3557	0.176388	1.70606	0.338149	3.35248	0.503454	5.0077	0.619272	6.15707	0.871343	8.67893	0.314554	3.11999	0.482827	4.77304	0.732762	7.26319	0.915606	9.05496
0.339063	3.33564	0.178404	1.71014	0.339237	3.33249	0.504524	4.97227	0.620328	6.11096	0.871944	8.60507	0.31663	3.11182	0.483935	4.74034	0.733384	7.20284	0.916207	8.97817
0.340161	3.31604	0.18042	1.71415	0.340337	3.31297	0.505601	4.93755	0.621392	6.06577	0.872551	8.5326	0.318707	3.10382	0.485051	4.7083	0.734011	7.14363	0.916812	8.90282
0.34127	3.29691	0.182437	1.71811	0.341447	3.29391	0.506686	4.90353	0.622463	6.02146	0.873163	8.46149	0.320786	3.09597	0.486175	4.67691	0.734644	7.08554	0.917422	8.82887
0.34239	3.27822	0.184455	1.722	0.342569	3.27529	0.507778	4.87018	0.623542	5.97802	0.87378	8.39171	0.322865	3.08827	0.487307	4.64616	0.735282	7.02853	0.918037	8.75628
0.343522	3.25998	0.186473	1.72584	0.343703	3.25712	0.508876	4.83749	0.624628	5.93541	0.874402	8.32321	0.324946	3.08072	0.488447	4.61602	0.735926	6.97259	0.918658	8.68501
0.344665	3.24216	0.188493	1.72961	0.344848	3.23937	0.509982	4.80544	0.625722	5.89363	0.875029	8.25596	0.327028	3.07331	0.489594	4.58648	0.736574	6.91767	0.919283	8.61504
0.34582	3.22476	0.190513	1.73333	0.346005	3.22204	0.511094	4.774	0.626823	5.85264	0.875662	8.18993	0.32911	3.06603	0.49075	4.55753	0.737229	6.86375	0.919913	8.54632
0.346987	3.20778	0.192534	1.73699	0.347174	3.20511	0.512213	4.74318	0.627931	5.81242	0.876299	8.12509	0.331194	3.05889	0.491913	4.52914	0.737888	6.81081	0.920548	8.47883
0.348166	3.19119	0.194555	1.7406	0.348355	3.18859	0.513339	4.71294	0.629046	5.77296	0.876942	8.06141	0.333279	3.05189	0.493084	4.50131	0.738553	6.75883	0.921188	8.41253
0.349358	3.175	0.196578	1.74416	0.349548	3.17246	0.514472	4.68328	0.630169	5.73423	0.87759	7.99886	0.335364	3.045	0.494262	4.47401	0.739223	6.70777	0.921832	8.34739
0.350562	3.15919	0.198601	1.74766	0.350754	3.15671	0.515611	4.65418	0.631299	5.69622	0.878243	7.9374	0.337451	3.03825	0.495449	4.44724	0.739899	6.65761	0.922482	8.28339
0.351778	3.14375	0.200624	1.75111	0.351973	3.14133	0.516757	4.62562	0.632436	5.65891	0.878901	7.87702	0.339538	3.03161	0.496642	4.42099	0.740579	6.60834	0.923136	8.2205
0.353007	3.12869	0.202648	1.75451	0.353204	3.12633	0.517909	4.5976	0.63358	5.62227	0.879564	7.81769	0.341625	3.02508	0.497844	4.39523	0.741266	6.55992	0.923796	8.15868
0.35425	3.11399	0.204673	1.75786	0.354449	3.11168	0.519068	4.57008	0.634731	5.5863	0.880232	7.75937	0.343714	3.01867	0.499052	4.36995	0.741957	6.51235	0.92446	8.09791
0.355506	3.09964	0.206698	1.76116	0.355706	3.09739	0.520234	4.54308	0.635889	5.55098	0.880905	7.70205	0.345803	3.01237	0.500269	4.34515	0.742654	6.46559	0.925129	8.03817
0.356775	3.08564	0.208724	1.76441	0.356978	3.08345	0.521406	4.51656	0.637054	5.51628	0.881584	7.64569	0.347893	3.00618	0.501492	4.32082	0.743356	6.41963	0.925802	7.97943
0.358058	3.07198	0.21075	1.76762	0.358263	3.06984	0.522584	4.49053	0.638226	5.4822	0.882267	7.59029	0.349984	3.00009	0.502723	4.29693	0.744063	6.37445	0.926481	7.92166
0.359355	3.05867	0.212777	1.77078	0.359563	3.05658	0.523768	4.46496	0.639404	5.44872	0.882955	7.53581	0.352075	2.9941	0.503962	4.27348	0.744776	6.33002	0.927164	7.86485
0.360667	3.04568	0.214804	1.77389	0.360877	3.04364	0.524959	4.43985	0.64059	5.41582	0.883649	7.48223	0.354166	2.98821	0.505207	4.25047	0.745493	6.28635	0.927852	7.80897
0.361993	3.03301	0.216832	1.77697	0.362205	3.03103	0.526156	4.41518	0.641782	5.38349	0.884347	7.42953	0.356259	2.98242	0.50646	4.22787	0.746216	6.24339	0.928545	7.754
0.363334	3.02067	0.21886	1.78	0.363549	3.01874	0.527359	4.39095	0.642981	5.35172	0.88505	7.37769	0.358351	2.97672	0.507721	4.20568	0.746944	6.20114	0.929243	7.69992
0.364691	3.00864	0.220888	1.78298	0.364908	3.00676	0.528569	4.36714	0.644186	5.3205	0.885759	7.32669	0.360444	2.97111	0.508988	4.18388	0.747678	6.15959	0.929945	7.6467
0.366063	2.99693	0.222917	1.78593	0.366282	2.99509	0.529784	4.34375	0.645399	5.2898	0.886472	7.27651	0.362538	2.96559	0.510262	4.16248	0.748417	6.11871	0.930652	7.59434
0.367451	2.98552	0.224946	1.78883	0.367673	2.98373	0.531006	4.32075	0.646617	5.25963	0.88719	7.22714	0.364632	2.96016	0.511544	4.14146	0.74916	6.07849	0.931364	7.5428
0.368855	2.97441	0.226975	1.7917	0.369079	2.97267	0.532233	4.29816	0.647842	5.22996	0.887913	7.17855	0.366726	2.95481	0.512833	4.12081	0.74991	6.03892	0.93208	7.49207
0.370275	2.9636	0.229005	1.79452	0.370503	2.96191	0.533467	4.27594	0.649074	5.20078	0.888642	7.13072	0.36882	2.94955	0.514129	4.10052	0.750664	5.99997	0.932801	7.44213
0.371713	2.95308	0.231035	1.79731	0.371943	2.95144	0.534706	4.25411	0.650312	5.17209	0.889375	7.08365	0.370915	2.94436	0.515431	4.08059	0.751423	5.96165	0.933527	7.39296
0.373167	2.94286	0.233066	1.80005	0.3734	2.94126	0.535951	4.23264	0.651557	5.14388	0.890113	7.0373	0.37301	2.93925	0.516741	4.06101	0.752188	5.92393	0.934257	7.34456
0.37464	2.93292	0.235096	1.80277	0.374876	2.93136	0.537202	4.21153	0.652807	5.11612	0.890856	6.99168	0.375105	2.93422	0.518058	4.04176	0.752957	5.88679	0.934992	7.29689
0.37613	2.92326	0.237127	1.80544	0.376369	2.92175	0.538459	4.19077	0.654064	5.08881	0.891604	6.94675	0.377201	2.92927	0.519381	4.02284	0.753732	5.85024	0.935732	7.24995
0.377638	2.91388	0.239158	1.80808	0.37788	2.91242	0.539721	4.17036	0.655328	5.06195	0.892356	6.90251	0.379297	2.92438	0.520712	4.00425	0.754512	5.81424	0.936476	7.20371
0.379165	2.90478	0.24119	1.81068	0.37941	2.90336	0.540989	4.15028	0.656597	5.03552	0.893114	6.85894	0.381392	2.91957	0.522049	3.98598	0.755297	5.7788	0.937225	7.15817
0.380711	2.89595	0.243221	1.81325	0.380959	2.89458	0.542263	4.13053	0.657873	5.0095	0.893877	6.81602	0.383488	2.91482	0.523393	3.96801	0.756088	5.74391	0.937978	7.1133
0.382276	2.8874	0.245253	1.81579	0.382527	2.88606	0.543542	4.1111	0.659155	4.98391	0.894644	6.77375	0.385584	2.91015	0.524743	3.95035	0.756883	5.70954	0.938736	7.06911
0.38386	2.8791	0.247285	1.81829	0.384114	2.87781	0.544827	4.09198	0.660443	4.95871	0.895416	6.73211	0.387681	2.90554	0.526101	3.93298	0.757684	5.67568	0.939499	7.02556
0.385464	2.87107	0.249317	1.82076	0.385721	2.86982	0.546118	4.07317	0.661737	4.93391	0.896193	6.69108	0.389777	2.90099	0.527465	3.9159	0.758489	5.64234	0.940266	6.98264
0.387088	2.8633	0.25135	1.82319	0.387348	2.86208	0.547414	4.05466	0.663036	4.9095	0.896975	6.65066	0.391873	2.8965	0.528835	3.89911	0.7593	5.60949	0.941037	6.94035
0.388733	2.85578	0.253382	1.8256	0.388996	2.8546	0.548715	4.03644	0.664342	4.88547	0.897762	6.61082	0.393969	2.89208	0.530213	3.88259	0.760115	5.57713	0.941813	6.89867
0.390397	2.84851	0.255415	1.82797	0.390664	2.84738	0.550022	4.01851	0.665654	4.8618	0.898553	6.57156	0.396065	2.88772	0.531597	3.86635	0.760936	5.54524	0.942594	6.85759
0.392082	2.84149	0.257448	1.83032	0.392352	2.84039	0.551334	4.00087	0.666972	4.8385	0.89935	6.53287	0.398161	2.88341	0.532987	3.85037	0.761762	5.51382	0.943379	6.81709
0.393788	2.83471	0.25948	1.83263	0.394061	2.83365	0.552651	3.98349	0.668295	4.81555	0.900151	6.49474	0.400257	2.87917	0.534384	3.83465	0.762593	5.48286	0.944168	6.77717
0.395514	2.82816	0.261513	1.83491	0.39579	2.82715	0.553974	3.96639	0.669624	4.79295	0.900957	6.45715	0.402353	2.87498	0.535787	3.81919	0.763429	5.45235	0.944962	6.73781
0.397261	2.82186	0.263546	1.83717	0.397541	2.82088	0.555302	3.94955	0.670959	4.77069	0.901768	6.42009	0.404449	2.87084	0.537197	3.80397	0.764269	5.42227	0.945761	6.699
0.399029	2.81578	0.26558	1.8394	0.399312	2.81483	0.556635	3.93297	0.6723	4.74876	0.902583	6.38355	0.406544	2.86675	0.538613	3.789	0.765115	5.39263	0.946564	6.66073
0.400817	2.80992	0.267613	1.84159	0.401103	2.80901	0.557973	3.91664	0.673646	4.72716	0.903403	6.34752	0.40864	2.86272	0.540036	3.77427	0.765966	5.36341	0.947371	6.62299
0.402626	2.80429	0.269646	1.84377	0.402916	2.80341	0.559316	3.90056	0.674998	4.70588	0.904228	6.312	0.410735	2.85874	0.541465	3.75978	0.766822	5.3346	0.948182	6.58576
0.404455	2.79887	0.27168	1.84591	0.404748	2.79803	0.560665	3.88472	0.676355	4.68491	0.905058	6.27697	0.41283	2.85481	0.5429	3.74551	0.767683	5.30619	0.948998	6.54905
0.406305	2.79366	0.273713	1.84803	0.406601	2.79285	0.562018	3.86912	0.677718	4.66425	0.905892	6.24242	0.414925	2.85093	0.544341	3.73147	0.768548	5.27819	0.949819	6.51284
0.408174	2.78865	0.275746	1.85012	0.408474	2.78787	0.563377	3.85376	0.679086	4.64389	0.906731	6.20834	0.417019	2.84709	0.545789	3.71765	0.769419	5.25057	0.950644	6.47711
0.410064	2.78383	0.27778	1.85218	0.410366	2.78309	0.56474	3.83862	0.68046	4.62383	0.907575	6.17473	0.419114	2.8433	0.547243	3.70405	0.770295	5.22334	0.951473	6.44187
0.411973	2.77921	0.279813	1.85422	0.412278	2.7785	0.566108	3.82371	0.681839	4.60405	0.908423	6.14157	0.421207	2.83956	0.548703	3.69066	0.771175	5.19648	0.952306	6.4071
0.4139	2.77478	0.281847	1.85624	0.414209	2.77409	0.567482	3.80901	0.683224	4.58456	0.909276	6.10886	0.423301	2.83586	0.550169	3.67747	0.772061	5.16999	0.953144	6.37278
0.415847	2.77052	0.28388	1.85823	0.416158	2.76986	0.56886	3.79453	0.684613	4.56534	0.910134	6.07658	0.425394	2.83221	0.551641	3.66449	0.772951	5.14386	0.953986	6.33893
0.417812	2.76644	0.285914	1.86019	0.418126	2.76581	0.570242	3.78026	0.686009	4.5464	0.910997	6.04474	0.427487	2.8286	0.55312	3.65171	0.773847	5.11808	0.954832	6.30551
0.419795	2.76253	0.287947	1.86214	0.420112	2.76192	0.57163	3.7662	0.687409	4.52772	0.911864	6.01332	0.429579	2.82503	0.554604	3.63913	0.774747	5.09265	0.955683	6.27254
0.421795	2.75878	0.289981	1.86405	0.422115	2.75819	0.573022	3.75234	0.688814	4.50931	0.912735	5.98231	0.431671	2.8215	0.556095	3.62674	0.775652	5.06757	0.956538	6.23999
0.423812	2.75518	0.292014	1.86595	0.424134	2.75462	0.574419	3.73868	0.690225	4.49115	0.913612	5.95171	0.433763	2.81801	0.557591	3.61453	0.776562	5.04282	0.957397	6.20786
0.425846	2.75173	0.294048	1.86782	0.42617	2.7512	0.575821	3.72521	0.691641	4.47324	0.914493	5.92151	0.435854	2.81455	0.559093	3.60251	0.777477	5.01839	0.95826	6.17615
0.427895	2.74843	0.296081	1.86967	0.428223	2.74792	0.577227	3.71193	0.693062	4.45558	0.915378	5.8917	0.437945	2.81114	0.560602	3.59068	0.778397	4.9943	0.959128	6.14484
0.42996	2.74527	0.298114	1.8715	0.43029	2.74477	0.578638	3.69885	0.694488	4.43817	0.916268	5.86227	0.440035	2.80777	0.562116	3.57902	0.779321	4.97051	0.959999	6.11393
0.43204	2.74223	0.300147	1.87331	0.432372	2.74176	0.580054	3.68594	0.695919	4.42099	0.917163	5.83322	0.442125	2.80443	0.563636	3.56753	0.78025	4.94705	0.960875	6.08342
0.434134	2.73933	0.302181	1.8751	0.434469	2.73887	0.581474	3.67322	0.697355	4.40404	0.918062	5.80455	0.444214	2.80113	0.565162	3.55622	0.781185	4.92388	0.961755	6.05328
0.436242	2.73654	0.304214	1.87686	0.436579	2.73611	0.582899	3.66067	0.698795	4.38733	0.918966	5.77623	0.446302	2.79786	0.566694	3.54507	0.782123	4.90102	0.96264	6.02353
0.438364	2.73387	0.306247	1.87861	0.438702	2.73346	0.584328	3.6483	0.700241	4.37084	0.919874	5.74828	0.44839	2.79463	0.568231	3.53409	0.783067	4.87845	0.963528	5.99414
0.440498	2.73131	0.30828	1.88033	0.440839	2.73091	0.585761	3.6361	0.701692	4.35457	0.920787	5.72068	0.450478	2.79143	0.569774	3.52328	0.784016	4.85617	0.964421	5.96512
0.442645	2.72886	0.310313	1.88203	0.442987	2.72848	0.587199	3.62406	0.703147	4.33851	0.921704	5.69342	0.452565	2.78826	0.571323	3.51262	0.784969	4.83418	0.965318	5.93645
0.444803	2.7265	0.312345	1.88372	0.445148	2.72614	0.588641	3.61219	0.704607	4.32267	0.922626	5.6665	0.454651	2.78513	0.572878	3.50211	0.785927	4.81247	0.966218	5.90814
0.446973	2.72425	0.314378	1.88538	0.447319	2.72389	0.590088	3.60049	0.706072	4.30704	0.923552	5.63992	0.456737	2.78202	0.574438	3.49176	0.78689	4.79103	0.967123	5.88018
0.449154	2.72208	0.316411	1.88703	0.449502	2.72174	0.591538	3.58894	0.707541	4.29162	0.924483	5.61367	0.458821	2.77895	0.576004	3.48157	0.787857	4.76986	0.968032	5.85255
0.451345	2.72	0.318443	1.88866	0.451695	2.71968	0.592994	3.57754	0.709015	4.27639	0.925418	5.58773	0.460906	2.77591	0.577576	3.47152	0.78883	4.74896	0.968946	5.82526
0.453546	2.718	0.320475	1.89027	0.453897	2.71769	0.594453	3.5663	0.710494	4.26136	0.926358	5.56212	0.462989	2.7729	0.579153	3.46161	0.789807	4.72832	0.969863	5.79829
0.455757	2.71609	0.322508	1.89186	0.456109	2.71579	0.595917	3.55521	0.711978	4.24653	0.927302	5.53681	0.465072	2.76992	0.580736	3.45185	0.790788	4.70794	0.970784	5.77165
0.457977	2.71424	0.32454	1.89343	0.45833	2.71396	0.597384	3.54426	0.713466	4.23189	0.928251	5.51181	0.467154	2.76697	0.582324	3.44222	0.791775	4.68781	0.971709	5.74533
0.460205	2.71247	0.326572	1.89498	0.46056	2.7122	0.598856	3.53347	0.714958	4.21743	0.929204	5.48712	0.469236	2.76404	0.583918	3.43274	0.792766	4.66793	0.972638	5.71932
0.462442	2.71077	0.328604	1.89652	0.462798	2.71051	0.600332	3.52281	0.716455	4.20316	0.930162	5.46272	0.471316	2.76114	0.585517	3.42339	0.793762	4.64829	0.973572	5.69361
0.464687	2.70913	0.330636	1.89804	0.465044	2.70888	0.601812	3.51229	0.717956	4.18907	0.931124	5.43861	0.473396	2.75827	0.587122	3.41417	0.794762	4.62889	0.974509	5.66821
0.466939	2.70756	0.332667	1.89954	0.467298	2.70731	0.603297	3.50191	0.719462	4.17516	0.93209	5.41478	0.475475	2.75543	0.588732	3.40509	0.795767	4.60973	0.97545	5.6431
0.469199	2.70604	0.334699	1.90103	0.469558	2.7058	0.604785	3.49167	0.720972	4.16143	0.93306	5.39124	0.477554	2.75261	0.590347	3.39613	0.796777	4.59081	0.976395	5.61829
0.471465	2.70458	0.33673	1.9025	0.471826	2.70435	0.606277	3.48155	0.722487	4.14786	0.934036	5.36798	0.479631	2.74982	0.591968	3.3873	0.797791	4.57211	0.977344	5.59376
0.473738	2.70317	0.338761	1.90395	0.4741	2.70295	0.607773	3.47157	0.724006	4.13447	0.935015	5.34499	0.481708	2.74705	0.593594	3.37859	0.79881	4.55363	0.978298	5.56952
0.476017	2.70181	0.340792	1.90539	0.47638	2.7016	0.609273	3.46172	0.725529	4.12124	0.935999	5.32226	0.483784	2.74431	0.595225	3.37001	0.799834	4.53538	0.979255	5.54555
0.478303	2.7005	0.342823	1.90681	0.478667	2.7003	0.610777	3.45199	0.727056	4.10817	0.936987	5.29981	0.485859	2.74159	0.596862	3.36154	0.800862	4.51734	0.980216	5.52186
0.480594	2.69924	0.344853	1.90822	0.480959	2.69904	0.612285	3.44239	0.728587	4.09527	0.937979	5.27761	0.487933	2.73889	0.598504	3.35319	0.801895	4.49952	0.98118	5.49843
0.482891	2.69802	0.346884	1.90961	0.483256	2.69783	0.613797	3.4329	0.730123	4.08252	0.938976	5.25566	0.490006	2.73622	0.600151	3.34496	0.802932	4.48191	0.982149	5.47527
0.485192	2.69684	0.348914	1.91098	0.485559	2.69666	0.615313	3.42354	0.731663	4.06992	0.939977	5.23397	0.492079	2.73357	0.601803	3.33684	0.803974	4.46451	0.983122	5.45238
0.487499	2.69571	0.350944	1.91234	0.487866	2.69553	0.616832	3.4143	0.733207	4.05748	0.940982	5.21253	0.49415	2.73095	0.603461	3.32884	0.805021	4.44731	0.984098	5.42974
0.489811	2.69461	0.352974	1.91369	0.490179	2.69443	0.618356	3.40517	0.734755	4.04519	0.941992	5.19133	0.496221	2.72834	0.605124	3.32094	0.806072	4.43031	0.985078	5.40735
0.492127	2.69354	0.355004	1.91502	0.492496	2.69338	0.619883	3.39615	0.736307	4.03305	0.943006	5.17037	0.49829	2.72576	0.606792	3.31315	0.807127	4.41352	0.986062	5.38521
0.494447	2.69251	0.357034	1.91634	0.494817	2.69235	0.621414	3.38725	0.737863	4.02105	0.944024	5.14964	0.500359	2.72319	0.608464	3.30547	0.808187	4.39691	0.98705	5.36331
0.496772	2.69151	0.359063	1.91764	0.497142	2.69136	0.622948	3.37846	0.739423	4.0092	0.945047	5.12915	0.502427	2.72065	0.610142	3.29789	0.809252	4.3805	0.988042	5.34166
0.4991	2.69055	0.361092	1.91893	0.499471	2.6904	0.624486	3.36977	0.740986	3.99748	0.946073	5.10889	0.504493	2.71813	0.611825	3.29042	0.810321	4.36428	0.989038	5.32024
0.501433	2.68961	0.363121	1.92021	0.501804	2.68947	0.626028	3.36119	0.742554	3.98591	0.947104	5.08886	0.506559	2.71563	0.613513	3.28305	0.811395	4.34824	0.990037	5.29906
0.503769	2.68871	0.36515	1.92147	0.50414	2.68856	0.627574	3.35272	0.744126	3.97447	0.948139	5.06904	0.508624	2.71315	0.615206	3.27578	0.812473	4.33238	0.99104	5.27811
0.506108	2.68783	0.367179	1.92272	0.50648	2.68769	0.629123	3.34435	0.745701	3.96316	0.949179	5.04945	0.510688	2.71068	0.616904	3.2686	0.813555	4.31671	0.992047	5.25738
0.508451	2.68697	0.369207	1.92395	0.508823	2.68684	0.630675	3.33608	0.747281	3.95198	0.950222	5.03007	0.512751	2.70824	0.618607	3.26152	0.814642	4.30122	0.993057	5.23688
0.510796	2.68614	0.371235	1.92517	0.51117	2.68601	0.632232	3.32791	0.748864	3.94094	0.95127	5.0109	0.514812	2.70581	0.620315	3.25454	0.815734	4.2859	0.994072	5.2166
0.513145	2.68534	0.373263	1.92638	0.513519	2.68521	0.633792	3.31984	0.750451	3.93002	0.952322	4.99194	0.516873	2.70341	0.622028	3.24765	0.816829	4.27075	0.99509	5.19654
0.515497	2.68455	0.375291	1.92758	0.515871	2.68443	0.635355	3.31187	0.752041	3.91923	0.953378	4.97319	0.518933	2.70102	0.623745	3.24085	0.81793	4.25577	0.996112	5.17668
0.517851	2.68379	0.377319	1.92876	0.518226	2.68367	0.636922	3.30399	0.753635	3.90856	0.954438	4.95464	0.520992	2.69865	0.625468	3.23415	0.819034	4.24096	0.997137	5.15704
0.520208	2.68305	0.379346	1.92993	0.520583	2.68294	0.638492	3.2962	0.755233	3.89801	0.955503	4.93629	0.523049	2.69629	0.627195	3.22753	0.820144	4.22631	0.998166	5.13761
0.522568	2.68233	0.381373	1.93109	0.522943	2.68222	0.640066	3.28851	0.756835	3.88758	0.956571	4.91814	0.525106	2.69395	0.628927	3.221	0.821257	4.21183	0.999199	5.11838
0.524929	2.68163	0.3834	1.93224	0.525305	2.68152	0.641643	3.28091	0.75844	3.87727	0.957644	4.90018	0.527161	2.69163	0.630663	3.21455	0.822375	4.1975	1.00024	5.09935
0.527294	2.68095	0.385427	1.93338	0.52767	2.68084	0.643224	3.27339	0.760048	3.86707	0.95872	4.88241	0.529216	2.68933	0.632405	3.20819	0.823497	4.18334		
0.52966	2.68028	0.387453	1.9345	0.530036	2.68018	0.644808	3.26597	0.761661	3.85699	0.959801	4.86483	0.531269	2.68704	0.634151	3.20192	0.824624	4.16933		
0.532028	2.67964	0.38948	1.93561	0.532405	2.67953	0.646395	3.25863	0.763276	3.84702	0.960886	4.84744	0.533321	2.68477	0.635901	3.19572	0.825755	4.15547		
0.534399	2.679	0.391506	1.93672	0.534776	2.6789	0.647986	3.25138	0.764895	3.83716	0.961975	4.83023	0.535373	2.68251	0.637657	3.18961	0.82689	4.14177		
0.536771	2.67839	0.393531	1.93781	0.537148	2.67829	0.64958	3.24421	0.766518	3.82741	0.963068	4.8132	0.537423	2.68027	0.639417	3.18358	0.82803	4.12821		
0.539145	2.67778	0.395557	1.93888	0.539523	2.67769	0.651177	3.23713	0.768144	3.81777	0.964166	4.79635	0.539472	2.67805	0.641181	3.17762	0.829174	4.1148		
0.541521	2.67719	0.397582	1.93995	0.541899	2.6771	0.652778	3.23012	0.769773	3.80824	0.965267	4.77968	0.541519	2.67584	0.642951	3.17175	0.830322	4.10153		
0.543898	2.67662	0.399607	1.94101	0.544277	2.67653	0.654382	3.2232	0.771406	3.7988	0.966372	4.76318	0.543566	2.67364	0.644724	3.16595	0.831475	4.08841		
0.546278	2.67606	0.401632	1.94206	0.546656	2.67597	0.655989	3.21636	0.773042	3.78947	0.967481	4.74685	0.545612	2.67146	0.646503	3.16022	0.832631	4.07543		
0.548658	2.67551	0.403657	1.94309	0.549037	2.67542	0.657599	3.20959	0.774681	3.78025	0.968595	4.73068	0.547656	2.6693	0.648285	3.15457	0.833793	4.06259		
0.55104	2.67497	0.405681	1.94412	0.551419	2.67489	0.659213	3.2029	0.776324	3.77112	0.969712	4.71469	0.549699	2.66714	0.650072	3.14899	0.834958	4.04988		
0.553424	2.67444	0.407705	1.94513	0.553803	2.67436	0.66083	3.19629	0.77797	3.76208	0.970833	4.69885	0.551742	2.665	0.651864	3.14348	0.836128	4.03731		
0.555808	2.67393	0.409729	1.94614	0.556188	2.67385	0.66245	3.18975	0.779619	3.75315	0.971958	4.68318	0.553783	2.66288	0.65366	3.13804	0.837302	4.02487		
0.558194	2.67342	0.411753	1.94713	0.558574	2.67335	0.664073	3.18328	0.781271	3.74431	0.973088	4.66767	0.555822	2.66077	0.65546	3.13267	0.83848	4.01256		
0.560581	2.67293	0.413776	1.94812	0.560961	2.67285	0.665699	3.17689	0.782927	3.73556	0.974221	4.65231	0.557861	2.65867	0.657265	3.12737	0.839662	4.00038		
0.56297	2.67245	0.415799	1.94909	0.56335	2.67237	0.667329	3.17057	0.784585	3.72691	0.975358	4.63711	0.559899	2.65658	0.659074	3.12213	0.840849	3.98833		
0.565359	2.67197	0.417822	1.95006	0.565739	2.6719	0.668961	3.16432	0.786247	3.71835	0.976499	4.62206	0.561935	2.65451	0.660887	3.11697	0.842039	3.97641		
0.567749	2.6715	0.419845	1.95101	0.56813	2.67143	0.670597	3.15814	0.787912	3.70987	0.977644	4.60716	0.56397	2.65245	0.662704	3.11187	0.843234	3.96461		
0.570141	2.67105	0.421867	1.95196	0.570521	2.67097	0.672236	3.15203	0.78958	3.70149	0.978793	4.59242	0.566005	2.6504	0.664526	3.10683	0.844433	3.95293		
0.572533	2.6706	0.423889	1.9529	0.572913	2.67053	0.673877	3.14598	0.791251	3.69319	0.979946	4.57781	0.568037	2.64837	0.666352	3.10185	0.845637	3.94137		
0.574926	2.67016	0.425911	1.95383	0.575307	2.67009	0.675522	3.14	0.792924	3.68498	0.981103	4.56336	0.570069	2.64635	0.668182	3.09694	0.846844	3.92993		
0.57732	2.66972	0.427932	1.95475	0.577701	2.66965	0.67717	3.13409	0.794601	3.67685	0.982264	4.54904	0.5721	2.64434	0.670016	3.09209	0.848056	3.91861		
0.579715	2.6693	0.429954	1.95566	0.580096	2.66923	0.678821	3.12824	0.796281	3.66881	0.983428	4.53487	0.574129	2.64234	0.671855	3.0873	0.849272	3.90741		
0.58211	2.66888	0.431975	1.95656	0.582491	2.66881	0.680475	3.12246	0.797964	3.66084	0.984597	4.52083	0.576158	2.64035	0.673697	3.08257	0.850491	3.89632		
0.584506	2.66846	0.433996	1.95745	0.584887	2.6684	0.682132	3.11673	0.799649	3.65296	0.985769	4.50693	0.578185	2.63838	0.675544	3.07789	0.851715	3.88534		
0.586903	2.66806	0.436016	1.95833	0.587284	2.66799	0.683792	3.11107	0.801338	3.64516	0.986945	4.49317	0.580211	2.63641	0.677394	3.07328	0.852943	3.87448		
0.589301	2.66766	0.438036	1.95921	0.589682	2.66759	0.685455	3.10548	0.803029	3.63744	0.988125	4.47954	0.582235	2.63446	0.679249	3.06872	0.854176	3.86372		
0.591699	2.66726	0.440056	1.96008	0.59208	2.6672	0.68712	3.09994	0.804723	3.6298	0.989309	4.46605	0.584259	2.63252	0.681107	3.06422	0.855412	3.85308		
0.594097	2.66687	0.442076	1.96093	0.594479	2.66681	0.688789	3.09446	0.80642	3.62223	0.990497	4.45268	0.586281	2.63059	0.682969	3.05977	0.856652	3.84254		
0.596496	2.66649	0.444096	1.96178	0.596878	2.66643	0.690461	3.08904	0.80812	3.61474	0.991688	4.43944	0.588303	2.62867	0.684836	3.05538	0.857897	3.83211		
0.598896	2.66611	0.446115	1.96263	0.599277	2.66605	0.692135	3.08368	0.809823	3.60732	0.992883	4.42633	0.590323	2.62676	0.686706	3.05104	0.859145	3.82178		
0.601296	2.66574	0.448134	1.96346	0.601677	2.66568	0.693813	3.07837	0.811528	3.59997	0.994083	4.41335	0.592342	2.62486	0.68858	3.04676	0.860398	3.81155		
0.603696	2.66537	0.450152	1.96429	0.604078	2.66531	0.695493	3.07312	0.813236	3.5927	0.995285	4.40049	0.59436	2.62297	0.690458	3.04252	0.861654	3.80143		
0.606097	2.66501	0.452171	1.9651	0.606479	2.66495	0.697176	3.06793	0.814946	3.5855	0.996492	4.38775	0.596376	2.6211	0.69234	3.03834	0.862915	3.79141		
0.608498	2.66465	0.454189	1.96591	0.60888	2.66459	0.698863	3.06279	0.81666	3.57837	0.997702	4.37513	0.598392	2.61923	0.694225	3.03421	0.86418	3.78148		
0.610899	2.6643	0.456207	1.96672	0.611281	2.66424	0.700552	3.05771	0.818375	3.57131	0.998917	4.36263	0.600406	2.61737	0.696114	3.03013	0.865448	3.77166		
0.613301	2.66395	0.458224	1.96751	0.613683	2.66389	0.702243	3.05268	0.820094	3.56431	1.00013	4.35024	0.60242	2.61552	0.698007	3.02609	0.866721	3.76193		
0.615703	2.6636	0.460241	1.9683	0.616085	2.66354	0.703938	3.04771	0.821815	3.55739			0.604432	2.61369	0.699904	3.02211	0.867998	3.7523		
0.618105	2.66326	0.462258	1.96908	0.618487	2.6632	0.705636	3.04278	0.823539	3.55053			0.606443	2.61186	0.701804	3.01817	0.869278	3.74276		
0.620507	2.66292	0.464275	1.96985	0.620889	2.66286	0.707336	3.03791	0.825265	3.54374			0.608452	2.61004	0.703708	3.01428	0.870563	3.73331		
0.622909	2.66258	0.466292	1.97062	0.623291	2.66253	0.709039	3.03309	0.826994	3.53701			0.610461	2.60824	0.705615	3.01044	0.871852	3.72396		
0.625312	2.66225	0.468308	1.97138	0.625694	2.66219	0.710745	3.02831	0.828725	3.53035			0.612469	2.60644	0.707526	3.00664	0.873144	3.7147		
0.627714	2.66192	0.470324	1.97213	0.628096	2.66186	0.712454	3.02359	0.830458	3.52375			0.614475	2.60465	0.70944	3.00289	0.874441	3.70553		
0.630117	2.66159	0.472339	1.97287	0.630499	2.66154	0.714166	3.01892	0.832194	3.51721			0.616481	2.60287	0.711358	2.99918	0.875741	3.69644		
0.632519	2.66126	0.474354	1.97361	0.632901	2.66121	0.71588	3.01429	0.833933	3.51073			0.618485	2.6011	0.71328	2.99551	0.877045	3.68745		
0.634922	2.66094	0.476369	1.97434	0.635304	2.66089	0.717597	3.00972	0.835674	3.50432			0.620488	2.59934	0.715204	2.99189	0.878353	3.67854		
0.637325	2.66062	0.478384	1.97506	0.637707	2.66057	0.719317	3.00519	0.837417	3.49796			0.62249	2.59759	0.717133	2.98831	0.879666	3.66971		
0.639727	2.66031	0.480399	1.97578	0.640109	2.66026	0.72104	3.00071	0.839163	3.49166			0.624491	2.59585	0.719064	2.98477	0.880982	3.66097		
0.64213	2.65999	0.482413	1.97649	0.642512	2.65994	0.722765	2.99627	0.840911	3.48542			0.626491	2.59411	0.720999	2.98127	0.882302	3.65232		
0.644532	2.65968	0.484427	1.97719	0.644914	2.65963	0.724494	2.99188	0.842661	3.47924			0.62849	2.59239	0.722937	2.97781	0.883625	3.64374		
0.646934	2.65937	0.48644	1.97789	0.647316	2.65932	0.726225	2.98753	0.844414	3.47312			0.630488	2.59067	0.724879	2.97439	0.884953	3.63525		
0.649336	2.65906	0.488454	1.97858	0.649718	2.65901	0.727959	2.98323	0.846169	3.46705			0.632484	2.58897	0.726824	2.97101	0.886285	3.62684		
0.651738	2.65875	0.490467	1.97927	0.65212	2.6587	0.729695	2.97897	0.847926	3.46104			0.63448	2.58727	0.728771	2.96767	0.88762	3.61851		
0.65414	2.65844	0.49248	1.97995	0.654522	2.65839	0.731435	2.97476	0.849685	3.45508			0.636475	2.58558	0.730722	2.96437	0.888959	3.61026		
0.656541	2.65814	0.494492	1.98062	0.656923	2.65809	0.733177	2.97059	0.851447	3.44918			0.638468	2.5839	0.732677	2.96111	0.890302	3.60208		
0.658943	2.65783	0.496504	1.98128	0.659324	2.65778	0.734921	2.96646	0.853211	3.44332			0.640461	2.58223	0.734634	2.95788	0.891649	3.59398		
0.661343	2.65753	0.498516	1.98194	0.661725	2.65748	0.736669	2.96237	0.854976	3.43753			0.642452	2.58056	0.736594	2.95469	0.893	3.58596		
0.663744	2.65723	0.500528	1.9826	0.664126	2.65718	0.738419	2.95833	0.856745	3.43178			0.644443	2.57891	0.738558	2.95154	0.894354	3.57801		
0.666144	2.65692	0.502539	1.98324	0.666526	2.65688	0.740173	2.95432	0.858515	3.42608			0.646433	2.57726	0.740524	2.94842	0.895713	3.57014		
0.668544	2.65662	0.50455	1.98389	0.668926	2.65658	0.741928	2.95036	0.860287	3.42044			0.648421	2.57562	0.742494	2.94533	0.897075	3.56234		
0.670943	2.65632	0.506561	1.98452	0.671325	2.65628	0.743687	2.94644	0.862061	3.41484			0.650409	2.57399	0.744466	2.94228	0.898441	3.55461		
0.673342	2.65603	0.508571	1.98515	0.673724	2.65598	0.745448	2.94255	0.863838	3.4093			0.652395	2.57237	0.746441	2.93927	0.89981	3.54696		
0.675741	2.65573	0.510582	1.98578	0.676122	2.65568	0.747213	2.93871	0.865616	3.4038			0.654381	2.57075	0.74842	2.93628	0.901184	3.53937		
0.678139	2.65543	0.512592	1.9864	0.67852	2.65538	0.748979	2.9349	0.867397	3.39835			0.656366	2.56914	0.750401	2.93333	0.902561	3.53186		
0.680536	2.65513	0.514601	1.98701	0.680918	2.65508	0.750749	2.93114	0.86918	3.39295			0.658349	2.56755	0.752384	2.93041	0.903942	3.52441		
0.682933	2.65483	0.516611	1.98762	0.683314	2.65478	0.752522	2.92741	0.870964	3.3876			0.660332	2.56595	0.754371	2.92753	0.905327	3.51704		
0.68533	2.65453	0.51862	1.98822	0.685711	2.65448	0.754297	2.92372	0.872751	3.38229			0.662314	2.56437	0.75636	2.92467	0.906715	3.50973		
0.687726	2.65423	0.520628	1.98882	0.688106	2.65419	0.756075	2.92006	0.874539	3.37703			0.664295	2.5628	0.758353	2.92185	0.908107	3.50248		
0.690121	2.65393	0.522637	1.98941	0.690501	2.65389	0.757856	2.91645	0.87633	3.37181			0.666275	2.56123	0.760347	2.91906	0.909503	3.49531		
0.692515	2.65363	0.524645	1.99	0.692896	2.65359	0.759639	2.91287	0.878122	3.36664			0.668254	2.55967	0.762345	2.9163	0.910903	3.4882		
0.694909	2.65333	0.526653	1.99058	0.695289	2.65329	0.761426	2.90932	0.879916	3.36151			0.670233	2.55812	0.764345	2.91356	0.912306	3.48115		
0.697302	2.65303	0.52866	1.99115	0.697682	2.65298	0.763215	2.90582	0.881712	3.35642			0.67221	2.55657	0.766348	2.91086	0.913713	3.47417		
0.699694	2.65273	0.530668	1.99173	0.700075	2.65268	0.765007	2.90234	0.88351	3.35138			0.674187	2.55504	0.768353	2.90818	0.915123	3.46725		
0.702086	2.65243	0.532675	1.99229	0.702466	2.65238	0.766802	2.89891	0.88531	3.34638			0.676162	2.55351	0.770361	2.90554	0.916538	3.46039		
0.704476	2.65213	0.534681	1.99285	0.704857	2.65208	0.7686	2.89551	0.887112	3.34143			0.678137	2.55199	0.772371	2.90292	0.917956	3.4536		
0.706866	2.65182	0.536688	1.99341	0.707246	2.65177	0.770401	2.89214	0.888915	3.33651			0.680111	2.55047	0.774384	2.90033	0.919377	3.44686		
0.709255	2.65152	0.538694	1.99396	0.709635	2.65147	0.772204	2.8888	0.89072	3.33163			0.682084	2.54897	0.776399	2.89776	0.920803	3.44019		
0.711643	2.65121	0.5407	1.99451	0.712023	2.65116	0.774011	2.88551	0.892527	3.3268			0.684057	2.54747	0.778416	2.89522	0.922232	3.43358		
0.71403	2.6509	0.542705	1.99505	0.71441	2.65085	0.77582	2.88224	0.894336	3.322			0.686028	2.54598	0.780436	2.89271	0.923664	3.42702		
0.716416	2.65059	0.544711	1.99558	0.716796	2.65054	0.777632	2.87901	0.896147	3.31725			0.687999	2.54449	0.782459	2.89023	0.925101	3.42053		
0.718801	2.65028	0.546716	1.99612	0.719181	2.65023	0.779448	2.87581	0.897959	3.31253			0.689969	2.54302	0.784483	2.88777	0.92654	3.41409		
0.721185	2.64997	0.54872	1.99664	0.721564	2.64992	0.781266	2.87264	0.899773	3.30786			0.691938	2.54155	0.78651	2.88533	0.927984	3.40771		
0.723568	2.64965	0.550725	1.99717	0.723947	2.6496	0.783087	2.86951	0.901588	3.30322			0.693907	2.54009	0.788539	2.88292	0.929431	3.40139		
0.72595	2.64933	0.552729	1.99768	0.726329	2.64928	0.784911	2.86641	0.903406	3.29861			0.695875	2.53863	0.79057	2.88054	0.930882	3.39512		
0.728331	2.64901	0.554733	1.9982	0.728709	2.64896	0.786739	2.86334	0.905225	3.29405			0.697842	2.53718	0.792604	2.87818	0.932336	3.38891		
0.73071	2.64869	0.556736	1.99871	0.731088	2.64864	0.788569	2.8603	0.907045	3.28952			0.699808	2.53574	0.794639	2.87584	0.933794	3.38275		
0.733088	2.64837	0.558739	1.99921	0.733466	2.64832	0.790402	2.85729	0.908867	3.28503			0.701774	2.53431	0.796677	2.87352	0.935256	3.37665		
0.735465	2.64804	0.560742	1.99971	0.735843	2.64799	0.792239	2.85432	0.910691	3.28057			0.703739	2.53288	0.798717	2.87123	0.936721	3.3706		
0.73784	2.64771	0.562745	2.00021	0.738218	2.64766	0.794078	2.85137	0.912516	3.27615			0.705703	2.53146	0.800759	2.86896	0.938189	3.36461		
0.740214	2.64738	0.564747	2.0007	0.740592	2.64733	0.795921	2.84846	0.914343	3.27177			0.707666	2.53005	0.802803	2.86672	0.939662	3.35866		
0.742587	2.64705	0.566749	2.00119	0.742964	2.64699	0.797767	2.84558	0.916172	3.26742			0.709629	2.52865	0.804848	2.86449	0.941137	3.35277		
0.744958	2.64671	0.568751	2.00167	0.745335	2.64665	0.799616	2.84273	0.918002	3.2631			0.711591	2.52725	0.806896	2.86229	0.942617	3.34693		
0.747328	2.64637	0.570753	2.00215	0.747704	2.64631	0.801468	2.83991	0.919833	3.25882			0.713553	2.52586	0.808946	2.86011	0.9441	3.34115		
0.749696	2.64602	0.572754	2.00262	0.750072	2.64597	0.803323	2.83711	0.921666	3.25457			0.715514	2.52447	0.810997	2.85795	0.945586	3.33541		
0.752062	2.64568	0.574755	2.00309	0.752438	2.64562	0.805182	2.83435	0.923501	3.25036			0.717474	2.52309	0.813051	2.85581	0.947076	3.32972		
0.754427	2.64532	0.576755	2.00356	0.754803	2.64527	0.807044	2.83162	0.925337	3.24617			0.719434	2.52172	0.815106	2.85369	0.948569	3.32408		
0.75679	2.64497	0.578756	2.00402	0.757166	2.64491	0.80891	2.82892	0.927174	3.24202			0.721393	2.52036	0.817163	2.85159	0.950067	3.3185		
0.759151	2.64461	0.580756	2.00448	0.759527	2.64455	0.810779	2.82625	0.929013	3.2379			0.723352	2.519	0.819222	2.84951	0.951567	3.31296		
0.761511	2.64425	0.582756	2.00494	0.761886	2.64419	0.812651	2.8236	0.930853	3.23382			0.72531	2.51765	0.821283	2.84745	0.953071	3.30746		
0.763869	2.64388	0.584755	2.00539	0.764243	2.64382	0.814527	2.82099	0.932695	3.22976			0.727267	2.51631	0.823345	2.8454	0.954579	3.30202		
0.766224	2.64351	0.586754	2.00584	0.766599	2.64345	0.816406	2.8184	0.934538	3.22574			0.729224	2.51497	0.825409	2.84338	0.95609	3.29662		
0.768578	2.64313	0.588753	2.00628	0.768952	2.64307	0.818289	2.81584	0.936382	3.22174			0.73118	2.51364	0.827474	2.84138	0.957604	3.29127		
0.77093	2.64275	0.590752	2.00672	0.771303	2.64269	0.820175	2.81332	0.938228	3.21778			0.733136	2.51232	0.829542	2.83939	0.959123	3.28597		
0.773279	2.64237	0.59275	2.00715	0.773653	2.64231	0.822065	2.81082	0.940075	3.21384			0.735091	2.511	0.83161	2.83743	0.960644	3.28071		
0.775627	2.64198	0.594748	2.00759	0.776	2.64192	0.823959	2.80834	0.941924	3.20994			0.737046	2.50969	0.833681	2.83548	0.962169	3.27549		
0.777972	2.64158	0.596746	2.00801	0.778345	2.64152	0.825856	2.8059	0.943774	3.20606			0.739	2.50839	0.835753	2.83354	0.963698	3.27032		
0.780315	2.64118	0.598743	2.00844	0.780687	2.64112	0.827757	2.80349	0.945625	3.20222			0.740954	2.50709	0.837826	2.83163	0.96523	3.2652		
0.782656	2.64078	0.60074	2.00886	0.783028	2.64071	0.829662	2.8011	0.947477	3.1984			0.742907	2.5058	0.839901	2.82973	0.966765	3.26012		
0.784994	2.64037	0.602737	2.00928	0.785365	2.6403	0.831571	2.79874	0.949331	3.19461			0.74486	2.50452	0.841977	2.82785	0.968304	3.25508		
0.78733	2.63995	0.604734	2.00969	0.787701	2.63988	0.833484	2.79641	0.951186	3.19085			0.746812	2.50324	0.844054	2.82598	0.969847	3.25009		
0.789663	2.63953	0.60673	2.0101	0.790034	2.63946	0.835401	2.7941	0.953042	3.18711			0.748764	2.50197	0.846133	2.82413	0.971392	3.24513		
0.791994	2.6391	0.608726	2.01051	0.792364	2.63903	0.837321	2.79183	0.954899	3.1834			0.750716	2.5007	0.848214	2.8223	0.972942	3.24022		
0.794322	2.63867	0.610722	2.01091	0.794692	2.6386	0.839246	2.78958	0.956758	3.17972			0.752667	2.49945	0.850295	2.82048	0.974495	3.23536		
0.796647	2.63823	0.612717	2.01131	0.797016	2.63815	0.841175	2.78736	0.958618	3.17607			0.754617	2.49819	0.852378	2.81868	0.976051	3.23053		
0.79897	2.63778	0.614713	2.01171	0.799339	2.63771	0.843108	2.78517	0.960479	3.17244			0.756567	2.49695	0.854462	2.81689	0.97761	3.22575		
0.801289	2.63732	0.616707	2.0121	0.801658	2.63725	0.845045	2.783	0.962341	3.16884			0.758517	2.49571	0.856548	2.81512	0.979173	3.221		
0.803606	2.63686	0.618702	2.01249	0.803974	2.63679	0.846987	2.78086	0.964205	3.16527			0.760467	2.49448	0.858634	2.81337	0.98074	3.2163		
0.80592	2.6364	0.620696	2.01288	0.806287	2.63632	0.848933	2.77875	0.966069	3.16172			0.762416	2.49325	0.860722	2.81162	0.98231	3.21163		
0.808231	2.63592	0.62269	2.01326	0.808598	2.63584	0.850883	2.77667	0.967935	3.1582			0.764364	2.49203	0.862811	2.80989	0.983883	3.20701		
0.810538	2.63544	0.624684	2.01364	0.810905	2.63536	0.852837	2.77461	0.969802	3.1547			0.766313	2.49082	0.864901	2.80818	0.98546	3.20242		
0.812842	2.63495	0.626678	2.01402	0.813209	2.63487	0.854797	2.77258	0.97167	3.15122			0.768261	2.48961	0.866992	2.80648	0.98704	3.19787		
0.815144	2.63445	0.628671	2.01439	0.815509	2.63437	0.85676	2.77058	0.973539	3.14777			0.770208	2.48841	0.869084	2.80479	0.988624	3.19337		
0.817441	2.63395	0.630664	2.01477	0.817806	2.63387	0.858729	2.7686	0.975409	3.14435			0.772156	2.48721	0.871177	2.80312	0.990211	3.18889		
0.819736	2.63343	0.632656	2.01513	0.8201	2.63335	0.860702	2.76665	0.97728	3.14095			0.774103	2.48602	0.873271	2.80146	0.991801	3.18446		
0.822027	2.63291	0.634649	2.0155	0.82239	2.63283	0.86268	2.76473	0.979153	3.13757			0.776049	2.48484	0.875366	2.79981	0.993395	3.18007		
0.824314	2.63238	0.636641	2.01586	0.824677	2.6323	0.864663	2.76283	0.981026	3.13421			0.777996	2.48366	0.877462	2.79818	0.994992	3.17571		
0.826597	2.63185	0.638632	2.01622	0.82696	2.63176	0.86665	2.76096	0.9829	3.13088			0.779942	2.48249	0.879559	2.79655	0.996593	3.17139		
0.828877	2.6313	0.640624	2.01657	0.82924	2.63121	0.868643	2.75912	0.984776	3.12757			0.781888	2.48133	0.881657	2.79495	0.998197	3.1671		
0.831154	2.63074	0.642615	2.01693	0.831515	2.63065	0.87064	2.75731	0.986652	3.12429			0.783833	2.48017	0.883756	2.79335	0.999804	3.16285		
0.833426	2.63018	0.644606	2.01728	0.833787	2.63009	0.872642	2.75552	0.988529	3.12103			0.785778	2.47901	0.885855	2.79176	1.00141	3.15864		
0.835694	2.62961	0.646597	2.01762	0.836055	2.62952	0.87465	2.75376	0.990408	3.11778			0.787724	2.47787	0.887955	2.79019				
0.837959	2.62902	0.648587	2.01797	0.838319	2.62893	0.876663	2.75202	0.992287	3.11457			0.789668	2.47673	0.890056	2.78863				
0.840219	2.62843	0.650577	2.01831	0.840578	2.62834	0.878681	2.75031	0.994167	3.11137			0.791613	2.47559	0.892158	2.78708				
0.842476	2.62783	0.652567	2.01865	0.842834	2.62774	0.880704	2.74863	0.996049	3.10819			0.793557	2.47446	0.89426	2.78554				
0.844728	2.62722	0.654557	2.01898	0.845086	2.62713	0.882732	2.74697	0.997931	3.10504			0.795501	2.47334	0.896364	2.78401				
0.846976	2.6266	0.656546	2.01931	0.847333	2.6265	0.884766	2.74534	0.999814	3.10191			0.797445	2.47222	0.898467	2.78249				
0.84922	2.62597	0.658535	2.01964	0.849576	2.62587	0.886805	2.74374	1.0017	3.09879			0.799389	2.47111	0.900572	2.78098				
0.851459	2.62534	0.660523	2.01997	0.851815	2.62523	0.88885	2.74216					0.801332	2.47	0.902677	2.77949				
0.853694	2.62469	0.662512	2.0203	0.854049	2.62458	0.8909	2.7406					0.803276	2.4689	0.904782	2.778				
0.855924	2.62403	0.6645	2.02062	0.856279	2.62392	0.892956	2.73908					0.805219	2.46781	0.906889	2.77652				
0.858151	2.62336	0.666488	2.02094	0.858504	2.62325	0.895017	2.73758					0.807162	2.46672	0.908995	2.77506				
0.860372	2.62268	0.668475	2.02125	0.860725	2.62257	0.897084	2.7361					0.809104	2.46564	0.911102	2.7736				
0.862589	2.62199	0.670463	2.02157	0.862941	2.62188	0.899157	2.73465					0.811047	2.46456	0.91321	2.77216				
0.864802	2.62129	0.67245	2.02188	0.865153	2.62118	0.901235	2.73323					0.812989	2.46349	0.915318	2.77072				
0.867009	2.62058	0.674437	2.02219	0.86736	2.62047	0.903318	2.73183					0.814932	2.46242	0.917427	2.76929				
0.869212	2.61987	0.676423	2.02249	0.869562	2.61975	0.905408	2.73045					0.816874	2.46136	0.919535	2.76787				
0.871411	2.61914	0.678409	2.0228	0.87176	2.61902	0.907503	2.7291					0.818816	2.4603	0.921645	2.76646				
0.873605	2.6184	0.680395	2.0231	0.873953	2.61828	0.909604	2.72778					0.820758	2.45925	0.923754	2.76506				
0.875794	2.61765	0.682381	2.0234	0.876141	2.61753	0.911711	2.72648					0.8227	2.45821	0.925864	2.76367				
0.877978	2.61689	0.684366	2.02369	0.878325	2.61677	0.913823	2.7252					0.824642	2.45717	0.927975	2.76229				
0.880158	2.61612	0.686351	2.02399	0.880504	2.616	0.915941	2.72395					0.826583	2.45614	0.930085	2.76091				
0.882332	2.61534	0.688336	2.02428	0.882678	2.61522	0.918065	2.72272					0.828525	2.45511	0.932196	2.75955				
0.884502	2.61456	0.690321	2.02457	0.884847	2.61443	0.920195	2.72152					0.830466	2.45409	0.934307	2.75819				
0.886668	2.61376	0.692305	2.02486	0.887012	2.61363	0.92233	2.72034					0.832408	2.45307	0.936418	2.75684				
0.888828	2.61295	0.694289	2.02514	0.889171	2.61282	0.924471	2.71918					0.834349	2.45206	0.938529	2.7555				
0.890984	2.61213	0.696273	2.02542	0.891327	2.612	0.926618	2.71805					0.83629	2.45105	0.940641	2.75416				
0.893135	2.61131	0.698257	2.0257	0.893477	2.61118	0.92877	2.71693					0.838231	2.45005	0.942752	2.75283				
0.895282	2.61047	0.70024	2.02598	0.895623	2.61034	0.930928	2.71584					0.840173	2.44906	0.944864	2.75151				
0.897424	2.60963	0.702223	2.02625	0.897764	2.60949	0.933091	2.71478					0.842114	2.44807	0.946976	2.7502				
0.899561	2.60878	0.704206	2.02653	0.8999	2.60864	0.935261	2.71373					0.844055	2.44708	0.949088	2.7489				
0.901694	2.60791	0.706188	2.0268	0.902032	2.60778	0.937435	2.71271					0.845996	2.4461	0.951199	2.7476				
0.903822	2.60704	0.70817	2.02707	0.90416	2.6069	0.939615	2.71171					0.847937	2.44513	0.953311	2.74631				
0.905945	2.60616	0.710152	2.02733	0.906283	2.60602	0.9418	2.71072					0.849878	2.44416	0.955423	2.74502				
0.908064	2.60528	0.712134	2.0276	0.908401	2.60514	0.943991	2.70976					0.851819	2.44319	0.957535	2.74375				
0.910179	2.60438	0.714115	2.02786	0.910515	2.60424	0.946187	2.70882					0.85376	2.44223	0.959647	2.74248				
0.91229	2.60348	0.716096	2.02812	0.912625	2.60334	0.948388	2.7079					0.855701	2.44128	0.961758	2.74121				
0.914396	2.60257	0.718077	2.02838	0.91473	2.60243	0.950595	2.707					0.857642	2.44033	0.96387	2.73995				
0.916497	2.60166	0.720058	2.02863	0.916831	2.60151	0.952806	2.70612					0.859582	2.43939	0.965981	2.7387				
0.918595	2.60073	0.722038	2.02889	0.918928	2.60058	0.955022	2.70525					0.861523	2.43845	0.968092	2.73746				
0.920689	2.5998	0.724018	2.02914	0.921021	2.59965	0.957244	2.70441					0.863464	2.43751	0.970203	2.73622				
0.922778	2.59886	0.725998	2.02939	0.92311	2.59871	0.95947	2.70358					0.865405	2.43658	0.972314	2.73499				
0.924864	2.59792	0.727978	2.02964	0.925195	2.59777	0.961701	2.70277					0.867346	2.43566	0.974425	2.73376				
0.926945	2.59697	0.729957	2.02988	0.927276	2.59682	0.963937	2.70198					0.869288	2.43474	0.976535	2.73254				
0.929023	2.59602	0.731936	2.03013	0.929353	2.59586	0.966177	2.70121					0.871229	2.43383	0.978645	2.73132				
0.931097	2.59505	0.733915	2.03037	0.931426	2.5949	0.968422	2.70045					0.87317	2.43292	0.980755	2.73011				
0.933167	2.59409	0.735893	2.03061	0.933496	2.59393	0.970672	2.69971					0.875111	2.43201	0.982864	2.7289				
0.935234	2.59312	0.737872	2.03084	0.935562	2.59296	0.972926	2.69898					0.877052	2.43111	0.984974	2.7277				
0.937297	2.59214	0.73985	2.03108	0.937625	2.59199	0.975184	2.69827					0.878993	2.43022	0.987082	2.72651				
0.939356	2.59116	0.741827	2.03131	0.939684	2.591	0.977447	2.69758					0.880935	2.42933	0.989191	2.72532				
0.941413	2.59018	0.743805	2.03155	0.941739	2.59002	0.979713	2.6969					0.882876	2.42844	0.991299	2.72413				
0.943466	2.58919	0.745782	2.03178	0.943792	2.58903	0.981984	2.69624					0.884818	2.42756	0.993407	2.72295				
0.945515	2.58819	0.747759	2.032	0.945841	2.58804	0.984258	2.69558					0.886759	2.42668	0.995514	2.72178				
0.947562	2.5872	0.749736	2.03223	0.947887	2.58704	0.986537	2.69495					0.888701	2.42581	0.99762	2.72061				
0.949605	2.5862	0.751712	2.03246	0.94993	2.58604	0.988819	2.69433					0.890643	2.42495	0.999727	2.71944				
0.951646	2.5852	0.753688	2.03268	0.95197	2.58504	0.991105	2.69372					0.892585	2.42408	1.00183	2.71828				
0.953683	2.58419	0.755664	2.0329	0.954007	2.58403	0.993395	2.69312					0.894527	2.42323						
0.955718	2.58318	0.75764	2.03312	0.956041	2.58302	0.995688	2.69253					0.896469	2.42237						
0.95775	2.58217	0.759616	2.03334	0.958073	2.58201	0.997984	2.69196					0.898411	2.42152						
0.959779	2.58116	0.761591	2.03355	0.960101	2.581	1.00028	2.6914					0.900353	2.42068						
0.961805	2.58014	0.763566	2.03377	0.962127	2.57998							0.902295	2.41984						
0.963829	2.57913	0.765541	2.03398	0.964151	2.57897							0.904238	2.41901						
0.965851	2.57811	0.767515	2.03419	0.966172	2.57795							0.90618	2.41817						
0.96787	2.57709	0.769489	2.0344	0.968191	2.57693							0.908123	2.41735						
0.969887	2.57607	0.771463	2.0346	0.970207	2.57591							0.910066	2.41653						
0.971901	2.57505	0.773437	2.03481	0.972221	2.57488							0.912009	2.41571						
0.973914	2.57402	0.77541	2.03501	0.974233	2.57386							0.913952	2.4149						
0.975924	2.573	0.777384	2.03522	0.976243	2.57284							0.915895	2.41409						
0.977932	2.57198	0.779357	2.03542	0.978251	2.57182							0.917838	2.41328						
0.979938	2.57095	0.781329	2.03561	0.980257	2.57079							0.919782	2.41248						
0.981942	2.56993	0.783302	2.03581	0.982261	2.56977							0.921725	2.41169						
0.983944	2.56891	0.785274	2.03601	0.984263	2.56874							0.923669	2.4109						
0.985945	2.56788	0.787246	2.0362	0.986263	2.56772							0.925613	2.41011						
0.987944	2.56686	0.789218	2.03639	0.988261	2.5667							0.927557	2.40933						
0.989941	2.56584	0.79119	2.03659	0.990258	2.56568							0.929501	2.40855						
0.991936	2.56482	0.793161	2.03678	0.992253	2.56465							0.931446	2.40777						
0.99393	2.56379	0.795132	2.03696	0.994247	2.56363							0.93339	2.407						
0.995922	2.56277	0.797103	2.03715	0.996239	2.56261							0.935335	2.40624						
0.997913	2.56176	0.799073	2.03734	0.998229	2.56159							0.93728	2.40547						
0.999902	2.56074	0.801044	2.03752	1.00022	2.56058							0.939225	2.40472						
1.00189	2.55972	0.803014	2.0377									0.94117	2.40396						
		0.804984	2.03788									0.943115	2.40321						
		0.806953	2.03806									0.945061	2.40247						
		0.808923	2.03824									0.947007	2.40172						
		0.810892	2.03841									0.948953	2.40099						
		0.812861	2.03859									0.950899	2.40025						
		0.81483	2.03876									0.952845	2.39952						
		0.816798	2.03894									0.954792	2.3988						
		0.818766	2.03911									0.956738	2.39807						
		0.820734	2.03928									0.958685	2.39735						
		0.822702	2.03944									0.960632	2.39664						
		0.82467	2.03961									0.962579	2.39593						
		0.826637	2.03978									0.964527	2.39522						
		0.828604	2.03994									0.966475	2.39452						
		0.830571	2.0401									0.968422	2.39382						
		0.832538	2.04026									0.970371	2.39312						
		0.834504	2.04042									0.972319	2.39243						
		0.83647	2.04058									0.974267	2.39174						
		0.838436	2.04074									0.976216	2.39106						
		0.840402	2.0409									0.978165	2.39037						
		0.842367	2.04105									0.980114	2.3897						
		0.844333	2.04121									0.982064	2.38902						
		0.846298	2.04136									0.984013	2.38835						
		0.848262	2.04151									0.985963	2.38769						
		0.850227	2.04166									0.987913	2.38702						
		0.852191	2.04181									0.989863	2.38636						
		0.854156	2.04196									0.991814	2.38571						
		0.85612	2.0421									0.993765	2.38505						
		0.858083	2.04225									0.995715	2.3844						
		0.860047	2.04239									0.997667	2.38376						
		0.86201	2.04254									0.999618	2.38311						
		0.863973	2.04268									1.00157	2.38248						
		0.865936	2.04282																
		0.867899	2.04296																
		0.869861	2.0431																
		0.871823	2.04324																
		0.873785	2.04337																
		0.875747	2.04351																
		0.877709	2.04364																
		0.87967	2.04377																
		0.881631	2.04391																
		0.883592	2.04404																
		0.885553	2.04417																
		0.887514	2.0443																
		0.889474	2.04442																
		0.891434	2.04455																
		0.893394	2.04468																
		0.895354	2.0448																
		0.897313	2.04493																
		0.899273	2.04505																
		0.901232	2.04517																
		0.903191	2.04529																
		0.905149	2.04541																
		0.907108	2.04553																
		0.909066	2.04565																
		0.911024	2.04577																
		0.912982	2.04588																
		0.91494	2.046																
		0.916897	2.04611																
		0.918855	2.04623																
		0.920812	2.04634																
		0.922769	2.04645																
		0.924725	2.04656																
		0.926682	2.04667																
		0.928638	2.04678																
		0.930594	2.04689																
		0.93255	2.047																
		0.934506	2.0471																
		0.936462	2.04721																
		0.938417	2.04731																
		0.940372	2.04742																
		0.942327	2.04752																
		0.944282	2.04762																
		0.946237	2.04772																
		0.948191	2.04782																
		0.950145	2.04792																
		0.952099	2.04802																
		0.954053	2.04812																
		0.956007	2.04822																
		0.95796	2.04831																
		0.959914	2.04841																
		0.961867	2.04851																
		0.96382	2.0486																
		0.965773	2.04869																
		0.967725	2.04879																
		0.969678	2.04888																
		0.97163	2.04897																
		0.973582	2.04906																
		0.975534	2.04915																
		0.977486	2.04924																
		0.979437	2.04933																
		0.981389	2.04942																
		0.98334	2.0495																
		0.985291	2.04959																
		0.987242	2.04967																
		0.989192	2.04976																
		0.991143	2.04984																
		0.993093	2.04993																
		0.995043	2.05001																
		0.996993	2.05009																
		0.998943	2.05017																
		1.00089	2.05026																
