Sym0		Asym0		Sym1		Sym2		Sym3		Sym4		Asym1		Asym2		Asym3		Asym4	
454  Points		540  Points		454  Points		402  Points		366  Points		277  Points		479  Points		418  Points		367  Points		278  Points	
Freq (MHz)	Vph (m/ms)	Freq (MHz)	Vph (m/ms)	Freq (MHz)	Vph (m/ms)	Freq (MHz)	Vph (m/ms)	Freq (MHz)	Vph (m/ms)	Freq (MHz)	Vph (m/ms)	Freq (MHz)	Vph (m/ms)	Freq (MHz)	Vph (m/ms)	Freq (MHz)	Vph (m/ms)	Freq (MHz)	Vph (m/ms)
0.279508	1963.75	7.50907e-005	0.053687	0.279507	362.083	0.356695	3405.67	0.559017	2056.12	0.838526	2203.47	0.139755	1078.33	0.419265	690.349	0.69877	1553.95	0.71339	3970.17
0.279505	260.24	0.000208265	0.0893701	0.279501	164.061	0.356712	344.174	0.559024	464.47	0.83853	639.005	0.139798	131.723	0.419275	272.43	0.698759	505.846	0.713408	641.91
0.279498	139.35	0.000407479	0.124914	0.27949	106.055	0.356757	181.267	0.55904	261.812	0.838538	373.69	0.139907	70.1996	0.419294	169.706	0.698738	302.083	0.71345	349.204
0.279486	95.1468	0.000672167	0.160278	0.279475	78.3497	0.35683	123.052	0.559064	182.286	0.838551	264.058	0.140083	47.8969	0.419321	123.243	0.698706	215.334	0.713518	239.856
0.27947	72.2309	0.00100161	0.195419	0.279456	62.119	0.35693	93.1564	0.559096	139.821	0.838568	204.164	0.140326	36.3879	0.419358	96.7577	0.698664	167.286	0.713611	182.674
0.279449	58.2087	0.00139493	0.230295	0.279432	51.4569	0.357058	74.9617	0.559137	113.407	0.838589	166.419	0.140633	29.3715	0.419403	79.6467	0.698612	136.764	0.713728	147.52
0.279424	48.7438	0.00185103	0.264854	0.279405	43.917	0.357214	62.7252	0.559187	95.391	0.838615	140.455	0.141005	24.6522	0.419457	67.6818	0.698552	115.657	0.713868	123.724
0.279395	41.9248	0.00236867	0.299054	0.279373	38.3028	0.357397	53.9337	0.559245	82.3177	0.838645	121.5	0.14144	21.2645	0.41952	58.8454	0.698483	100.191	0.714031	106.547
0.279362	36.7781	0.00294662	0.332867	0.279338	33.96	0.357607	47.3132	0.559312	72.3988	0.83868	107.055	0.141938	18.7175	0.419592	52.0528	0.698406	88.3696	0.714217	93.5666
0.279326	32.7556	0.00358337	0.36625	0.2793	30.5006	0.357844	42.1489	0.559388	64.6158	0.838718	95.6807	0.142497	16.7351	0.419672	46.6688	0.698322	79.0411	0.714424	83.4126
0.279286	29.5251	0.00427739	0.399173	0.279258	27.6797	0.358107	38.0088	0.559472	58.3462	0.838762	86.4926	0.143115	15.15	0.419762	42.2965	0.698233	71.4917	0.714652	75.2532
0.279244	26.8737	0.00502713	0.431613	0.279213	25.3356	0.358397	34.6165	0.559564	53.1879	0.838809	78.9156	0.143792	13.8551	0.41986	38.6755	0.698137	65.2568	0.7149	68.5537
0.279198	24.6583	0.00583086	0.463538	0.279166	23.3567	0.358714	31.7866	0.559666	48.8696	0.838861	72.5603	0.144525	12.7786	0.419967	35.6276	0.698038	60.0204	0.715168	62.9547
0.27915	22.7796	0.00668687	0.494931	0.279116	21.6638	0.359056	29.3904	0.559776	45.2018	0.838917	67.1532	0.145313	11.8704	0.420082	33.027	0.697934	55.5605	0.715453	58.2061
0.279099	21.1662	0.00759341	0.525772	0.279064	20.1991	0.359423	27.3358	0.559894	42.0479	0.838978	62.4971	0.146154	11.0947	0.420207	30.782	0.697828	51.7162	0.715757	54.128
0.279047	19.7657	0.00854873	0.556048	0.279011	18.9194	0.359816	25.5548	0.560021	39.3071	0.839043	58.4456	0.147046	10.4251	0.42034	28.8245	0.697719	48.3684	0.716077	50.5879
0.278993	18.5384	0.00955099	0.585742	0.278956	17.7916	0.360234	23.9966	0.560156	36.9034	0.839113	54.8882	0.147989	9.84182	0.420482	27.1026	0.697609	45.4267	0.716413	47.4861
0.278938	17.4542	0.0105985	0.614853	0.278901	16.7904	0.360676	22.622	0.560301	34.7782	0.839186	51.7398	0.148979	9.3296	0.420633	25.5764	0.697497	42.8215	0.716766	44.7461
0.278882	16.4894	0.0116894	0.643363	0.278845	15.8954	0.361142	21.4007	0.560453	32.8858	0.839264	48.9337	0.150015	8.87658	0.420792	24.2143	0.697385	40.4981	0.717133	42.3082
0.278826	15.6253	0.012822	0.671278	0.278788	15.0907	0.361632	20.3085	0.560615	31.1902	0.839347	46.417	0.151096	8.47338	0.420961	22.9913	0.697273	38.4133	0.717514	40.1252
0.27877	14.847	0.0139946	0.698592	0.278732	14.3633	0.362145	19.3261	0.560784	29.6621	0.839434	44.1471	0.152072	8.15675	0.421138	21.8873	0.697162	36.5321	0.71791	38.1591
0.278714	14.1422	0.0152055	0.725308	0.278677	13.7026	0.362681	18.438	0.560963	28.2779	0.839525	42.0896	0.152929	7.90911	0.421324	20.8856	0.697052	34.826	0.718318	36.3792
0.278659	13.5012	0.016453	0.751419	0.278622	13.0998	0.363239	17.6312	0.56115	27.0184	0.83962	40.2159	0.153654	7.71817	0.421519	19.9728	0.696944	33.2718	0.71874	34.7604
0.278605	12.9155	0.0177357	0.776939	0.278569	12.5477	0.36382	16.8954	0.561346	25.8674	0.83972	38.5024	0.154238	7.5753	0.421722	19.1376	0.696837	31.8501	0.719174	33.2817
0.278553	12.3785	0.0190519	0.801867	0.278518	12.0401	0.364422	16.2215	0.56155	24.8116	0.839825	36.9296	0.154673	7.47451	0.421935	18.3705	0.696733	30.5446	0.71962	31.9258
0.278502	11.8842	0.0204	0.826212	0.27847	11.5719	0.365046	15.6022	0.561762	23.8396	0.839933	35.4808	0.154954	7.41181	0.422156	17.6636	0.696632	29.3417	0.720078	30.6781
0.278454	11.4278	0.0217788	0.849981	0.278423	11.1387	0.36569	15.0312	0.561984	22.9419	0.840046	34.1418	0.155362	7.32405	0.422386	17.0101	0.696533	28.2297	0.720547	29.5261
0.278409	11.0051	0.0231868	0.873181	0.27838	10.7368	0.366355	14.5031	0.562213	22.1103	0.840164	32.9007	0.155809	7.23169	0.422624	16.4043	0.696439	27.1989	0.721027	28.4592
0.278367	10.6126	0.0246227	0.895824	0.278341	10.3629	0.36704	14.0133	0.562452	21.3379	0.840285	31.7472	0.156424	7.11089	0.422872	15.841	0.696347	26.2405	0.721517	27.4684
0.278329	10.2472	0.0260852	0.917916	0.278305	10.0142	0.367744	13.5579	0.562699	20.6184	0.840412	30.6723	0.157214	6.96558	0.423128	15.316	0.69626	25.3473	0.722018	26.5459
0.278294	9.90611	0.027573	0.939471	0.278273	9.68825	0.368468	13.1335	0.562954	19.9468	0.840542	29.6682	0.158187	6.80015	0.423393	14.8256	0.696177	24.5128	0.722529	25.6849
0.278264	9.58709	0.0290851	0.960498	0.278247	9.38295	0.36921	12.737	0.563218	19.3185	0.840677	28.7282	0.159351	6.61918	0.423667	14.3665	0.696098	23.7315	0.72305	24.8794
0.278239	9.28808	0.0306201	0.981009	0.278225	9.09642	0.369971	12.3658	0.563491	18.7293	0.840816	27.8464	0.160717	6.42717	0.42395	13.9358	0.696024	22.9985	0.723581	24.1243
0.278219	9.00727	0.0321773	1.00102	0.278209	8.82701	0.370749	12.0175	0.563772	18.1758	0.84096	27.0175	0.162113	6.25012	0.424241	13.531	0.695955	22.3094	0.724121	23.4149
0.278205	8.74308	0.0337554	1.02053	0.278198	8.57324	0.371545	11.6903	0.564062	17.6548	0.841108	26.2369	0.163538	6.08643	0.424541	13.1498	0.69589	21.6604	0.724671	22.7474
0.278196	8.4941	0.0353535	1.03956	0.278194	8.33383	0.372359	11.3822	0.56436	17.1636	0.84126	25.5006	0.16499	5.93471	0.424851	12.7903	0.695831	21.0482	0.725229	22.1181
0.278194	8.25909	0.0369708	1.05813	0.278195	8.13599	0.373189	11.0917	0.564667	16.6997	0.841417	24.8048	0.166469	5.79374	0.425168	12.4506	0.695777	20.4696	0.725797	21.5238
0.278198	8.03691	0.0386062	1.07624	0.278201	7.97473	0.374036	10.8173	0.564982	16.261	0.841578	24.1463	0.167974	5.66247	0.425495	12.1293	0.695728	19.9221	0.726373	20.9617
0.27821	7.82658	0.040259	1.0939	0.278208	7.84622	0.374898	10.5578	0.565306	15.8454	0.841743	23.5223	0.169502	5.53999	0.42583	11.8248	0.695684	19.4032	0.726958	20.4293
0.278228	7.6272	0.0419284	1.11113	0.278216	7.74756	0.375777	10.312	0.565638	15.4512	0.841913	22.93	0.171053	5.42547	0.426175	11.5359	0.695647	18.9108	0.727551	19.9243
0.278255	7.43795	0.0436136	1.12794	0.278223	7.67662	0.376671	10.0788	0.565979	15.0768	0.842087	22.3672	0.172625	5.31819	0.426528	11.2614	0.695615	18.4428	0.728153	19.4446
0.278289	7.25811	0.0453138	1.14434	0.278228	7.63191	0.377579	9.85738	0.566329	14.7208	0.842266	21.8316	0.174219	5.21753	0.426889	11.0004	0.695588	17.9975	0.728763	18.9885
0.278332	7.08702	0.0470286	1.16034	0.278236	7.56857	0.378503	9.64684	0.566687	14.3818	0.842449	21.3215	0.175833	5.12291	0.42726	10.7518	0.695568	17.5733	0.729381	18.5542
0.278384	6.92407	0.048757	1.17596	0.278245	7.50093	0.379441	9.44643	0.567053	14.0587	0.842636	20.8349	0.177465	5.03383	0.427639	10.5148	0.695554	17.1688	0.730008	18.1402
0.278444	6.76872	0.0504986	1.19119	0.278259	7.41091	0.380392	9.25544	0.567428	13.7503	0.842828	20.3704	0.179115	4.94983	0.428027	10.2886	0.695545	16.7827	0.730642	17.7451
0.278514	6.62047	0.0522527	1.20606	0.27828	7.30019	0.381358	9.07325	0.567811	13.4558	0.843024	19.9264	0.180783	4.87051	0.428424	10.0726	0.695543	16.4136	0.731284	17.3677
0.278594	6.47887	0.0540188	1.22058	0.27831	7.17077	0.382337	8.89927	0.568203	13.1742	0.843224	19.5017	0.182467	4.79551	0.42883	9.86603	0.695547	16.0606	0.731933	17.0068
0.278683	6.34351	0.0557964	1.23475	0.278351	7.02486	0.383328	8.73297	0.568604	12.9048	0.843429	19.095	0.184167	4.7245	0.429245	9.66833	0.695557	15.7226	0.732591	16.6614
0.278782	6.21398	0.0575849	1.24859	0.278405	6.86483	0.384333	8.57387	0.569013	12.6466	0.843639	18.7052	0.185882	4.65718	0.429668	9.47894	0.695574	15.3987	0.733256	16.3305
0.278892	6.08996	0.0593838	1.2621	0.278469	6.71221	0.38535	8.42152	0.56943	12.3992	0.843852	18.3312	0.187611	4.59328	0.4301	9.29737	0.695597	15.088	0.733928	16.0132
0.279013	5.97111	0.0611928	1.27529	0.278543	6.56651	0.38638	8.27552	0.569856	12.1617	0.84407	17.9722	0.189354	4.53255	0.430541	9.12316	0.695626	14.7897	0.734608	15.7087
0.279144	5.85714	0.0630113	1.28818	0.278626	6.4273	0.387286	8.15316	0.570291	11.9337	0.844293	17.6273	0.191109	4.47478	0.430991	8.95588	0.695662	14.5032	0.735295	15.4162
0.279287	5.74777	0.064839	1.30077	0.278719	6.29417	0.388066	8.05225	0.570734	11.7146	0.844519	17.2956	0.192877	4.41976	0.431449	8.79513	0.695704	14.2277	0.735989	15.1352
0.279441	5.64275	0.0666755	1.31306	0.278822	6.16675	0.388716	7.97108	0.571185	11.5038	0.84475	16.9764	0.194657	4.3673	0.431916	8.64054	0.695753	13.9627	0.736691	14.8648
0.279607	5.54184	0.0685204	1.32508	0.278936	6.04471	0.389233	7.90829	0.571645	11.301	0.844986	16.669	0.196448	4.31725	0.432392	8.49179	0.695808	13.7075	0.7374	14.6045
0.279785	5.44482	0.0703732	1.33683	0.279061	5.92773	0.389615	7.86288	0.572113	11.1057	0.845226	16.3728	0.19825	4.26943	0.432877	8.34856	0.69587	13.4616	0.738116	14.3538
0.279975	5.35149	0.0722338	1.34831	0.279197	5.81552	0.38986	7.83416	0.57259	10.9175	0.84547	16.0872	0.200063	4.22371	0.433307	8.228	0.695938	13.2246	0.738839	14.1122
0.280178	5.26166	0.0741017	1.35953	0.279344	5.70781	0.390213	7.79332	0.573076	10.7361	0.845719	15.8116	0.201885	4.17996	0.433678	8.12823	0.696013	12.9959	0.739569	13.8792
0.280393	5.17515	0.0759767	1.3705	0.279502	5.60436	0.390598	7.74951	0.573569	10.561	0.845972	15.5456	0.203716	4.13806	0.433989	8.04773	0.696095	12.7752	0.740306	13.6542
0.280621	5.0918	0.0778584	1.38123	0.279673	5.50494	0.391124	7.6909	0.574071	10.392	0.84623	15.2885	0.205557	4.09789	0.434238	7.98533	0.696184	12.562	0.74105	13.4371
0.280862	5.01145	0.0797466	1.39173	0.279855	5.40933	0.391794	7.61832	0.574582	10.2287	0.846491	15.0401	0.207406	4.05936	0.434421	7.94012	0.696279	12.356	0.7418	13.2272
0.281117	4.93397	0.081641	1.40199	0.28005	5.31733	0.392608	7.53278	0.575101	10.0709	0.846758	14.7998	0.209264	4.02236	0.43454	7.91149	0.696381	12.1568	0.742558	13.0243
0.281385	4.85922	0.0835414	1.41204	0.280257	5.22877	0.393571	7.43543	0.575629	9.91831	0.847028	14.5674	0.211129	3.98682	0.43471	7.87073	0.69649	11.9641	0.743322	12.8281
0.281666	4.78706	0.0854475	1.42186	0.280477	5.14347	0.394686	7.32751	0.576165	9.77069	0.847303	14.3423	0.213002	3.95264	0.434897	7.82695	0.696605	11.7776	0.744093	12.6382
0.281962	4.71739	0.0873591	1.43148	0.28071	5.06126	0.39581	7.22344	0.576709	9.6278	0.847583	14.1243	0.214881	3.91976	0.435153	7.76829	0.696727	11.597	0.74487	12.4543
0.282272	4.65009	0.0892759	1.44089	0.280956	4.98201	0.396944	7.12303	0.577262	9.48943	0.847867	13.913	0.216768	3.88809	0.435479	7.69549	0.696856	11.422	0.745654	12.2762
0.282596	4.58505	0.0911978	1.4501	0.281216	4.90557	0.398088	7.02609	0.577823	9.35537	0.848155	13.7081	0.218662	3.85759	0.435878	7.60947	0.696992	11.2524	0.746445	12.1035
0.282935	4.52219	0.0931245	1.45912	0.281489	4.8318	0.399242	6.93244	0.578393	9.22543	0.848448	13.5094	0.220561	3.82818	0.436353	7.51129	0.697135	11.0879	0.747242	11.9361
0.283288	4.4614	0.0950559	1.46796	0.281776	4.76059	0.400404	6.84194	0.578971	9.09943	0.848745	13.3166	0.222467	3.7998	0.436905	7.40209	0.697285	10.9284	0.748045	11.7738
0.283657	4.40261	0.0969917	1.4766	0.282077	4.69183	0.401575	6.75442	0.579557	8.97719	0.849046	13.1294	0.224378	3.77242	0.437466	7.29642	0.697441	10.7735	0.748855	11.6162
0.284041	4.34572	0.0989318	1.48508	0.282392	4.62539	0.402755	6.66975	0.580152	8.85856	0.849352	12.9476	0.226295	3.74596	0.438037	7.19414	0.697604	10.6231	0.749671	11.4632
0.28444	4.29067	0.100876	1.49337	0.282722	4.56118	0.403944	6.58779	0.580755	8.74338	0.849662	12.7709	0.228217	3.7204	0.438616	7.09508	0.697775	10.4771	0.750494	11.3145
0.284854	4.23737	0.102824	1.5015	0.283066	4.49911	0.405141	6.50841	0.581367	8.63152	0.849977	12.5992	0.230143	3.69568	0.439203	6.9991	0.697951	10.3352	0.751323	11.1701
0.285285	4.18576	0.104776	1.50947	0.283425	4.43908	0.406346	6.43151	0.581987	8.52283	0.850296	12.4323	0.232075	3.67176	0.4398	6.90607	0.698135	10.1972	0.752158	11.0298
0.285731	4.13578	0.106732	1.51728	0.283799	4.38101	0.407559	6.35697	0.582534	8.4306	0.850619	12.2698	0.234011	3.64861	0.440405	6.81586	0.698326	10.063	0.753	10.8933
0.286194	4.08735	0.108691	1.52493	0.284189	4.32482	0.40878	6.28469	0.583005	8.35375	0.850947	12.1118	0.235952	3.62619	0.44102	6.72835	0.698524	9.93254	0.753847	10.7605
0.286674	4.04043	0.110653	1.53243	0.284594	4.27044	0.410009	6.21456	0.583398	8.29139	0.851279	11.958	0.237896	3.60447	0.441643	6.64343	0.698728	9.80554	0.754701	10.6313
0.287105	4.00073	0.112619	1.53979	0.285014	4.21778	0.411245	6.14649	0.583711	8.24282	0.851616	11.8081	0.239845	3.58341	0.442275	6.56098	0.69894	9.68192	0.755561	10.5055
0.287482	3.96773	0.114334	1.54608	0.285451	4.16679	0.412488	6.08041	0.583943	8.20753	0.851957	11.6622	0.241797	3.56298	0.442915	6.48091	0.699158	9.56154	0.756427	10.3831
0.287802	3.94101	0.115798	1.55136	0.285903	4.1174	0.413739	6.01622	0.584092	8.18512	0.852302	11.52	0.243753	3.54316	0.443565	6.40312	0.699383	9.44428	0.757299	10.2638
0.288059	3.92024	0.11701	1.55567	0.286372	4.06955	0.414997	5.95384	0.584306	8.15315	0.852652	11.3814	0.245713	3.52391	0.444223	6.32752	0.699615	9.33003	0.758177	10.1475
0.288251	3.90516	0.11797	1.55904	0.286858	4.02318	0.416261	5.89321	0.584541	8.11872	0.853007	11.2463	0.247675	3.50522	0.44489	6.25402	0.699854	9.21867	0.759061	10.0343
0.288375	3.8956	0.118675	1.5615	0.28736	3.97824	0.417532	5.83425	0.584861	8.07243	0.853365	11.1145	0.249641	3.48706	0.445566	6.18255	0.700099	9.11011	0.759951	9.92379
0.288554	3.88197	0.119127	1.56306	0.287879	3.93468	0.41881	5.77689	0.585269	8.01475	0.853728	10.9859	0.251609	3.4694	0.446251	6.11302	0.700352	9.00423	0.760847	9.81606
0.288752	3.86732	0.119777	1.5653	0.288416	3.89245	0.420094	5.72108	0.585766	7.94625	0.854096	10.8604	0.25358	3.45223	0.446944	6.04537	0.700611	8.90094	0.761748	9.71097
0.289024	3.84764	0.120483	1.56771	0.28897	3.85149	0.421384	5.66675	0.586356	7.86759	0.854468	10.7379	0.255554	3.43553	0.447647	5.97951	0.700878	8.80016	0.762656	9.60841
0.289374	3.82317	0.121444	1.57097	0.289542	3.81178	0.422681	5.61385	0.58704	7.77952	0.854844	10.6183	0.257531	3.41927	0.448358	5.91539	0.701151	8.7018	0.763569	9.50831
0.289807	3.79419	0.122661	1.57505	0.290132	3.77326	0.423983	5.56232	0.587732	7.6937	0.855225	10.5015	0.259509	3.40344	0.449078	5.85295	0.701395	8.61798	0.764488	9.41057
0.290327	3.76103	0.124134	1.57992	0.29074	3.7359	0.425292	5.51211	0.588433	7.61006	0.85561	10.3874	0.26149	3.38802	0.449807	5.79211	0.701606	8.54789	0.765413	9.31512
0.290941	3.72403	0.125863	1.58555	0.291366	3.69966	0.426606	5.46317	0.589142	7.52852	0.856	10.2759	0.263473	3.373	0.450545	5.73284	0.701784	8.49086	0.766343	9.22188
0.291574	3.68815	0.12785	1.59189	0.292012	3.66451	0.427926	5.41546	0.58986	7.449	0.856394	10.167	0.265458	3.35836	0.451291	5.67506	0.701927	8.44634	0.76728	9.13078
0.292225	3.65334	0.129839	1.59811	0.292677	3.63041	0.429251	5.36892	0.590585	7.37143	0.856792	10.0604	0.267445	3.34407	0.452047	5.61873	0.702033	8.41392	0.768221	9.04174
0.292897	3.61957	0.13183	1.60422	0.293361	3.59732	0.430581	5.32353	0.591319	7.29575	0.857195	9.95621	0.269434	3.33014	0.452811	5.56379	0.702101	8.39332	0.769169	8.95469
0.293587	3.58681	0.133823	1.61022	0.294065	3.56522	0.431917	5.27923	0.592061	7.22189	0.857602	9.85431	0.271424	3.31655	0.453584	5.51021	0.7022	8.36389	0.770122	8.86958
0.294298	3.55502	0.135818	1.61611	0.29479	3.53408	0.433258	5.236	0.592812	7.14978	0.858014	9.75461	0.273416	3.30328	0.454366	5.45794	0.702308	8.33215	0.77108	8.78634
0.295029	3.52419	0.137815	1.62189	0.295535	3.50388	0.434604	5.19378	0.59357	7.07938	0.85843	9.65705	0.275409	3.29032	0.455157	5.40692	0.702456	8.28941	0.77192	8.71528
0.29578	3.49428	0.139814	1.62757	0.2963	3.47458	0.435955	5.15256	0.594337	7.01063	0.858851	9.56156	0.277403	3.27767	0.455957	5.35713	0.702646	8.23602	0.772639	8.65576
0.296553	3.46527	0.141815	1.63315	0.297087	3.44616	0.437311	5.11228	0.595112	6.94346	0.859276	9.46808	0.279399	3.2653	0.456765	5.30852	0.70288	8.17246	0.773236	8.60726
0.297347	3.43713	0.143817	1.63863	0.297896	3.41859	0.438671	5.07293	0.595896	6.87783	0.859705	9.37656	0.281396	3.25321	0.457582	5.26105	0.703158	8.09924	0.77371	8.56936
0.298163	3.40984	0.145822	1.64401	0.298727	3.39186	0.440036	5.03447	0.596687	6.8137	0.860139	9.28691	0.283393	3.2414	0.458409	5.21469	0.703484	8.01696	0.774059	8.54175
0.299002	3.38337	0.147827	1.6493	0.299581	3.36595	0.441405	4.99688	0.597487	6.75101	0.860577	9.19911	0.285392	3.22984	0.459244	5.1694	0.703817	7.93648	0.774282	8.52418
0.299863	3.35772	0.149834	1.6545	0.300458	3.34083	0.442779	4.96011	0.598295	6.68971	0.86102	9.11308	0.287391	3.21853	0.460088	5.12516	0.704156	7.85775	0.774604	8.49908
0.300747	3.33285	0.151843	1.6596	0.301358	3.31648	0.444157	4.92416	0.599111	6.62977	0.861467	9.02878	0.289392	3.20746	0.460941	5.08191	0.704502	7.78072	0.774955	8.472
0.301655	3.30875	0.153853	1.66462	0.302283	3.29289	0.44554	4.88898	0.599935	6.57114	0.861918	8.94615	0.291392	3.19663	0.461803	5.03965	0.704855	7.70533	0.775433	8.43549
0.302587	3.2854	0.155865	1.66955	0.303231	3.27004	0.446926	4.85457	0.600767	6.51378	0.862315	8.87548	0.293394	3.18602	0.462673	4.99833	0.705215	7.63154	0.776039	8.38986
0.303544	3.26279	0.157877	1.6744	0.304205	3.24791	0.448316	4.82088	0.601608	6.45766	0.862656	8.81619	0.295396	3.17563	0.463553	4.95793	0.705582	7.55929	0.776775	8.33544
0.304527	3.24089	0.159891	1.67917	0.305205	3.22649	0.449711	4.78791	0.602457	6.40274	0.86294	8.7678	0.297398	3.16545	0.464441	4.91842	0.705955	7.48854	0.777643	8.27267
0.305535	3.21969	0.161906	1.68385	0.306231	3.20576	0.451109	4.75562	0.603313	6.34898	0.863166	8.72996	0.2994	3.15547	0.465339	4.87978	0.706335	7.41925	0.778643	8.20202
0.306569	3.19918	0.163922	1.68846	0.307283	3.1857	0.452511	4.724	0.604178	6.29635	0.863333	8.70236	0.301403	3.14569	0.466245	4.84197	0.706722	7.35137	0.779648	8.13279
0.30763	3.17934	0.165939	1.69299	0.308363	3.16631	0.453916	4.69303	0.605051	6.24481	0.86344	8.68479	0.303406	3.1361	0.46716	4.80498	0.707115	7.28486	0.780658	8.06495
0.308719	3.16017	0.167958	1.69745	0.309471	3.14757	0.455326	4.66268	0.605932	6.19434	0.863594	8.65968	0.305409	3.12669	0.468084	4.76879	0.707516	7.21968	0.781674	7.99845
0.309836	3.14163	0.169977	1.70183	0.310607	3.12947	0.456738	4.63294	0.606821	6.1449	0.863762	8.63256	0.307412	3.11746	0.469017	4.73337	0.707923	7.1558	0.782695	7.93327
0.310981	3.12374	0.171997	1.70614	0.311771	3.112	0.458154	4.6038	0.607718	6.09646	0.863991	8.59597	0.309415	3.10841	0.469959	4.69869	0.708336	7.09318	0.783721	7.86935
0.312156	3.10646	0.174018	1.71038	0.312966	3.09513	0.459574	4.57523	0.608623	6.04901	0.864283	8.55019	0.311418	3.09952	0.47091	4.66474	0.708757	7.03179	0.784752	7.80668
0.313359	3.08979	0.17604	1.71455	0.31419	3.07887	0.460996	4.54721	0.609536	6.0025	0.864638	8.49553	0.313421	3.09079	0.47187	4.63151	0.709184	6.97158	0.785788	7.7452
0.314594	3.07373	0.178062	1.71866	0.315445	3.0632	0.462422	4.51974	0.610458	5.95692	0.865057	8.43239	0.315423	3.08221	0.472838	4.59896	0.709617	6.91253	0.78683	7.68489
0.315858	3.05824	0.180086	1.72269	0.316731	3.04811	0.463851	4.49279	0.611387	5.91223	0.865543	8.36118	0.317425	3.07379	0.473816	4.56708	0.710058	6.85461	0.787876	7.62571
0.317154	3.04334	0.18211	1.72667	0.318048	3.03358	0.465283	4.46636	0.612324	5.86842	0.866033	8.29129	0.319427	3.06552	0.474803	4.53586	0.710504	6.79778	0.788927	7.56765
0.318482	3.02899	0.184135	1.73058	0.319397	3.01962	0.466718	4.44042	0.613269	5.82546	0.866527	8.22268	0.321428	3.05739	0.475798	4.50527	0.710958	6.74203	0.789983	7.51065
0.319841	3.0152	0.18616	1.73443	0.320778	3.00619	0.468156	4.41496	0.614222	5.78333	0.867026	8.15531	0.323429	3.04939	0.476803	4.47529	0.711418	6.68731	0.791044	7.45471
0.321232	3.00195	0.188186	1.73821	0.322191	2.9933	0.469596	4.38998	0.615183	5.742	0.86753	8.08916	0.325429	3.04153	0.477816	4.44593	0.711885	6.6336	0.79211	7.39978
0.322656	2.98923	0.190213	1.74194	0.323636	2.98093	0.47104	4.36545	0.616152	5.70147	0.868037	8.02418	0.327428	3.0338	0.478838	4.41715	0.712358	6.58087	0.793181	7.34585
0.324112	2.97702	0.19224	1.74561	0.325115	2.96906	0.472486	4.34136	0.617128	5.66169	0.86855	7.96036	0.329427	3.02619	0.47987	4.38894	0.712838	6.52911	0.794257	7.29288
0.325601	2.96532	0.194268	1.74923	0.326625	2.95769	0.473935	4.31771	0.618113	5.62267	0.869066	7.89765	0.331424	3.01871	0.48091	4.36129	0.713325	6.47828	0.795337	7.24086
0.327122	2.95411	0.196296	1.75278	0.328169	2.94681	0.475386	4.29448	0.619105	5.58436	0.869587	7.83604	0.333421	3.01134	0.481959	4.33418	0.713818	6.42837	0.796423	7.18975
0.328676	2.94338	0.198324	1.75629	0.329745	2.93639	0.47684	4.27166	0.620106	5.54677	0.870113	7.7755	0.335418	3.00409	0.483017	4.30761	0.714318	6.37934	0.797513	7.13954
0.330263	2.93312	0.200354	1.75974	0.331353	2.92644	0.478296	4.24924	0.621114	5.50987	0.870643	7.71599	0.337413	2.99696	0.484084	4.28155	0.714824	6.33118	0.798607	7.09021
0.331881	2.9233	0.202383	1.76313	0.332993	2.91692	0.479755	4.22721	0.62213	5.47364	0.871177	7.6575	0.339407	2.98993	0.48516	4.25599	0.715336	6.28387	0.799707	7.04172
0.333532	2.91393	0.204413	1.76648	0.334665	2.90783	0.481216	4.20556	0.623153	5.43807	0.871716	7.6	0.3414	2.983	0.486245	4.23093	0.715855	6.23738	0.800811	6.99406
0.335214	2.90497	0.206443	1.76977	0.336368	2.89916	0.482679	4.18428	0.624185	5.40314	0.872259	7.54346	0.343392	2.97618	0.487339	4.20635	0.716381	6.19169	0.801919	6.94721
0.336927	2.89643	0.208473	1.77302	0.338101	2.89088	0.484145	4.16336	0.625224	5.36884	0.872807	7.48786	0.345383	2.96945	0.488442	4.18224	0.716913	6.14679	0.803032	6.90115
0.33867	2.88828	0.210504	1.77622	0.339865	2.88299	0.485613	4.14279	0.626271	5.33514	0.873359	7.43318	0.347373	2.96283	0.489554	4.15859	0.717452	6.10266	0.80415	6.85587
0.340443	2.88052	0.212535	1.77936	0.341657	2.87548	0.487083	4.12256	0.627325	5.30204	0.873915	7.3794	0.349361	2.95629	0.490675	4.13538	0.717997	6.05928	0.805272	6.81133
0.342245	2.87312	0.214566	1.78247	0.343479	2.86831	0.488555	4.10267	0.628388	5.26953	0.874476	7.3265	0.351348	2.94985	0.491805	4.11261	0.718548	6.01662	0.806399	6.76753
0.344075	2.86606	0.216598	1.78552	0.345328	2.86149	0.490029	4.0831	0.629458	5.23758	0.875042	7.27445	0.353334	2.9435	0.492944	4.09026	0.719106	5.97468	0.80753	6.72444
0.345933	2.85935	0.21863	1.78853	0.347204	2.85499	0.491505	4.06385	0.630535	5.20618	0.875612	7.22324	0.355318	2.93723	0.494092	4.06834	0.71967	5.93344	0.808666	6.68206
0.347818	2.85295	0.220661	1.7915	0.349106	2.84881	0.492983	4.04491	0.63162	5.17533	0.876186	7.17285	0.357301	2.93104	0.495249	4.04682	0.720241	5.89288	0.809806	6.64036
0.349728	2.84687	0.222693	1.79443	0.351033	2.84292	0.494463	4.02628	0.632713	5.14501	0.876765	7.12326	0.359282	2.92494	0.496415	4.02569	0.720818	5.85298	0.810951	6.59932
0.351663	2.84107	0.224725	1.79731	0.352984	2.83731	0.495945	4.00794	0.633813	5.1152	0.877348	7.07445	0.361261	2.91892	0.497589	4.00496	0.721401	5.81374	0.812099	6.55894
0.353622	2.83555	0.226758	1.80015	0.354959	2.83198	0.497429	3.98989	0.634921	5.0859	0.877935	7.0264	0.363239	2.91297	0.498773	3.98461	0.721991	5.77513	0.813252	6.5192
0.355604	2.8303	0.22879	1.80294	0.356956	2.8269	0.498914	3.97212	0.636036	5.05709	0.878527	6.97909	0.365216	2.9071	0.499966	3.96463	0.722587	5.73714	0.81441	6.48008
0.357608	2.8253	0.230822	1.8057	0.358974	2.82206	0.500401	3.95462	0.637159	5.02877	0.879124	6.93252	0.367191	2.9013	0.501167	3.94501	0.723189	5.69976	0.815571	6.44157
0.359633	2.82054	0.232855	1.80842	0.361013	2.81745	0.50189	3.9374	0.638289	5.00091	0.879725	6.88666	0.369164	2.89558	0.502378	3.92575	0.723798	5.66297	0.816737	6.40365
0.361679	2.81601	0.234887	1.8111	0.363072	2.81306	0.503381	3.92044	0.639427	4.97352	0.88033	6.8415	0.371135	2.88992	0.503598	3.90683	0.724412	5.62676	0.817907	6.36632
0.363743	2.81169	0.23692	1.81374	0.365149	2.80888	0.504873	3.90373	0.640572	4.94658	0.88094	6.79703	0.373104	2.88433	0.504826	3.88826	0.725034	5.59113	0.819082	6.32956
0.365827	2.80757	0.238952	1.81635	0.367244	2.8049	0.506367	3.88728	0.641725	4.92008	0.881554	6.75322	0.375072	2.8788	0.506064	3.87002	0.725661	5.55605	0.82026	6.29335
0.367927	2.80364	0.240985	1.81891	0.369356	2.80109	0.507862	3.87107	0.642884	4.89402	0.882173	6.71007	0.377037	2.87334	0.50731	3.85211	0.726295	5.52151	0.821442	6.25769
0.370045	2.7999	0.243017	1.82144	0.371484	2.79747	0.509359	3.8551	0.644052	4.86837	0.882796	6.66756	0.379001	2.86794	0.508565	3.83451	0.726935	5.48751	0.822629	6.22257
0.372178	2.79633	0.245049	1.82394	0.373628	2.79401	0.510857	3.83937	0.645226	4.84314	0.883424	6.62567	0.380963	2.86261	0.50983	3.81723	0.727581	5.45402	0.82382	6.18796
0.374326	2.79292	0.247081	1.8264	0.375786	2.7907	0.512357	3.82387	0.646408	4.81831	0.884056	6.5844	0.382922	2.85733	0.511103	3.80025	0.728233	5.42105	0.825014	6.15387
0.376489	2.78966	0.249114	1.82883	0.377958	2.78754	0.513859	3.80859	0.647597	4.79388	0.884692	6.54373	0.38488	2.85211	0.512385	3.78357	0.728891	5.38858	0.826213	6.12028
0.378665	2.78655	0.251146	1.83122	0.380143	2.78453	0.515361	3.79353	0.648793	4.76984	0.885333	6.50366	0.386836	2.84694	0.513676	3.76719	0.729556	5.3566	0.827415	6.08717
0.380855	2.78358	0.253178	1.83358	0.382341	2.78164	0.516866	3.77869	0.649996	4.74618	0.885978	6.46415	0.388789	2.84183	0.514976	3.75109	0.730227	5.3251	0.828622	6.05455
0.383056	2.78073	0.255209	1.83591	0.38455	2.77888	0.518371	3.76406	0.651207	4.72288	0.886628	6.42522	0.390741	2.83678	0.516285	3.73527	0.730904	5.29406	0.829832	6.0224
0.385269	2.77801	0.257241	1.8382	0.386771	2.77623	0.519878	3.74963	0.652424	4.69996	0.887282	6.38684	0.39269	2.83178	0.517602	3.71973	0.731587	5.26349	0.831046	5.9907
0.387493	2.7754	0.259273	1.84046	0.389002	2.7737	0.521387	3.73541	0.653649	4.67739	0.887941	6.349	0.394637	2.82682	0.518929	3.70446	0.732276	5.23337	0.832265	5.95946
0.389728	2.7729	0.261304	1.8427	0.391243	2.77127	0.522896	3.72138	0.65488	4.65516	0.888604	6.31169	0.396582	2.82192	0.520264	3.68946	0.732971	5.20369	0.833486	5.92865
0.391972	2.7705	0.263335	1.8449	0.393494	2.76894	0.524407	3.70755	0.656119	4.63328	0.889271	6.27491	0.398524	2.81707	0.521608	3.67471	0.733673	5.17444	0.834712	5.89828
0.394226	2.7682	0.265366	1.84707	0.395754	2.7667	0.525919	3.69391	0.657365	4.61174	0.889943	6.23863	0.400464	2.81226	0.522961	3.66022	0.73438	5.14562	0.835942	5.86834
0.396488	2.76599	0.267396	1.84921	0.398022	2.76455	0.527433	3.68046	0.658617	4.59052	0.89062	6.20286	0.402402	2.8075	0.524323	3.64597	0.735093	5.11721	0.837175	5.8388
0.398759	2.76387	0.269427	1.85133	0.400298	2.76249	0.528947	3.66719	0.659877	4.56962	0.891301	6.16758	0.404338	2.80279	0.525694	3.63197	0.735813	5.08921	0.838412	5.80968
0.401038	2.76183	0.271457	1.85341	0.402583	2.7605	0.530463	3.65409	0.661143	4.54904	0.891986	6.13279	0.406271	2.79812	0.527073	3.61821	0.736538	5.06161	0.839652	5.78095
0.403325	2.75987	0.273487	1.85547	0.404874	2.75859	0.53198	3.64117	0.662417	4.52877	0.892675	6.09846	0.408202	2.79349	0.528461	3.60468	0.73727	5.0344	0.840896	5.75262
0.405618	2.75798	0.275517	1.8575	0.407172	2.75675	0.533499	3.62843	0.663697	4.5088	0.89337	6.0646	0.410131	2.78891	0.529858	3.59139	0.738007	5.00758	0.842144	5.72467
0.407918	2.75616	0.277546	1.8595	0.409477	2.75497	0.535018	3.61585	0.664983	4.48913	0.894068	6.0312	0.412057	2.78436	0.531263	3.57832	0.738751	4.98114	0.843396	5.69709
0.410225	2.75441	0.279575	1.86147	0.411787	2.75326	0.536539	3.60344	0.666277	4.46975	0.894771	5.99824	0.41398	2.77986	0.532677	3.56547	0.7395	4.95506	0.84465	5.66988
0.412538	2.75272	0.281604	1.86342	0.414104	2.75161	0.538061	3.59119	0.667577	4.45065	0.895479	5.96573	0.415902	2.7754	0.5341	3.55283	0.740256	4.92935	0.845909	5.64304
0.414856	2.75108	0.283633	1.86534	0.416426	2.75001	0.539584	3.5791	0.668884	4.43184	0.896191	5.93364	0.41782	2.77097	0.535531	3.54041	0.741017	4.90399	0.847171	5.61655
0.41718	2.74951	0.285661	1.86724	0.418753	2.74847	0.541108	3.56716	0.670197	4.4133	0.896907	5.90197	0.419737	2.76659	0.536971	3.5282	0.741784	4.87899	0.848436	5.59041
0.419509	2.74798	0.287689	1.86911	0.421086	2.74698	0.542634	3.55538	0.671517	4.39503	0.897628	5.87072	0.421651	2.76224	0.53842	3.51619	0.742557	4.85433	0.849705	5.56461
0.421843	2.74651	0.289716	1.87096	0.423423	2.74554	0.54416	3.54375	0.672844	4.37702	0.898353	5.83988	0.423562	2.75793	0.539877	3.50438	0.743336	4.83	0.850977	5.53914
0.424181	2.74508	0.291743	1.87278	0.425764	2.74414	0.545688	3.53227	0.674177	4.35927	0.899083	5.80944	0.425471	2.75365	0.541342	3.49277	0.744121	4.806	0.852253	5.514
0.426524	2.7437	0.29377	1.87458	0.428109	2.74279	0.547217	3.52093	0.675517	4.34177	0.899817	5.77939	0.427377	2.74941	0.542816	3.48136	0.744912	4.78233	0.853532	5.48919
0.428871	2.74236	0.295797	1.87636	0.430459	2.74148	0.548747	3.50973	0.676863	4.32453	0.900555	5.74973	0.429281	2.74521	0.544298	3.47013	0.745708	4.75898	0.854814	5.46469
0.431222	2.74106	0.297823	1.87811	0.432812	2.7402	0.550278	3.49868	0.678215	4.30753	0.901298	5.72044	0.431183	2.74103	0.545789	3.45909	0.746511	4.73594	0.8561	5.44051
0.433576	2.7398	0.299848	1.87984	0.435169	2.73897	0.55181	3.48776	0.679574	4.29076	0.902046	5.69153	0.433082	2.7369	0.547288	3.44823	0.747319	4.71321	0.857389	5.41663
0.435934	2.73858	0.301874	1.88155	0.437529	2.73777	0.553343	3.47697	0.680938	4.27424	0.902798	5.66298	0.434978	2.73279	0.548796	3.43754	0.748133	4.69078	0.858681	5.39305
0.438295	2.73739	0.303898	1.88323	0.439893	2.7366	0.554878	3.46632	0.68231	4.25794	0.903554	5.6348	0.436872	2.72872	0.550312	3.42704	0.748953	4.66865	0.859976	5.36976
0.440659	2.73623	0.305923	1.88489	0.442259	2.73547	0.556413	3.4558	0.683687	4.24188	0.904315	5.60696	0.438763	2.72467	0.551836	3.41671	0.749779	4.64681	0.861275	5.34676
0.443027	2.73511	0.307947	1.88654	0.444628	2.73437	0.55795	3.44541	0.685071	4.22603	0.90508	5.57948	0.440652	2.72066	0.553368	3.40654	0.75061	4.62526	0.862576	5.32405
0.445397	2.73401	0.309971	1.88816	0.447	2.73329	0.559488	3.43514	0.68646	4.21041	0.90585	5.55233	0.442538	2.71668	0.554908	3.39654	0.751447	4.60398	0.863881	5.30161
0.447769	2.73295	0.311994	1.88975	0.449374	2.73224	0.561027	3.425	0.687856	4.19499	0.906624	5.52552	0.444422	2.71273	0.556457	3.38671	0.75229	4.58298	0.865189	5.27945
0.450144	2.73191	0.314016	1.89133	0.451751	2.73122	0.562568	3.41498	0.689258	4.17979	0.907402	5.49904	0.446304	2.70881	0.558013	3.37703	0.753139	4.56226	0.8665	5.25756
0.452522	2.7309	0.316039	1.89289	0.45413	2.73022	0.564109	3.40508	0.690665	4.1648	0.908185	5.47288	0.448182	2.70492	0.559578	3.36751	0.753993	4.5418	0.867814	5.23594
0.454901	2.72991	0.31806	1.89443	0.456511	2.72925	0.565652	3.3953	0.692079	4.15001	0.908972	5.44704	0.450059	2.70105	0.56115	3.35815	0.754853	4.52161	0.869131	5.21457
0.457283	2.72894	0.320082	1.89595	0.458894	2.7283	0.567196	3.38563	0.693499	4.13542	0.909764	5.42152	0.451933	2.69722	0.562731	3.34893	0.755719	4.50167	0.870451	5.19346
0.459667	2.728	0.322103	1.89745	0.461278	2.72737	0.568741	3.37608	0.694924	4.12102	0.910561	5.3963	0.453804	2.69341	0.564319	3.33987	0.75659	4.48198	0.871774	5.1726
0.462052	2.72707	0.324123	1.89892	0.463665	2.72646	0.570288	3.36664	0.696355	4.10682	0.911361	5.37139	0.455673	2.68963	0.565915	3.33095	0.757467	4.46255	0.8731	5.15198
0.464439	2.72617	0.326143	1.90039	0.466053	2.72557	0.571835	3.35731	0.697792	4.0928	0.912166	5.34677	0.45754	2.68588	0.567519	3.32217	0.75835	4.44336	0.874429	5.13161
0.466828	2.72529	0.328162	1.90183	0.468442	2.7247	0.573384	3.34809	0.699235	4.07897	0.912976	5.32245	0.459404	2.68215	0.569131	3.31353	0.759238	4.42441	0.87576	5.11148
0.469218	2.72442	0.330181	1.90325	0.470833	2.72385	0.574934	3.33898	0.700684	4.06533	0.91379	5.29842	0.461266	2.67845	0.57075	3.30503	0.760132	4.4057	0.877095	5.09158
0.471609	2.72357	0.332199	1.90466	0.473226	2.72301	0.576486	3.32997	0.702137	4.05186	0.914608	5.27467	0.463126	2.67478	0.572377	3.29666	0.761031	4.38722	0.878432	5.07191
0.474002	2.72274	0.334217	1.90604	0.475619	2.72219	0.578038	3.32106	0.703597	4.03857	0.915431	5.2512	0.464983	2.67113	0.574011	3.28843	0.761936	4.36897	0.879772	5.05247
0.476396	2.72193	0.336235	1.90741	0.478014	2.72138	0.579593	3.31226	0.705062	4.02545	0.916259	5.228	0.466838	2.66751	0.575653	3.28033	0.762847	4.35095	0.881115	5.03325
0.47879	2.72112	0.338251	1.90877	0.480409	2.72059	0.581148	3.30356	0.706533	4.0125	0.91709	5.20508	0.46869	2.66391	0.577303	3.27235	0.763763	4.33315	0.882461	5.01425
0.481186	2.72034	0.340268	1.9101	0.482806	2.71981	0.582705	3.29496	0.708009	3.99972	0.917926	5.18242	0.470541	2.66034	0.578959	3.2645	0.764685	4.31557	0.883809	4.99547
0.483583	2.71956	0.342283	1.91142	0.485203	2.71905	0.584263	3.28646	0.70949	3.98711	0.918767	5.16002	0.472389	2.6568	0.580623	3.25678	0.765613	4.2982	0.88516	4.97689
0.485981	2.7188	0.344299	1.91272	0.487601	2.71829	0.585823	3.27805	0.710977	3.97465	0.919612	5.13789	0.474235	2.65328	0.582294	3.24917	0.766546	4.28105	0.886514	4.95853
0.488379	2.71805	0.346313	1.91401	0.49	2.71755	0.587384	3.26974	0.712469	3.96235	0.920462	5.116	0.476078	2.64978	0.583973	3.24168	0.767484	4.2641	0.88787	4.94037
0.490778	2.71731	0.348327	1.91528	0.492399	2.71682	0.588946	3.26152	0.713966	3.95021	0.921316	5.09437	0.47792	2.64631	0.585658	3.23431	0.768428	4.24736	0.889229	4.92241
0.493177	2.71658	0.350341	1.91653	0.494799	2.7161	0.590511	3.2534	0.715468	3.93822	0.922174	5.07298	0.479759	2.64286	0.58735	3.22705	0.769377	4.23082	0.89059	4.90465
0.495577	2.71586	0.352354	1.91777	0.497199	2.71538	0.592076	3.24537	0.716976	3.92639	0.923037	5.05183	0.481597	2.63943	0.58905	3.21991	0.770332	4.21448	0.891954	4.88709
0.497978	2.71515	0.354366	1.91899	0.4996	2.71468	0.593643	3.23742	0.718489	3.91469	0.923904	5.03093	0.483432	2.63603	0.590756	3.21287	0.771293	4.19833	0.893321	4.86972
0.500378	2.71445	0.356378	1.92019	0.502001	2.71399	0.595212	3.22957	0.720006	3.90315	0.924776	5.01025	0.485265	2.63265	0.592469	3.20594	0.772259	4.18238	0.89469	4.85254
0.502779	2.71376	0.358389	1.92138	0.504402	2.7133	0.596783	3.2218	0.721529	3.89175	0.925652	4.98981	0.487096	2.62929	0.594189	3.19912	0.77323	4.16662	0.896062	4.83554
0.50518	2.71308	0.3604	1.92256	0.506803	2.71262	0.598355	3.21412	0.723056	3.88049	0.926532	4.9696	0.488925	2.62596	0.595915	3.1924	0.774207	4.15104	0.897436	4.81873
0.507582	2.7124	0.36241	1.92372	0.509204	2.71195	0.599928	3.20653	0.724589	3.86936	0.927417	4.94961	0.490753	2.62265	0.597648	3.18578	0.775189	4.13565	0.898812	4.80209
0.509983	2.71173	0.364419	1.92487	0.511606	2.71129	0.601504	3.19902	0.726126	3.85838	0.928307	4.92985	0.492578	2.61937	0.599388	3.17927	0.776177	4.12044	0.900191	4.78564
0.512384	2.71107	0.366428	1.926	0.514007	2.71063	0.603081	3.19159	0.727668	3.84752	0.929201	4.9103	0.494402	2.6161	0.601134	3.17285	0.77717	4.1054	0.901572	4.76936
0.514785	2.71041	0.368436	1.92712	0.516408	2.70997	0.60466	3.18425	0.729215	3.8368	0.930099	4.89096	0.496223	2.61286	0.602886	3.16653	0.778169	4.09054	0.902955	4.75325
0.517186	2.70976	0.370444	1.92822	0.518809	2.70933	0.606241	3.17699	0.730767	3.82621	0.931002	4.87184	0.498043	2.60964	0.604645	3.1603	0.779172	4.07586	0.904341	4.73731
0.519587	2.70912	0.372451	1.92931	0.521209	2.70868	0.607824	3.1698	0.732323	3.81574	0.931909	4.85293	0.499862	2.60644	0.60641	3.15416	0.780182	4.06135	0.905729	4.72154
0.521987	2.70848	0.374457	1.93039	0.523609	2.70804	0.609408	3.1627	0.733884	3.8054	0.932821	4.83422	0.501678	2.60327	0.608181	3.14812	0.781196	4.047	0.90712	4.70593
0.524387	2.70784	0.376463	1.93145	0.526009	2.70741	0.610995	3.15568	0.735449	3.79518	0.933737	4.81572	0.503493	2.60012	0.609958	3.14216	0.782216	4.03282	0.908512	4.69048
0.526787	2.7072	0.378468	1.9325	0.528408	2.70678	0.612584	3.14873	0.737019	3.78508	0.934657	4.79741	0.505307	2.59698	0.611741	3.13629	0.783242	4.0188	0.909907	4.67519
0.529186	2.70657	0.380472	1.93354	0.530807	2.70615	0.614174	3.14186	0.738593	3.77511	0.935582	4.7793	0.507118	2.59387	0.61353	3.13051	0.784273	4.00494	0.911304	4.66006
0.531585	2.70595	0.382476	1.93456	0.533205	2.70552	0.615767	3.13506	0.740172	3.76524	0.936511	4.76139	0.508928	2.59079	0.615324	3.12481	0.785309	3.99125	0.912703	4.64509
0.533982	2.70532	0.384479	1.93557	0.535602	2.7049	0.617362	3.12835	0.741755	3.7555	0.937445	4.74367	0.510737	2.58772	0.617125	3.1192	0.78635	3.9777	0.914104	4.63026
0.53638	2.7047	0.386482	1.93657	0.537999	2.70428	0.618959	3.1217	0.743342	3.74586	0.938384	4.72613	0.512545	2.58468	0.618931	3.11366	0.787397	3.96431	0.915508	4.61559
0.538776	2.70408	0.388484	1.93756	0.540395	2.70366	0.620559	3.11513	0.744934	3.73634	0.939326	4.70879	0.51435	2.58165	0.620742	3.10821	0.788449	3.95108	0.916913	4.60106
0.541171	2.70346	0.390485	1.93853	0.54279	2.70304	0.62216	3.10863	0.746529	3.72693	0.940273	4.69162	0.516155	2.57865	0.62256	3.10283	0.789506	3.93799	0.918321	4.58668
0.543566	2.70284	0.392486	1.93949	0.545184	2.70243	0.623764	3.1022	0.748129	3.71762	0.941225	4.67464	0.517958	2.57567	0.624382	3.09753	0.790569	3.92505	0.91973	4.57244
0.54596	2.70223	0.394486	1.94044	0.547577	2.70181	0.625371	3.09585	0.749733	3.70843	0.942181	4.65783	0.51976	2.57271	0.62621	3.09231	0.791637	3.91226	0.921142	4.55835
0.548352	2.70161	0.396485	1.94138	0.549968	2.70119	0.62698	3.08956	0.751341	3.69933	0.943141	4.6412	0.521561	2.56978	0.628043	3.08716	0.792711	3.89961	0.922556	4.54439
0.550744	2.70099	0.398484	1.9423	0.552359	2.70058	0.628591	3.08335	0.752953	3.69034	0.944106	4.62475	0.523361	2.56686	0.629881	3.08208	0.793789	3.8871	0.923971	4.53057
0.553134	2.70038	0.400482	1.94322	0.554748	2.69996	0.630205	3.0772	0.754569	3.68145	0.945076	4.60846	0.525159	2.56396	0.631725	3.07707	0.794873	3.87473	0.925388	4.51689
0.555523	2.69976	0.402479	1.94412	0.557136	2.69934	0.631822	3.07112	0.756189	3.67266	0.946049	4.59235	0.526956	2.56109	0.633573	3.07213	0.795962	3.86249	0.926808	4.50334
0.55791	2.69914	0.404476	1.94501	0.559523	2.69872	0.633441	3.06511	0.757812	3.66396	0.947028	4.5764	0.528753	2.55824	0.635426	3.06726	0.797057	3.8504	0.928229	4.48991
0.560297	2.69852	0.406472	1.94589	0.561908	2.6981	0.635063	3.05917	0.75944	3.65536	0.94801	4.56061	0.530548	2.5554	0.637284	3.06246	0.798156	3.83843	0.929652	4.47662
0.562681	2.6979	0.408467	1.94676	0.564292	2.69748	0.636689	3.0533	0.761071	3.64686	0.948997	4.54499	0.532342	2.55259	0.639147	3.05772	0.799261	3.8266	0.931077	4.46346
0.565064	2.69728	0.410462	1.94762	0.566674	2.69686	0.638317	3.04749	0.762706	3.63845	0.949989	4.52953	0.534136	2.5498	0.641014	3.05304	0.800371	3.8149	0.932504	4.45042
0.567446	2.69665	0.412456	1.94847	0.569054	2.69623	0.639947	3.04174	0.764345	3.63013	0.950985	4.51422	0.535928	2.54703	0.642886	3.04843	0.801487	3.80332	0.933932	4.43751
0.569826	2.69603	0.414449	1.9493	0.571433	2.6956	0.641582	3.03607	0.765987	3.62191	0.951985	4.49908	0.53772	2.54428	0.644763	3.04388	0.802607	3.79188	0.935363	4.42472
0.572203	2.69539	0.416441	1.95013	0.573809	2.69497	0.643219	3.03045	0.767632	3.61377	0.95299	4.48408	0.539511	2.54155	0.646644	3.03939	0.803733	3.78056	0.936795	4.41205
0.574579	2.69476	0.418433	1.95094	0.576184	2.69433	0.644859	3.0249	0.769282	3.60572	0.954	4.46924	0.541302	2.53884	0.648529	3.03496	0.804864	3.76936	0.938229	4.39949
0.576953	2.69412	0.420425	1.95175	0.578556	2.69369	0.646503	3.01942	0.770934	3.59775	0.955013	4.45454	0.543091	2.53615	0.650418	3.03059	0.806001	3.75828	0.939664	4.38706
0.579325	2.69348	0.422415	1.95255	0.580927	2.69304	0.64815	3.014	0.77259	3.58987	0.956032	4.44	0.54488	2.53348	0.652312	3.02628	0.807142	3.74732	0.941101	4.37474
0.581695	2.69283	0.424405	1.95333	0.583295	2.69239	0.649801	3.00864	0.77425	3.58207	0.957054	4.4256	0.546669	2.53083	0.654209	3.02202	0.808289	3.73649	0.94254	4.36253
0.584062	2.69218	0.426394	1.95411	0.585661	2.69174	0.651455	3.00334	0.775912	3.57436	0.958082	4.41134	0.548456	2.52821	0.656111	3.01781	0.809441	3.72576	0.943981	4.35044
0.586428	2.69152	0.428383	1.95487	0.588024	2.69108	0.653113	2.99811	0.777578	3.56673	0.959113	4.39723	0.550244	2.5256	0.658017	3.01366	0.810598	3.71516	0.945423	4.33846
0.58879	2.69086	0.43037	1.95563	0.590385	2.69041	0.654774	2.99293	0.779248	3.55917	0.960149	4.38325	0.55203	2.52301	0.659926	3.00957	0.811761	3.70467	0.946866	4.32658
0.59115	2.69019	0.432357	1.95638	0.592744	2.68974	0.65644	2.98782	0.78092	3.5517	0.96119	4.36942	0.553817	2.52044	0.661839	3.00552	0.812928	3.69429	0.948311	4.31482
0.593508	2.68952	0.434344	1.95711	0.595099	2.68906	0.658109	2.98277	0.782595	3.5443	0.962235	4.35572	0.555603	2.51789	0.663756	3.00153	0.814101	3.68402	0.949758	4.30316
0.595862	2.68883	0.436329	1.95784	0.597452	2.68837	0.659783	2.97778	0.784274	3.53698	0.963284	4.34216	0.557389	2.51537	0.665676	2.99758	0.815279	3.67386	0.951206	4.2916
0.598214	2.68814	0.438314	1.95856	0.599802	2.68767	0.66146	2.97285	0.785956	3.52973	0.964338	4.32873	0.559174	2.51286	0.6676	2.99368	0.816462	3.66381	0.952656	4.28015
0.600563	2.68745	0.440298	1.95927	0.602149	2.68697	0.663142	2.96798	0.78764	3.52255	0.965396	4.31543	0.560959	2.51037	0.669527	2.98983	0.817651	3.65386	0.954107	4.2688
0.602909	2.68674	0.442282	1.95997	0.604492	2.68626	0.664828	2.96317	0.789328	3.51545	0.966459	4.30227	0.562744	2.5079	0.671458	2.98603	0.818844	3.64403	0.95556	4.25755
0.605251	2.68603	0.444265	1.96066	0.606833	2.68554	0.666519	2.95842	0.791018	3.50842	0.967526	4.28923	0.564529	2.50545	0.673392	2.98228	0.820043	3.63429	0.957014	4.24641
0.607591	2.68531	0.446247	1.96134	0.60917	2.68482	0.668214	2.95373	0.792711	3.50146	0.968598	4.27631	0.566313	2.50302	0.675329	2.97856	0.821247	3.62466	0.958469	4.23535
0.609927	2.68458	0.448228	1.96202	0.611503	2.68408	0.669914	2.9491	0.794407	3.49457	0.969674	4.26353	0.568098	2.50061	0.677269	2.9749	0.822456	3.61513	0.959926	4.2244
0.612259	2.68384	0.450209	1.96268	0.613833	2.68333	0.671619	2.94453	0.796106	3.48775	0.970754	4.25086	0.569882	2.49822	0.679212	2.97127	0.82367	3.6057	0.961385	4.21354
0.614588	2.68309	0.452189	1.96334	0.616159	2.68258	0.673329	2.94002	0.797808	3.481	0.971839	4.23832	0.571666	2.49585	0.681158	2.96769	0.82489	3.59637	0.962844	4.20278
0.616912	2.68233	0.454168	1.96399	0.618481	2.68181	0.675044	2.93556	0.799512	3.47431	0.972929	4.22591	0.573451	2.49349	0.683107	2.96415	0.826115	3.58714	0.964305	4.1921
0.619233	2.68156	0.456147	1.96463	0.6208	2.68103	0.676764	2.93117	0.801219	3.46769	0.974023	4.2136	0.575235	2.49116	0.685059	2.96065	0.827345	3.57801	0.965767	4.18152
0.62155	2.68077	0.458125	1.96526	0.623114	2.68024	0.678489	2.92683	0.802928	3.46113	0.975121	4.20142	0.57702	2.48885	0.687013	2.95719	0.82858	3.56897	0.967231	4.17104
0.623863	2.67998	0.460102	1.96589	0.625424	2.67944	0.68022	2.92255	0.80464	3.45463	0.976224	4.18936	0.578804	2.48655	0.68897	2.95376	0.82982	3.56002	0.968695	4.16064
0.626172	2.67917	0.462078	1.9665	0.627729	2.67862	0.681956	2.91833	0.806354	3.4482	0.977331	4.17741	0.580589	2.48428	0.69093	2.95038	0.831065	3.55117	0.970161	4.15032
0.628476	2.67835	0.464054	1.96711	0.63003	2.67779	0.683699	2.91416	0.808071	3.44183	0.978443	4.16557	0.582374	2.48202	0.692892	2.94703	0.832316	3.54241	0.971629	4.1401
0.630775	2.67752	0.466029	1.96771	0.632326	2.67695	0.685447	2.91006	0.80979	3.43552	0.979559	4.15385	0.584159	2.47978	0.694856	2.94372	0.833572	3.53375	0.973097	4.12996
0.63307	2.67668	0.468004	1.96831	0.634618	2.6761	0.687201	2.90601	0.811512	3.42927	0.98068	4.14223	0.585944	2.47756	0.696823	2.94045	0.834833	3.52517	0.974567	4.11991
0.635359	2.67582	0.469977	1.96889	0.636904	2.67523	0.688961	2.90202	0.813236	3.42307	0.981805	4.13073	0.58773	2.47536	0.698792	2.93721	0.836099	3.51668	0.976037	4.10994
0.637644	2.67494	0.47195	1.96947	0.639185	2.67434	0.690727	2.89809	0.814962	3.41694	0.982935	4.11934	0.589516	2.47318	0.700763	2.93401	0.83737	3.50828	0.977509	4.10005
0.639924	2.67405	0.473922	1.97004	0.641461	2.67345	0.6925	2.89421	0.81669	3.41086	0.984069	4.10805	0.591302	2.47101	0.702737	2.93084	0.838647	3.49997	0.978982	4.09024
0.642198	2.67315	0.475894	1.9706	0.643732	2.67253	0.69428	2.89039	0.818421	3.40484	0.985208	4.09687	0.593089	2.46887	0.704712	2.9277	0.839929	3.49174	0.980457	4.08052
0.644467	2.67223	0.477864	1.97116	0.645997	2.6716	0.696066	2.88663	0.820153	3.39888	0.986351	4.08579	0.594876	2.46674	0.706689	2.92459	0.841216	3.4836	0.981932	4.07087
0.64673	2.6713	0.479834	1.97171	0.648256	2.67066	0.697859	2.88293	0.821888	3.39296	0.987498	4.07482	0.596664	2.46463	0.708669	2.92152	0.842508	3.47554	0.983408	4.06131
0.648988	2.67034	0.481804	1.97225	0.65051	2.66969	0.699659	2.87928	0.823625	3.38711	0.98865	4.06395	0.598452	2.46254	0.71065	2.91848	0.843805	3.46756	0.984886	4.05182
0.651239	2.66938	0.483772	1.97278	0.652758	2.66871	0.701467	2.8757	0.825364	3.3813	0.989807	4.05318	0.60024	2.46046	0.712632	2.91546	0.845108	3.45967	0.986364	4.0424
0.653485	2.66839	0.48574	1.97331	0.654999	2.66771	0.703282	2.87217	0.827105	3.37555	0.990968	4.04251	0.602029	2.45841	0.714617	2.91248	0.846416	3.45186	0.987843	4.03307
0.655724	2.66739	0.487707	1.97383	0.657234	2.6667	0.705104	2.86869	0.828848	3.36985	0.992133	4.03194	0.603819	2.45637	0.716603	2.90953	0.847729	3.44413	0.989324	4.02381
0.657957	2.66636	0.489674	1.97435	0.659463	2.66566	0.706934	2.86528	0.830592	3.3642	0.993303	4.02147	0.605609	2.45435	0.71859	2.9066	0.849047	3.43647	0.990805	4.01462
0.660184	2.66532	0.49164	1.97485	0.661685	2.66461	0.708771	2.86192	0.832339	3.3586	0.994478	4.01109	0.6074	2.45235	0.720579	2.9037	0.850371	3.4289	0.992288	4.0055
0.662404	2.66426	0.493605	1.97535	0.6639	2.66354	0.710617	2.85862	0.834087	3.35305	0.995656	4.00081	0.609191	2.45036	0.72257	2.90083	0.8517	3.4214	0.993771	3.99646
0.664617	2.66319	0.495569	1.97585	0.666109	2.66245	0.712471	2.85537	0.835837	3.34755	0.99684	3.99063	0.610983	2.4484	0.724561	2.89799	0.853034	3.41399	0.995255	3.98749
0.666823	2.66209	0.497533	1.97633	0.66831	2.66134	0.714332	2.85218	0.837589	3.34209	0.998027	3.98053	0.612776	2.44645	0.726554	2.89517	0.854373	3.40664	0.99674	3.97859
0.669022	2.66097	0.499495	1.97682	0.670505	2.6602	0.716203	2.84905	0.839343	3.33668	0.99922	3.97054	0.61457	2.44451	0.728548	2.89238	0.855717	3.39938	0.998226	3.96976
0.671214	2.65983	0.501458	1.97729	0.672692	2.65905	0.718081	2.84598	0.841098	3.33132	1.00042	3.96063	0.616364	2.4426	0.730543	2.88961	0.857067	3.39218	0.999713	3.96099
0.673399	2.65867	0.503419	1.97776	0.674871	2.65788	0.719968	2.84296	0.842855	3.32601			0.618159	2.4407	0.73254	2.88687	0.858422	3.38506	1.0012	3.9523
0.675577	2.65749	0.50538	1.97822	0.677044	2.65669	0.721864	2.84	0.844614	3.32074			0.619954	2.43882	0.734537	2.88415	0.859782	3.37802		
0.677746	2.65629	0.50734	1.97868	0.679208	2.65547	0.723769	2.83709	0.846374	3.31551			0.621751	2.43695	0.736535	2.88145	0.861148	3.37104		
0.679909	2.65507	0.509299	1.97913	0.681365	2.65424	0.725683	2.83424	0.848136	3.31033			0.623548	2.4351	0.738534	2.87878	0.862519	3.36414		
0.682063	2.65383	0.511258	1.97957	0.683515	2.65298	0.727605	2.83145	0.849899	3.3052			0.625346	2.43327	0.740534	2.87613	0.863895	3.3573		
0.68421	2.65257	0.513216	1.98001	0.685656	2.6517	0.729537	2.82871	0.851663	3.3001			0.627145	2.43146	0.742534	2.8735	0.865276	3.35054		
0.686348	2.65128	0.515173	1.98044	0.687789	2.6504	0.731478	2.82602	0.853429	3.29505			0.628945	2.42966	0.744535	2.8709	0.866663	3.34385		
0.688479	2.64998	0.51713	1.98087	0.689914	2.64908	0.733428	2.8234	0.855196	3.29004			0.630745	2.42788	0.746537	2.86831	0.868055	3.33722		
0.690602	2.64865	0.519086	1.98129	0.692032	2.64774	0.735388	2.82082	0.856965	3.28507			0.632547	2.42611	0.748539	2.86574	0.869452	3.33066		
0.692716	2.6473	0.521041	1.98171	0.694141	2.64638	0.737357	2.8183	0.858735	3.28014			0.634349	2.42436	0.750542	2.8632	0.870855	3.32417		
0.694823	2.64593	0.522996	1.98212	0.696242	2.64499	0.739336	2.81584	0.860506	3.27525			0.636153	2.42263	0.752545	2.86067	0.872263	3.31775		
0.696921	2.64454	0.524949	1.98252	0.698334	2.64358	0.741323	2.81343	0.862279	3.27039			0.637957	2.42091	0.754548	2.85816	0.873676	3.31139		
0.699011	2.64312	0.526903	1.98292	0.700419	2.64216	0.743321	2.81107	0.864053	3.26558			0.639763	2.41921	0.756552	2.85568	0.875095	3.30509		
0.701093	2.64169	0.528855	1.98331	0.702495	2.64071	0.745328	2.80876	0.865828	3.26081			0.641569	2.41752	0.758556	2.85321	0.876519	3.29886		
0.703167	2.64023	0.530807	1.9837	0.704563	2.63924	0.747344	2.80651	0.867604	3.25607			0.643377	2.41585	0.76056	2.85075	0.877948	3.2927		
0.705232	2.63876	0.532758	1.98408	0.706623	2.63775	0.74937	2.8043	0.869381	3.25137			0.645185	2.41419	0.762564	2.84832	0.879383	3.28659		
0.707289	2.63726	0.534708	1.98446	0.708675	2.63624	0.751406	2.80215	0.871159	3.24671			0.646994	2.41255	0.764568	2.8459	0.880823	3.28055		
0.709338	2.63574	0.536658	1.98484	0.710719	2.63471	0.753451	2.80005	0.872938	3.24208			0.648805	2.41093	0.766572	2.8435	0.882268	3.27457		
0.711379	2.63421	0.538607	1.9852	0.712754	2.63316	0.755505	2.79799	0.874718	3.23749			0.650616	2.40932	0.768577	2.84111	0.883719	3.26866		
0.713412	2.63265	0.540555	1.98557	0.714781	2.63159	0.757569	2.79599	0.8765	3.23294			0.652429	2.40772	0.77058	2.83875	0.885176	3.2628		
0.715437	2.63108	0.542503	1.98592	0.716801	2.63	0.759642	2.79403	0.878282	3.22842			0.654243	2.40614	0.772584	2.83639	0.886637	3.257		
0.717454	2.62949	0.54445	1.98628	0.718812	2.6284	0.761724	2.79212	0.880065	3.22393			0.656058	2.40458	0.774588	2.83405	0.888104	3.25126		
0.719463	2.62788	0.546396	1.98662	0.720816	2.62678	0.763815	2.79026	0.881849	3.21948			0.657873	2.40303	0.776591	2.83173	0.889577	3.24558		
0.721464	2.62625	0.548342	1.98697	0.722812	2.62514	0.765916	2.78844	0.883634	3.21506			0.65969	2.40149	0.778594	2.82942	0.891055	3.23996		
0.723458	2.6246	0.550287	1.98731	0.724801	2.62348	0.768025	2.78667	0.88542	3.21067			0.661509	2.39997	0.780596	2.82712	0.892538	3.2344		
0.725444	2.62294	0.552231	1.98764	0.726782	2.62181	0.770143	2.78494	0.887206	3.20632			0.663328	2.39847	0.782598	2.82484	0.894027	3.22889		
0.727422	2.62127	0.554175	1.98797	0.728755	2.62012	0.77227	2.78325	0.888994	3.20199			0.665148	2.39697	0.784599	2.82257	0.895521	3.22344		
0.729393	2.61957	0.556118	1.98829	0.730721	2.61842	0.774405	2.78161	0.890782	3.1977			0.66697	2.39549	0.7866	2.82032	0.897021	3.21805		
0.731357	2.61787	0.55806	1.98861	0.732681	2.61671	0.776549	2.78001	0.892571	3.19344			0.668793	2.39403	0.7886	2.81808	0.898527	3.21271		
0.733314	2.61615	0.560002	1.98893	0.734633	2.61498	0.778702	2.77844	0.89436	3.18922			0.670617	2.39258	0.7906	2.81585	0.900037	3.20743		
0.735264	2.61442	0.561943	1.98924	0.736578	2.61324	0.780862	2.77692	0.89615	3.18502			0.672442	2.39114	0.792598	2.81363	0.901553	3.2022		
0.737208	2.61267	0.563883	1.98955	0.738517	2.61148	0.78303	2.77544	0.897941	3.18085			0.674268	2.38972	0.794596	2.81142	0.903075	3.19702		
0.739144	2.61091	0.565823	1.98985	0.74045	2.60972	0.785207	2.77399	0.899733	3.17671			0.676096	2.38831	0.796593	2.80923	0.904602	3.1919		
0.741075	2.60914	0.567762	1.99015	0.742375	2.60794	0.787391	2.77258	0.901525	3.1726			0.677924	2.38691	0.798589	2.80704	0.906135	3.18683		
0.742999	2.60736	0.569701	1.99044	0.744295	2.60616	0.789582	2.7712	0.903317	3.16852			0.679754	2.38553	0.800584	2.80487	0.907673	3.18182		
0.744916	2.60558	0.571638	1.99073	0.746209	2.60436	0.791781	2.76986	0.90511	3.16447			0.681585	2.38416	0.802579	2.80271	0.909217	3.17685		
0.746828	2.60378	0.573576	1.99102	0.748117	2.60256	0.793987	2.76856	0.906904	3.16045			0.683418	2.38281	0.804572	2.80056	0.910767	3.17194		
0.748734	2.60197	0.575512	1.9913	0.750019	2.60075	0.7962	2.76728	0.908698	3.15645			0.685251	2.38146	0.806564	2.79842	0.912321	3.16708		
0.750635	2.60016	0.577448	1.99158	0.751916	2.59893	0.79842	2.76604	0.910493	3.15248			0.687086	2.38013	0.808555	2.79628	0.913882	3.16227		
0.752529	2.59833	0.579383	1.99185	0.753807	2.5971	0.800647	2.76483	0.912288	3.14854			0.688922	2.37882	0.810545	2.79416	0.915448	3.15751		
0.754419	2.59651	0.581318	1.99213	0.755693	2.59527	0.80288	2.76365	0.914084	3.14463			0.69076	2.37751	0.812533	2.79205	0.917019	3.1528		
0.756303	2.59467	0.583252	1.99239	0.757574	2.59343	0.80512	2.7625	0.91588	3.14074			0.692598	2.37622	0.81452	2.78995	0.918596	3.14813		
0.758183	2.59283	0.585186	1.99265	0.75945	2.59159	0.807365	2.76138	0.917676	3.13688			0.694438	2.37494	0.816506	2.78785	0.920179	3.14352		
0.760058	2.59099	0.587118	1.99291	0.761322	2.58974	0.809617	2.76029	0.919473	3.13304			0.696279	2.37367	0.818491	2.78577	0.921767	3.13896		
0.761928	2.58914	0.589051	1.99317	0.763189	2.58789	0.811874	2.75922	0.92127	3.12923			0.698121	2.37242	0.820474	2.78369	0.923361	3.13444		
0.763793	2.58729	0.590982	1.99342	0.765051	2.58603	0.814138	2.75818	0.923067	3.12544			0.699965	2.37118	0.822456	2.78162	0.92496	3.12997		
0.765654	2.58543	0.592913	1.99367	0.76691	2.58418	0.816406	2.75716	0.924865	3.12168			0.70181	2.36995	0.824436	2.77956	0.926565	3.12554		
0.767511	2.58357	0.594844	1.99391	0.768764	2.58232	0.81868	2.75617	0.926663	3.11795			0.703656	2.36873	0.826415	2.77751	0.928176	3.12117		
0.769364	2.58171	0.596773	1.99415	0.770614	2.58046	0.820959	2.7552	0.928461	3.11423			0.705503	2.36752	0.828392	2.77546	0.929792	3.11684		
0.771214	2.57985	0.598703	1.99439	0.772461	2.5786	0.823243	2.75425	0.93026	3.11055			0.707352	2.36633	0.830367	2.77342	0.931413	3.11255		
0.773059	2.57799	0.600631	1.99462	0.774304	2.57673	0.825532	2.75332	0.932059	3.10688			0.709202	2.36514	0.832341	2.77139	0.93304	3.10831		
0.774901	2.57613	0.602559	1.99486	0.776144	2.57487	0.827826	2.75242	0.933858	3.10324			0.711053	2.36397	0.834314	2.76937	0.934673	3.10412		
0.776739	2.57427	0.604487	1.99508	0.77798	2.57301	0.830124	2.75154	0.935657	3.09962			0.712906	2.36281	0.836284	2.76735	0.936312	3.09997		
0.778575	2.57241	0.606414	1.99531	0.779813	2.57115	0.832426	2.75068	0.937456	3.09603			0.71476	2.36166	0.838253	2.76534	0.937956	3.09586		
0.780407	2.57055	0.60834	1.99553	0.781643	2.56929	0.834733	2.74983	0.939256	3.09246			0.716615	2.36053	0.84022	2.76333	0.939605	3.0918		
0.782236	2.56869	0.610265	1.99574	0.78347	2.56744	0.837044	2.74901	0.941056	3.08891			0.718471	2.3594	0.842185	2.76134	0.94126	3.08778		
0.784062	2.56683	0.612191	1.99596	0.785295	2.56558	0.839359	2.7482	0.942856	3.08538			0.720329	2.35828	0.844149	2.75934	0.942921	3.0838		
0.785886	2.56498	0.614115	1.99617	0.787117	2.56373	0.841677	2.74741	0.944656	3.08187			0.722188	2.35718	0.84611	2.75736	0.944587	3.07986		
0.787707	2.56313	0.616039	1.99638	0.788936	2.56188	0.843999	2.74664	0.946456	3.07839			0.724048	2.35609	0.84807	2.75538	0.946259	3.07597		
0.789525	2.56128	0.617963	1.99658	0.790752	2.56003	0.846325	2.74588	0.948257	3.07493			0.725909	2.35501	0.850028	2.7534	0.947936	3.07212		
0.791341	2.55944	0.619885	1.99678	0.792567	2.55819	0.848654	2.74514	0.950057	3.07149			0.727772	2.35393	0.851983	2.75144	0.949619	3.06831		
0.793155	2.5576	0.621808	1.99698	0.794379	2.55635	0.850987	2.74441	0.951858	3.06807			0.729636	2.35287	0.853937	2.74947	0.951307	3.06454		
0.794966	2.55576	0.62373	1.99718	0.79619	2.55452	0.853322	2.7437	0.953659	3.06467			0.731502	2.35182	0.855889	2.74751	0.953001	3.06081		
0.796776	2.55393	0.625651	1.99737	0.797998	2.55269	0.855661	2.743	0.955459	3.06129			0.733368	2.35078	0.857839	2.74556	0.954701	3.05712		
0.798584	2.5521	0.627571	1.99756	0.799804	2.55087	0.858002	2.74232	0.95726	3.05793			0.735236	2.34975	0.859786	2.74361	0.956406	3.05347		
0.800389	2.55028	0.629492	1.99775	0.801609	2.54905	0.860347	2.74165	0.959061	3.05459			0.737105	2.34873	0.861732	2.74167	0.958116	3.04986		
0.802194	2.54846	0.631411	1.99793	0.803412	2.54724	0.862694	2.74099	0.960862	3.05127			0.738976	2.34772	0.863676	2.73973	0.959832	3.04628		
0.803996	2.54665	0.63333	1.99812	0.805213	2.54543	0.865044	2.74034	0.962663	3.04798			0.740847	2.34672	0.865617	2.7378	0.961554	3.04275		
0.805797	2.54484	0.635249	1.99829	0.807013	2.54363	0.867396	2.73971	0.964465	3.0447			0.74272	2.34573	0.867556	2.73587	0.963281	3.03925		
0.807596	2.54304	0.637167	1.99847	0.808811	2.54183	0.86975	2.73908	0.966266	3.04144			0.744595	2.34475	0.869494	2.73395	0.965013	3.0358		
0.809394	2.54125	0.639084	1.99864	0.810609	2.54004	0.872107	2.73847	0.968067	3.0382			0.74647	2.34378	0.871429	2.73203	0.966751	3.03237		
0.811191	2.53946	0.641001	1.99882	0.812405	2.53826	0.874466	2.73787	0.969868	3.03498			0.748347	2.34282	0.873362	2.73011	0.968494	3.02899		
0.812987	2.53768	0.642918	1.99898	0.814199	2.53648	0.876827	2.73728	0.97167	3.03177			0.750225	2.34187	0.875292	2.7282	0.970243	3.02564		
0.814781	2.53591	0.644834	1.99915	0.815993	2.53471	0.87919	2.73669	0.973471	3.02859			0.752104	2.34093	0.877221	2.7263	0.971997	3.02233		
0.816574	2.53414	0.646749	1.99931	0.817786	2.53295	0.881555	2.73612	0.975272	3.02542			0.753985	2.33999	0.879147	2.7244	0.973756	3.01906		
0.818367	2.53238	0.648664	1.99947	0.819577	2.5312	0.883922	2.73556	0.977074	3.02228			0.755867	2.33907	0.881071	2.7225	0.975521	3.01581		
0.820158	2.53063	0.650578	1.99963	0.821368	2.52945	0.886291	2.735	0.978875	3.01915			0.75775	2.33816	0.882993	2.7206	0.977291	3.01261		
0.821949	2.52888	0.652492	1.99979	0.823158	2.52771	0.888661	2.73445	0.980677	3.01604			0.759634	2.33725	0.884912	2.71871	0.979066	3.00944		
0.823739	2.52715	0.654406	1.99994	0.824948	2.52598	0.891033	2.73391	0.982478	3.01295			0.76152	2.33636	0.88683	2.71683	0.980846	3.0063		
0.825528	2.52542	0.656319	2.00009	0.826736	2.52425	0.893406	2.73338	0.98428	3.00987			0.763406	2.33547	0.888745	2.71494	0.982632	3.0032		
0.827316	2.52369	0.658231	2.00024	0.828524	2.52254	0.89578	2.73286	0.986082	3.00681			0.765295	2.33459	0.890657	2.71307	0.984423	3.00013		
0.829104	2.52198	0.660143	2.00039	0.830312	2.52083	0.898156	2.73234	0.987884	3.00378			0.767184	2.33372	0.892568	2.71119	0.986219	2.99709		
0.830891	2.52027	0.662055	2.00053	0.832099	2.51913	0.900534	2.73183	0.989685	3.00075			0.769074	2.33286	0.894476	2.70932	0.988021	2.99409		
0.832678	2.51858	0.663966	2.00067	0.833885	2.51743	0.902912	2.73132	0.991487	2.99775			0.770966	2.33201	0.896382	2.70745	0.989827	2.99112		
0.834464	2.51689	0.665876	2.00081	0.835671	2.51575	0.905292	2.73082	0.993289	2.99476			0.772859	2.33116	0.898286	2.70559	0.991639	2.98818		
0.83625	2.51521	0.667786	2.00095	0.837457	2.51407	0.907672	2.73033	0.995091	2.99179			0.774753	2.33033	0.900187	2.70373	0.993456	2.98528		
0.838036	2.51353	0.669696	2.00109	0.839243	2.51241	0.910054	2.72984	0.996894	2.98884			0.776649	2.3295	0.902087	2.70187	0.995277	2.9824		
0.839821	2.51187	0.671605	2.00122	0.841028	2.51075	0.912436	2.72936	0.998696	2.9859			0.778545	2.32868	0.903984	2.70002	0.997104	2.97956		
0.841607	2.51021	0.673514	2.00135	0.842813	2.5091	0.914819	2.72889	1.0005	2.98298			0.780443	2.32787	0.905878	2.69817	0.998936	2.97674		
0.843391	2.50857	0.675422	2.00148	0.844598	2.50746	0.917203	2.72841					0.782342	2.32707	0.907771	2.69632	1.00077	2.97396		
0.845176	2.50693	0.67733	2.00161	0.846382	2.50582	0.919588	2.72795					0.784242	2.32627	0.909661	2.69448				
0.846961	2.5053	0.679238	2.00173	0.848167	2.5042	0.921973	2.72748					0.786143	2.32549	0.911549	2.69264				
0.848746	2.50368	0.681144	2.00186	0.849951	2.50258	0.924359	2.72703					0.788046	2.32471	0.913435	2.69081				
0.85053	2.50206	0.683051	2.00198	0.851736	2.50098	0.926745	2.72657					0.78995	2.32394	0.915319	2.68898				
0.852315	2.50046	0.684957	2.0021	0.853521	2.49938	0.929132	2.72612					0.791855	2.32317	0.9172	2.68715				
0.854099	2.49886	0.686863	2.00222	0.855305	2.49779	0.931519	2.72567					0.793761	2.32242	0.919079	2.68533				
0.855884	2.49728	0.688768	2.00233	0.85709	2.49621	0.933906	2.72523					0.795668	2.32167	0.920956	2.6835				
0.857669	2.4957	0.690673	2.00245	0.858875	2.49464	0.936294	2.72479					0.797577	2.32093	0.922831	2.68169				
0.859454	2.49413	0.692577	2.00256	0.86066	2.49308	0.938682	2.72435					0.799486	2.32019	0.924704	2.67987				
0.861239	2.49257	0.694481	2.00267	0.862445	2.49153	0.94107	2.72392					0.801397	2.31947	0.926574	2.67806				
0.863024	2.49102	0.696385	2.00278	0.86423	2.48998	0.943458	2.72348					0.803309	2.31875	0.928443	2.67626				
0.864809	2.48948	0.698288	2.00288	0.866016	2.48845	0.945846	2.72305					0.805222	2.31804	0.930309	2.67445				
0.866595	2.48795	0.700191	2.00299	0.867802	2.48692	0.948234	2.72263					0.807136	2.31733	0.932173	2.67266				
0.868381	2.48643	0.702093	2.00309	0.869588	2.4854	0.950622	2.7222					0.809051	2.31663	0.934035	2.67086				
0.870167	2.48491	0.703995	2.00319	0.871375	2.4839	0.953009	2.72178					0.810968	2.31594	0.935896	2.66907				
0.871954	2.48341	0.705897	2.00329	0.873162	2.4824	0.955397	2.72135					0.812885	2.31526	0.937754	2.66728				
0.873741	2.48191	0.707798	2.00339	0.874949	2.48091	0.957784	2.72093					0.814804	2.31458	0.93961	2.6655				
0.875529	2.48042	0.709699	2.00349	0.876737	2.47942	0.960171	2.72051					0.816724	2.31391	0.941464	2.66372				
0.877316	2.47895	0.711599	2.00358	0.878525	2.47795	0.962557	2.72009					0.818645	2.31325	0.943316	2.66194				
0.879105	2.47748	0.713499	2.00368	0.880313	2.47649	0.964943	2.71967					0.820567	2.31259	0.945166	2.66017				
0.880893	2.47602	0.715399	2.00377	0.882102	2.47503	0.967328	2.71926					0.82249	2.31194	0.947015	2.6584				
0.882682	2.47456	0.717298	2.00386	0.883892	2.47359	0.969713	2.71884					0.824414	2.31129	0.948861	2.65663				
0.884472	2.47312	0.719197	2.00395	0.885682	2.47215	0.972097	2.71842					0.826339	2.31066	0.950706	2.65487				
0.886262	2.47169	0.721096	2.00404	0.887472	2.47072	0.97448	2.71801					0.828265	2.31002	0.952548	2.65311				
0.888053	2.47026	0.722994	2.00412	0.889263	2.46931	0.976863	2.71759					0.830193	2.3094	0.954389	2.65136				
0.889844	2.46885	0.724892	2.00421	0.891054	2.4679	0.979245	2.71717					0.832121	2.30878	0.956228	2.64961				
0.891635	2.46744	0.726789	2.00429	0.892846	2.46649	0.981626	2.71675					0.834051	2.30817	0.958066	2.64787				
0.893428	2.46604	0.728687	2.00437	0.894639	2.4651	0.984005	2.71634					0.835981	2.30756	0.959901	2.64613				
0.89522	2.46465	0.730583	2.00445	0.896432	2.46372	0.986384	2.71592					0.837913	2.30696	0.961735	2.64439				
0.897014	2.46327	0.73248	2.00453	0.898226	2.46234	0.988762	2.7155					0.839845	2.30636	0.963567	2.64266				
0.898808	2.4619	0.734376	2.00461	0.900021	2.46098	0.991138	2.71508					0.841779	2.30577	0.965398	2.64093				
0.900603	2.46054	0.736272	2.00469	0.901816	2.45962	0.993514	2.71466					0.843714	2.30519	0.967227	2.63921				
0.902398	2.45918	0.738167	2.00476	0.903611	2.45827	0.995888	2.71423					0.84565	2.30461	0.969054	2.63749				
0.904194	2.45783	0.740063	2.00484	0.905408	2.45693	0.99826	2.71381					0.847586	2.30404	0.970879	2.63577				
0.90599	2.4565	0.741958	2.00491	0.907205	2.4556	1.00063	2.71338					0.849524	2.30347	0.972704	2.63406				
0.907788	2.45517	0.743852	2.00498	0.909002	2.45427							0.851463	2.30291	0.974526	2.63236				
0.909585	2.45385	0.745746	2.00505	0.910801	2.45296							0.853403	2.30236	0.976347	2.63065				
0.911384	2.45253	0.74764	2.00512	0.9126	2.45165							0.855343	2.30181	0.978167	2.62896				
0.913183	2.45123	0.749534	2.00519	0.9144	2.45035							0.857285	2.30126	0.979985	2.62726				
0.914983	2.44994	0.751427	2.00526	0.9162	2.44906							0.859228	2.30072	0.981802	2.62558				
0.916784	2.44865	0.75332	2.00532	0.918002	2.44778							0.861172	2.30019	0.983617	2.62389				
0.918586	2.44737	0.755213	2.00539	0.919804	2.44651							0.863116	2.29966	0.985431	2.62222				
0.920388	2.4461	0.757105	2.00545	0.921606	2.44525							0.865062	2.29914	0.987244	2.62054				
0.922191	2.44484	0.758997	2.00551	0.92341	2.44399							0.867008	2.29862	0.989056	2.61887				
0.923995	2.44358	0.760889	2.00557	0.925214	2.44274							0.868956	2.29811	0.990866	2.61721				
0.925799	2.44234	0.762781	2.00563	0.927019	2.4415							0.870905	2.2976	0.992675	2.61555				
0.927604	2.4411	0.764672	2.00569	0.928825	2.44027							0.872854	2.29709	0.994482	2.6139				
0.92941	2.43987	0.766563	2.00575	0.930631	2.43904							0.874804	2.2966	0.996289	2.61225				
0.931217	2.43865	0.768454	2.00581	0.932439	2.43783							0.876756	2.2961	0.998094	2.61061				
0.933025	2.43744	0.770344	2.00587	0.934247	2.43662							0.878708	2.29561	0.999899	2.60897				
0.934833	2.43623	0.772234	2.00592	0.936056	2.43542							0.880661	2.29513	1.0017	2.60733				
0.936642	2.43503	0.774124	2.00598	0.937866	2.43423							0.882615	2.29465						
0.938452	2.43384	0.776014	2.00603	0.939676	2.43304							0.88457	2.29418						
0.940263	2.43266	0.777903	2.00608	0.941487	2.43187							0.886526	2.29371						
0.942075	2.43149	0.779792	2.00613	0.9433	2.4307							0.888483	2.29324						
0.943887	2.43032	0.781681	2.00618	0.945113	2.42954							0.89044	2.29278						
0.945701	2.42916	0.78357	2.00623	0.946927	2.42838							0.892399	2.29232						
0.947515	2.42801	0.785458	2.00628	0.948741	2.42724							0.894358	2.29187						
0.94933	2.42687	0.787346	2.00633	0.950557	2.4261							0.896318	2.29142						
0.951146	2.42573	0.789234	2.00638	0.952373	2.42497							0.898279	2.29098						
0.952962	2.42461	0.791122	2.00642	0.95419	2.42385							0.900241	2.29054						
0.95478	2.42348	0.793009	2.00647	0.956009	2.42273							0.902204	2.29011						
0.956598	2.42237	0.794896	2.00651	0.957827	2.42162							0.904168	2.28968						
0.958417	2.42127	0.796783	2.00656	0.959647	2.42052							0.906132	2.28925						
0.960237	2.42017	0.79867	2.0066	0.961468	2.41943							0.908098	2.28883						
0.962058	2.41908	0.800556	2.00664	0.963289	2.41834							0.910064	2.28841						
0.96388	2.41799	0.802443	2.00669	0.965112	2.41726							0.912031	2.288						
0.965703	2.41692	0.804329	2.00673	0.966935	2.41619							0.913999	2.28759						
0.967526	2.41585	0.806215	2.00677	0.968759	2.41513							0.915967	2.28718						
0.969351	2.41478	0.8081	2.00681	0.970584	2.41407							0.917937	2.28678						
0.971176	2.41373	0.809985	2.00684	0.97241	2.41302							0.919907	2.28638						
0.973002	2.41268	0.811871	2.00688	0.974237	2.41198							0.921878	2.28598						
0.974829	2.41164	0.813756	2.00692	0.976064	2.41094							0.92385	2.28559						
0.976657	2.41061	0.81564	2.00696	0.977893	2.40991							0.925822	2.28521						
0.978486	2.40958	0.817525	2.00699	0.979722	2.40889							0.927796	2.28482						
0.980316	2.40856	0.819409	2.00703	0.981552	2.40787							0.92977	2.28444						
0.982146	2.40754	0.821294	2.00706	0.983384	2.40686							0.931745	2.28407						
0.983977	2.40654	0.823178	2.0071	0.985216	2.40586							0.933721	2.28369						
0.98581	2.40554	0.825061	2.00713	0.987048	2.40486							0.935697	2.28332						
0.987643	2.40454	0.826945	2.00716	0.988882	2.40388							0.937674	2.28296						
0.989477	2.40356	0.828828	2.0072	0.990717	2.40289							0.939652	2.2826						
0.991312	2.40258	0.830712	2.00723	0.992552	2.40192							0.941631	2.28224						
0.993148	2.4016	0.832595	2.00726	0.994389	2.40095							0.94361	2.28188						
0.994985	2.40064	0.834478	2.00729	0.996226	2.39999							0.94559	2.28153						
0.996822	2.39968	0.83636	2.00732	0.998064	2.39903							0.947571	2.28118						
0.998661	2.39872	0.838243	2.00735	0.999904	2.39808							0.949553	2.28084						
1.0005	2.39777	0.840125	2.00738	1.00174	2.39714							0.951535	2.28049						
		0.842007	2.00741									0.953518	2.28016						
		0.843889	2.00743									0.955502	2.27982						
		0.845771	2.00746									0.957486	2.27949						
		0.847653	2.00749									0.959471	2.27916						
		0.849534	2.00752									0.961457	2.27883						
		0.851416	2.00754									0.963444	2.27851						
		0.853297	2.00757									0.965431	2.27819						
		0.855178	2.00759									0.967419	2.27787						
		0.857059	2.00762									0.969407	2.27756						
		0.85894	2.00764									0.971396	2.27724						
		0.86082	2.00766									0.973386	2.27694						
		0.862701	2.00769									0.975376	2.27663						
		0.864581	2.00771									0.977368	2.27633						
		0.866461	2.00773									0.979359	2.27603						
		0.868341	2.00775									0.981352	2.27573						
		0.870221	2.00777									0.983345	2.27544						
		0.872101	2.0078									0.985338	2.27514						
		0.87398	2.00782									0.987333	2.27486						
		0.87586	2.00784									0.989327	2.27457						
		0.877739	2.00786									0.991323	2.27429						
		0.879618	2.00788									0.993319	2.274						
		0.881498	2.00789									0.995316	2.27373						
		0.883376	2.00791									0.997313	2.27345						
		0.885255	2.00793									0.999311	2.27318						
		0.887134	2.00795									1.00131	2.2729						
		0.889013	2.00797																
		0.890891	2.00798																
		0.89277	2.008																
		0.894648	2.00802																
		0.896526	2.00803																
		0.898404	2.00805																
		0.900282	2.00807																
		0.90216	2.00808																
		0.904037	2.0081																
		0.905915	2.00811																
		0.907793	2.00813																
		0.90967	2.00814																
		0.911547	2.00815																
		0.913424	2.00817																
		0.915301	2.00818																
		0.917179	2.00819																
		0.919055	2.00821																
		0.920932	2.00822																
		0.922809	2.00823																
		0.924686	2.00824																
		0.926562	2.00826																
		0.928439	2.00827																
		0.930315	2.00828																
		0.932191	2.00829																
		0.934067	2.0083																
		0.935944	2.00831																
		0.93782	2.00832																
		0.939696	2.00833																
		0.941571	2.00834																
		0.943447	2.00835																
		0.945323	2.00836																
		0.947199	2.00837																
		0.949074	2.00838																
		0.95095	2.00839																
		0.952825	2.0084																
		0.9547	2.00841																
		0.956576	2.00842																
		0.958451	2.00842																
		0.960326	2.00843																
		0.962201	2.00844																
		0.964076	2.00845																
		0.965951	2.00846																
		0.967826	2.00846																
		0.969701	2.00847																
		0.971576	2.00848																
		0.97345	2.00849																
		0.975325	2.00849																
		0.9772	2.0085																
		0.979074	2.00851																
		0.980949	2.00851																
		0.982823	2.00852																
		0.984698	2.00852																
		0.986572	2.00853																
		0.988446	2.00854																
		0.99032	2.00854																
		0.992195	2.00855																
		0.994069	2.00855																
		0.995943	2.00856																
		0.997817	2.00856																
		0.999691	2.00857																
		1.00156	2.00858																
