Sym0		Asym0		Sym1		Sym2		Sym3		Sym4		Asym1		Asym2		Asym3		Asym4	
455  Points		541  Points		453  Points		403  Points		367  Points		278  Points		479  Points		418  Points		368  Points		278  Points	
Freq (MHz)	Vph (m/ms)	Freq (MHz)	Vph (m/ms)	Freq (MHz)	Vph (m/ms)	Freq (MHz)	Vph (m/ms)	Freq (MHz)	Vph (m/ms)	Freq (MHz)	Vph (m/ms)	Freq (MHz)	Vph (m/ms)	Freq (MHz)	Vph (m/ms)	Freq (MHz)	Vph (m/ms)	Freq (MHz)	Vph (m/ms)
0.279508	2949.54	2.00677e-005	0.0277419	0.279507	363.115	0.356649	3599.35	0.559017	2096.77	0.838526	2228.74	0.139755	1107.14	0.419265	695.281	0.69877	1567.89	0.713298	4152.65
0.279506	272.301	0.000104903	0.0633831	0.279501	164.273	0.356666	346.015	0.559024	466.513	0.83853	641.113	0.139797	132.143	0.419275	273.195	0.698759	507.314	0.713315	646.432
0.279498	142.736	0.000255962	0.0989507	0.27949	106.143	0.35671	181.765	0.559039	262.46	0.838538	374.41	0.139906	70.3181	0.419293	170.002	0.698738	302.606	0.713358	350.517
0.279486	96.7131	0.000472728	0.134357	0.279475	78.3977	0.356783	123.276	0.559063	182.599	0.838551	264.417	0.140082	47.9516	0.419321	123.399	0.698705	215.599	0.713426	240.465
0.27947	73.1301	0.000754719	0.169594	0.279455	62.1491	0.356883	93.2817	0.559096	140.005	0.838568	204.378	0.140323	36.419	0.419357	96.8538	0.698663	167.447	0.713518	183.022
0.279449	58.7913	0.0011011	0.204595	0.279431	51.4775	0.357011	75.0408	0.559136	113.528	0.838589	166.562	0.140629	29.3914	0.419402	79.7117	0.698611	136.871	0.713635	147.743
0.279424	49.1517	0.00151089	0.23931	0.279403	43.9319	0.357166	62.7791	0.559186	95.4767	0.838614	140.556	0.141	24.6659	0.419456	67.7286	0.698549	115.734	0.713776	123.878
0.279395	42.2262	0.00198309	0.273709	0.279371	38.314	0.357349	53.9725	0.559244	82.3814	0.838644	121.576	0.141434	21.2744	0.419518	58.8808	0.69848	100.248	0.71394	106.659
0.279362	37.0098	0.00251636	0.307738	0.279335	33.9687	0.357559	47.3422	0.55931	72.448	0.838679	107.114	0.14193	18.7248	0.41959	52.0804	0.698402	88.4139	0.714126	93.6518
0.279325	32.9392	0.00310939	0.341368	0.279296	30.5075	0.357795	42.1713	0.559386	64.6549	0.838717	95.7277	0.142487	16.7406	0.41967	46.6908	0.698318	79.0764	0.714333	83.4792
0.279285	29.6742	0.00376069	0.374559	0.279254	27.6853	0.358059	38.0265	0.559469	58.378	0.83876	86.5309	0.143104	15.1542	0.419758	42.3145	0.698227	71.5204	0.714562	75.3064
0.279241	26.997	0.00446873	0.407284	0.279208	25.3402	0.358348	34.6306	0.559561	53.2142	0.838807	78.9475	0.143778	13.8583	0.419856	38.6905	0.698131	65.2806	0.71481	68.5971
0.279195	24.7621	0.00523198	0.439525	0.27916	23.3605	0.358664	31.7981	0.559662	48.8918	0.838859	72.5872	0.144509	12.781	0.419962	35.6403	0.698031	60.0404	0.715078	62.9907
0.279146	22.8681	0.00604861	0.471244	0.279109	21.667	0.359006	29.3999	0.559771	45.2207	0.838915	67.1762	0.145295	11.8722	0.420077	33.0378	0.697926	55.5775	0.715364	58.2363
0.279095	21.2425	0.006917	0.502429	0.279057	20.2018	0.359373	27.3437	0.559889	42.0642	0.838975	62.5169	0.146134	11.096	0.420201	30.7913	0.697819	51.7309	0.715667	54.1536
0.279042	19.8321	0.00783538	0.533063	0.279002	18.9216	0.359765	25.5615	0.560016	39.3213	0.83904	58.4629	0.147024	10.426	0.420333	28.8325	0.697709	48.3811	0.715988	50.6099
0.278987	18.5968	0.00880191	0.563124	0.278946	17.7935	0.360182	24.0022	0.56015	36.9158	0.839109	54.9034	0.147964	9.84236	0.420474	27.1096	0.697597	45.4378	0.716325	47.5051
0.278931	17.5058	0.00981492	0.59261	0.27889	16.7919	0.360624	22.6268	0.560294	34.7891	0.839182	51.7533	0.148951	9.32982	0.420624	25.5826	0.697485	42.8312	0.716677	44.7627
0.278874	16.5354	0.0108726	0.621507	0.278832	15.8967	0.36109	21.4048	0.560446	32.8956	0.83926	48.9457	0.149985	8.87654	0.420783	24.2198	0.697371	40.5067	0.717045	42.3228
0.278816	15.6665	0.0119731	0.649808	0.278775	15.0918	0.361579	20.3119	0.560606	31.1989	0.839342	46.4278	0.151062	8.47311	0.42095	22.9962	0.697259	38.4209	0.717426	40.138
0.278759	14.8841	0.0131149	0.677517	0.278717	14.3642	0.362091	19.3291	0.560775	29.6699	0.839428	44.1569	0.152036	8.1563	0.421126	21.8916	0.697146	36.5389	0.717822	38.1705
0.278701	14.1758	0.014296	0.704622	0.27866	13.7033	0.362627	18.4405	0.560953	28.285	0.839519	42.0984	0.152891	7.90851	0.421311	20.8895	0.697035	34.8321	0.718231	36.3894
0.278645	13.5317	0.0155151	0.73113	0.278605	13.1003	0.363185	17.6334	0.561139	27.0247	0.839614	40.2239	0.153614	7.71746	0.421505	19.9762	0.696925	33.2773	0.718652	34.7695
0.278589	12.9433	0.0167703	0.757044	0.27855	12.548	0.363765	16.8972	0.561334	25.8732	0.839713	38.5097	0.154197	7.57452	0.421707	19.1407	0.696818	31.855	0.719087	33.2899
0.278535	12.4039	0.0180601	0.782363	0.278497	12.0403	0.364366	16.2231	0.561537	24.8168	0.839817	36.9363	0.154631	7.47367	0.421918	18.3733	0.696713	30.5491	0.719533	31.9332
0.278483	11.9075	0.0193831	0.807099	0.278447	11.572	0.364989	15.6035	0.561749	23.8443	0.839924	35.4869	0.154911	7.41094	0.422138	17.6661	0.69661	29.3457	0.71999	30.6847
0.278433	11.4493	0.0207376	0.831252	0.278399	11.1387	0.365633	15.0323	0.561969	22.9462	0.840037	34.1474	0.155317	7.32312	0.422367	17.0123	0.696511	28.2334	0.720459	29.5321
0.278386	11.025	0.0221224	0.854834	0.278354	10.7367	0.366297	14.504	0.562198	22.1143	0.840154	32.9059	0.155763	7.23071	0.422604	16.4062	0.696415	27.2022	0.720939	28.4646
0.278342	10.631	0.0235359	0.87785	0.278313	10.3627	0.366981	14.0141	0.562435	21.3415	0.840275	31.752	0.156377	7.10984	0.42285	15.8427	0.696323	26.2435	0.72143	27.4734
0.278302	10.2642	0.024977	0.900313	0.278275	10.0139	0.367684	13.5586	0.562681	20.6218	0.8404	30.6767	0.157165	6.96445	0.423105	15.3176	0.696234	25.35	0.721931	26.5504
0.278265	9.92188	0.0264443	0.922233	0.278242	9.68788	0.368407	13.134	0.562935	19.9499	0.84053	29.6723	0.158135	6.79893	0.423369	14.827	0.69615	24.5153	0.722441	25.689
0.278233	9.60176	0.0279367	0.943618	0.278213	9.38251	0.369148	12.7373	0.563198	19.3212	0.840664	28.732	0.159297	6.61785	0.423641	14.3677	0.69607	23.7338	0.722962	24.8831
0.278206	9.30174	0.029453	0.964481	0.278189	9.0959	0.369908	12.366	0.563469	18.7318	0.840802	27.8499	0.160659	6.42573	0.423922	13.9369	0.695995	23.0006	0.723493	24.1277
0.278183	9.02001	0.030992	0.984832	0.278171	8.82642	0.370686	12.0177	0.563749	18.1781	0.840945	27.0208	0.162052	6.24859	0.424212	13.5319	0.695924	22.3113	0.724033	23.4181
0.278167	8.75498	0.0325528	1.00468	0.278158	8.57259	0.371481	11.6904	0.564037	17.6569	0.841092	26.24	0.163474	6.0848	0.42451	13.1506	0.695859	21.6621	0.724582	22.7502
0.278156	8.50522	0.0341343	1.02405	0.278151	8.33311	0.372293	11.3822	0.564334	17.1656	0.841243	25.5034	0.164923	5.93299	0.424818	12.791	0.695798	21.0497	0.72514	22.1207
0.278151	8.26949	0.0357356	1.04294	0.278151	8.13522	0.373122	11.0916	0.564639	16.7015	0.841399	24.8074	0.166398	5.79194	0.425134	12.4512	0.695743	20.471	0.725707	21.5262
0.278153	8.04666	0.0373557	1.06136	0.278155	7.97391	0.373968	10.8171	0.564953	16.2626	0.841559	24.1488	0.167899	5.6606	0.425458	12.1297	0.695693	19.9234	0.726283	20.9639
0.278161	7.83572	0.0389938	1.07933	0.278161	7.84537	0.37483	10.5575	0.565275	15.8469	0.841724	23.5246	0.169424	5.53805	0.425792	11.8251	0.695648	19.4044	0.726867	20.4313
0.278177	7.63576	0.0406491	1.09686	0.278168	7.74668	0.375707	10.3116	0.565606	15.4526	0.841893	22.9321	0.170971	5.42346	0.426134	11.5361	0.69561	18.9118	0.72746	19.9261
0.278201	7.44599	0.0423207	1.11396	0.278174	7.67572	0.376599	10.0784	0.565946	15.078	0.842066	22.3692	0.17254	5.31612	0.426485	11.2616	0.695576	18.4437	0.728061	19.4463
0.278233	7.26566	0.044008	1.13065	0.278178	7.631	0.377507	9.85694	0.566293	14.7219	0.842243	21.8335	0.17413	5.21539	0.426845	11.0004	0.695549	17.9983	0.728671	18.99
0.278273	7.0941	0.0457101	1.14692	0.278185	7.56764	0.378429	9.64635	0.56665	14.3828	0.842425	21.3232	0.17574	5.12072	0.427213	10.7518	0.695527	17.5741	0.729288	18.5556
0.278321	6.93072	0.0474266	1.16281	0.278194	7.49999	0.379366	9.44589	0.567015	14.0595	0.842612	20.8365	0.177369	5.03158	0.427591	10.5147	0.695512	17.1695	0.729914	18.1414
0.278379	6.77497	0.0491566	1.17831	0.278207	7.40994	0.380316	9.25486	0.567388	13.7511	0.842802	20.3719	0.179016	4.94753	0.427977	10.2885	0.695502	16.7833	0.730547	17.7462
0.278446	6.62634	0.0508996	1.19344	0.278226	7.29919	0.38128	9.07262	0.56777	13.4565	0.842997	19.9278	0.18068	4.86817	0.428371	10.0724	0.695499	16.4141	0.731189	17.3687
0.278522	6.48438	0.0526551	1.2082	0.278254	7.16973	0.382257	8.89859	0.56816	13.1748	0.843196	19.503	0.18236	4.79312	0.428775	9.86574	0.695501	16.061	0.731838	17.0077
0.278608	6.34868	0.0544223	1.22262	0.278292	7.02378	0.383248	8.73226	0.568558	12.9053	0.8434	19.0962	0.184056	4.72207	0.429187	9.66797	0.69551	15.723	0.732494	16.6622
0.278704	6.21884	0.0562009	1.23669	0.278345	6.8637	0.384251	8.57312	0.568965	12.6471	0.843608	18.7063	0.185767	4.6547	0.429608	9.47852	0.695526	15.399	0.733159	16.3312
0.278811	6.09451	0.0579903	1.25043	0.278406	6.71104	0.385267	8.42074	0.569381	12.3995	0.84382	18.3323	0.187493	4.59076	0.430038	9.2969	0.695547	15.0882	0.73383	16.0138
0.278928	5.97538	0.0597901	1.26384	0.278477	6.56529	0.386295	8.2747	0.569805	12.162	0.844037	17.9732	0.189231	4.52999	0.430476	9.12263	0.695575	14.7899	0.734509	15.7092
0.279056	5.86114	0.0615998	1.27695	0.278557	6.42604	0.3872	8.15231	0.570238	11.9339	0.844258	17.6281	0.190983	4.47219	0.430924	8.95529	0.69561	14.5033	0.735196	15.4167
0.279195	5.75151	0.0634189	1.28975	0.278648	6.29287	0.387979	8.05138	0.570679	11.7147	0.844484	17.2964	0.192748	4.41713	0.43138	8.79449	0.69565	14.2278	0.735889	15.1356
0.279346	5.64625	0.0652471	1.30225	0.278748	6.16541	0.388627	7.97018	0.571128	11.5039	0.844714	16.9771	0.194524	4.36464	0.431844	8.63985	0.695698	13.9627	0.73659	14.8651
0.279508	5.5451	0.067084	1.31447	0.278859	6.04333	0.389143	7.90737	0.571586	11.301	0.844948	16.6697	0.196311	4.31455	0.432318	8.49105	0.695752	13.7074	0.737298	14.6048
0.279682	5.44786	0.0689292	1.32641	0.278981	5.92631	0.389524	7.86196	0.572052	11.1057	0.845186	16.3734	0.198109	4.2667	0.4328	8.34777	0.695812	13.4615	0.738013	14.354
0.279869	5.35432	0.0707823	1.33808	0.279114	5.81406	0.389769	7.83323	0.572527	10.9174	0.845429	16.0877	0.199918	4.22095	0.433228	8.22717	0.695879	13.2245	0.738735	14.1124
0.280067	5.26429	0.0726431	1.34949	0.279413	5.60283	0.390122	7.79237	0.57301	10.7359	0.845677	15.8121	0.201736	4.17717	0.433597	8.12737	0.695953	12.9958	0.739464	13.8793
0.280279	5.17759	0.0745112	1.36064	0.279581	5.50336	0.390506	7.74856	0.573502	10.5608	0.845928	15.546	0.203564	4.13524	0.433906	8.04684	0.696033	12.775	0.7402	13.6543
0.280503	5.09405	0.0763862	1.37155	0.27976	5.40772	0.391032	7.68993	0.574002	10.3917	0.846184	15.2889	0.2054	4.09504	0.434153	7.98441	0.69612	12.5618	0.740943	13.4371
0.28074	5.01353	0.078268	1.38221	0.279952	5.31569	0.3917	7.61734	0.57451	10.2284	0.846445	15.0404	0.207246	4.05648	0.434336	7.93919	0.696214	12.3558	0.741693	13.2272
0.280991	4.93588	0.0801561	1.39264	0.280156	5.22709	0.392513	7.53178	0.575027	10.0705	0.846709	14.8001	0.209099	4.01946	0.434454	7.91055	0.696315	12.1565	0.742449	13.0242
0.281254	4.86096	0.0820505	1.40285	0.280372	5.14175	0.393475	7.4344	0.575552	9.91789	0.846978	14.5676	0.21096	3.98389	0.434624	7.86977	0.696422	11.9638	0.743212	12.828
0.281532	4.78865	0.0839507	1.41283	0.280602	5.05952	0.394587	7.32645	0.576086	9.77023	0.847252	14.3425	0.212829	3.94969	0.434809	7.82599	0.696536	11.7773	0.743982	12.638
0.281823	4.71882	0.0858566	1.4226	0.280845	4.98023	0.39571	7.22236	0.576628	9.6273	0.84753	14.1244	0.214705	3.91678	0.435064	7.7673	0.696657	11.5966	0.744758	12.4541
0.282129	4.65138	0.087768	1.43216	0.281101	4.90375	0.396842	7.12192	0.577178	9.48888	0.847812	13.9131	0.216588	3.88509	0.435388	7.69447	0.696784	11.4216	0.745541	12.2759
0.282449	4.5862	0.0896845	1.44152	0.281371	4.82995	0.397984	7.02495	0.577737	9.35478	0.848099	13.7082	0.218477	3.85457	0.435785	7.60843	0.696918	11.252	0.74633	12.1032
0.282783	4.5232	0.0916061	1.45068	0.281654	4.75871	0.399135	6.93128	0.578304	9.2248	0.84839	13.5094	0.220373	3.82513	0.436257	7.51021	0.69706	11.0875	0.747126	11.9358
0.283132	4.46229	0.0935324	1.45965	0.281951	4.68991	0.400296	6.84075	0.57888	9.09875	0.848685	13.3166	0.222274	3.79674	0.436807	7.40097	0.697208	10.9279	0.747928	11.7734
0.283496	4.40336	0.0954634	1.46843	0.282263	4.62344	0.401465	6.75321	0.579464	8.97648	0.848985	13.1293	0.224182	3.76933	0.437366	7.29527	0.697362	10.773	0.748737	11.6158
0.283875	4.34635	0.0973988	1.47704	0.282589	4.5592	0.402643	6.66851	0.580056	8.85781	0.849289	12.9475	0.226094	3.74285	0.437933	7.19294	0.697524	10.6226	0.749552	11.4627
0.28427	4.29118	0.0993384	1.48546	0.282929	4.4971	0.40383	6.58653	0.580656	8.74259	0.849597	12.7708	0.228012	3.71727	0.438509	7.09385	0.697692	10.4765	0.750374	11.3141
0.284679	4.23776	0.101282	1.49372	0.283285	4.43704	0.405024	6.50713	0.581265	8.63069	0.84991	12.599	0.229935	3.69253	0.439094	6.99784	0.697868	10.3345	0.751201	11.1696
0.285105	4.18604	0.10323	1.50181	0.283655	4.37893	0.406227	6.43021	0.581883	8.52197	0.850227	12.432	0.231863	3.6686	0.439687	6.90477	0.69805	10.1965	0.752035	11.0293
0.285547	4.13595	0.105181	1.50973	0.284041	4.32271	0.407438	6.35564	0.582428	8.42971	0.850549	12.2696	0.233795	3.64543	0.44029	6.81453	0.698239	10.0624	0.752875	10.8927
0.286004	4.08742	0.107136	1.5175	0.284442	4.26829	0.408657	6.28334	0.582897	8.35283	0.850875	12.1115	0.235731	3.62299	0.440901	6.72698	0.698434	9.93184	0.753722	10.7599
0.286478	4.04039	0.109095	1.52511	0.284858	4.21561	0.409883	6.21318	0.583289	8.29045	0.851205	11.9576	0.237672	3.60125	0.441521	6.64202	0.698637	9.80482	0.754574	10.6307
0.286905	4.0006	0.111057	1.53258	0.28529	4.16458	0.411117	6.1451	0.583601	8.24187	0.85154	11.8078	0.239616	3.58017	0.442149	6.55954	0.698847	9.68117	0.755433	10.5049
0.287279	3.96752	0.113022	1.5399	0.285739	4.11516	0.412358	6.07899	0.583831	8.20656	0.851879	11.6618	0.241564	3.55972	0.442787	6.47944	0.699063	9.56077	0.756297	10.3824
0.287595	3.94074	0.114737	1.54616	0.286204	4.06728	0.413606	6.01478	0.583979	8.18415	0.852223	11.5196	0.243516	3.53988	0.443433	6.40162	0.699286	9.44349	0.757168	10.2631
0.28785	3.91992	0.1162	1.55141	0.286685	4.02088	0.414862	5.95238	0.584193	8.15217	0.852571	11.381	0.245471	3.52062	0.444088	6.32599	0.699516	9.32922	0.758045	10.1469
0.28804	3.90482	0.117412	1.5557	0.287183	3.9759	0.416124	5.89173	0.584426	8.11773	0.852923	11.2458	0.24743	3.50191	0.444752	6.25246	0.699753	9.21784	0.758927	10.0335
0.288162	3.89523	0.118371	1.55906	0.287697	3.93231	0.417392	5.83275	0.584745	8.07142	0.85328	11.114	0.249391	3.48374	0.445425	6.18096	0.699997	9.10925	0.759816	9.92305
0.28834	3.88157	0.119076	1.5615	0.288229	3.89004	0.418667	5.77538	0.585151	8.01372	0.853641	10.9854	0.251355	3.46606	0.446106	6.1114	0.700248	9.00335	0.76071	9.8153
0.288535	3.86688	0.119528	1.56306	0.288779	3.84906	0.419949	5.71954	0.585647	7.9452	0.854007	10.8599	0.253322	3.44888	0.446796	6.04372	0.700505	8.90005	0.76161	9.71019
0.288805	3.84716	0.120177	1.56529	0.289346	3.80931	0.421237	5.6652	0.586234	7.86651	0.854376	10.7374	0.255292	3.43216	0.447495	5.97784	0.70077	8.79924	0.762516	9.60761
0.289152	3.82264	0.120883	1.56769	0.289931	3.77076	0.42253	5.61227	0.586915	7.77841	0.854751	10.6178	0.257264	3.41589	0.448203	5.91369	0.701041	8.70086	0.763428	9.50749
0.28958	3.79359	0.121844	1.57094	0.290534	3.73336	0.42383	5.56072	0.587605	7.69256	0.855129	10.5009	0.259239	3.40004	0.44892	5.85122	0.701283	8.61703	0.764345	9.40973
0.290095	3.76034	0.123061	1.575	0.291155	3.69709	0.425136	5.51049	0.588303	7.60889	0.855512	10.3868	0.261216	3.38461	0.449645	5.79036	0.701493	8.54693	0.765269	9.31427
0.290703	3.72326	0.124533	1.57984	0.291796	3.6619	0.426447	5.46153	0.589009	7.52732	0.8559	10.2753	0.263194	3.36957	0.45038	5.73105	0.70167	8.48988	0.766198	9.22101
0.29133	3.68729	0.126262	1.58544	0.292455	3.62776	0.427764	5.4138	0.589723	7.44777	0.856292	10.1663	0.265175	3.35491	0.451123	5.67325	0.701811	8.44535	0.767132	9.12988
0.291976	3.65239	0.128247	1.59176	0.293134	3.59463	0.429087	5.36725	0.590446	7.37018	0.856688	10.0597	0.267158	3.34062	0.451875	5.61689	0.701916	8.41293	0.768072	9.04082
0.29264	3.61853	0.130236	1.59796	0.293833	3.5625	0.430414	5.32184	0.591177	7.29447	0.857089	9.95548	0.269142	3.32668	0.452635	5.56193	0.701984	8.39232	0.769018	8.95376
0.293325	3.58568	0.132226	1.60404	0.294551	3.53132	0.431747	5.27752	0.591916	7.22058	0.857494	9.85355	0.271128	3.31307	0.453405	5.50833	0.702082	8.36288	0.76997	8.86863
0.294029	3.55381	0.134218	1.61001	0.295291	3.50108	0.433085	5.23427	0.592664	7.14846	0.857903	9.75382	0.273115	3.29979	0.454183	5.45603	0.702189	8.33114	0.770926	8.78538
0.294753	3.5229	0.136213	1.61588	0.29605	3.47173	0.434428	5.19203	0.59342	7.07803	0.858317	9.65624	0.275104	3.28682	0.454971	5.40499	0.702337	8.28839	0.771765	8.7143
0.295498	3.4929	0.138209	1.62164	0.296831	3.44327	0.435776	5.15079	0.594183	7.00925	0.858735	9.56074	0.277094	3.27415	0.455767	5.35517	0.702526	8.23499	0.772483	8.65477
0.296263	3.46381	0.140207	1.6273	0.297634	3.41567	0.437129	5.1105	0.594955	6.94206	0.859158	9.46724	0.279086	3.26177	0.456571	5.30654	0.702757	8.17141	0.773078	8.60626
0.29705	3.43558	0.142208	1.63285	0.298459	3.3889	0.438486	5.07113	0.595736	6.87641	0.859585	9.37569	0.281078	3.24967	0.457385	5.25905	0.703034	8.09818	0.773551	8.56836
0.297859	3.40821	0.144209	1.63831	0.299306	3.36294	0.439848	5.03265	0.596524	6.81225	0.860016	9.28603	0.283071	3.23784	0.458208	5.21266	0.703357	8.01588	0.7739	8.54074
0.29869	3.38166	0.146213	1.64367	0.300176	3.33777	0.441215	4.99504	0.597321	6.74953	0.860452	9.1982	0.285066	3.22627	0.459039	5.16735	0.703688	7.93539	0.774123	8.52317
0.299543	3.35593	0.148218	1.64894	0.301069	3.31338	0.442585	4.95826	0.598125	6.68821	0.860892	9.11215	0.287061	3.21495	0.45988	5.12308	0.704025	7.85664	0.774444	8.49807
0.300419	3.33097	0.150224	1.65412	0.301986	3.28974	0.44396	4.92228	0.598938	6.62825	0.861337	9.02783	0.289057	3.20387	0.460729	5.07982	0.704369	7.77959	0.774794	8.47098
0.301319	3.30679	0.152232	1.6592	0.302928	3.26684	0.445339	4.88709	0.599759	6.5696	0.861786	8.94518	0.291053	3.19302	0.461587	5.03753	0.70472	7.70419	0.775272	8.43446
0.302243	3.28336	0.154241	1.6642	0.303894	3.24466	0.446723	4.85265	0.600589	6.51222	0.862181	8.87449	0.29305	3.1824	0.462454	4.99619	0.705077	7.63038	0.775877	8.38882
0.303192	3.26066	0.156252	1.66912	0.304886	3.22319	0.44811	4.81895	0.601426	6.45607	0.862521	8.81519	0.295048	3.172	0.463329	4.95577	0.705441	7.55811	0.776612	8.33439
0.304165	3.23867	0.158264	1.67395	0.305904	3.2024	0.449501	4.78596	0.602271	6.40113	0.862803	8.76679	0.297046	3.16181	0.464214	4.91624	0.705812	7.48735	0.777477	8.27161
0.305164	3.21739	0.160277	1.6787	0.306948	3.1823	0.450896	4.75365	0.603125	6.34735	0.863027	8.72894	0.299044	3.15182	0.465108	4.87757	0.70619	7.41804	0.778476	8.20094
0.306189	3.1968	0.162291	1.68337	0.308019	3.16285	0.452294	4.72202	0.603986	6.29469	0.863193	8.70133	0.301042	3.14203	0.46601	4.83975	0.706574	7.35014	0.779479	8.1317
0.30724	3.17687	0.164306	1.68796	0.309118	3.14406	0.453697	4.69103	0.604856	6.24314	0.8633	8.68376	0.303041	3.13243	0.466921	4.80274	0.706966	7.28362	0.780488	8.06385
0.308319	3.15761	0.166323	1.69248	0.310245	3.1259	0.455102	4.66066	0.605734	6.19264	0.863453	8.65864	0.305039	3.12301	0.467841	4.76652	0.707363	7.21843	0.781502	7.99734
0.309426	3.13899	0.16834	1.69692	0.311401	3.10836	0.456512	4.63091	0.60662	6.14318	0.86362	8.63151	0.307038	3.11377	0.46877	4.73108	0.707768	7.15453	0.782521	7.93214
0.310561	3.121	0.170359	1.70129	0.312586	3.09144	0.457924	4.60175	0.607513	6.09473	0.863848	8.59492	0.309037	3.10471	0.469708	4.69639	0.708179	7.09189	0.783545	7.86821
0.311724	3.10364	0.172378	1.70558	0.3138	3.07512	0.45934	4.57316	0.608415	6.04725	0.864138	8.54913	0.311035	3.09581	0.470655	4.66242	0.708597	7.03048	0.784574	7.80552
0.312917	3.08688	0.174398	1.70981	0.315045	3.05938	0.460759	4.54513	0.609325	6.00073	0.864491	8.49446	0.313033	3.08707	0.471611	4.62916	0.709021	6.97026	0.785609	7.74403
0.31414	3.07072	0.176419	1.71397	0.316321	3.04423	0.462181	4.51764	0.610243	5.95512	0.864909	8.43129	0.315031	3.07849	0.472576	4.5966	0.709452	6.9112	0.786648	7.68371
0.315394	3.05515	0.178441	1.71806	0.317628	3.02964	0.463607	4.49067	0.611168	5.91042	0.865392	8.36007	0.317029	3.07005	0.473549	4.5647	0.70989	6.85326	0.787692	7.62452
0.316678	3.04015	0.180464	1.72209	0.318966	3.0156	0.465035	4.46422	0.612102	5.86659	0.865879	8.29017	0.319026	3.06177	0.474532	4.53345	0.710334	6.79642	0.788742	7.56644
0.317993	3.02572	0.182487	1.72605	0.320336	3.00211	0.466466	4.43826	0.613044	5.82361	0.866371	8.22154	0.321023	3.05363	0.475523	4.50285	0.710785	6.74064	0.789796	7.50944
0.31934	3.01183	0.184511	1.72995	0.321738	2.98915	0.467901	4.41279	0.613993	5.78146	0.866867	8.15415	0.323019	3.04563	0.476524	4.47286	0.711243	6.68591	0.790855	7.45348
0.320719	2.99849	0.186536	1.73378	0.323173	2.97672	0.469338	4.38779	0.614951	5.74012	0.867368	8.08798	0.325014	3.03776	0.477533	4.44347	0.711707	6.63219	0.791919	7.39854
0.32213	2.98568	0.188561	1.73756	0.32464	2.96478	0.470777	4.36324	0.615916	5.69956	0.867873	8.02299	0.327009	3.03002	0.478551	4.41468	0.712178	6.57945	0.792988	7.3446
0.323574	2.97338	0.190587	1.74128	0.326139	2.95335	0.47222	4.33914	0.616889	5.65977	0.868383	7.95914	0.329004	3.0224	0.479579	4.38645	0.712655	6.52767	0.794062	7.29162
0.32505	2.96158	0.192613	1.74494	0.327671	2.9424	0.473665	4.31547	0.617871	5.62073	0.868897	7.89642	0.330997	3.01491	0.480615	4.35878	0.713139	6.47683	0.79514	7.23958
0.326558	2.95028	0.19464	1.74855	0.329235	2.93192	0.475112	4.29223	0.61886	5.58241	0.869415	7.8348	0.33299	3.00754	0.48166	4.33166	0.713629	6.4269	0.796223	7.18847
0.328099	2.93946	0.196668	1.75209	0.330832	2.92189	0.476562	4.26939	0.619856	5.5448	0.869938	7.77423	0.334981	3.00028	0.482714	4.30507	0.714126	6.37786	0.797311	7.13825
0.329672	2.92911	0.198696	1.75559	0.332461	2.91231	0.478015	4.24696	0.620861	5.50788	0.870465	7.71471	0.336972	2.99313	0.483777	4.27899	0.714629	6.32968	0.798404	7.0889
0.331278	2.91921	0.200724	1.75903	0.334121	2.90316	0.47947	4.22491	0.621873	5.47164	0.870997	7.6562	0.338962	2.98609	0.484849	4.25342	0.715139	6.28235	0.799501	7.0404
0.332915	2.90975	0.202753	1.76242	0.335812	2.89442	0.480927	4.20324	0.622893	5.43605	0.871533	7.59868	0.34095	2.97916	0.485929	4.22834	0.715655	6.23585	0.800603	6.99273
0.334584	2.90071	0.204782	1.76576	0.337534	2.88609	0.482386	4.18194	0.623921	5.40111	0.872073	7.54213	0.342938	2.97233	0.487019	4.20374	0.716178	6.19015	0.801709	6.94587
0.336283	2.89209	0.206811	1.76904	0.339286	2.87814	0.483848	4.16101	0.624957	5.36679	0.872618	7.48652	0.344924	2.9656	0.488118	4.17962	0.716707	6.14524	0.802821	6.8998
0.338014	2.88386	0.208841	1.77228	0.341067	2.87056	0.485312	4.14042	0.626	5.33308	0.873167	7.43182	0.34691	2.95896	0.489226	4.15595	0.717243	6.10109	0.803936	6.8545
0.339774	2.87601	0.210871	1.77547	0.342877	2.86334	0.486778	4.12018	0.627051	5.29996	0.873721	7.37803	0.348893	2.95242	0.490342	4.13272	0.717785	6.05769	0.805056	6.80996
0.341563	2.86854	0.212901	1.77861	0.344715	2.85646	0.488246	4.10027	0.62811	5.26743	0.874279	7.32511	0.350876	2.94597	0.491468	4.10994	0.718333	6.01502	0.806181	6.76615
0.343381	2.86141	0.214932	1.78171	0.34658	2.84991	0.489716	4.08068	0.629176	5.23547	0.874842	7.27305	0.352857	2.93961	0.492603	4.08758	0.718888	5.97307	0.80731	6.72305
0.345226	2.85463	0.216962	1.78476	0.348471	2.84368	0.491188	4.06142	0.63025	5.20406	0.875408	7.22183	0.354837	2.93334	0.493746	4.06563	0.719449	5.93181	0.808443	6.68065
0.347098	2.84816	0.218993	1.78776	0.350387	2.83774	0.492662	4.04246	0.631331	5.17319	0.87598	7.17142	0.356815	2.92714	0.494899	4.0441	0.720017	5.89124	0.809581	6.63894
0.348996	2.84201	0.221025	1.79072	0.352328	2.83209	0.494137	4.02381	0.632421	5.14285	0.876556	7.12181	0.358792	2.92104	0.49606	4.02296	0.720591	5.85133	0.810724	6.5979
0.350919	2.83615	0.223056	1.79364	0.354292	2.82671	0.495615	4.00546	0.633517	5.11303	0.877136	7.07298	0.360767	2.91501	0.497231	4.00221	0.721171	5.81207	0.81187	6.55751
0.352867	2.83058	0.225087	1.79652	0.356279	2.82158	0.497095	3.98739	0.634621	5.08371	0.87772	7.02492	0.362741	2.90905	0.49841	3.98185	0.721757	5.77344	0.813021	6.51776
0.354837	2.82527	0.227119	1.79935	0.358287	2.81671	0.498576	3.9696	0.635733	5.05489	0.87831	6.9776	0.364713	2.90318	0.499599	3.96185	0.72235	5.73544	0.814176	6.47863
0.35683	2.82022	0.22915	1.80214	0.360316	2.81206	0.500059	3.95209	0.636852	5.02655	0.878903	6.93102	0.366683	2.89737	0.500796	3.94222	0.722949	5.69805	0.815335	6.44011
0.358844	2.8154	0.231182	1.8049	0.362365	2.80764	0.501543	3.93485	0.637979	4.99868	0.879501	6.88514	0.368652	2.89164	0.502002	3.92294	0.723555	5.66125	0.816499	6.40218
0.360879	2.81082	0.233214	1.80761	0.364433	2.80342	0.503029	3.91787	0.639113	4.97128	0.880103	6.83997	0.370619	2.88598	0.503217	3.90401	0.724166	5.62503	0.817667	6.36484
0.362933	2.80645	0.235245	1.81028	0.366519	2.7994	0.504517	3.90115	0.640254	4.94432	0.88071	6.79548	0.372584	2.88038	0.504442	3.88543	0.724784	5.58938	0.818839	6.32807
0.365006	2.80229	0.237277	1.81292	0.368622	2.79557	0.506007	3.88468	0.641403	4.91781	0.881321	6.75166	0.374547	2.87485	0.505675	3.86717	0.725409	5.55428	0.820015	6.29186
0.367096	2.79833	0.239309	1.81552	0.370741	2.79191	0.507498	3.86846	0.642559	4.89173	0.881937	6.70849	0.376508	2.86938	0.506917	3.84924	0.726039	5.51973	0.821195	6.25619
0.369204	2.79454	0.241341	1.81808	0.372876	2.78843	0.50899	3.85248	0.643722	4.86608	0.882557	6.66597	0.378468	2.86398	0.508168	3.83164	0.726676	5.48572	0.822379	6.22105
0.371328	2.79094	0.243372	1.82061	0.375025	2.7851	0.510484	3.83673	0.644893	4.84083	0.883181	6.62407	0.380425	2.85864	0.509427	3.81434	0.727318	5.45222	0.823567	6.18644
0.373466	2.78749	0.245404	1.8231	0.377189	2.78191	0.51198	3.82121	0.646071	4.81599	0.88381	6.58279	0.38238	2.85335	0.510696	3.79735	0.727967	5.41924	0.824759	6.15233
0.37562	2.7842	0.247436	1.82556	0.379365	2.77887	0.513477	3.80592	0.647256	4.79155	0.884444	6.54211	0.384334	2.84813	0.511974	3.78066	0.728622	5.38675	0.825956	6.11873
0.377787	2.78106	0.249467	1.82798	0.381555	2.77597	0.514975	3.79084	0.648448	4.76749	0.885081	6.50201	0.386285	2.84296	0.51326	3.76426	0.729284	5.35476	0.827156	6.08562
0.379967	2.77806	0.251499	1.83037	0.383756	2.77318	0.516475	3.77599	0.649648	4.74382	0.885723	6.4625	0.388234	2.83785	0.514556	3.74815	0.729951	5.32324	0.82836	6.05299
0.38216	2.77519	0.25353	1.83273	0.385969	2.77052	0.517976	3.76134	0.650855	4.72051	0.88637	6.42355	0.390181	2.83279	0.51586	3.73232	0.730625	5.29219	0.829568	6.02082
0.384365	2.77244	0.255561	1.83505	0.388192	2.76797	0.519478	3.7469	0.652068	4.69757	0.887021	6.38515	0.392126	2.82778	0.517173	3.71676	0.731304	5.26161	0.83078	5.98912
0.386581	2.76981	0.257592	1.83734	0.390426	2.76552	0.520982	3.73266	0.653289	4.67499	0.887677	6.3473	0.394069	2.82282	0.518495	3.70148	0.73199	5.23147	0.831995	5.95787
0.388807	2.76728	0.259623	1.8396	0.392669	2.76318	0.522487	3.71862	0.654517	4.65275	0.888336	6.30998	0.396009	2.81792	0.519826	3.68646	0.732682	5.20178	0.833215	5.92705
0.391043	2.76487	0.261653	1.84183	0.394922	2.76093	0.523993	3.70477	0.655752	4.63086	0.889001	6.27319	0.397948	2.81306	0.521165	3.6717	0.73338	5.17252	0.834438	5.89667
0.393289	2.76255	0.263684	1.84403	0.397183	2.75876	0.525501	3.69112	0.656994	4.6093	0.889669	6.2369	0.399884	2.80825	0.522514	3.65719	0.734084	5.14368	0.835665	5.86672
0.395544	2.76032	0.265714	1.8462	0.399452	2.75669	0.527009	3.67765	0.658243	4.58808	0.890342	6.20112	0.401817	2.80349	0.523871	3.64294	0.734793	5.11526	0.836895	5.83718
0.397807	2.75818	0.267744	1.84834	0.401729	2.75469	0.528519	3.66436	0.659498	4.56717	0.89102	6.16583	0.403749	2.79877	0.525237	3.62893	0.735509	5.08725	0.83813	5.80804
0.400078	2.75613	0.269774	1.85045	0.404013	2.75276	0.53003	3.65125	0.660761	4.54658	0.891702	6.13102	0.405678	2.7941	0.526612	3.61515	0.736231	5.05964	0.839368	5.77931
0.402357	2.75415	0.271803	1.85253	0.406304	2.75091	0.531543	3.63832	0.66203	4.52629	0.892389	6.09668	0.407605	2.78947	0.527995	3.60161	0.736959	5.03242	0.840609	5.75097
0.404644	2.75225	0.273833	1.85459	0.408602	2.74913	0.533056	3.62556	0.663306	4.50631	0.893079	6.06281	0.409529	2.78488	0.529387	3.5883	0.737693	5.00559	0.841855	5.72301
0.406937	2.75041	0.275862	1.85661	0.410906	2.74741	0.534571	3.61297	0.664589	4.48663	0.893775	6.02939	0.411451	2.78033	0.530788	3.57522	0.738433	4.97913	0.843103	5.69542
0.409236	2.74865	0.277891	1.85861	0.413216	2.74575	0.536087	3.60054	0.665879	4.46724	0.894474	5.99643	0.413371	2.77583	0.532197	3.56236	0.739179	4.95304	0.844356	5.66821
0.411542	2.74694	0.279919	1.86059	0.415532	2.74414	0.537604	3.58827	0.667175	4.44813	0.895178	5.9639	0.415288	2.77136	0.533615	3.54971	0.73993	4.92732	0.845611	5.64135
0.413854	2.7453	0.281947	1.86253	0.417853	2.7426	0.539122	3.57617	0.668478	4.42931	0.895887	5.9318	0.417203	2.76694	0.535042	3.53728	0.740688	4.90195	0.846871	5.61485
0.416171	2.74371	0.283975	1.86445	0.420178	2.7411	0.540642	3.56422	0.669788	4.41075	0.8966	5.90012	0.419115	2.76255	0.536477	3.52505	0.741452	4.87693	0.848133	5.5887
0.418493	2.74218	0.286003	1.86635	0.422509	2.73965	0.542162	3.55242	0.671104	4.39247	0.897317	5.86886	0.421025	2.7582	0.537921	3.51303	0.742221	4.85225	0.8494	5.56289
0.42082	2.7407	0.28803	1.86822	0.424844	2.73825	0.543684	3.54078	0.672427	4.37445	0.898039	5.838	0.422932	2.75389	0.539373	3.50121	0.742996	4.82792	0.850669	5.53742
0.423152	2.73926	0.290057	1.87006	0.427183	2.73689	0.545206	3.52928	0.673756	4.35669	0.898765	5.80755	0.424837	2.74961	0.540834	3.48959	0.743777	4.80391	0.851942	5.51228
0.425488	2.73787	0.292083	1.87189	0.429527	2.73558	0.54673	3.51793	0.675091	4.33919	0.899496	5.77749	0.426739	2.74537	0.542303	3.47816	0.744564	4.78023	0.853218	5.48745
0.427829	2.73653	0.29411	1.87368	0.431874	2.7343	0.548255	3.50672	0.676433	4.32193	0.900231	5.74781	0.428639	2.74116	0.543781	3.46692	0.745357	4.75686	0.854498	5.46295
0.430173	2.73522	0.296135	1.87546	0.434224	2.73306	0.549781	3.49564	0.677782	4.30492	0.900971	5.71852	0.430537	2.73699	0.545267	3.45587	0.746156	4.73381	0.855781	5.43875
0.432521	2.73396	0.298161	1.87721	0.436579	2.73186	0.551308	3.48471	0.679137	4.28815	0.901715	5.68959	0.432432	2.73285	0.546761	3.445	0.74696	4.71107	0.857067	5.41486
0.434873	2.73273	0.300186	1.87894	0.438936	2.73069	0.552837	3.47391	0.680498	4.27161	0.902463	5.66104	0.434324	2.72874	0.548264	3.4343	0.74777	4.68863	0.858356	5.39128
0.437228	2.73153	0.30221	1.88064	0.441296	2.72955	0.554366	3.46325	0.681865	4.25531	0.903216	5.63284	0.436214	2.72467	0.549775	3.42379	0.748586	4.66648	0.859649	5.36798
0.439586	2.73037	0.304235	1.88232	0.44366	2.72845	0.555897	3.45271	0.683238	4.23923	0.903973	5.60499	0.438102	2.72062	0.551294	3.41344	0.749408	4.64463	0.860944	5.34498
0.441947	2.72925	0.306259	1.88399	0.446026	2.72737	0.557428	3.44231	0.684618	4.22338	0.904735	5.5775	0.439987	2.71661	0.552821	3.40327	0.750236	4.62306	0.862243	5.32225
0.444311	2.72815	0.308282	1.88563	0.448394	2.72632	0.558961	3.43203	0.686004	4.20774	0.905501	5.55034	0.44187	2.71263	0.554357	3.39326	0.751069	4.60178	0.863545	5.29981
0.446678	2.72708	0.310305	1.88725	0.450765	2.7253	0.560495	3.42187	0.687395	4.19232	0.906271	5.52352	0.44375	2.70868	0.5559	3.38341	0.751908	4.58077	0.86485	5.27764
0.449047	2.72604	0.312327	1.88884	0.453138	2.7243	0.56203	3.41184	0.688793	4.17711	0.907046	5.49703	0.445627	2.70476	0.557452	3.37372	0.752752	4.56003	0.866158	5.25574
0.451419	2.72502	0.31435	1.89042	0.455513	2.72333	0.563567	3.40192	0.690197	4.1621	0.907826	5.47086	0.447502	2.70087	0.559012	3.36419	0.753603	4.53956	0.867469	5.23411
0.453792	2.72403	0.316371	1.89198	0.457891	2.72237	0.565104	3.39212	0.691607	4.1473	0.90861	5.44501	0.449375	2.697	0.560579	3.35482	0.754459	4.51935	0.868784	5.21273
0.456168	2.72306	0.318392	1.89351	0.46027	2.72145	0.566643	3.38244	0.693022	4.1327	0.909398	5.41948	0.451246	2.69317	0.562155	3.34559	0.75532	4.4994	0.870101	5.19161
0.458546	2.72212	0.320413	1.89503	0.462651	2.72054	0.568183	3.37288	0.694443	4.1183	0.910191	5.39425	0.453113	2.68936	0.563738	3.33651	0.756188	4.47971	0.871421	5.17074
0.460926	2.72119	0.322433	1.89653	0.465033	2.71965	0.569724	3.36342	0.695871	4.10409	0.910988	5.36932	0.454979	2.68558	0.565329	3.32758	0.757061	4.46026	0.872744	5.15012
0.463307	2.72029	0.324453	1.89801	0.467418	2.71877	0.571266	3.35408	0.697304	4.09006	0.911789	5.3447	0.456842	2.68183	0.566928	3.31879	0.757939	4.44106	0.87407	5.12974
0.46569	2.7194	0.326472	1.89947	0.469803	2.71792	0.572809	3.34484	0.698742	4.07623	0.912595	5.32037	0.458703	2.67811	0.568535	3.31014	0.758824	4.4221	0.875398	5.1096
0.468075	2.71854	0.328491	1.90091	0.47219	2.71708	0.574354	3.33572	0.700187	4.06257	0.913405	5.29632	0.460561	2.67441	0.570149	3.30163	0.759714	4.40338	0.87673	5.0897
0.470461	2.71769	0.330509	1.90233	0.474578	2.71626	0.5759	3.3267	0.701637	4.04909	0.91422	5.27256	0.462417	2.67074	0.571771	3.29326	0.760609	4.38489	0.878064	5.07002
0.472848	2.71686	0.332527	1.90374	0.476967	2.71546	0.577448	3.31778	0.703092	4.03579	0.915039	5.24908	0.464271	2.66709	0.573401	3.28501	0.76151	4.36663	0.879401	5.05057
0.475236	2.71604	0.334544	1.90512	0.479358	2.71467	0.578996	3.30896	0.704553	4.02267	0.915863	5.22588	0.466122	2.66347	0.575037	3.2769	0.762417	4.34859	0.880741	5.03134
0.477626	2.71524	0.336561	1.90649	0.481749	2.71389	0.580546	3.30025	0.70602	4.00971	0.916691	5.20294	0.467971	2.65988	0.576682	3.26891	0.763329	4.33078	0.882084	5.01233
0.480016	2.71445	0.338577	1.90784	0.484141	2.71313	0.582098	3.29163	0.707492	3.99692	0.917524	5.18027	0.469818	2.65631	0.578333	3.26105	0.764246	4.31319	0.883429	4.99354
0.482408	2.71368	0.340593	1.90918	0.486534	2.71237	0.583651	3.28312	0.708969	3.9843	0.91836	5.15787	0.471663	2.65277	0.579992	3.25331	0.765169	4.29581	0.884777	4.97496
0.4848	2.71292	0.342608	1.9105	0.488927	2.71163	0.585205	3.2747	0.710452	3.97183	0.919202	5.13572	0.473506	2.64925	0.581658	3.2457	0.766098	4.27864	0.886127	4.95659
0.487193	2.71217	0.344622	1.9118	0.491321	2.7109	0.58676	3.26637	0.711939	3.95953	0.920048	5.11382	0.475346	2.64575	0.583331	3.2382	0.767032	4.26169	0.887481	4.93842
0.489587	2.71143	0.346636	1.91308	0.493716	2.71018	0.588317	3.25814	0.713433	3.94738	0.920898	5.09218	0.477184	2.64228	0.585011	3.23082	0.767972	4.24493	0.888836	4.92046
0.491981	2.7107	0.34865	1.91435	0.496111	2.70947	0.589876	3.25	0.714931	3.93538	0.921752	5.07078	0.47902	2.63883	0.586699	3.22355	0.768917	4.22838	0.890195	4.90269
0.494376	2.70999	0.350663	1.9156	0.498507	2.70877	0.591436	3.24196	0.716434	3.92353	0.922611	5.04962	0.480854	2.63541	0.588393	3.21639	0.769868	4.21203	0.891556	4.88512
0.496771	2.70928	0.352675	1.91684	0.500903	2.70808	0.592997	3.234	0.717943	3.91183	0.923475	5.02871	0.482687	2.63201	0.590094	3.20934	0.770824	4.19587	0.892919	4.86774
0.499167	2.70858	0.354687	1.91806	0.503299	2.7074	0.59456	3.22613	0.719456	3.90028	0.924343	5.00803	0.484517	2.62864	0.591802	3.20241	0.771786	4.17991	0.894285	4.85055
0.501563	2.70789	0.356698	1.91926	0.505695	2.70672	0.596125	3.21835	0.720975	3.88887	0.925215	4.98757	0.486345	2.62529	0.593516	3.19557	0.772753	4.16413	0.895653	4.83354
0.503959	2.70721	0.358708	1.92046	0.508091	2.70605	0.597691	3.21066	0.722498	3.8776	0.926092	4.96735	0.488171	2.62196	0.595238	3.18884	0.773725	4.14855	0.897024	4.81672
0.506355	2.70654	0.360718	1.92163	0.510488	2.70539	0.599259	3.20305	0.724027	3.86647	0.926973	4.94736	0.489995	2.61865	0.596966	3.18222	0.774703	4.13314	0.898397	4.80008
0.508752	2.70587	0.362727	1.92279	0.512884	2.70474	0.600829	3.19553	0.72556	3.85547	0.927859	4.92758	0.491818	2.61537	0.5987	3.17569	0.775687	4.11792	0.899773	4.78362
0.511148	2.70521	0.364736	1.92394	0.51528	2.70409	0.602401	3.18809	0.727098	3.84461	0.928749	4.90802	0.493638	2.61211	0.600441	3.16926	0.776675	4.10288	0.901151	4.76733
0.513544	2.70456	0.366744	1.92507	0.517676	2.70344	0.603974	3.18073	0.72864	3.83388	0.929643	4.88868	0.495457	2.60887	0.602188	3.16293	0.777669	4.08801	0.902531	4.75121
0.51594	2.70391	0.368752	1.92619	0.520072	2.7028	0.605549	3.17345	0.730188	3.82328	0.930542	4.86955	0.497274	2.60565	0.603941	3.15669	0.778669	4.07331	0.903914	4.73527
0.518336	2.70327	0.370759	1.92729	0.522468	2.70217	0.607126	3.16626	0.73174	3.81281	0.931446	4.85062	0.499089	2.60246	0.605701	3.15055	0.779674	4.05879	0.905298	4.71948
0.520732	2.70263	0.372765	1.92838	0.524863	2.70154	0.608704	3.15914	0.733296	3.80246	0.932353	4.83191	0.500903	2.59929	0.607466	3.14449	0.780684	4.04443	0.906685	4.70387
0.523128	2.702	0.374771	1.92946	0.527257	2.70091	0.610285	3.1521	0.734858	3.79223	0.933265	4.81339	0.502715	2.59614	0.609238	3.13853	0.7817	4.03024	0.908075	4.68841
0.525522	2.70137	0.376776	1.93052	0.529651	2.70029	0.611868	3.14514	0.736423	3.78213	0.934182	4.79508	0.504526	2.59302	0.611016	3.13265	0.782721	4.01621	0.909466	4.67312
0.527917	2.70074	0.37878	1.93157	0.532045	2.69967	0.613452	3.13826	0.737993	3.77214	0.935103	4.77696	0.506335	2.58991	0.6128	3.12686	0.783747	4.00234	0.91086	4.65798
0.530311	2.70012	0.380784	1.9326	0.534438	2.69905	0.615039	3.13145	0.739568	3.76227	0.936029	4.75904	0.508142	2.58683	0.614589	3.12115	0.784779	3.98863	0.912256	4.643
0.532704	2.6995	0.382787	1.93363	0.53683	2.69843	0.616628	3.12472	0.741146	3.75252	0.936959	4.74131	0.509948	2.58377	0.616384	3.11552	0.785816	3.97508	0.913653	4.62816
0.535097	2.69888	0.38479	1.93464	0.539221	2.69782	0.618219	3.11806	0.742729	3.74288	0.937893	4.72376	0.511753	2.58073	0.618185	3.10998	0.786858	3.96168	0.915053	4.61348
0.537489	2.69827	0.386792	1.93564	0.541612	2.69721	0.619812	3.11147	0.744317	3.73335	0.938832	4.70641	0.513556	2.57771	0.619991	3.10452	0.787905	3.94843	0.916455	4.59895
0.53988	2.69765	0.388793	1.93662	0.544002	2.6966	0.621408	3.10496	0.745908	3.72393	0.939775	4.68923	0.515358	2.57472	0.621803	3.09913	0.788958	3.93534	0.91786	4.58456
0.54227	2.69704	0.390793	1.93759	0.54639	2.69599	0.623006	3.09852	0.747504	3.71461	0.940722	4.67224	0.517159	2.57174	0.62362	3.09382	0.790016	3.92238	0.919266	4.57031
0.54466	2.69643	0.392793	1.93855	0.548778	2.69538	0.624606	3.09215	0.749103	3.70541	0.941675	4.65543	0.518958	2.56879	0.625443	3.08859	0.79108	3.90958	0.920674	4.55621
0.547048	2.69582	0.394792	1.9395	0.551164	2.69477	0.626209	3.08585	0.750707	3.6963	0.942631	4.63879	0.520756	2.56586	0.62727	3.08342	0.792149	3.89692	0.922084	4.54225
0.549436	2.69521	0.396791	1.94044	0.55355	2.69416	0.627814	3.07962	0.752315	3.68731	0.943592	4.62233	0.522553	2.56294	0.629103	3.07834	0.793223	3.8844	0.923496	4.52842
0.551822	2.6946	0.398789	1.94137	0.555934	2.69354	0.629421	3.07346	0.753926	3.67841	0.944557	4.60603	0.524349	2.56005	0.630941	3.07332	0.794302	3.87202	0.92491	4.51473
0.554207	2.69399	0.400786	1.94228	0.558316	2.69293	0.631032	3.06737	0.755542	3.66961	0.945527	4.58991	0.526144	2.55719	0.632784	3.06837	0.795386	3.85977	0.926326	4.50117
0.55659	2.69338	0.402783	1.94318	0.560697	2.69232	0.632645	3.06134	0.757161	3.66091	0.946501	4.57395	0.527938	2.55434	0.634632	3.06349	0.796476	3.84767	0.927743	4.48774
0.558972	2.69276	0.404779	1.94407	0.563077	2.6917	0.63426	3.05539	0.758784	3.6523	0.94748	4.55816	0.529731	2.55151	0.636485	3.05868	0.797571	3.83569	0.929163	4.47444
0.561353	2.69215	0.406774	1.94495	0.565455	2.69109	0.635879	3.0495	0.760411	3.64379	0.948463	4.54253	0.531523	2.54871	0.638342	3.05393	0.798671	3.82385	0.930584	4.46127
0.563733	2.69153	0.408768	1.94582	0.567832	2.69047	0.6375	3.04367	0.762042	3.63537	0.949451	4.52706	0.533315	2.54592	0.640204	3.04925	0.799777	3.81214	0.932008	4.44822
0.56611	2.69092	0.410762	1.94668	0.570207	2.68984	0.639125	3.03792	0.763676	3.62705	0.950443	4.51174	0.535105	2.54316	0.642071	3.04463	0.800888	3.80055	0.933433	4.4353
0.568486	2.69029	0.412755	1.94752	0.572579	2.68922	0.640752	3.03222	0.765314	3.61881	0.951439	4.49658	0.536894	2.54041	0.643942	3.04007	0.802004	3.7891	0.934859	4.4225
0.57086	2.68967	0.414748	1.94836	0.57495	2.68859	0.642383	3.02659	0.766955	3.61067	0.95244	4.48158	0.538683	2.53769	0.645817	3.03557	0.803125	3.77776	0.936288	4.40982
0.573233	2.68905	0.41674	1.94919	0.577319	2.68796	0.644016	3.02103	0.7686	3.60261	0.953445	4.46673	0.540471	2.53499	0.647697	3.03113	0.804251	3.76656	0.937718	4.39726
0.575603	2.68842	0.418731	1.95	0.579687	2.68732	0.645653	3.01553	0.770248	3.59464	0.954455	4.45203	0.542259	2.5323	0.649581	3.02675	0.805383	3.75547	0.93915	4.38482
0.577972	2.68778	0.420721	1.95081	0.582051	2.68668	0.647293	3.01009	0.7719	3.58675	0.955469	4.43747	0.544046	2.52964	0.651469	3.02243	0.80652	3.7445	0.940583	4.37249
0.580338	2.68714	0.422711	1.9516	0.584414	2.68603	0.648937	3.00472	0.773555	3.57895	0.956488	4.42307	0.545832	2.527	0.653362	3.01816	0.807662	3.73365	0.942018	4.36028
0.582702	2.6865	0.4247	1.95239	0.586774	2.68538	0.650584	2.9994	0.775213	3.57122	0.957511	4.4088	0.547618	2.52438	0.655258	3.01395	0.808809	3.72292	0.943455	4.34818
0.585064	2.68585	0.426688	1.95316	0.589132	2.68472	0.652235	2.99415	0.776875	3.56358	0.958538	4.39468	0.549403	2.52178	0.657158	3.00979	0.809961	3.71231	0.944893	4.33619
0.587424	2.6852	0.428676	1.95393	0.591487	2.68406	0.65389	2.98896	0.778539	3.55602	0.95957	4.3807	0.551188	2.5192	0.659062	3.00568	0.811119	3.7018	0.946333	4.3243
0.589781	2.68454	0.430663	1.95468	0.59384	2.68339	0.655548	2.98384	0.780207	3.54854	0.960607	4.36686	0.552972	2.51664	0.66097	3.00163	0.812282	3.69141	0.947775	4.31253
0.592135	2.68388	0.432649	1.95543	0.596189	2.68271	0.65721	2.97877	0.781878	3.54113	0.961647	4.35315	0.554756	2.51409	0.662881	2.99763	0.81345	3.68114	0.949218	4.30086
0.594487	2.68321	0.434635	1.95616	0.598536	2.68203	0.658876	2.97376	0.783552	3.53381	0.962693	4.33958	0.55654	2.51157	0.664796	2.99367	0.814623	3.67097	0.950662	4.2893
0.596836	2.68253	0.436619	1.95689	0.60088	2.68134	0.660546	2.96882	0.78523	3.52655	0.963742	4.32614	0.558323	2.50907	0.666714	2.98977	0.815801	3.66091	0.952108	4.27784
0.599183	2.68184	0.438603	1.95761	0.603221	2.68064	0.662221	2.96393	0.78691	3.51937	0.964797	4.31284	0.560107	2.50659	0.668636	2.98591	0.816984	3.65095	0.953556	4.26649
0.601526	2.68115	0.440587	1.95832	0.605559	2.67994	0.663899	2.95911	0.788593	3.51226	0.965855	4.29966	0.56189	2.50413	0.670562	2.9821	0.818173	3.6411	0.955004	4.25523
0.603866	2.68045	0.44257	1.95902	0.607894	2.67922	0.665582	2.95434	0.790279	3.50523	0.966918	4.28661	0.563673	2.50169	0.67249	2.97834	0.819367	3.63136	0.956455	4.24407
0.606203	2.67974	0.444551	1.95971	0.610225	2.67849	0.66727	2.94963	0.791967	3.49826	0.967986	4.27369	0.565455	2.49927	0.674422	2.97462	0.820566	3.62172	0.957906	4.23301
0.608536	2.67902	0.446533	1.96039	0.612553	2.67776	0.668962	2.94498	0.793659	3.49136	0.969058	4.2609	0.567238	2.49686	0.676356	2.97094	0.82177	3.61218	0.959359	4.22205
0.610867	2.67829	0.448513	1.96106	0.614877	2.67702	0.670659	2.94039	0.795353	3.48453	0.970134	4.24823	0.569021	2.49448	0.678294	2.96731	0.82298	3.60274	0.960814	4.21119
0.613193	2.67756	0.450493	1.96173	0.617197	2.67626	0.672361	2.93586	0.79705	3.47777	0.971215	4.23568	0.570803	2.49212	0.680235	2.96372	0.824194	3.5934	0.962269	4.20041
0.615516	2.67681	0.452472	1.96239	0.619513	2.6755	0.674068	2.93139	0.79875	3.47108	0.9723	4.22325	0.572586	2.48977	0.682179	2.96017	0.825414	3.58416	0.963726	4.18973
0.617835	2.67605	0.45445	1.96303	0.621825	2.67472	0.675779	2.92697	0.800452	3.46445	0.97339	4.21095	0.574369	2.48745	0.684125	2.95667	0.826639	3.57502	0.965185	4.17915
0.62015	2.67528	0.456428	1.96367	0.624133	2.67393	0.677497	2.92262	0.802157	3.45788	0.974484	4.19876	0.576152	2.48514	0.686074	2.9532	0.827869	3.56597	0.966644	4.16865
0.622462	2.67451	0.458405	1.9643	0.626437	2.67313	0.679219	2.91832	0.803864	3.45138	0.975583	4.18668	0.577935	2.48285	0.688026	2.94977	0.829104	3.55701	0.968105	4.15824
0.624769	2.67371	0.460381	1.96493	0.628737	2.67232	0.680947	2.91408	0.805574	3.44494	0.976686	4.17473	0.579718	2.48058	0.68998	2.94638	0.830344	3.54815	0.969567	4.14792
0.627071	2.67291	0.462357	1.96554	0.631031	2.6715	0.682681	2.90989	0.807286	3.43856	0.977794	4.16288	0.581501	2.47833	0.691937	2.94303	0.83159	3.53938	0.97103	4.13769
0.629369	2.67209	0.464332	1.96615	0.633322	2.67066	0.68442	2.90577	0.809001	3.43225	0.978906	4.15115	0.583285	2.4761	0.693896	2.93971	0.832841	3.53071	0.972495	4.12754
0.631663	2.67127	0.466306	1.96675	0.635607	2.6698	0.686165	2.9017	0.810717	3.42599	0.980022	4.13953	0.585069	2.47389	0.695857	2.93643	0.834097	3.52212	0.97396	4.11748
0.633952	2.67042	0.468279	1.96734	0.637887	2.66894	0.687917	2.89769	0.812437	3.41979	0.981143	4.12802	0.586853	2.4717	0.697821	2.93318	0.835358	3.51362	0.975427	4.1075
0.636236	2.66957	0.470252	1.96793	0.640162	2.66806	0.689674	2.89374	0.814158	3.41365	0.982269	4.11662	0.588638	2.46953	0.699787	2.92997	0.836624	3.50521	0.976895	4.09761
0.638515	2.6687	0.472224	1.9685	0.642432	2.66716	0.691438	2.88984	0.815882	3.40756	0.983399	4.10532	0.590423	2.46737	0.701755	2.9268	0.837896	3.49689	0.978364	4.08779
0.640788	2.66781	0.474195	1.96907	0.644697	2.66625	0.693208	2.886	0.817608	3.40153	0.984533	4.09413	0.592208	2.46523	0.703725	2.92365	0.839172	3.48865	0.979834	4.07806
0.643057	2.66691	0.476165	1.96964	0.646956	2.66532	0.694985	2.88222	0.819336	3.39556	0.985672	4.08305	0.593994	2.46311	0.705697	2.92054	0.840454	3.4805	0.981305	4.06841
0.64532	2.66599	0.478135	1.97019	0.649209	2.66438	0.696769	2.87849	0.821066	3.38964	0.986815	4.07207	0.59578	2.46101	0.707671	2.91746	0.841741	3.47243	0.982777	4.05883
0.647577	2.66506	0.480104	1.97074	0.651456	2.66341	0.69856	2.87483	0.822798	3.38378	0.987963	4.06119	0.597567	2.45893	0.709647	2.91441	0.843033	3.46445	0.984251	4.04934
0.649829	2.66411	0.482072	1.97128	0.653697	2.66244	0.700358	2.87122	0.824533	3.37797	0.989115	4.05042	0.599354	2.45686	0.711624	2.91139	0.844331	3.45654	0.985725	4.03992
0.652074	2.66315	0.48404	1.97181	0.655932	2.66144	0.702163	2.86766	0.826269	3.37221	0.990272	4.03974	0.601142	2.45482	0.713604	2.9084	0.845634	3.44872	0.9872	4.03057
0.654314	2.66216	0.486007	1.97234	0.658161	2.66043	0.703975	2.86417	0.828007	3.3665	0.991433	4.02916	0.60293	2.45279	0.715584	2.90544	0.846941	3.44098	0.988677	4.0213
0.656547	2.66116	0.487973	1.97286	0.660384	2.65939	0.705795	2.86073	0.829747	3.36085	0.992598	4.01868	0.604719	2.45078	0.717567	2.90251	0.848254	3.43332	0.990154	4.01211
0.658774	2.66014	0.489938	1.97337	0.662599	2.65834	0.707622	2.85734	0.831489	3.35524	0.993768	4.0083	0.606509	2.44878	0.719551	2.89961	0.849573	3.42574	0.991632	4.00299
0.660995	2.65911	0.491903	1.97388	0.664808	2.65727	0.709458	2.85402	0.833232	3.34968	0.994943	3.99801	0.608299	2.44681	0.721536	2.89673	0.850896	3.41823	0.993111	3.99393
0.663209	2.65805	0.493867	1.97438	0.667011	2.65618	0.711301	2.85075	0.834978	3.34417	0.996122	3.98782	0.61009	2.44485	0.723522	2.89388	0.852225	3.4108	0.994591	3.98496
0.665416	2.65697	0.49583	1.97487	0.669206	2.65507	0.713152	2.84754	0.836725	3.33871	0.997306	3.97772	0.611881	2.44291	0.72551	2.89106	0.853559	3.40345	0.996072	3.97605
0.667616	2.65588	0.497792	1.97535	0.671394	2.65394	0.715012	2.84438	0.838474	3.3333	0.998493	3.96772	0.613674	2.44098	0.727499	2.88826	0.854898	3.39617	0.997554	3.96721
0.669809	2.65476	0.499754	1.97583	0.673575	2.65279	0.71688	2.84128	0.840225	3.32793	0.999686	3.9578	0.615467	2.43908	0.729489	2.88549	0.856242	3.38897	0.999037	3.95844
0.671995	2.65363	0.501715	1.97631	0.675748	2.65162	0.718757	2.83824	0.841977	3.32261	1.00088	3.94798	0.617261	2.43719	0.73148	2.88274	0.857592	3.38184	1.00052	3.94973
0.674174	2.65247	0.503676	1.97678	0.677914	2.65043	0.720642	2.83525	0.84373	3.31734			0.619055	2.43531	0.733472	2.88002	0.858947	3.37479		
0.676345	2.6513	0.505635	1.97724	0.680072	2.64922	0.722535	2.83232	0.845486	3.3121			0.620851	2.43346	0.735465	2.87732	0.860307	3.3678		
0.678509	2.6501	0.507594	1.97769	0.682223	2.64799	0.724438	2.82944	0.847243	3.30692			0.622647	2.43162	0.737459	2.87464	0.861672	3.36089		
0.680665	2.64888	0.509553	1.97814	0.684366	2.64673	0.72635	2.82662	0.849001	3.30177			0.624444	2.4298	0.739454	2.87199	0.863043	3.35405		
0.682814	2.64765	0.51151	1.97858	0.686501	2.64546	0.72827	2.82386	0.850761	3.29667			0.626242	2.42799	0.74145	2.86935	0.864419	3.34727		
0.684955	2.64639	0.513467	1.97902	0.688628	2.64416	0.7302	2.82115	0.852522	3.29161			0.628041	2.4262	0.743446	2.86674	0.8658	3.34057		
0.687087	2.6451	0.515423	1.97945	0.690747	2.64284	0.732139	2.81849	0.854284	3.28659			0.629841	2.42443	0.745442	2.86415	0.867187	3.33394		
0.689212	2.6438	0.517378	1.97988	0.692858	2.6415	0.734087	2.81589	0.856048	3.28162			0.631642	2.42267	0.74744	2.86158	0.868579	3.32737		
0.691329	2.64248	0.519333	1.9803	0.69496	2.64014	0.736045	2.81335	0.857813	3.27668			0.633444	2.42093	0.749437	2.85903	0.869976	3.32087		
0.693438	2.64113	0.521287	1.98071	0.697055	2.63876	0.738012	2.81086	0.85958	3.27178			0.635246	2.41921	0.751436	2.8565	0.871378	3.31443		
0.695538	2.63977	0.52324	1.98112	0.699142	2.63736	0.739988	2.80842	0.861347	3.26693			0.63705	2.4175	0.753434	2.85399	0.872786	3.30806		
0.697631	2.63838	0.525193	1.98152	0.70122	2.63593	0.741974	2.80603	0.863116	3.26211			0.638855	2.4158	0.755433	2.8515	0.874199	3.30176		
0.699715	2.63697	0.527145	1.98192	0.70329	2.63449	0.74397	2.8037	0.864886	3.25733			0.64066	2.41413	0.757432	2.84902	0.875618	3.29552		
0.701791	2.63554	0.529096	1.98231	0.705352	2.63302	0.745974	2.80142	0.866658	3.25259			0.642467	2.41246	0.759431	2.84657	0.877041	3.28935		
0.703859	2.63409	0.531047	1.9827	0.707406	2.63154	0.747989	2.79919	0.86843	3.24788			0.644275	2.41082	0.761431	2.84413	0.87847	3.28323		
0.705919	2.63262	0.532996	1.98308	0.709452	2.63003	0.750013	2.79701	0.870203	3.24321			0.646084	2.40919	0.76343	2.84171	0.879905	3.27718		
0.70797	2.63113	0.534946	1.98346	0.711489	2.62851	0.752046	2.79488	0.871977	3.23858			0.647893	2.40757	0.765429	2.8393	0.881345	3.27119		
0.710014	2.62961	0.536894	1.98383	0.713519	2.62696	0.754089	2.79281	0.873753	3.23398			0.649704	2.40597	0.767429	2.83692	0.88279	3.26527		
0.712049	2.62808	0.538842	1.98419	0.71554	2.6254	0.756141	2.79078	0.875529	3.22942			0.651516	2.40439	0.769428	2.83454	0.884241	3.2594		
0.714076	2.62653	0.540789	1.98455	0.717554	2.62382	0.758202	2.7888	0.877306	3.22489			0.65333	2.40282	0.771427	2.83219	0.885697	3.25359		
0.716096	2.62497	0.542735	1.98491	0.71956	2.62222	0.760273	2.78686	0.879085	3.2204			0.655144	2.40126	0.773426	2.82985	0.887158	3.24785		
0.718107	2.62338	0.544681	1.98526	0.721558	2.6206	0.762353	2.78497	0.880864	3.21594			0.656959	2.39972	0.775424	2.82752	0.888625	3.24216		
0.720111	2.62178	0.546626	1.98561	0.723548	2.61897	0.764442	2.78313	0.882644	3.21152			0.658776	2.39819	0.777422	2.82521	0.890097	3.23653		
0.722107	2.62016	0.54857	1.98595	0.725531	2.61732	0.76654	2.78134	0.884424	3.20712			0.660593	2.39668	0.77942	2.82291	0.891575	3.23095		
0.724095	2.61852	0.550514	1.98629	0.727506	2.61566	0.768647	2.77959	0.886206	3.20276			0.662412	2.39518	0.781417	2.82063	0.893058	3.22544		
0.726076	2.61686	0.552457	1.98662	0.729474	2.61398	0.770763	2.77788	0.887988	3.19843			0.664232	2.3937	0.783414	2.81835	0.894546	3.21998		
0.728049	2.61519	0.554399	1.98695	0.731435	2.61228	0.772887	2.77621	0.889771	3.19414			0.666054	2.39223	0.78541	2.8161	0.89604	3.21458		
0.730015	2.61351	0.556341	1.98727	0.733389	2.61057	0.77502	2.77459	0.891555	3.18987			0.667876	2.39078	0.787406	2.81385	0.89754	3.20923		
0.731974	2.61181	0.558282	1.98759	0.735336	2.60885	0.777161	2.773	0.89334	3.18564			0.6697	2.38934	0.789401	2.81162	0.899044	3.20393		
0.733926	2.6101	0.560222	1.9879	0.737277	2.60712	0.779311	2.77146	0.895125	3.18143			0.671524	2.38791	0.791395	2.8094	0.900555	3.1987		
0.735872	2.60837	0.562162	1.98821	0.73921	2.60537	0.781469	2.76996	0.896911	3.17726			0.67335	2.3865	0.793389	2.80719	0.902071	3.19351		
0.73781	2.60664	0.564101	1.98852	0.741138	2.60361	0.783635	2.76849	0.898697	3.17312			0.675178	2.3851	0.795381	2.805	0.903592	3.18838		
0.739742	2.60489	0.566039	1.98882	0.743059	2.60185	0.785808	2.76706	0.900484	3.169			0.677006	2.38371	0.797373	2.80281	0.905119	3.1833		
0.741668	2.60313	0.567977	1.98911	0.744973	2.60007	0.787989	2.76567	0.902272	3.16491			0.678836	2.38234	0.799364	2.80064	0.906651	3.17828		
0.743587	2.60136	0.569914	1.98941	0.746882	2.59828	0.790178	2.76431	0.90406	3.16086			0.680667	2.38098	0.801354	2.79847	0.908189	3.1733		
0.7455	2.59958	0.57185	1.9897	0.748786	2.59649	0.792374	2.76299	0.905848	3.15683			0.682499	2.37963	0.803343	2.79632	0.909732	3.16838		
0.747407	2.59779	0.573786	1.98998	0.750683	2.59469	0.794577	2.7617	0.907638	3.15282			0.684332	2.3783	0.80533	2.79418	0.911281	3.16351		
0.749309	2.59599	0.575721	1.99026	0.752575	2.59288	0.796787	2.76044	0.909427	3.14885			0.686167	2.37698	0.807317	2.79205	0.912835	3.15869		
0.751205	2.59419	0.577656	1.99054	0.754462	2.59106	0.799004	2.75921	0.911217	3.1449			0.688003	2.37567	0.809303	2.78992	0.914395	3.15392		
0.753096	2.59238	0.57959	1.99081	0.756344	2.58924	0.801227	2.75802	0.913008	3.14098			0.68984	2.37437	0.811287	2.78781	0.915961	3.1492		
0.754981	2.59056	0.581523	1.99108	0.75822	2.58741	0.803457	2.75685	0.914799	3.13709			0.691679	2.37309	0.81327	2.7857	0.917532	3.14453		
0.756861	2.58873	0.583455	1.99134	0.760092	2.58558	0.805693	2.75571	0.91659	3.13322			0.693518	2.37182	0.815252	2.78361	0.919108	3.13991		
0.758737	2.5869	0.585387	1.9916	0.76196	2.58374	0.807936	2.75461	0.918381	3.12938			0.695359	2.37056	0.817232	2.78152	0.92069	3.13533		
0.760607	2.58507	0.587319	1.99186	0.763822	2.5819	0.810184	2.75352	0.920173	3.12556			0.697202	2.36932	0.819211	2.77945	0.922278	3.1308		
0.762473	2.58323	0.589249	1.99211	0.765681	2.58006	0.812438	2.75247	0.921966	3.12177			0.699045	2.36809	0.821189	2.77738	0.923871	3.12632		
0.764335	2.58139	0.59118	1.99236	0.767535	2.57821	0.814698	2.75144	0.923758	3.118			0.70089	2.36687	0.823165	2.77531	0.92547	3.12189		
0.766192	2.57955	0.593109	1.99261	0.769386	2.57636	0.816963	2.75044	0.925551	3.11426			0.702736	2.36566	0.82514	2.77326	0.927074	3.1175		
0.768046	2.5777	0.595038	1.99285	0.771232	2.57451	0.819233	2.74945	0.927344	3.11054			0.704584	2.36446	0.827113	2.77121	0.928684	3.11316		
0.769895	2.57585	0.596966	1.99309	0.773075	2.57266	0.821508	2.7485	0.929138	3.10685			0.706432	2.36328	0.829085	2.76918	0.930299	3.10887		
0.771741	2.574	0.598894	1.99333	0.774915	2.57081	0.823789	2.74756	0.930931	3.10318			0.708282	2.3621	0.831055	2.76715	0.93192	3.10462		
0.773582	2.57215	0.600821	1.99356	0.776751	2.56896	0.826074	2.74665	0.932725	3.09953			0.710134	2.36094	0.833023	2.76512	0.933546	3.10042		
0.775421	2.5703	0.602748	1.99379	0.778583	2.56712	0.828364	2.74576	0.934519	3.09591			0.711986	2.35979	0.83499	2.7631	0.935178	3.09626		
0.777256	2.56846	0.604673	1.99401	0.780413	2.56527	0.830658	2.74488	0.936313	3.09231			0.71384	2.35865	0.836955	2.76109	0.936816	3.09214		
0.779088	2.56661	0.606599	1.99423	0.78224	2.56342	0.832956	2.74403	0.938108	3.08873			0.715696	2.35752	0.838918	2.75909	0.938459	3.08807		
0.780917	2.56476	0.608523	1.99445	0.784063	2.56158	0.835259	2.7432	0.939902	3.08517			0.717552	2.35641	0.84088	2.75709	0.940108	3.08404		
0.782742	2.56291	0.610448	1.99467	0.785884	2.55974	0.837566	2.74238	0.941697	3.08164			0.71941	2.3553	0.842839	2.7551	0.941762	3.08005		
0.784565	2.56107	0.612371	1.99488	0.787703	2.5579	0.839877	2.74158	0.943492	3.07813			0.721269	2.35421	0.844797	2.75312	0.943422	3.0761		
0.786386	2.55923	0.614294	1.99509	0.789519	2.55606	0.842191	2.7408	0.945287	3.07464			0.723129	2.35312	0.846753	2.75114	0.945087	3.0722		
0.788204	2.55739	0.616217	1.99529	0.791333	2.55423	0.84451	2.74004	0.947082	3.07117			0.724991	2.35205	0.848707	2.74916	0.946758	3.06834		
0.790019	2.55555	0.618138	1.9955	0.793144	2.5524	0.846831	2.73929	0.948878	3.06772			0.726854	2.35099	0.850659	2.7472	0.948435	3.06452		
0.791832	2.55372	0.62006	1.9957	0.794953	2.55057	0.849156	2.73856	0.950673	3.0643			0.728718	2.34994	0.85261	2.74524	0.950117	3.06074		
0.793643	2.55189	0.62198	1.99589	0.79676	2.54875	0.851484	2.73784	0.952468	3.06089			0.730584	2.3489	0.854558	2.74328	0.951804	3.057		
0.795451	2.55007	0.623901	1.99609	0.798566	2.54694	0.853816	2.73714	0.954264	3.05751			0.732451	2.34787	0.856504	2.74133	0.953497	3.0533		
0.797258	2.54825	0.62582	1.99628	0.800369	2.54513	0.85615	2.73645	0.956059	3.05415			0.734319	2.34685	0.858448	2.73938	0.955195	3.04964		
0.799063	2.54644	0.627739	1.99647	0.802171	2.54332	0.858487	2.73577	0.957855	3.0508			0.736189	2.34584	0.86039	2.73744	0.956899	3.04602		
0.800866	2.54463	0.629658	1.99665	0.803971	2.54152	0.860828	2.73511	0.959651	3.04748			0.738059	2.34484	0.862331	2.7355	0.958609	3.04244		
0.802667	2.54282	0.631576	1.99683	0.80577	2.53973	0.86317	2.73446	0.961446	3.04417			0.739932	2.34384	0.864269	2.73357	0.960324	3.0389		
0.804467	2.54102	0.633493	1.99701	0.807567	2.53794	0.865516	2.73382	0.963242	3.04089			0.741805	2.34286	0.866205	2.73165	0.962044	3.03539		
0.806265	2.53923	0.63541	1.99719	0.809363	2.53615	0.867863	2.73319	0.965038	3.03762			0.74368	2.34189	0.868138	2.72972	0.96377	3.03192		
0.808062	2.53745	0.637326	1.99737	0.811157	2.53438	0.870213	2.73257	0.966834	3.03438			0.745555	2.34093	0.87007	2.72781	0.965501	3.02849		
0.809857	2.53566	0.639242	1.99754	0.812951	2.53261	0.872566	2.73197	0.96863	3.03115			0.747433	2.33998	0.872	2.72589	0.967237	3.0251		
0.811652	2.53389	0.641158	1.99771	0.814743	2.53085	0.87492	2.73137	0.970426	3.02794			0.749311	2.33904	0.873927	2.72399	0.968979	3.02174		
0.813445	2.53212	0.643072	1.99787	0.816534	2.52909	0.877277	2.73079	0.972221	3.02475			0.751191	2.33811	0.875852	2.72208	0.970727	3.01842		
0.815237	2.53036	0.644987	1.99804	0.818324	2.52734	0.879636	2.73021	0.974017	3.02158			0.753072	2.33719	0.877775	2.72018	0.972479	3.01513		
0.817028	2.52861	0.6469	1.9982	0.820114	2.5256	0.881996	2.72964	0.975813	3.01843			0.754954	2.33627	0.879696	2.71829	0.974237	3.01188		
0.818817	2.52686	0.648814	1.99836	0.821902	2.52387	0.884358	2.72908	0.977609	3.01529			0.756838	2.33537	0.881615	2.71639	0.976001	3.00867		
0.820607	2.52512	0.650727	1.99851	0.82369	2.52214	0.886722	2.72853	0.979405	3.01218			0.758723	2.33447	0.883531	2.71451	0.977769	3.00549		
0.822395	2.52339	0.652639	1.99867	0.825477	2.52042	0.889088	2.72799	0.981202	3.00908			0.760609	2.33358	0.885445	2.71262	0.979543	3.00234		
0.824182	2.52167	0.654551	1.99882	0.827263	2.51871	0.891455	2.72746	0.982998	3.006			0.762496	2.33271	0.887357	2.71074	0.981322	2.99923		
0.825969	2.51995	0.656462	1.99897	0.829049	2.51701	0.893824	2.72693	0.984794	3.00294			0.764385	2.33184	0.889267	2.70887	0.983106	2.99615		
0.827755	2.51824	0.658373	1.99911	0.830834	2.51532	0.896194	2.72641	0.98659	2.99989			0.766274	2.33098	0.891174	2.70699	0.984896	2.99311		
0.829541	2.51654	0.660283	1.99926	0.832619	2.51363	0.898565	2.7259	0.988386	2.99686			0.768165	2.33013	0.89308	2.70513	0.98669	2.9901		
0.831326	2.51485	0.662193	1.9994	0.834404	2.51195	0.900938	2.7254	0.990183	2.99385			0.770058	2.32928	0.894983	2.70326	0.98849	2.98712		
0.833111	2.51317	0.664102	1.99954	0.836188	2.51028	0.903311	2.7249	0.991979	2.99086			0.771951	2.32845	0.896883	2.7014	0.990295	2.98417		
0.834895	2.51149	0.666011	1.99968	0.837971	2.50862	0.905686	2.7244	0.993775	2.98788			0.773846	2.32762	0.898782	2.69954	0.992105	2.98125		
0.836679	2.50982	0.667919	1.99981	0.839755	2.50696	0.908062	2.72392	0.995572	2.98492			0.775742	2.32681	0.900678	2.69769	0.99392	2.97837		
0.838463	2.50816	0.669827	1.99995	0.841538	2.50532	0.910439	2.72343	0.997368	2.98198			0.777639	2.326	0.902572	2.69584	0.99574	2.97551		
0.840246	2.50651	0.671735	2.00008	0.843321	2.50368	0.912817	2.72296	0.999165	2.97905			0.779538	2.32519	0.904464	2.69399	0.997565	2.97269		
0.842029	2.50487	0.673642	2.00021	0.845104	2.50206	0.915195	2.72249	1.00096	2.97614			0.781437	2.3244	0.906354	2.69215	0.999395	2.9699		
0.843812	2.50323	0.675548	2.00034	0.846887	2.50044	0.917574	2.72202					0.783338	2.32362	0.908241	2.69031	1.00123	2.96714		
0.845595	2.50161	0.677454	2.00046	0.84867	2.49883	0.919954	2.72156					0.78524	2.32284	0.910126	2.68848				
0.847378	2.49999	0.67936	2.00058	0.850452	2.49723	0.922335	2.7211					0.787143	2.32207	0.912009	2.68664				
0.849161	2.49838	0.681265	2.00071	0.852235	2.49563	0.924716	2.72065					0.789048	2.32131	0.91389	2.68482				
0.850944	2.49679	0.68317	2.00082	0.854018	2.49405	0.927097	2.7202					0.790954	2.32055	0.915769	2.68299				
0.852726	2.4952	0.685074	2.00094	0.855801	2.49247	0.929479	2.71975					0.79286	2.31981	0.917645	2.68117				
0.854509	2.49361	0.686978	2.00106	0.857584	2.49091	0.931862	2.71931					0.794768	2.31907	0.91952	2.67935				
0.856292	2.49204	0.688882	2.00117	0.859367	2.48935	0.934244	2.71887					0.796678	2.31833	0.921392	2.67754				
0.858075	2.49048	0.690785	2.00128	0.86115	2.4878	0.936627	2.71843					0.798588	2.31761	0.923262	2.67573				
0.859858	2.48892	0.692688	2.00139	0.862934	2.48626	0.93901	2.718					0.800499	2.31689	0.92513	2.67392				
0.861642	2.48738	0.69459	2.0015	0.864718	2.48473	0.941394	2.71757					0.802412	2.31618	0.926995	2.67212				
0.863425	2.48584	0.696492	2.00161	0.866502	2.48321	0.943777	2.71714					0.804326	2.31548	0.928859	2.67032				
0.865209	2.48431	0.698393	2.00171	0.868286	2.4817	0.94616	2.71672					0.806241	2.31478	0.930721	2.66852				
0.866993	2.48279	0.700294	2.00182	0.870071	2.48019	0.948543	2.71629					0.808157	2.3141	0.93258	2.66673				
0.868778	2.48128	0.702195	2.00192	0.871856	2.4787	0.950926	2.71587					0.810074	2.31341	0.934438	2.66494				
0.870563	2.47978	0.704095	2.00202	0.873641	2.47721	0.953309	2.71545					0.811993	2.31274	0.936293	2.66316				
0.872348	2.47829	0.705995	2.00211	0.875427	2.47574	0.955692	2.71503					0.813912	2.31207	0.938147	2.66138				
0.874133	2.47681	0.707894	2.00221	0.877213	2.47427	0.958074	2.71461					0.815833	2.31141	0.939998	2.6596				
0.875919	2.47533	0.709793	2.00231	0.879	2.47281	0.960456	2.7142					0.817754	2.31075	0.941848	2.65783				
0.877705	2.47387	0.711692	2.0024	0.880787	2.47136	0.962838	2.71378					0.819677	2.31011	0.943696	2.65606				
0.879492	2.47241	0.71359	2.00249	0.882575	2.46992	0.965219	2.71337					0.821601	2.30946	0.945541	2.65429				
0.881279	2.47096	0.715488	2.00258	0.884363	2.46849	0.9676	2.71296					0.823526	2.30883	0.947385	2.65253				
0.883067	2.46952	0.717386	2.00267	0.886151	2.46706	0.96998	2.71254					0.825452	2.3082	0.949227	2.65077				
0.884855	2.46809	0.719283	2.00276	0.88794	2.46565	0.972359	2.71213					0.82738	2.30758	0.951068	2.64902				
0.886644	2.46667	0.72118	2.00284	0.88973	2.46424	0.974738	2.71172					0.829308	2.30696	0.952906	2.64727				
0.888433	2.46526	0.723076	2.00293	0.89152	2.46285	0.977116	2.71131					0.831237	2.30635	0.954742	2.64553				
0.890223	2.46386	0.724972	2.00301	0.893311	2.46146	0.979493	2.71089					0.833168	2.30574	0.956577	2.64378				
0.892014	2.46246	0.726868	2.00309	0.895102	2.46008	0.981869	2.71048					0.835099	2.30515	0.95841	2.64205				
0.893805	2.46108	0.728764	2.00317	0.896894	2.45871	0.984244	2.71007					0.837032	2.30455	0.960242	2.64031				
0.895596	2.4597	0.730659	2.00325	0.898687	2.45734	0.986619	2.70965					0.838965	2.30397	0.962071	2.63859				
0.897388	2.45833	0.732553	2.00333	0.90048	2.45599	0.988992	2.70924					0.8409	2.30339	0.9639	2.63686				
0.899181	2.45697	0.734448	2.0034	0.902274	2.45465	0.991364	2.70882					0.842836	2.30281	0.965726	2.63514				
0.900974	2.45562	0.736342	2.00348	0.904069	2.45331	0.993734	2.70841					0.844772	2.30224	0.967551	2.63343				
0.902769	2.45428	0.738236	2.00355	0.905864	2.45198	0.996104	2.70799					0.84671	2.30168	0.969374	2.63172				
0.904563	2.45294	0.740129	2.00362	0.90766	2.45066	0.998472	2.70757					0.848649	2.30112	0.971196	2.63001				
0.906359	2.45162	0.742022	2.0037	0.909457	2.44935	1.00084	2.70714					0.850588	2.30057	0.973016	2.62831				
0.908155	2.4503	0.743915	2.00377	0.911254	2.44805							0.852529	2.30002	0.974835	2.62661				
0.909952	2.44899	0.745807	2.00383	0.913052	2.44676							0.854471	2.29948	0.976652	2.62492				
0.911749	2.44769	0.747699	2.0039	0.914851	2.44547							0.856414	2.29894	0.978468	2.62323				
0.913547	2.4464	0.749591	2.00397	0.91665	2.44419							0.858358	2.29841	0.980282	2.62154				
0.915346	2.44512	0.751483	2.00403	0.91845	2.44293							0.860302	2.29789	0.982095	2.61986				
0.917146	2.44384	0.753374	2.0041	0.920251	2.44167							0.862248	2.29737	0.983907	2.61819				
0.918947	2.44258	0.755265	2.00416	0.922053	2.44041							0.864195	2.29685	0.985717	2.61652				
0.920748	2.44132	0.757155	2.00422	0.923856	2.43917							0.866142	2.29634	0.987526	2.61486				
0.92255	2.44007	0.759046	2.00428	0.925659	2.43793							0.868091	2.29584	0.989334	2.6132				
0.924353	2.43883	0.760936	2.00434	0.927463	2.43671							0.87004	2.29534	0.991141	2.61154				
0.926156	2.43759	0.762826	2.0044	0.929268	2.43549							0.871991	2.29484	0.992946	2.60989				
0.92796	2.43637	0.764715	2.00446	0.931074	2.43427							0.873942	2.29435	0.99475	2.60825				
0.929766	2.43515	0.766604	2.00451	0.93288	2.43307							0.875895	2.29387	0.996553	2.60661				
0.931571	2.43394	0.768493	2.00457	0.934688	2.43187							0.877848	2.29339	0.998355	2.60497				
0.933378	2.43274	0.770382	2.00462	0.936496	2.43069							0.879802	2.29291	1.00016	2.60334				
0.935186	2.43155	0.77227	2.00468	0.938305	2.42951							0.881757	2.29244						
0.936994	2.43036	0.774158	2.00473	0.940114	2.42833							0.883713	2.29198						
0.938803	2.42918	0.776046	2.00478	0.941925	2.42717							0.88567	2.29151						
0.940613	2.42801	0.777934	2.00483	0.943737	2.42601							0.887628	2.29106						
0.942424	2.42685	0.779821	2.00488	0.945549	2.42487							0.889587	2.2906						
0.944236	2.4257	0.781708	2.00493	0.947362	2.42372							0.891546	2.29015						
0.946048	2.42455	0.783595	2.00498	0.949176	2.42259							0.893507	2.28971						
0.947862	2.42341	0.785482	2.00503	0.950991	2.42146							0.895468	2.28927						
0.949676	2.42228	0.787368	2.00508	0.952806	2.42035							0.89743	2.28884						
0.951491	2.42115	0.789254	2.00512	0.954623	2.41923							0.899393	2.2884						
0.953307	2.42004	0.79114	2.00517	0.95644	2.41813							0.901357	2.28798						
0.955124	2.41893	0.793025	2.00521	0.958259	2.41703							0.903322	2.28756						
0.956941	2.41783	0.794911	2.00525	0.960078	2.41594							0.905288	2.28714						
0.95876	2.41673	0.796796	2.0053	0.961898	2.41486							0.907254	2.28672						
0.960579	2.41565	0.798681	2.00534	0.963719	2.41379							0.909222	2.28631						
0.962399	2.41457	0.800566	2.00538	0.965541	2.41272							0.91119	2.28591						
0.964221	2.41349	0.80245	2.00542	0.967363	2.41166							0.913159	2.2855						
0.966043	2.41243	0.804334	2.00546	0.969187	2.41061							0.915129	2.2851						
0.967866	2.41137	0.806218	2.0055	0.971011	2.40956							0.917099	2.28471						
0.969689	2.41032	0.808102	2.00553	0.972837	2.40852							0.91907	2.28432						
0.971514	2.40927	0.809986	2.00557	0.974663	2.40749							0.921043	2.28393						
0.97334	2.40824	0.811869	2.00561	0.97649	2.40647							0.923016	2.28355						
0.975166	2.40721	0.813753	2.00564	0.978318	2.40545							0.924989	2.28317						
0.976993	2.40618	0.815636	2.00568	0.980147	2.40444							0.926964	2.28279						
0.978822	2.40517	0.817518	2.00571	0.981976	2.40343							0.928939	2.28242						
0.980651	2.40416	0.819401	2.00575	0.983807	2.40243							0.930915	2.28205						
0.982481	2.40316	0.821283	2.00578	0.985639	2.40144							0.932892	2.28169						
0.984312	2.40216	0.823166	2.00581	0.987471	2.40046							0.93487	2.28132						
0.986144	2.40117	0.825048	2.00585	0.989305	2.39948							0.936848	2.28097						
0.987976	2.40019	0.82693	2.00588	0.991139	2.39851							0.938827	2.28061						
0.98981	2.39921	0.828811	2.00591	0.992974	2.39755							0.940807	2.28026						
0.991644	2.39824	0.830693	2.00594	0.99481	2.39659							0.942788	2.27991						
0.99348	2.39728	0.832574	2.00597	0.996647	2.39564							0.944769	2.27957						
0.995316	2.39632	0.834455	2.006	0.998485	2.39469							0.946751	2.27923						
0.997153	2.39537	0.836336	2.00603	1.00032	2.39375							0.948734	2.27889						
0.998991	2.39443	0.838217	2.00606									0.950717	2.27855						
1.00083	2.39349	0.840097	2.00608									0.952701	2.27822						
		0.841978	2.00611									0.954686	2.27789						
		0.843858	2.00614									0.956672	2.27757						
		0.845738	2.00616									0.958658	2.27724						
		0.847618	2.00619									0.960645	2.27692						
		0.849498	2.00621									0.962633	2.27661						
		0.851378	2.00624									0.964621	2.2763						
		0.853257	2.00626									0.96661	2.27598						
		0.855136	2.00629									0.9686	2.27568						
		0.857016	2.00631									0.97059	2.27537						
		0.858895	2.00633									0.972581	2.27507						
		0.860774	2.00636									0.974573	2.27477						
		0.862652	2.00638									0.976565	2.27448						
		0.864531	2.0064									0.978558	2.27418						
		0.866409	2.00642									0.980551	2.27389						
		0.868288	2.00644									0.982546	2.2736						
		0.870166	2.00646									0.98454	2.27332						
		0.872044	2.00648									0.986536	2.27304						
		0.873922	2.0065									0.988532	2.27276						
		0.8758	2.00652									0.990529	2.27248						
		0.877677	2.00654									0.992526	2.27221						
		0.879555	2.00656									0.994524	2.27193						
		0.881432	2.00657									0.996522	2.27166						
		0.883309	2.00659									0.998522	2.2714						
		0.885187	2.00661									1.00052	2.27113						
		0.887064	2.00663																
		0.888941	2.00664																
		0.890817	2.00666																
		0.892694	2.00667																
		0.894571	2.00669																
		0.896447	2.00671																
		0.898324	2.00672																
		0.9002	2.00674																
		0.902076	2.00675																
		0.903952	2.00676																
		0.905828	2.00678																
		0.907704	2.00679																
		0.90958	2.0068																
		0.911455	2.00682																
		0.913331	2.00683																
		0.915206	2.00684																
		0.917082	2.00686																
		0.918957	2.00687																
		0.920832	2.00688																
		0.922707	2.00689																
		0.924582	2.0069																
		0.926457	2.00691																
		0.928332	2.00692																
		0.930207	2.00693																
		0.932081	2.00694																
		0.933956	2.00695																
		0.93583	2.00696																
		0.937705	2.00697																
		0.939579	2.00698																
		0.941453	2.00699																
		0.943327	2.007																
		0.945202	2.00701																
		0.947076	2.00702																
		0.94895	2.00703																
		0.950823	2.00704																
		0.952697	2.00705																
		0.954571	2.00705																
		0.956445	2.00706																
		0.958318	2.00707																
		0.960192	2.00708																
		0.962065	2.00708																
		0.963939	2.00709																
		0.965812	2.0071																
		0.967686	2.0071																
		0.969559	2.00711																
		0.971432	2.00712																
		0.973305	2.00712																
		0.975178	2.00713																
		0.977051	2.00714																
		0.978924	2.00714																
		0.980797	2.00715																
		0.98267	2.00715																
		0.984543	2.00716																
		0.986416	2.00717																
		0.988288	2.00717																
		0.990161	2.00718																
		0.992034	2.00718																
		0.993906	2.00719																
		0.995779	2.00719																
		0.997651	2.0072																
		0.999524	2.0072																
		1.0014	2.00721																
