Sym0		Asym0		Sym1		Sym2		Sym3		Sym4		Asym1		Asym2		Asym3		Asym4	
457  Points		542  Points		457  Points		407  Points		370  Points		280  Points		481  Points		422  Points		371  Points		280  Points	
Freq (MHz)	Vph (m/ms)	Freq (MHz)	Vph (m/ms)	Freq (MHz)	Vph (m/ms)	Freq (MHz)	Vph (m/ms)	Freq (MHz)	Vph (m/ms)	Freq (MHz)	Vph (m/ms)	Freq (MHz)	Vph (m/ms)	Freq (MHz)	Vph (m/ms)	Freq (MHz)	Vph (m/ms)	Freq (MHz)	Vph (m/ms)
0.279506	331.86	2.51391e-005	0.0309001	0.279507	367.469	0.356477	4634.61	0.559017	1855.31	0.838526	2345.59	0.139755	1240.22	0.419264	716.495	0.69877	1628.83	0.712954	5080.03
0.2795	157.559	0.000115649	0.0662647	0.2795	165.158	0.356493	353.45	0.559024	453.385	0.83853	650.434	0.139796	133.855	0.419274	276.41	0.698759	513.531	0.712971	665.06
0.279488	103.299	0.000271718	0.101503	0.279489	106.512	0.356537	183.753	0.55904	258.253	0.838538	377.57	0.139903	70.7982	0.419292	171.241	0.698737	304.807	0.713014	355.842
0.279471	76.8343	0.000492987	0.136613	0.279473	78.5983	0.356609	124.167	0.559063	180.553	0.83855	265.989	0.140075	48.1727	0.419319	124.05	0.698703	216.714	0.713081	242.922
0.27945	61.1619	0.000778737	0.171515	0.279452	62.2747	0.356708	93.7794	0.559095	138.799	0.838566	205.316	0.140313	36.5449	0.419354	97.2542	0.698659	168.117	0.713174	184.42
0.279424	50.7978	0.00112835	0.206202	0.279427	51.5633	0.356835	75.3549	0.559136	112.734	0.838587	167.184	0.140615	29.4719	0.419398	79.9823	0.698605	137.319	0.713292	148.639
0.279394	43.4354	0.00154071	0.240596	0.279397	43.994	0.356989	62.9935	0.559185	94.9142	0.838612	140.999	0.140981	24.7211	0.41945	67.9236	0.698541	116.053	0.713433	124.497
0.27936	37.9353	0.00201486	0.274675	0.279363	38.3609	0.357171	54.1268	0.559242	81.9622	0.838641	121.907	0.141409	21.3141	0.419511	59.0277	0.698469	100.487	0.713598	107.111
0.279322	33.6702	0.00254951	0.308391	0.279325	34.0052	0.357379	47.4577	0.559308	72.1234	0.838674	107.37	0.1419	18.7543	0.419581	52.195	0.698389	88.5992	0.713785	93.9944
0.279279	30.266	0.00314334	0.341711	0.279283	30.5365	0.357615	42.2604	0.559382	64.3962	0.838712	95.9323	0.14245	16.7629	0.419659	46.7825	0.698301	79.224	0.713993	83.747
0.279234	27.4858	0.00379493	0.374604	0.279238	27.7088	0.357877	38.0968	0.559464	58.1669	0.838754	86.6979	0.143059	15.1712	0.419745	42.3895	0.698207	71.6407	0.714223	75.5209
0.279185	25.1725	0.0045027	0.407034	0.279189	25.3595	0.358165	34.6872	0.559555	53.0386	0.8388	79.0863	0.143726	13.8714	0.419841	38.7528	0.698107	65.3803	0.714473	68.7721
0.279133	23.2174	0.00526506	0.438978	0.279138	23.3765	0.358479	31.8443	0.559654	48.7434	0.83885	72.7043	0.144449	12.791	0.419944	35.6928	0.698003	60.1243	0.714742	63.1359
0.279079	21.5434	0.0060804	0.470416	0.279084	21.6803	0.358819	29.4381	0.559762	45.0936	0.838905	67.2764	0.145226	11.8797	0.420056	33.0826	0.697895	55.6489	0.715029	58.3584
0.279022	20.0938	0.00694696	0.501322	0.279027	20.213	0.359185	27.3755	0.559878	41.954	0.838964	62.6035	0.146055	11.1014	0.420177	30.8299	0.697783	51.7923	0.715334	54.2574
0.278963	18.8264	0.007863	0.53168	0.278969	18.931	0.359575	25.5883	0.560002	39.2248	0.839027	58.5385	0.146936	10.4298	0.420306	28.866	0.697669	48.4344	0.715656	50.699
0.278903	17.7089	0.00882683	0.561479	0.278908	17.8014	0.35999	24.0249	0.560135	36.8306	0.839094	54.9699	0.147865	9.84469	0.420444	27.139	0.697554	45.4844	0.715994	47.5823
0.278842	16.7161	0.0098367	0.590709	0.278847	16.7986	0.36043	22.6461	0.560276	34.7133	0.839166	51.8122	0.148842	9.33094	0.420591	25.6083	0.697437	42.8722	0.716347	44.8301
0.278779	15.8283	0.0108909	0.619361	0.278785	15.9023	0.360894	21.4213	0.560426	32.8275	0.839241	48.9982	0.149865	8.87659	0.420746	24.2425	0.69732	40.543	0.716715	42.382
0.278717	15.0297	0.0119875	0.647424	0.278722	15.0964	0.361381	20.3261	0.560584	31.1375	0.839321	46.4748	0.150932	8.47223	0.420909	23.0164	0.697203	38.4532	0.717098	40.1903
0.278654	14.3075	0.0131251	0.6749	0.27866	14.3679	0.361891	19.3413	0.56075	29.6142	0.839406	44.1993	0.151896	8.1547	0.421081	21.9096	0.697086	36.5677	0.717494	38.2169
0.278592	13.6512	0.0143018	0.701788	0.278597	13.7063	0.362424	18.451	0.560925	28.2341	0.839494	42.1368	0.152742	7.90635	0.421262	20.9055	0.696971	34.858	0.717903	36.4308
0.27853	13.0523	0.015516	0.728082	0.278536	13.1027	0.362979	17.6425	0.561108	26.9782	0.839587	40.2587	0.153458	7.71487	0.421451	19.9906	0.696857	33.3006	0.718325	34.8066
0.27847	12.5036	0.0167662	0.753791	0.278475	12.5498	0.363557	16.905	0.561299	25.8303	0.839684	38.5415	0.154035	7.5716	0.421649	19.1535	0.696745	31.876	0.71876	33.3232
0.278411	11.999	0.0180508	0.778915	0.278416	12.0415	0.364156	16.2297	0.561499	24.7771	0.839785	36.9654	0.154465	7.47053	0.421855	18.3848	0.696636	30.568	0.719206	31.9632
0.278354	11.5334	0.0193682	0.803463	0.278359	11.5727	0.364776	15.6092	0.561708	23.8075	0.839891	35.5135	0.154742	7.40766	0.42207	17.6764	0.696529	29.3629	0.719663	30.7119
0.2783	11.1026	0.0207171	0.827438	0.278305	11.139	0.365417	15.0371	0.561924	22.9119	0.84	34.172	0.155144	7.31964	0.422293	17.0216	0.696426	28.249	0.720132	29.5567
0.278249	10.7027	0.0220959	0.850848	0.278253	10.7366	0.366078	14.5081	0.562149	22.0822	0.840114	32.9285	0.155586	7.22702	0.422525	16.4145	0.696326	27.2164	0.720612	28.4871
0.2782	10.3306	0.0235035	0.873702	0.278205	10.3622	0.366758	14.0175	0.562382	21.3114	0.840232	31.7729	0.156194	7.10589	0.422766	15.8502	0.696229	26.2565	0.721102	27.4938
0.278156	9.98356	0.0249383	0.896008	0.27816	10.013	0.367459	13.5613	0.562624	20.5935	0.840355	30.6961	0.156974	6.96017	0.423015	15.3242	0.696136	25.3619	0.721602	26.569
0.278115	9.6591	0.0263994	0.91778	0.278119	9.68668	0.368178	13.1362	0.562874	19.9232	0.840482	29.6902	0.157935	6.79428	0.423272	14.8329	0.696048	24.5261	0.722112	25.706
0.278079	9.35513	0.0278853	0.939024	0.278082	9.38099	0.368916	12.739	0.563133	19.296	0.840613	28.7487	0.159086	6.6128	0.423539	14.373	0.695964	23.7437	0.722632	24.8987
0.278048	9.0698	0.029395	0.95975	0.278051	9.09409	0.369672	12.3673	0.5634	18.7079	0.840748	27.8654	0.160435	6.42025	0.423813	13.9415	0.695884	23.0096	0.723161	24.1419
0.278022	8.80146	0.0309275	0.979975	0.278024	8.82433	0.370446	12.0185	0.563675	18.1554	0.840887	27.0352	0.161815	6.2427	0.424097	13.536	0.69581	22.3195	0.7237	23.4311
0.278002	8.54867	0.0324816	0.999704	0.278003	8.57023	0.371237	11.6908	0.563958	17.6353	0.841031	26.2534	0.163223	6.07855	0.424389	13.1541	0.69574	21.6697	0.724247	22.7622
0.277987	8.31014	0.0340563	1.01895	0.277988	8.3305	0.372045	11.3823	0.56425	17.1449	0.841179	25.5159	0.164659	5.92639	0.424689	12.794	0.695675	21.0566	0.724804	22.1316
0.277979	8.08472	0.0356507	1.03773	0.27798	8.13239	0.37287	11.0914	0.564551	16.6818	0.841331	24.8191	0.166121	5.78502	0.424998	12.4537	0.695615	20.4773	0.72537	21.5362
0.277978	7.87139	0.037264	1.05605	0.277977	7.97092	0.373712	10.8167	0.564859	16.2437	0.841488	24.1597	0.167608	5.65338	0.425316	12.1318	0.695561	19.9291	0.725944	20.9731
0.277983	7.66921	0.0388953	1.07392	0.277978	7.84223	0.374569	10.5568	0.565176	15.8287	0.841648	23.5348	0.169119	5.53054	0.425642	11.8268	0.695512	19.4096	0.726526	20.4398
0.277996	7.47737	0.0405435	1.09136	0.27798	7.74343	0.375441	10.3106	0.565502	15.4351	0.841813	22.9417	0.170653	5.41569	0.425977	11.5374	0.695468	18.9165	0.727117	19.9339
0.278017	7.29511	0.0422083	1.10837	0.277983	7.6724	0.376329	10.0772	0.565835	15.0612	0.841982	22.3781	0.172208	5.3081	0.42632	11.2625	0.695431	18.448	0.727716	19.4534
0.278046	7.12176	0.0438886	1.12497	0.277985	7.62763	0.377232	9.85547	0.566177	14.7056	0.842156	21.8419	0.173784	5.20714	0.426672	11.0011	0.695399	18.0022	0.728324	18.9965
0.278083	6.95669	0.0455838	1.14117	0.277989	7.5642	0.378149	9.64467	0.566528	14.367	0.842334	21.331	0.17538	5.11224	0.427033	10.7521	0.695373	17.5776	0.728939	18.5615
0.278129	6.79936	0.0472932	1.15698	0.277995	7.49647	0.37908	9.444	0.566887	14.0443	0.842516	20.8438	0.176995	5.02289	0.427402	10.5147	0.695352	17.1726	0.729562	18.1468
0.278183	6.64925	0.0490162	1.17241	0.278003	7.40632	0.380026	9.25278	0.567254	13.7363	0.842702	20.3787	0.178627	4.93864	0.427779	10.2882	0.695338	16.786	0.730193	17.7512
0.278248	6.5059	0.0507523	1.18747	0.278017	7.29545	0.380984	9.07036	0.567629	13.4421	0.842892	19.9342	0.180277	4.85909	0.428166	10.0718	0.69533	16.4166	0.730831	17.3732
0.278321	6.36888	0.0525007	1.20217	0.278037	7.16584	0.381956	8.89617	0.568013	13.1609	0.843087	19.5089	0.181943	4.78386	0.42856	9.86486	0.695328	16.0632	0.731478	17.0118
0.278405	6.2378	0.054261	1.21653	0.278067	7.01972	0.382941	8.72967	0.568405	12.8916	0.843286	19.1017	0.183624	4.71263	0.428964	9.66683	0.695332	15.7249	0.732131	16.6659
0.278498	6.1123	0.0560327	1.23054	0.27811	6.85946	0.383938	8.57038	0.568806	12.6338	0.84349	18.7114	0.185321	4.64509	0.429376	9.47713	0.695342	15.4006	0.732793	16.3345
0.278602	5.99206	0.0578152	1.24423	0.278161	6.7066	0.384948	8.41785	0.569214	12.3865	0.843697	18.337	0.187032	4.58099	0.429797	9.29527	0.695359	15.0896	0.733461	16.0167
0.278717	5.87676	0.0596081	1.2576	0.278222	6.56069	0.38597	8.27166	0.569632	12.1493	0.843909	17.9776	0.188756	4.52007	0.430226	9.12077	0.695382	14.791	0.734137	15.7118
0.278843	5.76614	0.0614109	1.27066	0.278292	6.42126	0.386869	8.14915	0.570057	11.9215	0.844125	17.6322	0.190493	4.46212	0.430664	8.95321	0.695411	14.5042	0.73482	15.419
0.27898	5.65992	0.0632233	1.28342	0.278371	6.28792	0.387644	8.04813	0.570491	11.7025	0.844345	17.3002	0.192242	4.40692	0.43111	8.79219	0.695447	14.2285	0.73551	15.1375
0.279128	5.55787	0.0650447	1.29588	0.278461	6.1603	0.388288	7.96685	0.570933	11.4919	0.84457	16.9806	0.194004	4.3543	0.431565	8.63735	0.695489	13.9632	0.736208	14.8668
0.279288	5.45977	0.0668748	1.30806	0.278561	6.03806	0.388801	7.90398	0.571383	11.2893	0.844799	16.6729	0.195776	4.30407	0.432029	8.48835	0.695538	13.7077	0.736912	14.6062
0.27946	5.36541	0.0687133	1.31997	0.278671	5.92088	0.38918	7.85852	0.571842	11.0941	0.845032	16.3764	0.197559	4.2561	0.432501	8.34487	0.695593	13.4616	0.737624	14.3552
0.279644	5.27459	0.0705598	1.33161	0.278793	5.80848	0.389423	7.82976	0.572309	10.9061	0.84527	16.0904	0.199353	4.21023	0.432919	8.22411	0.695654	13.2244	0.738342	14.1133
0.27984	5.18714	0.0724139	1.34298	0.278925	5.70058	0.389774	7.78887	0.572784	10.7247	0.845511	15.8146	0.201156	4.16633	0.433281	8.12417	0.695723	12.9955	0.739067	13.88
0.280049	5.10288	0.0742754	1.35411	0.279069	5.59695	0.390156	7.74501	0.573268	10.5497	0.845757	15.5482	0.202969	4.12429	0.433584	8.04353	0.695798	12.7746	0.739799	13.6548
0.280271	5.02167	0.0761439	1.36499	0.279225	5.49734	0.390678	7.68632	0.57376	10.3808	0.846008	15.2909	0.20479	4.08398	0.433826	7.98101	0.695879	12.5612	0.740538	13.4374
0.280506	4.94336	0.0780191	1.37563	0.279392	5.40155	0.391342	7.61365	0.57426	10.2176	0.846262	15.0422	0.20662	4.04532	0.434005	7.93573	0.695967	12.355	0.741284	13.2273
0.280754	4.8678	0.0799009	1.38604	0.279571	5.30938	0.39215	7.52801	0.574769	10.0599	0.846521	14.8017	0.208458	4.00819	0.434121	7.90705	0.696062	12.1557	0.742036	13.0242
0.281015	4.79488	0.0817888	1.39622	0.279763	5.22065	0.393105	7.43053	0.575285	9.90737	0.846784	14.5689	0.210304	3.97252	0.434287	7.86622	0.696163	11.9628	0.742795	12.8277
0.28129	4.72446	0.0836827	1.40619	0.279967	5.13517	0.394211	7.32247	0.575811	9.75982	0.847051	14.3436	0.212158	3.93822	0.434469	7.82237	0.696271	11.7761	0.74356	12.6376
0.281579	4.65645	0.0855823	1.41594	0.280183	5.0528	0.395326	7.21827	0.576344	9.61699	0.847323	14.1254	0.214018	3.90522	0.434718	7.7636	0.696386	11.5953	0.744332	12.4535
0.281882	4.59073	0.0874874	1.42549	0.280413	4.97338	0.396451	7.11772	0.576886	9.47867	0.847599	13.9138	0.215886	3.87344	0.435036	7.69067	0.696507	11.4202	0.745111	12.2752
0.282199	4.5272	0.0893977	1.43483	0.280656	4.89677	0.397585	7.02065	0.577436	9.34465	0.847879	13.7088	0.21776	3.84282	0.435425	7.6045	0.696636	11.2504	0.745896	12.1024
0.282531	4.46577	0.0913131	1.44398	0.280912	4.82284	0.398729	6.92689	0.577994	9.21475	0.848164	13.5099	0.21964	3.81331	0.435887	7.50614	0.69677	11.0858	0.746687	11.9348
0.282877	4.40635	0.0932334	1.45294	0.281182	4.75146	0.399881	6.83626	0.57856	9.08878	0.848453	13.3168	0.221526	3.78483	0.436426	7.39675	0.696912	10.9261	0.747485	11.7722
0.283238	4.34886	0.0951583	1.46171	0.281465	4.68253	0.401043	6.74862	0.579135	8.96657	0.848746	13.1294	0.223417	3.75734	0.436973	7.29089	0.69706	10.7711	0.748289	11.6145
0.283614	4.29322	0.0970878	1.47031	0.281763	4.61594	0.402212	6.66383	0.579718	8.84796	0.849043	12.9474	0.225314	3.73078	0.437529	7.18842	0.697215	10.6206	0.749099	11.4613
0.284005	4.23936	0.0990214	1.47873	0.282074	4.55157	0.403391	6.58175	0.580309	8.7328	0.849345	12.7706	0.227217	3.70512	0.438094	7.08918	0.697377	10.4744	0.749916	11.3125
0.284412	4.1872	0.100959	1.48698	0.2824	4.48934	0.404577	6.50226	0.580909	8.62095	0.849651	12.5987	0.229124	3.6803	0.438667	6.99302	0.697546	10.3323	0.750738	11.168
0.284835	4.13667	0.102901	1.49506	0.282741	4.42915	0.405772	6.42525	0.581516	8.51227	0.849961	12.4316	0.231035	3.65629	0.439249	6.89982	0.697721	10.1942	0.751567	11.0275
0.285273	4.08773	0.104847	1.50299	0.283096	4.37092	0.406974	6.35059	0.582053	8.42006	0.850276	12.269	0.232952	3.63305	0.439839	6.80944	0.697903	10.06	0.752402	10.8908
0.285727	4.0403	0.106796	1.51075	0.283466	4.31457	0.408184	6.2782	0.582515	8.34321	0.850595	12.1108	0.234872	3.61054	0.440438	6.72176	0.698092	9.92932	0.753243	10.7579
0.286136	4.00016	0.108749	1.51837	0.283852	4.26003	0.409401	6.20796	0.5829	8.28085	0.850918	11.9568	0.236797	3.58873	0.441046	6.63667	0.698288	9.80221	0.754091	10.6286
0.286495	3.96679	0.110705	1.52583	0.284253	4.20721	0.410626	6.13979	0.583207	8.23229	0.851245	11.8068	0.238725	3.56758	0.441663	6.55406	0.69849	9.67847	0.754944	10.5027
0.286799	3.93977	0.112665	1.53315	0.284669	4.15607	0.411858	6.0736	0.583434	8.19699	0.851577	11.6607	0.240658	3.54707	0.442288	6.47383	0.6987	9.55798	0.755803	10.3801
0.287043	3.91877	0.114627	1.54033	0.285101	4.10652	0.413097	6.0093	0.58358	8.17458	0.851913	11.5184	0.242593	3.52716	0.442922	6.39588	0.698916	9.44061	0.756668	10.2607
0.287225	3.90353	0.11634	1.54647	0.285549	4.0585	0.414342	5.94683	0.583791	8.14261	0.852254	11.3796	0.244532	3.50784	0.443564	6.32013	0.699138	9.32625	0.75754	10.1444
0.287343	3.89386	0.117802	1.55163	0.286014	4.01198	0.415595	5.88609	0.58402	8.10818	0.852598	11.2443	0.246475	3.48907	0.444215	6.24648	0.699368	9.21478	0.758416	10.031
0.287514	3.88008	0.119012	1.55584	0.286494	3.96688	0.416854	5.82703	0.584334	8.06189	0.852947	11.1124	0.24842	3.47083	0.444875	6.17486	0.699604	9.10611	0.759299	9.92038
0.287702	3.86526	0.119969	1.55913	0.286992	3.92315	0.418119	5.76958	0.584734	8.00421	0.853301	10.9837	0.250368	3.45309	0.445544	6.10519	0.699847	9.00013	0.760188	9.81255
0.287961	3.84536	0.120674	1.56153	0.287506	3.88075	0.41939	5.71366	0.585222	7.9357	0.853658	10.858	0.252319	3.43585	0.446221	6.03739	0.700097	8.89674	0.761082	9.70735
0.288294	3.82061	0.121125	1.56306	0.288037	3.83964	0.420668	5.65924	0.5858	7.85704	0.85402	10.7354	0.254272	3.41907	0.446907	5.9714	0.700354	8.79586	0.761983	9.60469
0.288706	3.79129	0.121773	1.56525	0.288585	3.79976	0.421952	5.60624	0.586471	7.76895	0.854386	10.6157	0.256228	3.40274	0.447602	5.90714	0.700617	8.6974	0.762889	9.50449
0.289202	3.75774	0.122479	1.56761	0.289152	3.76107	0.423241	5.55461	0.58715	7.68312	0.854757	10.4988	0.258186	3.38684	0.448305	5.84456	0.700852	8.6135	0.7638	9.40666
0.289787	3.72031	0.123439	1.5708	0.289735	3.72354	0.424536	5.5043	0.587838	7.59947	0.855132	10.3845	0.260146	3.37135	0.449017	5.78359	0.701056	8.54334	0.764717	9.31112
0.290391	3.68399	0.124653	1.57478	0.290337	3.68713	0.425837	5.45527	0.588533	7.51791	0.855511	10.2729	0.262109	3.35626	0.449738	5.72418	0.701228	8.48625	0.76564	9.21778
0.291013	3.64875	0.126123	1.57954	0.290958	3.6518	0.427143	5.40746	0.589237	7.43837	0.855894	10.1638	0.264073	3.34154	0.450467	5.66627	0.701366	8.44168	0.766569	9.12659
0.291654	3.61456	0.127849	1.58505	0.291597	3.61752	0.428455	5.36083	0.589949	7.36078	0.856282	10.0571	0.266039	3.3272	0.451205	5.60982	0.701468	8.40923	0.767503	9.03746
0.292313	3.58138	0.129833	1.59125	0.292255	3.58425	0.429772	5.31535	0.590669	7.28508	0.856674	9.95283	0.268007	3.3132	0.451952	5.55476	0.701534	8.3886	0.768442	8.95033
0.292992	3.54919	0.131818	1.59734	0.292932	3.55197	0.431093	5.27096	0.591397	7.2112	0.857071	9.85081	0.269976	3.29954	0.452708	5.50105	0.701629	8.35914	0.769387	8.86514
0.293691	3.51794	0.133805	1.60333	0.293629	3.52064	0.43242	5.22763	0.592134	7.13907	0.857472	9.751	0.271947	3.28621	0.453472	5.44865	0.701733	8.32738	0.770338	8.78181
0.294409	3.48763	0.135795	1.6092	0.294345	3.49025	0.433752	5.18532	0.592878	7.06864	0.857877	9.65333	0.273919	3.27319	0.454246	5.39752	0.701877	8.28459	0.77117	8.71068
0.295148	3.45821	0.137787	1.61497	0.295082	3.46075	0.435088	5.144	0.593631	6.99986	0.858286	9.55773	0.275893	3.26047	0.455028	5.34761	0.70206	8.23115	0.771883	8.6511
0.295907	3.42966	0.13978	1.62064	0.29584	3.43213	0.436429	5.10364	0.594391	6.93267	0.8587	9.46414	0.277867	3.24804	0.455818	5.29888	0.702286	8.16752	0.772475	8.60256
0.296687	3.40197	0.141775	1.6262	0.296618	3.40436	0.437775	5.0642	0.59516	6.86701	0.859118	9.37251	0.279843	3.23589	0.456618	5.2513	0.702555	8.09422	0.772945	8.56462
0.297489	3.37511	0.143772	1.63167	0.297418	3.37743	0.439125	5.02565	0.595937	6.80285	0.85954	9.28276	0.281819	3.22402	0.457426	5.20482	0.70287	8.01185	0.773291	8.53698
0.298312	3.34905	0.145771	1.63705	0.298239	3.3513	0.44048	4.98797	0.596722	6.74012	0.859967	9.19485	0.283797	3.2124	0.458243	5.15942	0.703192	7.93128	0.773512	8.5194
0.299158	3.32378	0.147771	1.64233	0.299083	3.32596	0.441838	4.95111	0.597515	6.67879	0.860398	9.10872	0.285775	3.20103	0.459069	5.11506	0.70352	7.85247	0.773832	8.49428
0.300027	3.29927	0.149773	1.64752	0.299949	3.30139	0.443201	4.91507	0.598316	6.61882	0.860833	9.02432	0.287754	3.18991	0.459903	5.07171	0.703855	7.77535	0.77418	8.46717
0.300918	3.27552	0.151777	1.65262	0.300839	3.27757	0.444568	4.87981	0.599126	6.56016	0.861273	8.9416	0.289734	3.17902	0.460746	5.02934	0.704197	7.69988	0.774654	8.43062
0.301833	3.2525	0.153781	1.65763	0.301752	3.25448	0.445938	4.8453	0.599943	6.50277	0.86166	8.87084	0.291714	3.16836	0.461598	4.98791	0.704546	7.626	0.775255	8.38494
0.302773	3.23019	0.155788	1.66256	0.302689	3.23211	0.447313	4.81153	0.600768	6.44661	0.861992	8.81147	0.293694	3.15791	0.462459	4.9474	0.704901	7.55367	0.775984	8.33047
0.303737	3.20858	0.157795	1.6674	0.303651	3.21044	0.448691	4.77847	0.601601	6.39165	0.862269	8.76303	0.295675	3.14768	0.463329	4.90779	0.705263	7.48284	0.776844	8.26764
0.304726	3.18765	0.159804	1.67217	0.304638	3.18946	0.450073	4.74609	0.602443	6.33786	0.862488	8.72514	0.297656	3.13765	0.464207	4.86904	0.705631	7.41346	0.777836	8.19691
0.30574	3.1674	0.161814	1.67685	0.305651	3.16915	0.451459	4.71439	0.603292	6.28519	0.862651	8.6975	0.299637	3.12781	0.465095	4.83114	0.706006	7.3455	0.778832	8.12762
0.306781	3.1478	0.163825	1.68146	0.306689	3.14949	0.452848	4.68333	0.60415	6.23361	0.862755	8.67992	0.301619	3.11817	0.465991	4.79405	0.706388	7.27891	0.779834	8.05971
0.307849	3.12884	0.165837	1.68599	0.307754	3.13048	0.454241	4.6529	0.605015	6.1831	0.862905	8.65477	0.3036	3.10871	0.466896	4.75776	0.706776	7.21366	0.780841	7.99315
0.308944	3.11052	0.167851	1.69044	0.308847	3.1121	0.455637	4.62308	0.605889	6.13363	0.863069	8.62762	0.305582	3.09943	0.46781	4.72223	0.707171	7.1497	0.781853	7.92789
0.310067	3.09281	0.169865	1.69483	0.309967	3.09433	0.457036	4.59385	0.60677	6.08515	0.863292	8.59099	0.307563	3.09033	0.468732	4.68746	0.707572	7.087	0.78287	7.86391
0.311218	3.07571	0.17188	1.69914	0.311116	3.07718	0.458438	4.56519	0.607659	6.03766	0.863576	8.54515	0.309545	3.08139	0.469664	4.65342	0.70798	7.02552	0.783892	7.80117
0.312398	3.0592	0.173896	1.70338	0.312293	3.06062	0.459844	4.53709	0.608556	5.99111	0.863922	8.49042	0.311526	3.07261	0.470604	4.62009	0.708395	6.96524	0.784919	7.73963
0.313607	3.04327	0.175914	1.70756	0.3135	3.04465	0.461252	4.50953	0.609461	5.94549	0.864331	8.4272	0.313506	3.06399	0.471553	4.58745	0.708816	6.90612	0.785951	7.67926
0.314846	3.02792	0.177932	1.71167	0.314736	3.02925	0.462664	4.4825	0.610375	5.90076	0.864804	8.35591	0.315487	3.05552	0.472511	4.55547	0.709243	6.84812	0.786988	7.62002
0.316116	3.01313	0.17995	1.71571	0.316003	3.01441	0.464078	4.45598	0.611296	5.85691	0.865281	8.28593	0.317467	3.0472	0.473478	4.52416	0.709678	6.79122	0.78803	7.56189
0.317416	2.99889	0.18197	1.71969	0.317301	3.00012	0.465496	4.42996	0.612224	5.81391	0.865763	8.21723	0.319446	3.03903	0.474454	4.49348	0.710118	6.73538	0.789077	7.50484
0.318747	2.98519	0.18399	1.72361	0.318629	2.98637	0.466916	4.40442	0.613161	5.77174	0.866249	8.14977	0.321425	3.03099	0.475438	4.46342	0.710565	6.68059	0.790128	7.44883
0.320109	2.97202	0.186011	1.72746	0.319989	2.97315	0.468338	4.37935	0.614106	5.73038	0.86674	8.08353	0.323403	3.02308	0.476432	4.43396	0.711019	6.6268	0.791185	7.39385
0.321504	2.95937	0.188033	1.73126	0.32138	2.96045	0.469764	4.35474	0.615058	5.6898	0.867234	8.01847	0.325381	3.01531	0.477434	4.40509	0.711479	6.57401	0.792246	7.33986
0.32293	2.94722	0.190055	1.73499	0.322804	2.94826	0.471192	4.33058	0.616018	5.64998	0.867734	7.95456	0.327358	3.00766	0.478445	4.3768	0.711946	6.52217	0.793312	7.28684
0.324388	2.93556	0.192078	1.73867	0.324259	2.93656	0.472622	4.30684	0.616986	5.61091	0.868237	7.89177	0.329334	3.00013	0.479465	4.34906	0.712419	6.47127	0.794382	7.23476
0.325878	2.92439	0.194101	1.74229	0.325746	2.92535	0.474055	4.28353	0.617962	5.57257	0.868745	7.83008	0.331309	2.99273	0.480494	4.32187	0.712898	6.42128	0.795458	7.1836
0.3274	2.91369	0.196125	1.74586	0.327265	2.91461	0.47549	4.26063	0.618946	5.53494	0.869257	7.76945	0.333284	2.98544	0.481532	4.29521	0.713384	6.37218	0.796538	7.13333
0.328954	2.90345	0.19815	1.74937	0.328817	2.90433	0.476927	4.23813	0.619937	5.498	0.869774	7.70987	0.335257	2.97826	0.482579	4.26907	0.713876	6.32395	0.797622	7.08394
0.33054	2.89365	0.200175	1.75283	0.3304	2.89449	0.478367	4.21602	0.620936	5.46173	0.870295	7.65129	0.33723	2.97119	0.483635	4.24344	0.714375	6.27656	0.798712	7.0354
0.332157	2.88428	0.2022	1.75624	0.332014	2.88508	0.479809	4.19429	0.621943	5.42612	0.87082	7.59371	0.339201	2.96422	0.484699	4.21829	0.71488	6.23	0.799806	6.98768
0.333806	2.87533	0.204226	1.75959	0.33366	2.8761	0.481253	4.17293	0.622957	5.39114	0.871349	7.53709	0.341171	2.95736	0.485773	4.19363	0.715392	6.18425	0.800904	6.94078
0.335485	2.86679	0.206252	1.7629	0.335336	2.86752	0.4827	4.15192	0.62398	5.3568	0.871883	7.48142	0.34314	2.9506	0.486855	4.16944	0.71591	6.13928	0.802007	6.89467
0.337194	2.85863	0.208278	1.76615	0.337043	2.85933	0.484148	4.13127	0.625009	5.32306	0.872422	7.42666	0.345108	2.94394	0.487947	4.14571	0.716434	6.09508	0.803114	6.84933
0.338933	2.85086	0.210305	1.76936	0.338779	2.85152	0.485598	4.11097	0.626047	5.28992	0.872964	7.37281	0.347075	2.93737	0.489047	4.12242	0.716964	6.05162	0.804226	6.80474
0.3407	2.84344	0.212332	1.77252	0.340544	2.84408	0.487051	4.09099	0.627092	5.25737	0.873511	7.31983	0.34904	2.93089	0.490156	4.09957	0.717501	6.0089	0.805342	6.76089
0.342496	2.83638	0.214359	1.77563	0.342338	2.83698	0.488505	4.07135	0.628145	5.22538	0.874063	7.26771	0.351004	2.9245	0.491274	4.07715	0.718044	5.96689	0.806463	6.71775
0.34432	2.82964	0.216387	1.7787	0.344159	2.83022	0.489961	4.05202	0.629205	5.19394	0.874618	7.21642	0.352966	2.9182	0.492401	4.05515	0.718594	5.92558	0.807588	6.67532
0.34617	2.82323	0.218415	1.78173	0.346007	2.82378	0.491419	4.033	0.630273	5.16305	0.875178	7.16596	0.354927	2.91198	0.493537	4.03356	0.719149	5.88495	0.808717	6.63357
0.348046	2.81712	0.220443	1.78471	0.34788	2.81765	0.492879	4.01429	0.631348	5.13268	0.875743	7.11629	0.356887	2.90584	0.494681	4.01236	0.719711	5.84498	0.809851	6.59248
0.349947	2.81131	0.222471	1.78764	0.349779	2.81181	0.49434	3.99587	0.632431	5.10283	0.876312	7.0674	0.358845	2.89979	0.495835	3.99155	0.72028	5.80567	0.810989	6.55205
0.351872	2.80577	0.2245	1.79054	0.351702	2.80625	0.495803	3.97774	0.633521	5.07349	0.876885	7.01928	0.360801	2.89381	0.496998	3.97113	0.720854	5.76699	0.812131	6.51226
0.35382	2.8005	0.226528	1.79339	0.353648	2.80095	0.497268	3.95989	0.634619	5.04464	0.877462	6.97191	0.362756	2.88791	0.498169	3.95107	0.721435	5.72893	0.813277	6.47309
0.35579	2.79548	0.228557	1.7962	0.355617	2.79591	0.498734	3.94232	0.635724	5.01628	0.878044	6.92527	0.364709	2.88208	0.499349	3.93139	0.722022	5.69148	0.814428	6.43454
0.357782	2.7907	0.230586	1.79897	0.357606	2.79111	0.500202	3.92502	0.636837	4.98838	0.87863	6.87934	0.366661	2.87632	0.500539	3.91205	0.722615	5.65463	0.815583	6.39657
0.359794	2.78615	0.232615	1.80171	0.359617	2.78654	0.501672	3.90798	0.637957	4.96095	0.879221	6.83411	0.36861	2.87064	0.501737	3.89307	0.723214	5.61836	0.816742	6.35919
0.361826	2.78181	0.234644	1.8044	0.361647	2.78218	0.503143	3.89119	0.639085	4.93397	0.879816	6.78956	0.370558	2.86502	0.502944	3.87443	0.723819	5.58265	0.817904	6.32239
0.363876	2.77768	0.236673	1.80706	0.363696	2.77803	0.504616	3.87466	0.640219	4.90743	0.880415	6.74569	0.372504	2.85947	0.50416	3.85612	0.724431	5.54751	0.819071	6.28613
0.365944	2.77374	0.238702	1.80967	0.365762	2.77408	0.50609	3.85838	0.641361	4.88133	0.881019	6.70247	0.374448	2.85398	0.505385	3.83813	0.725049	5.5129	0.820242	6.25043
0.368029	2.76998	0.240731	1.81226	0.367846	2.7703	0.507565	3.84233	0.642511	4.85564	0.881627	6.65989	0.376391	2.84856	0.506619	3.82047	0.725673	5.47883	0.821418	6.21525
0.37013	2.7664	0.24276	1.8148	0.369946	2.7667	0.509042	3.82652	0.643667	4.83037	0.882239	6.61793	0.378331	2.84319	0.507861	3.80312	0.726302	5.44529	0.822597	6.1806
0.372247	2.76297	0.244789	1.81731	0.372061	2.76327	0.51052	3.81095	0.644831	4.80551	0.882856	6.5766	0.380269	2.83789	0.509113	3.78608	0.726939	5.41225	0.82378	6.14647
0.374378	2.75971	0.246817	1.81979	0.374191	2.75999	0.511999	3.79559	0.646002	4.78104	0.883477	6.53586	0.382206	2.83264	0.510373	3.76933	0.727581	5.37971	0.824966	6.11283
0.376523	2.75659	0.248846	1.82223	0.376334	2.75686	0.51348	3.78046	0.64718	4.75696	0.884103	6.49572	0.38414	2.82746	0.511642	3.75288	0.728229	5.34767	0.826157	6.07968
0.378681	2.75361	0.250875	1.82464	0.378491	2.75386	0.514962	3.76554	0.648366	4.73325	0.884733	6.45615	0.386073	2.82233	0.51292	3.73672	0.728883	5.3161	0.827352	6.04701
0.380852	2.75075	0.252904	1.82701	0.380661	2.751	0.516446	3.75083	0.649558	4.70992	0.885367	6.41715	0.388003	2.81725	0.514207	3.72084	0.729543	5.285	0.82855	6.01481
0.383034	2.74802	0.254932	1.82935	0.382842	2.74826	0.51793	3.73633	0.650757	4.68696	0.886005	6.3787	0.389931	2.81222	0.515502	3.70523	0.73021	5.25436	0.829753	5.98307
0.385228	2.74541	0.256961	1.83166	0.385035	2.74563	0.519416	3.72203	0.651964	4.66435	0.886648	6.3408	0.391857	2.80725	0.516807	3.6899	0.730882	5.22418	0.830959	5.95178
0.387432	2.74291	0.258989	1.83394	0.387239	2.74312	0.520903	3.70793	0.653177	4.64209	0.887296	6.30343	0.393781	2.80233	0.51812	3.67483	0.73156	5.19443	0.832168	5.92094
0.389646	2.74051	0.261017	1.83619	0.389452	2.74071	0.522391	3.69403	0.654398	4.62017	0.887948	6.26658	0.395702	2.79746	0.519442	3.66002	0.732244	5.16512	0.833382	5.89052
0.39187	2.73821	0.263045	1.83841	0.391675	2.7384	0.523881	3.68031	0.655625	4.59858	0.888604	6.23025	0.397622	2.79263	0.520772	3.64546	0.732935	5.13624	0.834599	5.86053
0.394103	2.736	0.265073	1.84059	0.393907	2.73619	0.525371	3.66678	0.65686	4.57733	0.889264	6.19442	0.399539	2.78785	0.522112	3.63115	0.733631	5.10776	0.83582	5.83095
0.396345	2.73388	0.267101	1.84275	0.396148	2.73406	0.526863	3.65344	0.658101	4.5564	0.889929	6.15907	0.401454	2.78312	0.52346	3.61709	0.734333	5.0797	0.837044	5.80179
0.398594	2.73184	0.269128	1.84488	0.398397	2.73201	0.528356	3.64027	0.659349	4.53578	0.890598	6.12422	0.403367	2.77844	0.524816	3.60327	0.735041	5.05204	0.838272	5.77302
0.400852	2.72988	0.271155	1.84698	0.400654	2.73004	0.529849	3.62728	0.660604	4.51547	0.891272	6.08983	0.405277	2.77379	0.526182	3.58968	0.735755	5.02477	0.839504	5.74464
0.403116	2.72799	0.273182	1.84905	0.402918	2.72815	0.531344	3.61446	0.661865	4.49546	0.89195	6.05591	0.407185	2.76919	0.527556	3.57632	0.736475	4.99789	0.840739	5.71665
0.405388	2.72617	0.275209	1.8511	0.405189	2.72633	0.532841	3.60181	0.663134	4.47575	0.892632	6.02245	0.409091	2.76464	0.528939	3.56319	0.737201	4.97138	0.841978	5.68903
0.407666	2.72442	0.277236	1.85311	0.407466	2.72457	0.534338	3.58932	0.664409	4.45634	0.893319	5.98943	0.410994	2.76012	0.53033	3.55028	0.737932	4.94524	0.84322	5.66178
0.40995	2.72273	0.279262	1.8551	0.40975	2.72288	0.535836	3.577	0.66569	4.4372	0.89401	5.95685	0.412895	2.75565	0.53173	3.53759	0.73867	4.91947	0.844466	5.63489
0.41224	2.72111	0.281288	1.85707	0.41204	2.72125	0.537335	3.56484	0.666978	4.41835	0.894705	5.92471	0.414794	2.75121	0.533138	3.52511	0.739413	4.89405	0.845715	5.60836
0.414536	2.71953	0.283313	1.85901	0.414335	2.71967	0.538835	3.55283	0.668273	4.39977	0.895405	5.89298	0.41669	2.74681	0.534555	3.51284	0.740162	4.86898	0.846967	5.58217
0.416837	2.71802	0.285339	1.86092	0.416635	2.71815	0.540337	3.54098	0.669575	4.38147	0.896109	5.86167	0.418584	2.74246	0.535981	3.50077	0.740917	4.84426	0.848223	5.55633
0.419143	2.71655	0.287364	1.86281	0.418941	2.71668	0.541839	3.52927	0.670883	4.36342	0.896818	5.83077	0.420476	2.73813	0.537415	3.48891	0.741678	4.81987	0.849482	5.53082
0.421453	2.71513	0.289388	1.86467	0.421251	2.71525	0.543342	3.51772	0.672197	4.34564	0.897531	5.80027	0.422365	2.73385	0.538857	3.47724	0.742444	4.79582	0.850745	5.50565
0.423769	2.71375	0.291413	1.86651	0.423566	2.71387	0.544847	3.50631	0.673518	4.32811	0.898248	5.77017	0.424252	2.7296	0.540308	3.46576	0.743217	4.77209	0.85201	5.48079
0.426088	2.71242	0.293437	1.86832	0.425885	2.71254	0.546352	3.49504	0.674845	4.31083	0.89897	5.74045	0.426136	2.72539	0.541767	3.45448	0.743995	4.74867	0.853279	5.45625
0.428411	2.71113	0.29546	1.87011	0.428207	2.71125	0.547859	3.48391	0.676178	4.29379	0.899696	5.71111	0.428018	2.72121	0.543234	3.44338	0.744779	4.72557	0.854551	5.43202
0.430738	2.70988	0.297484	1.87188	0.430534	2.70999	0.549366	3.47292	0.677518	4.27699	0.900426	5.68214	0.429898	2.71706	0.54471	3.43246	0.745568	4.70278	0.855827	5.4081
0.433069	2.70867	0.299507	1.87363	0.432865	2.70877	0.550875	3.46207	0.678864	4.26043	0.901161	5.65353	0.431775	2.71295	0.546194	3.42172	0.746363	4.68029	0.857105	5.38448
0.435403	2.70749	0.301529	1.87535	0.435198	2.70759	0.552385	3.45135	0.680217	4.2441	0.9019	5.62529	0.433649	2.70887	0.547686	3.41116	0.747164	4.6581	0.858387	5.36115
0.43774	2.70634	0.303551	1.87705	0.437536	2.70644	0.553895	3.44076	0.681575	4.228	0.902644	5.5974	0.435522	2.70483	0.549187	3.40077	0.747971	4.6362	0.859672	5.33812
0.440081	2.70523	0.305573	1.87873	0.439876	2.70533	0.555407	3.43029	0.68294	4.21212	0.903392	5.56986	0.437392	2.70081	0.550695	3.39055	0.748783	4.61459	0.86096	5.31536
0.442424	2.70415	0.307594	1.88038	0.442219	2.70424	0.55692	3.41996	0.68431	4.19646	0.904144	5.54266	0.439259	2.69683	0.552212	3.3805	0.749601	4.59325	0.862251	5.29289
0.44477	2.70309	0.309615	1.88202	0.444564	2.70318	0.558434	3.40975	0.685687	4.18101	0.904901	5.5158	0.441124	2.69288	0.553736	3.37061	0.750425	4.5722	0.863545	5.27069
0.447118	2.70207	0.311636	1.88363	0.446913	2.70216	0.559949	3.39966	0.68707	4.16578	0.905662	5.48926	0.442987	2.68896	0.555269	3.36087	0.751254	4.55141	0.864842	5.24875
0.449469	2.70106	0.313656	1.88522	0.449263	2.70115	0.561465	3.38969	0.688458	4.15075	0.906428	5.46305	0.444848	2.68506	0.55681	3.3513	0.752089	4.5309	0.866142	5.22709
0.451822	2.70009	0.315675	1.8868	0.451616	2.70017	0.562982	3.37983	0.689853	4.13593	0.907198	5.43716	0.446706	2.6812	0.558358	3.34188	0.752929	4.51064	0.867445	5.20568
0.454178	2.69914	0.317694	1.88835	0.453971	2.69922	0.5645	3.3701	0.691253	4.1213	0.907972	5.41158	0.448562	2.67737	0.559915	3.33261	0.753776	4.49065	0.86875	5.18453
0.456535	2.6982	0.319713	1.88988	0.456328	2.69829	0.566019	3.36048	0.692659	4.10687	0.90875	5.38631	0.450415	2.67356	0.561479	3.32349	0.754627	4.4709	0.870059	5.16363
0.458894	2.6973	0.321731	1.89139	0.458687	2.69737	0.56754	3.35097	0.694071	4.09264	0.909533	5.36135	0.452266	2.66979	0.563051	3.31452	0.755485	4.45141	0.871371	5.14297
0.461255	2.69641	0.323749	1.89289	0.461048	2.69648	0.569061	3.34157	0.695489	4.07859	0.910321	5.33668	0.454115	2.66604	0.56463	3.30569	0.756347	4.43216	0.872685	5.12256
0.463618	2.69554	0.325766	1.89436	0.463411	2.69561	0.570584	3.33228	0.696912	4.06473	0.911113	5.3123	0.455962	2.66232	0.566218	3.29699	0.757216	4.41316	0.874002	5.10239
0.465982	2.69469	0.327783	1.89582	0.465775	2.69476	0.572108	3.3231	0.698342	4.05105	0.911909	5.28822	0.457806	2.65862	0.567813	3.28844	0.75809	4.39439	0.875322	5.08245
0.468348	2.69385	0.329799	1.89726	0.46814	2.69392	0.573633	3.31402	0.699776	4.03755	0.912709	5.26442	0.459648	2.65496	0.569415	3.28002	0.758969	4.37586	0.876645	5.06274
0.470715	2.69303	0.331815	1.89868	0.470507	2.69311	0.575159	3.30505	0.701216	4.02423	0.913514	5.2409	0.461488	2.65131	0.571025	3.27174	0.759854	4.35755	0.87797	5.04326
0.473083	2.69223	0.33383	1.90008	0.472875	2.6923	0.576687	3.29618	0.702662	4.01107	0.914324	5.21765	0.463326	2.6477	0.572642	3.26358	0.760745	4.33947	0.879298	5.024
0.475452	2.69145	0.335845	1.90146	0.475245	2.69152	0.578216	3.28741	0.704113	3.99809	0.915137	5.19468	0.465161	2.64411	0.574267	3.25555	0.761641	4.32161	0.880629	5.00496
0.477823	2.69067	0.337859	1.90283	0.477615	2.69074	0.579746	3.27874	0.705569	3.98528	0.915955	5.17197	0.466995	2.64055	0.575899	3.24765	0.762542	4.30398	0.881963	4.98614
0.480194	2.68992	0.339872	1.90418	0.479987	2.68998	0.581277	3.27017	0.707031	3.97263	0.916778	5.14952	0.468826	2.63701	0.577538	3.23987	0.763449	4.28655	0.883299	4.96753
0.482567	2.68917	0.341885	1.90551	0.482359	2.68924	0.58281	3.2617	0.708498	3.96014	0.917605	5.12733	0.470656	2.6335	0.579184	3.23221	0.764361	4.26934	0.884637	4.94912
0.48494	2.68844	0.343898	1.90682	0.484732	2.6885	0.584344	3.25332	0.709971	3.94781	0.918436	5.1054	0.472483	2.63001	0.580837	3.22467	0.765279	4.25234	0.885979	4.93093
0.487314	2.68772	0.34591	1.90812	0.487106	2.68778	0.585879	3.24504	0.711448	3.93564	0.919272	5.08371	0.474308	2.62655	0.582498	3.21725	0.766202	4.23554	0.887322	4.91293
0.489688	2.687	0.347921	1.9094	0.48948	2.68707	0.587416	3.23684	0.712931	3.92362	0.920112	5.06228	0.476131	2.62311	0.584165	3.20994	0.767131	4.21895	0.888669	4.89513
0.492064	2.6863	0.349932	1.91067	0.491856	2.68637	0.588954	3.22874	0.714419	3.91175	0.920956	5.04108	0.477953	2.6197	0.585839	3.20275	0.768065	4.20255	0.890017	4.87753
0.494439	2.68561	0.351942	1.91192	0.494231	2.68567	0.590493	3.22073	0.715911	3.90003	0.921805	5.02012	0.479772	2.61631	0.587521	3.19566	0.769005	4.18635	0.891369	4.86012
0.496815	2.68493	0.353952	1.91315	0.496607	2.68499	0.592035	3.21281	0.717409	3.88845	0.922658	4.9994	0.481589	2.61295	0.589208	3.18868	0.76995	4.17034	0.892722	4.8429
0.499192	2.68426	0.355961	1.91437	0.498984	2.68432	0.593577	3.20498	0.718912	3.87702	0.923516	4.97892	0.483405	2.60961	0.590903	3.18181	0.7709	4.15452	0.894078	4.82586
0.501569	2.6836	0.357969	1.91558	0.50136	2.68365	0.595121	3.19723	0.72042	3.86573	0.924378	4.95866	0.485219	2.60629	0.592604	3.17504	0.771856	4.13889	0.895436	4.80901
0.503946	2.68294	0.359977	1.91676	0.503737	2.683	0.596667	3.18957	0.721932	3.85457	0.925244	4.93862	0.487031	2.603	0.594312	3.16837	0.772817	4.12344	0.896797	4.79234
0.506323	2.68229	0.361985	1.91794	0.506114	2.68235	0.598214	3.18199	0.723449	3.84355	0.926115	4.91881	0.488841	2.59973	0.596026	3.16181	0.773783	4.10818	0.89816	4.77584
0.5087	2.68165	0.363991	1.9191	0.508492	2.6817	0.599763	3.1745	0.724972	3.83267	0.92699	4.89921	0.49065	2.59648	0.597746	3.15534	0.774755	4.09309	0.899526	4.75952
0.511077	2.68101	0.365997	1.92024	0.510869	2.68107	0.601314	3.16709	0.726498	3.82191	0.927869	4.87983	0.492457	2.59326	0.599473	3.14897	0.775732	4.07818	0.900893	4.74337
0.513454	2.68038	0.368003	1.92137	0.513246	2.68044	0.602866	3.15976	0.72803	3.81129	0.928753	4.86066	0.494262	2.59006	0.601206	3.14269	0.776714	4.06344	0.902263	4.7274
0.515831	2.67976	0.370008	1.92248	0.515623	2.67981	0.60442	3.15251	0.729566	3.80079	0.929642	4.8417	0.496066	2.58688	0.602945	3.1365	0.777702	4.04887	0.903635	4.71159
0.518208	2.67914	0.372012	1.92359	0.518	2.67919	0.605976	3.14534	0.731106	3.79042	0.930534	4.82295	0.497868	2.58372	0.604691	3.13041	0.778695	4.03447	0.905009	4.69594
0.520585	2.67852	0.374015	1.92467	0.520377	2.67858	0.607533	3.13825	0.732651	3.78017	0.931431	4.8044	0.499668	2.58059	0.606442	3.12441	0.779693	4.02024	0.906386	4.68045
0.522961	2.67791	0.376018	1.92575	0.522753	2.67796	0.609093	3.13123	0.734201	3.77004	0.932333	4.78605	0.501468	2.57748	0.608199	3.11849	0.780697	4.00617	0.907764	4.66513
0.525337	2.6773	0.378021	1.92681	0.525129	2.67736	0.610654	3.1243	0.735755	3.76003	0.933239	4.76789	0.503265	2.57439	0.609962	3.11266	0.781706	3.99226	0.909145	4.64996
0.527713	2.6767	0.380022	1.92786	0.527505	2.67675	0.612218	3.11743	0.737313	3.75014	0.934149	4.74994	0.505062	2.57133	0.611731	3.10692	0.78272	3.97851	0.910528	4.63494
0.530088	2.6761	0.382023	1.92889	0.52988	2.67615	0.613783	3.11065	0.738876	3.74036	0.935064	4.73217	0.506857	2.56828	0.613506	3.10126	0.783739	3.96491	0.911912	4.62008
0.532462	2.6755	0.384024	1.92991	0.532254	2.67556	0.61535	3.10394	0.740443	3.7307	0.935983	4.71459	0.508651	2.56526	0.615286	3.09567	0.784764	3.95147	0.913299	4.60537
0.534836	2.67491	0.386023	1.93092	0.534628	2.67496	0.61692	3.0973	0.742014	3.72115	0.936906	4.6972	0.510443	2.56226	0.617072	3.09017	0.785794	3.93818	0.914688	4.5908
0.537209	2.67432	0.388022	1.93192	0.537001	2.67437	0.618491	3.09073	0.743589	3.7117	0.937834	4.67999	0.512235	2.55928	0.618863	3.08475	0.786829	3.92504	0.916079	4.57638
0.539582	2.67373	0.39002	1.9329	0.539374	2.67378	0.620065	3.08423	0.745168	3.70237	0.938766	4.66296	0.514025	2.55633	0.620659	3.0794	0.78787	3.91205	0.917472	4.56211
0.541953	2.67314	0.392018	1.93387	0.541746	2.67319	0.621641	3.07781	0.746751	3.69314	0.939703	4.64611	0.515814	2.55339	0.622461	3.07413	0.788915	3.8992	0.918866	4.54797
0.544324	2.67255	0.394015	1.93483	0.544116	2.6726	0.623219	3.07146	0.748339	3.68401	0.940644	4.62944	0.517602	2.55048	0.624268	3.06894	0.789966	3.8865	0.920263	4.53398
0.546694	2.67196	0.396011	1.93577	0.546486	2.67201	0.6248	3.06517	0.74993	3.67499	0.94159	4.61294	0.519389	2.54759	0.62608	3.06381	0.791022	3.87394	0.921662	4.52012
0.549062	2.67137	0.398007	1.93671	0.548855	2.67143	0.626383	3.05896	0.751525	3.66607	0.94254	4.59661	0.521175	2.54472	0.627898	3.05876	0.792084	3.86152	0.923062	4.5064
0.55143	2.67079	0.400002	1.93763	0.551223	2.67084	0.627969	3.05281	0.753124	3.65725	0.943494	4.58045	0.52296	2.54188	0.62972	3.05378	0.79315	3.84923	0.924464	4.49281
0.553797	2.6702	0.401996	1.93854	0.553589	2.67025	0.629557	3.04673	0.754727	3.64853	0.944453	4.56446	0.524744	2.53905	0.631547	3.04886	0.794222	3.83708	0.925868	4.47935
0.556162	2.66961	0.40399	1.93944	0.555955	2.66966	0.631147	3.04072	0.756334	3.6399	0.945416	4.54864	0.526527	2.53624	0.633379	3.04401	0.795299	3.82507	0.927274	4.46602
0.558526	2.66902	0.405983	1.94033	0.558319	2.66907	0.632741	3.03477	0.757944	3.63136	0.946383	4.53297	0.52831	2.53346	0.635215	3.03923	0.796381	3.81319	0.928682	4.45282
0.560888	2.66843	0.407975	1.94121	0.560682	2.66848	0.634337	3.02889	0.759558	3.62292	0.947355	4.51747	0.530091	2.5307	0.637056	3.03451	0.797468	3.80144	0.930091	4.43974
0.56325	2.66784	0.409966	1.94207	0.563043	2.66789	0.635935	3.02307	0.761175	3.61458	0.948331	4.50212	0.531872	2.52796	0.638902	3.02986	0.798561	3.78981	0.931502	4.42679
0.565609	2.66724	0.411957	1.94293	0.565403	2.6673	0.637537	3.01732	0.762796	3.60632	0.949312	4.48693	0.533653	2.52524	0.640752	3.02526	0.799658	3.77831	0.932915	4.41396
0.567967	2.66665	0.413947	1.94377	0.567761	2.6667	0.639141	3.01164	0.764421	3.59815	0.950297	4.47189	0.535433	2.52254	0.642607	3.02073	0.800761	3.76694	0.934329	4.40125
0.570324	2.66605	0.415937	1.94461	0.570117	2.6661	0.640749	3.00602	0.766049	3.59007	0.951287	4.45701	0.537212	2.51986	0.644466	3.01626	0.801869	3.75569	0.935745	4.38866
0.572678	2.66545	0.417925	1.94543	0.572472	2.6655	0.642359	3.00046	0.76768	3.58207	0.952281	4.44227	0.53899	2.5172	0.646329	3.01185	0.802982	3.74457	0.937163	4.37619
0.575031	2.66484	0.419913	1.94624	0.574825	2.6649	0.643973	2.99496	0.769315	3.57416	0.953279	4.42769	0.540768	2.51456	0.648196	3.00749	0.804101	3.73356	0.938582	4.36383
0.577382	2.66423	0.4219	1.94705	0.577176	2.66429	0.64559	2.98953	0.770953	3.56634	0.954282	4.41325	0.542546	2.51194	0.650068	3.00319	0.805224	3.72267	0.940003	4.35158
0.579731	2.66362	0.423887	1.94784	0.579525	2.66368	0.64721	2.98415	0.772595	3.55859	0.955289	4.39895	0.544323	2.50935	0.651943	2.99895	0.806353	3.7119	0.941426	4.33945
0.582078	2.663	0.425872	1.94862	0.581872	2.66306	0.648834	2.97884	0.774239	3.55093	0.956301	4.3848	0.5461	2.50677	0.653822	2.99476	0.807486	3.70125	0.94285	4.32743
0.584423	2.66238	0.427858	1.94939	0.584217	2.66244	0.650461	2.97359	0.775887	3.54335	0.957317	4.37078	0.547877	2.50422	0.655705	2.99062	0.808625	3.6907	0.944275	4.31552
0.586765	2.66176	0.429842	1.95016	0.58656	2.66181	0.652091	2.9684	0.777538	3.53584	0.958337	4.35691	0.549653	2.50168	0.657592	2.98653	0.809769	3.68028	0.945702	4.30372
0.589105	2.66113	0.431825	1.95091	0.5889	2.66118	0.653725	2.96327	0.779192	3.52841	0.959362	4.34317	0.551429	2.49917	0.659483	2.9825	0.810918	3.66996	0.94713	4.29202
0.591443	2.66049	0.433808	1.95165	0.591238	2.66054	0.655363	2.9582	0.780849	3.52106	0.960391	4.32957	0.553205	2.49667	0.661377	2.97852	0.812073	3.65975	0.94856	4.28042
0.593778	2.65984	0.43579	1.95239	0.593573	2.6599	0.657005	2.9532	0.782509	3.51378	0.961425	4.3161	0.55498	2.4942	0.663274	2.97458	0.813232	3.64965	0.949992	4.26894
0.59611	2.65919	0.437772	1.95311	0.595906	2.65925	0.65865	2.94824	0.784172	3.50658	0.962463	4.30276	0.556756	2.49175	0.665175	2.97069	0.814396	3.63966	0.951424	4.25755
0.59844	2.65854	0.439752	1.95382	0.598236	2.6586	0.6603	2.94335	0.785838	3.49945	0.963505	4.28956	0.558531	2.48931	0.66708	2.96685	0.815566	3.62977	0.952858	4.24626
0.600767	2.65787	0.441732	1.95453	0.600563	2.65793	0.661954	2.93852	0.787506	3.49239	0.964552	4.27648	0.560307	2.4869	0.668987	2.96306	0.816741	3.61999	0.954294	4.23508
0.603091	2.6572	0.443711	1.95523	0.602887	2.65726	0.663611	2.93375	0.789178	3.4854	0.965604	4.26353	0.562082	2.4845	0.670898	2.95931	0.817921	3.61031	0.955731	4.22399
0.605412	2.65652	0.44569	1.95592	0.605209	2.65658	0.665274	2.92903	0.790852	3.47848	0.966659	4.2507	0.563858	2.48213	0.672812	2.95561	0.819106	3.60073	0.957169	4.21299
0.60773	2.65584	0.447667	1.95659	0.607527	2.6559	0.66694	2.92437	0.792529	3.47163	0.96772	4.238	0.565633	2.47978	0.674729	2.95195	0.820296	3.59126	0.958608	4.2021
0.610044	2.65514	0.449644	1.95726	0.609842	2.6552	0.668611	2.91977	0.794208	3.46485	0.968784	4.22543	0.567409	2.47744	0.676649	2.94833	0.821491	3.58188	0.960049	4.19129
0.612355	2.65443	0.451621	1.95793	0.612153	2.6545	0.670287	2.91523	0.79589	3.45813	0.969853	4.21297	0.569184	2.47513	0.678572	2.94475	0.822692	3.5726	0.96149	4.18058
0.614663	2.65372	0.453596	1.95858	0.614461	2.65378	0.671968	2.91074	0.797575	3.45148	0.970927	4.20063	0.57096	2.47283	0.680497	2.94122	0.823897	3.56342	0.962934	4.16997
0.616967	2.653	0.455571	1.95922	0.616765	2.65306	0.673653	2.90632	0.799262	3.44489	0.972005	4.18841	0.572736	2.47055	0.682426	2.93772	0.825108	3.55433	0.964378	4.15944
0.619267	2.65226	0.457545	1.95986	0.619066	2.65233	0.675344	2.90194	0.800952	3.43837	0.973087	4.17631	0.574513	2.46829	0.684357	2.93426	0.826323	3.54534	0.965823	4.149
0.621563	2.65152	0.459518	1.96049	0.621362	2.65158	0.677039	2.89763	0.802644	3.4319	0.974174	4.16432	0.576289	2.46606	0.68629	2.93085	0.827544	3.53644	0.96727	4.13865
0.623856	2.65076	0.46149	1.96111	0.623655	2.65083	0.67874	2.89337	0.804339	3.4255	0.975265	4.15245	0.578066	2.46384	0.688226	2.92747	0.82877	3.52763	0.968718	4.12839
0.626144	2.64999	0.463462	1.96172	0.625944	2.65006	0.680446	2.88917	0.806036	3.41916	0.976361	4.14069	0.579844	2.46164	0.690165	2.92412	0.830001	3.51892	0.970167	4.11821
0.628428	2.64921	0.465433	1.96232	0.628228	2.64928	0.682158	2.88502	0.807735	3.41288	0.977461	4.12904	0.581621	2.45946	0.692106	2.92082	0.831237	3.51029	0.971617	4.10812
0.630708	2.64842	0.467403	1.96292	0.630508	2.64849	0.683875	2.88094	0.809437	3.40666	0.978565	4.1175	0.5834	2.45729	0.694049	2.91755	0.832479	3.50176	0.973068	4.09811
0.632983	2.64761	0.469372	1.96351	0.632784	2.64769	0.685599	2.8769	0.81114	3.4005	0.979674	4.10607	0.585178	2.45515	0.695994	2.91431	0.833725	3.49331	0.97452	4.08819
0.635253	2.6468	0.471341	1.96409	0.635055	2.64687	0.687328	2.87293	0.812846	3.39439	0.980788	4.09474	0.586957	2.45303	0.697942	2.91111	0.834977	3.48495	0.975974	4.07834
0.637519	2.64596	0.473309	1.96466	0.637321	2.64604	0.689063	2.86901	0.814554	3.38834	0.981905	4.08353	0.588737	2.45092	0.699891	2.90794	0.836234	3.47668	0.977428	4.06858
0.639779	2.64512	0.475276	1.96523	0.639582	2.64519	0.690804	2.86514	0.816265	3.38235	0.983028	4.07241	0.590517	2.44883	0.701843	2.9048	0.837495	3.46849	0.978883	4.0589
0.642035	2.64426	0.477242	1.96578	0.641838	2.64433	0.692552	2.86133	0.817977	3.37641	0.984154	4.06141	0.592298	2.44676	0.703796	2.9017	0.838762	3.46038	0.98034	4.04929
0.644285	2.64338	0.479208	1.96633	0.644088	2.64346	0.694306	2.85758	0.819691	3.37052	0.985286	4.0505	0.594079	2.44471	0.705752	2.89863	0.840035	3.45236	0.981797	4.03976
0.64653	2.64249	0.481173	1.96688	0.646334	2.64257	0.696067	2.85388	0.821407	3.36469	0.986421	4.0397	0.595861	2.44268	0.707709	2.89558	0.841312	3.44442	0.983255	4.03031
0.64877	2.64159	0.483137	1.96741	0.648574	2.64167	0.697834	2.85024	0.823125	3.35891	0.987561	4.02899	0.597643	2.44067	0.709668	2.89257	0.842594	3.43656	0.984715	4.02094
0.651004	2.64066	0.4851	1.96794	0.650808	2.64075	0.699609	2.84666	0.824845	3.35318	0.988706	4.01839	0.599427	2.43867	0.711628	2.88959	0.843882	3.42878	0.986175	4.01164
0.653232	2.63973	0.487063	1.96846	0.653037	2.63981	0.70139	2.84313	0.826567	3.3475	0.989855	4.00788	0.60121	2.43669	0.71359	2.88664	0.845174	3.42109	0.987636	4.00241
0.655454	2.63877	0.489025	1.96898	0.655259	2.63885	0.703179	2.83966	0.828291	3.34187	0.991008	3.99747	0.602995	2.43473	0.715554	2.88371	0.846472	3.41347	0.989098	3.99326
0.65767	2.6378	0.490986	1.96949	0.657476	2.63788	0.704975	2.83624	0.830016	3.33629	0.992166	3.98715	0.604781	2.43279	0.717519	2.88081	0.847775	3.40592	0.990561	3.98418
0.659879	2.63681	0.492946	1.96999	0.659686	2.63689	0.706779	2.83288	0.831744	3.33076	0.993328	3.97694	0.606567	2.43086	0.719485	2.87794	0.849084	3.39846	0.992025	3.97517
0.662083	2.6358	0.494906	1.97048	0.66189	2.63589	0.70859	2.82957	0.833473	3.32527	0.994495	3.96681	0.608354	2.42895	0.721453	2.8751	0.850397	3.39107	0.993489	3.96623
0.664279	2.63477	0.496865	1.97097	0.664087	2.63486	0.710409	2.82632	0.835203	3.31984	0.995666	3.95678	0.610141	2.42706	0.723422	2.87228	0.851715	3.38376	0.994955	3.95736
0.666469	2.63372	0.498823	1.97145	0.666278	2.63382	0.712236	2.82312	0.836935	3.31445	0.996842	3.94683	0.61193	2.42519	0.725392	2.86949	0.853039	3.37652	0.996421	3.94856
0.668653	2.63266	0.50078	1.97192	0.668462	2.63275	0.714072	2.81998	0.838669	3.30911	0.998022	3.93698	0.61372	2.42333	0.727363	2.86672	0.854368	3.36935	0.997888	3.93983
0.670829	2.63158	0.502737	1.97239	0.670639	2.63167	0.715915	2.8169	0.840405	3.30381	0.999206	3.92722	0.61551	2.4215	0.729336	2.86398	0.855702	3.36226	0.999356	3.93117
0.672999	2.63047	0.504693	1.97286	0.672809	2.63057	0.717767	2.81387	0.842141	3.29855	1.0004	3.91755	0.617301	2.41967	0.731309	2.86126	0.857041	3.35524	1.00082	3.92257
0.675161	2.62935	0.506648	1.97331	0.674972	2.62945	0.719627	2.81089	0.84388	3.29334			0.619094	2.41787	0.733283	2.85856	0.858386	3.34829		
0.677316	2.6282	0.508602	1.97376	0.677127	2.6283	0.721495	2.80797	0.84562	3.28818			0.620887	2.41608	0.735258	2.85589	0.859736	3.34141		
0.679463	2.62704	0.510556	1.9742	0.679275	2.62714	0.723373	2.80511	0.847361	3.28305			0.622681	2.41431	0.737234	2.85324	0.861091	3.3346		
0.681603	2.62585	0.512509	1.97464	0.681416	2.62596	0.725259	2.8023	0.849103	3.27797			0.624476	2.41255	0.739211	2.85061	0.862451	3.32786		
0.683736	2.62465	0.514461	1.97507	0.683549	2.62475	0.727154	2.79954	0.850847	3.27293			0.626272	2.41082	0.741188	2.848	0.863816	3.32119		
0.68586	2.62342	0.516412	1.9755	0.685675	2.62353	0.729058	2.79684	0.852592	3.26793			0.62807	2.40909	0.743166	2.84541	0.865187	3.31459		
0.687977	2.62217	0.518363	1.97592	0.687792	2.62229	0.730971	2.79419	0.854339	3.26298			0.629868	2.40739	0.745144	2.84285	0.866563	3.30805		
0.690087	2.62091	0.520313	1.97633	0.689902	2.62102	0.732894	2.7916	0.856087	3.25806			0.631667	2.4057	0.747123	2.8403	0.867944	3.30158		
0.692188	2.61962	0.522262	1.97674	0.692004	2.61973	0.734825	2.78906	0.857835	3.25318			0.633468	2.40403	0.749102	2.83777	0.86933	3.29517		
0.694281	2.61831	0.52421	1.97714	0.694098	2.61842	0.736766	2.78657	0.859585	3.24834			0.635269	2.40237	0.751082	2.83527	0.870721	3.28883		
0.696367	2.61698	0.526158	1.97754	0.696184	2.61709	0.738716	2.78414	0.861337	3.24354			0.637072	2.40073	0.753062	2.83278	0.872118	3.28256		
0.698444	2.61563	0.528105	1.97793	0.698262	2.61574	0.740676	2.78175	0.863089	3.23877			0.638875	2.3991	0.755042	2.83031	0.873521	3.27635		
0.700513	2.61425	0.530051	1.97832	0.700332	2.61437	0.742645	2.77942	0.864842	3.23404			0.64068	2.39749	0.757023	2.82786	0.874928	3.2702		
0.702575	2.61286	0.531997	1.9787	0.702394	2.61298	0.744623	2.77714	0.866597	3.22935			0.642486	2.39589	0.759003	2.82542	0.876341	3.26411		
0.704628	2.61145	0.533942	1.97907	0.704448	2.61157	0.746611	2.77491	0.868352	3.2247			0.644293	2.39431	0.760984	2.823	0.877759	3.25809		
0.706673	2.61002	0.535886	1.97944	0.706494	2.61014	0.748608	2.77274	0.870108	3.22008			0.646102	2.39275	0.762965	2.8206	0.879182	3.25212		
0.70871	2.60856	0.537829	1.97981	0.708532	2.60869	0.750615	2.77061	0.871866	3.2155			0.647911	2.3912	0.764945	2.81822	0.880611	3.24622		
0.710739	2.60709	0.539772	1.98017	0.710562	2.60722	0.752631	2.76853	0.873624	3.21095			0.649722	2.38967	0.766926	2.81585	0.882045	3.24038		
0.71276	2.6056	0.541713	1.98052	0.712583	2.60573	0.754657	2.7665	0.875383	3.20643			0.651534	2.38815	0.768906	2.81349	0.883484	3.23459		
0.714773	2.60409	0.543655	1.98087	0.714597	2.60422	0.756692	2.76452	0.877143	3.20195			0.653347	2.38664	0.770886	2.81116	0.884928	3.22887		
0.716779	2.60256	0.545595	1.98121	0.716604	2.6027	0.758736	2.76258	0.878904	3.1975			0.655161	2.38515	0.772866	2.80883	0.886378	3.2232		
0.718777	2.60102	0.547535	1.98155	0.718602	2.60115	0.760789	2.76069	0.880665	3.19309			0.656977	2.38368	0.774846	2.80652	0.887834	3.21759		
0.720766	2.59945	0.549474	1.98189	0.720592	2.59959	0.762851	2.75885	0.882427	3.18871			0.658794	2.38222	0.776825	2.80423	0.889294	3.21204		
0.722749	2.59787	0.551412	1.98222	0.722576	2.59801	0.764923	2.75705	0.884191	3.18436			0.660612	2.38077	0.778804	2.80195	0.890761	3.20654		
0.724724	2.59628	0.55335	1.98254	0.724551	2.59642	0.767003	2.7553	0.885954	3.18004			0.662431	2.37934	0.780782	2.79968	0.892232	3.2011		
0.726691	2.59467	0.555287	1.98287	0.726519	2.59481	0.769092	2.75358	0.887719	3.17575			0.664252	2.37792	0.78276	2.79743	0.893709	3.19572		
0.728651	2.59304	0.557223	1.98318	0.72848	2.59318	0.77119	2.75192	0.889484	3.1715			0.666074	2.37652	0.784737	2.79519	0.895191	3.19039		
0.730605	2.5914	0.559158	1.98349	0.730434	2.59154	0.773297	2.75029	0.89125	3.16727			0.667897	2.37512	0.786714	2.79296	0.896678	3.18512		
0.732551	2.58974	0.561093	1.9838	0.73238	2.58989	0.775412	2.7487	0.893016	3.16307			0.669722	2.37375	0.78869	2.79074	0.898171	3.1799		
0.73449	2.58807	0.563027	1.9841	0.73432	2.58822	0.777535	2.74716	0.894783	3.15891			0.671547	2.37239	0.790665	2.78854	0.89967	3.17473		
0.736422	2.58639	0.564961	1.9844	0.736253	2.58654	0.779667	2.74565	0.89655	3.15477			0.673375	2.37104	0.792639	2.78635	0.901174	3.16961		
0.738348	2.5847	0.566894	1.98469	0.73818	2.58485	0.781807	2.74418	0.898318	3.15066			0.675203	2.3697	0.794613	2.78417	0.902683	3.16455		
0.740268	2.58299	0.568826	1.98498	0.7401	2.58314	0.783954	2.74275	0.900087	3.14658			0.677033	2.36838	0.796585	2.782	0.904198	3.15954		
0.742181	2.58128	0.570757	1.98527	0.742014	2.58143	0.786109	2.74135	0.901856	3.14253			0.678864	2.36707	0.798557	2.77984	0.905718	3.15458		
0.744088	2.57955	0.572688	1.98555	0.743921	2.5797	0.788272	2.73999	0.903625	3.13851			0.680696	2.36577	0.800528	2.77769	0.907243	3.14968		
0.745989	2.57781	0.574618	1.98583	0.745823	2.57797	0.790442	2.73867	0.905395	3.13451			0.68253	2.36449	0.802498	2.77555	0.908774	3.14482		
0.747884	2.57607	0.576547	1.9861	0.747719	2.57622	0.79262	2.73738	0.907165	3.13054			0.684365	2.36322	0.804467	2.77342	0.910311	3.14001		
0.749774	2.57432	0.578476	1.98637	0.749609	2.57447	0.794805	2.73612	0.908936	3.1266			0.686202	2.36196	0.806434	2.7713	0.911853	3.13526		
0.751658	2.57256	0.580404	1.98663	0.751493	2.57271	0.796996	2.73489	0.910707	3.12269			0.688039	2.36072	0.808401	2.7692	0.9134	3.13055		
0.753537	2.57079	0.582331	1.98689	0.753373	2.57095	0.799194	2.73369	0.912479	3.1188			0.689879	2.35948	0.810366	2.7671	0.914953	3.12589		
0.755411	2.56902	0.584258	1.98715	0.755247	2.56917	0.801399	2.73253	0.91425	3.11493			0.691719	2.35826	0.81233	2.76501	0.916511	3.12128		
0.75728	2.56724	0.586184	1.9874	0.757116	2.56739	0.80361	2.73139	0.916022	3.11109			0.693561	2.35706	0.814293	2.76293	0.918075	3.11671		
0.759144	2.56545	0.588109	1.98765	0.758981	2.56561	0.805828	2.73028	0.917795	3.10728			0.695404	2.35586	0.816255	2.76085	0.919644	3.1122		
0.761003	2.56367	0.590034	1.9879	0.76084	2.56382	0.808051	2.7292	0.919567	3.10349			0.697249	2.35468	0.818215	2.75879	0.921219	3.10773		
0.762858	2.56187	0.591958	1.98814	0.762696	2.56203	0.810281	2.72814	0.92134	3.09973			0.699095	2.35351	0.820174	2.75674	0.922799	3.1033		
0.764709	2.56008	0.593882	1.98838	0.764547	2.56024	0.812516	2.72711	0.923113	3.09599			0.700942	2.35235	0.822131	2.75469	0.924385	3.09893		
0.766555	2.55828	0.595805	1.98861	0.766394	2.55844	0.814757	2.72611	0.924886	3.09227			0.702791	2.3512	0.824087	2.75265	0.925976	3.0946		
0.768397	2.55648	0.597727	1.98884	0.768236	2.55664	0.817003	2.72513	0.92666	3.08858			0.704641	2.35006	0.826042	2.75062	0.927573	3.09031		
0.770236	2.55468	0.599648	1.98907	0.770075	2.55484	0.819254	2.72417	0.928434	3.08491			0.706492	2.34894	0.827995	2.74859	0.929175	3.08607		
0.772071	2.55288	0.601569	1.9893	0.77191	2.55303	0.82151	2.72324	0.930207	3.08127			0.708345	2.34783	0.829946	2.74658	0.930782	3.08187		
0.773902	2.55107	0.60349	1.98952	0.773742	2.55123	0.823772	2.72233	0.931981	3.07765			0.710199	2.34673	0.831896	2.74457	0.932396	3.07772		
0.77573	2.54927	0.605409	1.98973	0.77557	2.54943	0.826038	2.72144	0.933756	3.07405			0.712055	2.34564	0.833844	2.74256	0.934014	3.07361		
0.777555	2.54746	0.607328	1.98995	0.777395	2.54762	0.828308	2.72057	0.93553	3.07047			0.713912	2.34456	0.83579	2.74057	0.935638	3.06954		
0.779376	2.54566	0.609247	1.99016	0.779217	2.54582	0.830584	2.71972	0.937304	3.06692			0.71577	2.34349	0.837735	2.73858	0.937268	3.06552		
0.781195	2.54386	0.611165	1.99036	0.781036	2.54402	0.832863	2.71889	0.939079	3.06338			0.717629	2.34243	0.839678	2.73659	0.938903	3.06154		
0.783011	2.54206	0.613082	1.99057	0.782852	2.54222	0.835146	2.71807	0.940853	3.05987			0.71949	2.34139	0.841619	2.73462	0.940543	3.0576		
0.784824	2.54026	0.614999	1.99077	0.784665	2.54042	0.837434	2.71728	0.942628	3.05638			0.721353	2.34035	0.843559	2.73265	0.942189	3.0537		
0.786634	2.53847	0.616915	1.99097	0.786475	2.53862	0.839725	2.7165	0.944403	3.05292			0.723217	2.33933	0.845497	2.73068	0.943841	3.04984		
0.788442	2.53667	0.61883	1.99116	0.788284	2.53683	0.842021	2.71574	0.946178	3.04947			0.725082	2.33831	0.847432	2.72872	0.945498	3.04602		
0.790247	2.53488	0.620745	1.99135	0.790089	2.53504	0.844319	2.715	0.947952	3.04604			0.726948	2.33731	0.849366	2.72677	0.94716	3.04225		
0.792051	2.5331	0.622659	1.99154	0.791893	2.53325	0.846622	2.71427	0.949727	3.04264			0.728816	2.33632	0.851299	2.72482	0.948828	3.03851		
0.793852	2.53132	0.624573	1.99173	0.793694	2.53147	0.848927	2.71355	0.951502	3.03925			0.730685	2.33533	0.853229	2.72288	0.950501	3.03482		
0.795651	2.52954	0.626486	1.99191	0.795493	2.52969	0.851236	2.71286	0.953277	3.03588			0.732556	2.33436	0.855157	2.72094	0.95218	3.03116		
0.797448	2.52776	0.628399	1.99209	0.797291	2.52792	0.853548	2.71217	0.955052	3.03254			0.734428	2.3334	0.857083	2.71901	0.953864	3.02754		
0.799244	2.526	0.630311	1.99227	0.799087	2.52615	0.855863	2.7115	0.956827	3.02921			0.736301	2.33244	0.859008	2.71709	0.955553	3.02396		
0.801037	2.52423	0.632222	1.99244	0.80088	2.52439	0.858181	2.71084	0.958602	3.02591			0.738175	2.3315	0.86093	2.71517	0.957248	3.02042		
0.80283	2.52247	0.634133	1.99261	0.802673	2.52263	0.860502	2.7102	0.960377	3.02262			0.740051	2.33057	0.86285	2.71325	0.958948	3.01691		
0.80462	2.52072	0.636044	1.99278	0.804463	2.52087	0.862825	2.70956	0.962151	3.01935			0.741929	2.32964	0.864768	2.71134	0.960654	3.01345		
0.806409	2.51897	0.637953	1.99295	0.806253	2.51913	0.865151	2.70894	0.963926	3.0161			0.743807	2.32873	0.866685	2.70943	0.962365	3.01002		
0.808197	2.51723	0.639863	1.99311	0.808041	2.51738	0.867479	2.70833	0.965701	3.01287			0.745687	2.32783	0.868599	2.70753	0.964081	3.00662		
0.809984	2.5155	0.641771	1.99327	0.809827	2.51565	0.86981	2.70773	0.967476	3.00966			0.747568	2.32693	0.870511	2.70563	0.965803	3.00326		
0.811769	2.51377	0.643679	1.99343	0.811613	2.51392	0.872143	2.70714	0.969251	3.00647			0.749451	2.32605	0.872421	2.70374	0.967529	2.99994		
0.813553	2.51205	0.645587	1.99359	0.813397	2.5122	0.874478	2.70656	0.971026	3.0033			0.751335	2.32517	0.874329	2.70185	0.969261	2.99666		
0.815337	2.51033	0.647494	1.99374	0.815181	2.51048	0.876815	2.70599	0.9728	3.00014			0.75322	2.3243	0.876235	2.69997	0.970999	2.99341		
0.817119	2.50862	0.649401	1.99389	0.816963	2.50877	0.879154	2.70543	0.974575	2.997			0.755107	2.32344	0.878139	2.69809	0.972742	2.99019		
0.818901	2.50692	0.651307	1.99404	0.818745	2.50707	0.881495	2.70488	0.97635	2.99388			0.756995	2.32259	0.88004	2.69621	0.974489	2.98701		
0.820681	2.50523	0.653212	1.99418	0.820525	2.50537	0.883838	2.70434	0.978124	2.99078			0.758884	2.32175	0.88194	2.69434	0.976242	2.98386		
0.822461	2.50354	0.655117	1.99433	0.822305	2.50369	0.886182	2.7038	0.979899	2.98769			0.760774	2.32092	0.883837	2.69247	0.978001	2.98074		
0.824241	2.50186	0.657022	1.99447	0.824085	2.50201	0.888529	2.70328	0.981674	2.98463			0.762666	2.3201	0.885732	2.69061	0.979764	2.97766		
0.826019	2.50019	0.658926	1.9946	0.825863	2.50033	0.890876	2.70276	0.983448	2.98158			0.764559	2.31928	0.887625	2.68875	0.981532	2.97462		
0.827797	2.49852	0.660829	1.99474	0.827642	2.49867	0.893226	2.70225	0.985223	2.97854			0.766454	2.31848	0.889516	2.68689	0.983306	2.9716		
0.829575	2.49687	0.662732	1.99487	0.829419	2.49701	0.895576	2.70174	0.986997	2.97553			0.768349	2.31768	0.891405	2.68504	0.985085	2.96862		
0.831352	2.49522	0.664635	1.99501	0.831196	2.49536	0.897928	2.70125	0.988772	2.97253			0.770246	2.31689	0.893291	2.68319	0.986868	2.96567		
0.833129	2.49358	0.666537	1.99514	0.832973	2.49372	0.900281	2.70076	0.990547	2.96954			0.772145	2.31611	0.895176	2.68135	0.988657	2.96275		
0.834905	2.49195	0.668438	1.99526	0.83475	2.49209	0.902636	2.70027	0.992321	2.96658			0.774044	2.31534	0.897058	2.67951	0.990451	2.95986		
0.836682	2.49032	0.670339	1.99539	0.836526	2.49047	0.904991	2.69979	0.994096	2.96363			0.775945	2.31457	0.898938	2.67768	0.992249	2.957		
0.838458	2.48871	0.67224	1.99551	0.838302	2.48885	0.907348	2.69932	0.995871	2.9607			0.777847	2.31382	0.900816	2.67584	0.994053	2.95417		
0.840233	2.4871	0.67414	1.99563	0.840078	2.48724	0.909705	2.69885	0.997645	2.95778			0.77975	2.31307	0.902692	2.67401	0.995862	2.95137		
0.842009	2.4855	0.67604	1.99575	0.841853	2.48564	0.912064	2.69839	0.99942	2.95488			0.781655	2.31233	0.904566	2.67219	0.997675	2.94861		
0.843784	2.48391	0.677939	1.99587	0.843629	2.48405	0.914423	2.69794	1.00119	2.95199			0.783561	2.31159	0.906437	2.67037	0.999493	2.94587		
0.84556	2.48233	0.679838	1.99598	0.845404	2.48247	0.916783	2.69748					0.785468	2.31087	0.908307	2.66855	1.00132	2.94316		
0.847335	2.48076	0.681736	1.9961	0.84718	2.4809	0.919144	2.69704					0.787376	2.31015	0.910174	2.66674				
0.849111	2.47919	0.683634	1.99621	0.848955	2.47933	0.921506	2.69659					0.789286	2.30944	0.912039	2.66493				
0.850886	2.47764	0.685531	1.99632	0.850731	2.47777	0.923868	2.69615					0.791196	2.30873	0.913903	2.66312				
0.852662	2.47609	0.687428	1.99642	0.852507	2.47623	0.92623	2.69572					0.793108	2.30804	0.915764	2.66132				
0.854438	2.47455	0.689324	1.99653	0.854282	2.47469	0.928593	2.69529					0.795021	2.30735	0.917623	2.65952				
0.856214	2.47302	0.691221	1.99663	0.856058	2.47316	0.930957	2.69486					0.796936	2.30667	0.91948	2.65773				
0.85799	2.4715	0.693116	1.99674	0.857834	2.47163	0.93332	2.69444					0.798851	2.30599	0.921335	2.65594				
0.859766	2.46999	0.695011	1.99684	0.859611	2.47012	0.935684	2.69402					0.800768	2.30533	0.923188	2.65415				
0.861543	2.46849	0.696906	1.99693	0.861387	2.46862	0.938049	2.6936					0.802686	2.30467	0.925038	2.65237				
0.86332	2.46699	0.698801	1.99703	0.863164	2.46712	0.940413	2.69318					0.804605	2.30401	0.926887	2.65059				
0.865097	2.46551	0.700695	1.99713	0.864941	2.46564	0.942778	2.69277					0.806525	2.30337	0.928734	2.64881				
0.866875	2.46403	0.702588	1.99722	0.866719	2.46416	0.945142	2.69236					0.808447	2.30273	0.930579	2.64704				
0.868653	2.46256	0.704481	1.99731	0.868497	2.46269	0.947507	2.69195					0.810369	2.3021	0.932422	2.64527				
0.870431	2.4611	0.706374	1.9974	0.870275	2.46123	0.949872	2.69154					0.812293	2.30147	0.934263	2.64351				
0.87221	2.45965	0.708266	1.99749	0.872054	2.45978	0.952236	2.69114					0.814218	2.30085	0.936103	2.64175				
0.873989	2.45821	0.710158	1.99758	0.873833	2.45834	0.954601	2.69073					0.816144	2.30024	0.93794	2.63999				
0.875769	2.45678	0.71205	1.99766	0.875613	2.4569	0.956965	2.69033					0.818071	2.29963	0.939775	2.63824				
0.877549	2.45536	0.713941	1.99775	0.877393	2.45548	0.959329	2.68993					0.82	2.29903	0.941609	2.63649				
0.879329	2.45394	0.715832	1.99783	0.879173	2.45406	0.961692	2.68953					0.821929	2.29843	0.943441	2.63475				
0.881111	2.45253	0.717722	1.99791	0.880954	2.45266	0.964055	2.68914					0.82386	2.29785	0.945271	2.63301				
0.882892	2.45114	0.719612	1.99799	0.882736	2.45126	0.966418	2.68874					0.825792	2.29726	0.947099	2.63127				
0.884675	2.44975	0.721502	1.99807	0.884518	2.44987	0.96878	2.68834					0.827724	2.29669	0.948926	2.62954				
0.886457	2.44837	0.723391	1.99814	0.886301	2.44849	0.971141	2.68795					0.829658	2.29612	0.950751	2.62781				
0.888241	2.447	0.72528	1.99822	0.888085	2.44712	0.973502	2.68755					0.831593	2.29555	0.952574	2.62609				
0.890025	2.44564	0.727169	1.99829	0.889869	2.44575	0.975863	2.68715					0.833529	2.295	0.954395	2.62437				
0.89181	2.44428	0.729057	1.99837	0.891653	2.4444	0.978222	2.68676					0.835467	2.29444	0.956215	2.62265				
0.893595	2.44294	0.730945	1.99844	0.893438	2.44305	0.980581	2.68636					0.837405	2.2939	0.958033	2.62094				
0.895381	2.4416	0.732833	1.99851	0.895224	2.44172	0.982939	2.68597					0.839344	2.29336	0.95985	2.61924				
0.897168	2.44027	0.73472	1.99858	0.897011	2.44039	0.985296	2.68557					0.841284	2.29282	0.961665	2.61753				
0.898955	2.43895	0.736607	1.99864	0.898798	2.43907	0.987652	2.68517					0.843226	2.29229	0.963478	2.61584				
0.900743	2.43764	0.738493	1.99871	0.900586	2.43776	0.990006	2.68477					0.845168	2.29177	0.96529	2.61414				
0.902532	2.43634	0.74038	1.99877	0.902375	2.43645	0.99236	2.68437					0.847112	2.29125	0.9671	2.61245				
0.904321	2.43505	0.742266	1.99884	0.904164	2.43516	0.994713	2.68397					0.849056	2.29074	0.968909	2.61077				
0.906111	2.43376	0.744151	1.9989	0.905955	2.43387	0.997064	2.68357					0.851002	2.29023	0.970717	2.60909				
0.907902	2.43248	0.746037	1.99896	0.907745	2.4326	0.999414	2.68317					0.852948	2.28973	0.972523	2.60741				
0.909694	2.43122	0.747922	1.99902	0.909537	2.43133	1.00176	2.68276					0.854896	2.28923	0.974328	2.60574				
0.911487	2.42996	0.749806	1.99908	0.91133	2.43007							0.856845	2.28874	0.976131	2.60408				
0.91328	2.4287	0.751691	1.99914	0.913123	2.42881							0.858794	2.28825	0.977933	2.60242				
0.915074	2.42746	0.753575	1.9992	0.914917	2.42757							0.860745	2.28777	0.979734	2.60076				
0.916869	2.42623	0.755458	1.99925	0.916712	2.42633							0.862696	2.28729	0.981533	2.59911				
0.918664	2.425	0.757342	1.99931	0.918507	2.42511							0.864649	2.28682	0.983332	2.59746				
0.920461	2.42378	0.759225	1.99936	0.920304	2.42389							0.866602	2.28635	0.985129	2.59582				
0.922258	2.42257	0.761108	1.99941	0.922101	2.42267							0.868557	2.28589	0.986925	2.59419				
0.924056	2.42137	0.762991	1.99947	0.923899	2.42147							0.870512	2.28543	0.988719	2.59255				
0.925855	2.42017	0.764873	1.99952	0.925698	2.42028							0.872469	2.28498	0.990513	2.59093				
0.927655	2.41899	0.766755	1.99957	0.927497	2.41909							0.874426	2.28453	0.992305	2.58931				
0.929456	2.41781	0.768637	1.99961	0.929298	2.41791							0.876384	2.28409	0.994097	2.58769				
0.931257	2.41664	0.770518	1.99966	0.931099	2.41674							0.878344	2.28365	0.995887	2.58608				
0.93306	2.41547	0.772399	1.99971	0.932902	2.41557							0.880304	2.28321	0.997677	2.58447				
0.934863	2.41432	0.77428	1.99976	0.934705	2.41442							0.882265	2.28278	0.999465	2.58287				
0.936667	2.41317	0.776161	1.9998	0.936509	2.41327							0.884227	2.28236	1.00125	2.58127				
0.938472	2.41203	0.778042	1.99985	0.938314	2.41213							0.88619	2.28194						
0.940278	2.4109	0.779922	1.99989	0.94012	2.411							0.888154	2.28152						
0.942085	2.40978	0.781802	1.99993	0.941926	2.40987							0.890118	2.28111						
0.943892	2.40866	0.783681	1.99997	0.943734	2.40876							0.892084	2.2807						
0.945701	2.40755	0.785561	2.00001	0.945542	2.40765							0.89405	2.28029						
0.94751	2.40645	0.78744	2.00005	0.947352	2.40654							0.896018	2.27989						
0.949321	2.40535	0.789319	2.00009	0.949162	2.40545							0.897986	2.2795						
0.951132	2.40427	0.791198	2.00013	0.950973	2.40436							0.899955	2.27911						
0.952944	2.40319	0.793076	2.00017	0.952785	2.40328							0.901925	2.27872						
0.954757	2.40212	0.794955	2.00021	0.954598	2.40221							0.903896	2.27833						
0.956571	2.40105	0.796833	2.00024	0.956412	2.40115							0.905867	2.27795						
0.958386	2.4	0.798711	2.00028	0.958227	2.40009							0.90784	2.27758						
0.960202	2.39895	0.800588	2.00031	0.960043	2.39904							0.909813	2.27721						
0.962019	2.3979	0.802466	2.00035	0.961859	2.39799							0.911787	2.27684						
0.963836	2.39687	0.804343	2.00038	0.963677	2.39696							0.913762	2.27647						
0.965655	2.39584	0.80622	2.00041	0.965496	2.39593							0.915738	2.27611						
0.967475	2.39482	0.808097	2.00045	0.967315	2.39491							0.917714	2.27576						
0.969295	2.3938	0.809973	2.00048	0.969136	2.39389							0.919692	2.2754						
0.971116	2.3928	0.81185	2.00051	0.970957	2.39288							0.92167	2.27505						
0.972939	2.3918	0.813726	2.00054	0.972779	2.39188							0.923649	2.27471						
0.974762	2.3908	0.815602	2.00057	0.974602	2.39089							0.925629	2.27436						
0.976586	2.38982	0.817478	2.0006	0.976427	2.3899							0.927609	2.27402						
0.978412	2.38884	0.819353	2.00063	0.978252	2.38892							0.929591	2.27369						
0.980238	2.38786	0.821229	2.00065	0.980078	2.38795							0.931573	2.27335						
0.982065	2.3869	0.823104	2.00068	0.981905	2.38698							0.933555	2.27302						
0.983893	2.38594	0.824979	2.00071	0.983733	2.38602							0.935539	2.2727						
0.985722	2.38498	0.826854	2.00074	0.985562	2.38507							0.937523	2.27238						
0.987552	2.38404	0.828728	2.00076	0.987391	2.38412							0.939508	2.27206						
0.989382	2.3831	0.830603	2.00079	0.989222	2.38318							0.941494	2.27174						
0.991214	2.38216	0.832477	2.00081	0.991054	2.38224							0.943481	2.27143						
0.993047	2.38123	0.834351	2.00083	0.992886	2.38132							0.945468	2.27112						
0.994881	2.38031	0.836225	2.00086	0.99472	2.38039							0.947456	2.27081						
0.996715	2.3794	0.838099	2.00088	0.996555	2.37948							0.949445	2.27051						
0.998551	2.37849	0.839973	2.0009	0.99839	2.37857							0.951434	2.27021						
1.00039	2.37759	0.841846	2.00093	1.00023	2.37767							0.953424	2.26991						
		0.84372	2.00095									0.955415	2.26961						
		0.845593	2.00097									0.957407	2.26932						
		0.847466	2.00099									0.959399	2.26903						
		0.849339	2.00101									0.961392	2.26875						
		0.851212	2.00103									0.963385	2.26846						
		0.853084	2.00105									0.96538	2.26818						
		0.854957	2.00107									0.967374	2.26791						
		0.856829	2.00109									0.96937	2.26763						
		0.858701	2.0011									0.971366	2.26736						
		0.860573	2.00112									0.973363	2.26709						
		0.862445	2.00114									0.975361	2.26682						
		0.864317	2.00116									0.977359	2.26656						
		0.866189	2.00117									0.979357	2.2663						
		0.86806	2.00119									0.981357	2.26604						
		0.869932	2.0012									0.983357	2.26578						
		0.871803	2.00122									0.985358	2.26553						
		0.873674	2.00124									0.987359	2.26528						
		0.875545	2.00125									0.989361	2.26503						
		0.877416	2.00126									0.991363	2.26478						
		0.879287	2.00128									0.993366	2.26454						
		0.881157	2.00129									0.99537	2.2643						
		0.883028	2.00131									0.997374	2.26406						
		0.884898	2.00132									0.999379	2.26382						
		0.886769	2.00133									1.00138	2.26359						
		0.888639	2.00135																
		0.890509	2.00136																
		0.892379	2.00137																
		0.894249	2.00138																
		0.896119	2.00139																
		0.897989	2.0014																
		0.899858	2.00141																
		0.901728	2.00143																
		0.903597	2.00144																
		0.905467	2.00145																
		0.907336	2.00146																
		0.909205	2.00147																
		0.911074	2.00148																
		0.912943	2.00148																
		0.914812	2.00149																
		0.916681	2.0015																
		0.918549	2.00151																
		0.920418	2.00152																
		0.922287	2.00153																
		0.924155	2.00154																
		0.926024	2.00154																
		0.927892	2.00155																
		0.92976	2.00156																
		0.931628	2.00157																
		0.933496	2.00157																
		0.935364	2.00158																
		0.937232	2.00159																
		0.9391	2.00159																
		0.940968	2.0016																
		0.942836	2.0016																
		0.944704	2.00161																
		0.946571	2.00162																
		0.948439	2.00162																
		0.950307	2.00163																
		0.952174	2.00163																
		0.954041	2.00164																
		0.955909	2.00164																
		0.957776	2.00165																
		0.959643	2.00165																
		0.96151	2.00166																
		0.963378	2.00166																
		0.965245	2.00167																
		0.967112	2.00167																
		0.968979	2.00168																
		0.970846	2.00168																
		0.972712	2.00168																
		0.974579	2.00169																
		0.976446	2.00169																
		0.978313	2.00169																
		0.98018	2.0017																
		0.982046	2.0017																
		0.983913	2.00171																
		0.985779	2.00171																
		0.987646	2.00171																
		0.989512	2.00171																
		0.991379	2.00172																
		0.993245	2.00172																
		0.995112	2.00172																
		0.996978	2.00173																
		0.998844	2.00173																
		1.00071	2.00173																
