Sym0		Asym0		Sym1		Sym2		Sym3		Sym4		Asym1		Asym2		Asym3		Asym4	
450  Points		536  Points		450  Points		398  Points		363  Points		274  Points		477  Points		414  Points		364  Points		276  Points	
Freq (MHz)	Vph (m/ms)	Freq (MHz)	Vph (m/ms)	Freq (MHz)	Vph (m/ms)	Freq (MHz)	Vph (m/ms)	Freq (MHz)	Vph (m/ms)	Freq (MHz)	Vph (m/ms)	Freq (MHz)	Vph (m/ms)	Freq (MHz)	Vph (m/ms)	Freq (MHz)	Vph (m/ms)	Freq (MHz)	Vph (m/ms)
0.279508	759.283	0.000352629	0.116819	0.279507	357.427	0.356917	2716.79	0.559017	1889.47	0.838526	2097.77	0.139755	962.595	0.419265	719.752	0.69877	1493.19	0.713834	3293.36
0.279504	215.034	0.000602819	0.152602	0.279501	163.099	0.356935	335.759	0.559025	455.397	0.83853	629.803	0.1398	129.819	0.419275	276.894	0.69876	499.233	0.713852	621.582
0.279496	125.25	0.000918592	0.18816	0.279492	105.652	0.35698	178.959	0.559041	258.905	0.838539	370.525	0.139912	69.6572	0.419294	171.427	0.698739	299.713	0.713895	343.196
0.279484	88.3548	0.00129907	0.223451	0.279478	78.1301	0.357054	122.009	0.559065	180.872	0.838552	262.473	0.140091	47.6457	0.419322	124.148	0.698709	214.127	0.713963	237.052
0.279468	68.2479	0.0017433	0.258445	0.27946	61.9813	0.357156	92.5717	0.559099	138.988	0.838569	203.216	0.140338	36.2445	0.419359	97.3151	0.698669	166.558	0.714055	181.07
0.279448	55.5939	0.00224995	0.293075	0.279438	51.3628	0.357285	74.5921	0.559141	112.859	0.838592	165.789	0.14065	29.2798	0.419406	80.0242	0.698619	136.278	0.714171	146.49
0.279424	46.8967	0.00281783	0.327322	0.279413	43.8489	0.357442	62.473	0.559192	95.0033	0.838618	140.006	0.141028	24.5892	0.419461	67.9544	0.698562	115.31	0.71431	123.01
0.279397	40.5511	0.00344539	0.361135	0.279383	38.2515	0.357626	53.7522	0.559252	82.0291	0.838649	121.164	0.14147	21.2193	0.419525	59.0517	0.698496	99.9303	0.714473	106.027
0.279366	35.7168	0.00413118	0.394492	0.279351	33.9201	0.357838	47.1774	0.55932	72.1758	0.838685	106.794	0.141975	18.684	0.419599	52.2144	0.698423	88.1677	0.714657	93.1719
0.279332	31.9113	0.00487349	0.427355	0.279315	30.4688	0.358076	42.0444	0.559398	64.4385	0.838725	95.4726	0.142542	16.7098	0.419681	46.7988	0.698343	78.8801	0.714863	83.1042
0.279295	28.8376	0.00567072	0.459706	0.279277	27.6541	0.358341	37.9265	0.559484	58.2019	0.838769	86.3227	0.143169	15.1307	0.419773	42.4036	0.698258	71.3606	0.715089	75.0065
0.279255	26.3032	0.00652102	0.491513	0.279236	25.3146	0.358633	34.5503	0.559579	53.0683	0.838818	78.7743	0.143855	13.8404	0.419873	38.7653	0.698167	65.1481	0.715335	68.3525
0.279212	24.1775	0.00742271	0.522766	0.279193	23.3393	0.358951	31.7327	0.559683	48.769	0.838872	72.441	0.144598	12.7674	0.419983	35.7041	0.698072	59.9291	0.715601	62.788
0.279168	22.3689	0.00837397	0.553445	0.279148	21.6494	0.359295	29.346	0.559795	45.116	0.838929	67.0513	0.145396	11.8621	0.420101	33.093	0.697974	55.4828	0.715885	58.0661
0.279122	20.8116	0.00937291	0.583535	0.279101	20.187	0.359665	27.2988	0.559916	41.974	0.838992	62.409	0.146249	11.0888	0.420229	30.8397	0.697872	51.6495	0.716187	54.0091
0.279074	19.4564	0.0104178	0.613029	0.279052	18.9093	0.36006	25.5238	0.560046	39.2429	0.839059	58.3687	0.147153	10.4211	0.420365	28.8753	0.697768	48.3106	0.716505	50.4859
0.279025	18.2665	0.0115069	0.641922	0.279003	17.7832	0.360479	23.9705	0.560185	36.847	0.83913	54.8206	0.148107	9.83952	0.420511	27.1479	0.697663	45.3762	0.71684	47.3979
0.278975	17.2133	0.0126383	0.670203	0.278953	16.7834	0.360924	22.5999	0.560332	34.7285	0.839206	51.6799	0.14911	9.32871	0.420665	25.617	0.697557	42.7771	0.717191	44.6693
0.278925	16.2746	0.0138103	0.697872	0.278903	15.8896	0.361392	21.3818	0.560489	32.8417	0.839286	48.8803	0.150159	8.87692	0.420829	24.2511	0.69745	40.4589	0.717557	42.2409
0.278875	15.4328	0.0150212	0.724934	0.278853	15.086	0.361885	20.2923	0.560654	31.1508	0.839371	46.3692	0.151253	8.47481	0.421002	23.0248	0.697343	38.3785	0.717937	40.0658
0.278825	14.6734	0.0162693	0.751382	0.278803	14.3595	0.362401	19.3123	0.560827	29.6268	0.83946	44.1041	0.152242	8.15903	0.421183	21.9179	0.697237	36.501	0.718332	38.1065
0.278776	13.9851	0.017553	0.777225	0.278754	13.6996	0.36294	18.4262	0.56101	28.2462	0.839554	42.0506	0.153109	7.91204	0.421374	20.9138	0.697133	34.7982	0.71874	36.3324
0.278728	13.3584	0.0188707	0.802469	0.278707	13.0976	0.363501	17.6212	0.561201	26.9897	0.839653	40.1805	0.153843	7.7216	0.421574	19.999	0.697029	33.2469	0.719161	34.7185
0.278682	12.7853	0.020221	0.827115	0.278662	12.5461	0.364085	16.8868	0.561401	25.8414	0.839755	38.4702	0.154434	7.57911	0.421783	19.1619	0.696928	31.8276	0.719594	33.2442
0.278637	12.2592	0.0216022	0.851176	0.278618	12.0391	0.36469	16.2142	0.56161	24.788	0.839862	36.9002	0.154874	7.47859	0.422001	18.3933	0.696829	30.5243	0.72004	31.892
0.278595	11.7747	0.0230131	0.874657	0.278577	11.5715	0.365317	15.596	0.561828	23.8181	0.839974	35.4538	0.155158	7.41605	0.422227	17.685	0.696733	29.3234	0.720498	30.6476
0.278556	11.327	0.0244522	0.89757	0.278539	11.1389	0.365965	15.026	0.562054	22.9223	0.84009	34.117	0.155571	7.32851	0.422463	17.0303	0.69664	28.2132	0.720967	29.4985
0.278519	10.9121	0.0259182	0.919922	0.278504	10.7374	0.366633	14.4988	0.562289	22.0924	0.840211	32.8779	0.156023	7.23639	0.422708	16.4233	0.696551	27.1838	0.721447	28.4342
0.278487	10.5266	0.02741	0.941728	0.278473	10.3639	0.367322	14.0098	0.562532	21.3215	0.840336	31.7261	0.156645	7.11592	0.422962	15.8591	0.696465	26.2268	0.721938	27.4457
0.278458	10.1674	0.0289262	0.962995	0.278446	10.0156	0.36803	13.5552	0.562785	20.6035	0.840466	30.6528	0.157445	6.97099	0.423225	15.3333	0.696383	25.3349	0.72244	26.5253
0.278433	9.83205	0.0304657	0.983735	0.278424	9.6901	0.368758	13.1314	0.563046	19.9332	0.8406	29.6502	0.158429	6.80599	0.423496	14.8421	0.696305	24.5015	0.722952	25.6661
0.278414	9.5182	0.0320276	1.00396	0.278407	9.38517	0.369504	12.7354	0.563316	19.3059	0.840739	28.7115	0.159606	6.62549	0.423777	14.3824	0.696232	23.7213	0.723474	24.8623
0.278399	9.22391	0.0336106	1.02369	0.278395	9.09898	0.370269	12.3647	0.563595	18.7178	0.840882	27.8309	0.160988	6.43399	0.424067	13.9511	0.696163	22.9892	0.724006	24.1086
0.27839	8.94741	0.0352139	1.04293	0.278388	8.82989	0.371053	12.017	0.563882	18.1653	0.841029	27.0031	0.162399	6.25741	0.424366	13.5457	0.696099	22.3009	0.724547	23.4007
0.278387	8.68718	0.0368364	1.06168	0.278388	8.57643	0.371854	11.6902	0.564178	17.6452	0.841181	26.2235	0.16384	6.09416	0.424674	13.164	0.69604	21.6527	0.725098	22.7344
0.27839	8.44184	0.0384774	1.07998	0.278394	8.33731	0.372672	11.3825	0.564483	17.1548	0.841338	25.4881	0.165309	5.94284	0.424991	12.8041	0.695986	21.0412	0.725659	22.1062
0.2784	8.21017	0.0401358	1.09782	0.278404	8.13971	0.373507	11.0924	0.564796	16.6917	0.841499	24.7932	0.166804	5.80225	0.425317	12.464	0.695937	20.4633	0.726228	21.5129
0.278417	7.9911	0.041811	1.11522	0.278418	7.97865	0.374359	10.8183	0.565119	16.2537	0.841665	24.1355	0.168325	5.67134	0.425651	12.1423	0.695894	19.9164	0.726806	20.9518
0.278441	7.78365	0.0435021	1.13219	0.278432	7.85031	0.375227	10.5591	0.565449	15.8388	0.841835	23.5122	0.16987	5.54919	0.425995	11.8375	0.695856	19.3981	0.727393	20.4203
0.278472	7.58693	0.0452084	1.14874	0.278445	7.75177	0.376111	10.3136	0.565789	15.4452	0.842009	22.9207	0.171437	5.43499	0.426348	11.5483	0.695824	18.9062	0.727989	19.9161
0.278512	7.40017	0.0469292	1.16489	0.278456	7.68092	0.37701	10.0807	0.566137	15.0714	0.842188	22.3585	0.173027	5.32801	0.42671	11.2736	0.695797	18.4387	0.728593	19.4372
0.27856	7.22264	0.0486639	1.18065	0.278464	7.63627	0.377925	9.85955	0.566494	14.7159	0.842372	21.8235	0.174638	5.22762	0.427081	11.0123	0.695776	17.9938	0.729206	18.9817
0.278617	7.05371	0.0504118	1.19602	0.278475	7.57301	0.378854	9.64925	0.56686	14.3774	0.84256	21.3139	0.176268	5.13327	0.427461	10.7636	0.695762	17.5701	0.729826	18.548
0.278682	6.89279	0.0521723	1.21101	0.278488	7.50546	0.379798	9.44907	0.567234	14.0548	0.842752	20.8279	0.177918	5.04444	0.42785	10.5264	0.695753	17.166	0.730455	18.1346
0.278757	6.73934	0.0539448	1.22565	0.278508	7.41556	0.380756	9.2583	0.567617	13.7469	0.842949	20.3639	0.179586	4.96068	0.428247	10.3001	0.695751	16.7802	0.731093	17.7401
0.278842	6.59288	0.0557289	1.23994	0.278536	7.30498	0.381728	9.07631	0.568009	13.4529	0.843151	19.9204	0.181271	4.88159	0.428654	10.0839	0.695754	16.4115	0.731738	17.3632
0.278936	6.45296	0.0575239	1.25388	0.278575	7.17573	0.382714	8.90253	0.568409	13.1717	0.843357	19.4961	0.182972	4.80681	0.42907	9.87719	0.695764	16.0588	0.732391	17.0028
0.279041	6.31917	0.0593294	1.2675	0.278626	7.03002	0.383713	8.73642	0.568818	12.9026	0.843567	19.0898	0.184689	4.73601	0.429495	9.67937	0.69578	15.7211	0.733051	16.6578
0.279156	6.19115	0.061145	1.28079	0.278693	6.87021	0.384724	8.5775	0.569236	12.6449	0.843782	18.7004	0.186422	4.66888	0.429928	9.48988	0.695803	15.3975	0.73372	16.3273
0.279281	6.06854	0.0629701	1.29377	0.278769	6.7178	0.385749	8.42533	0.569662	12.3977	0.844002	18.3268	0.188168	4.60517	0.430371	9.30823	0.695832	15.0871	0.734396	16.0104
0.279418	5.95103	0.0648045	1.30645	0.278855	6.57231	0.386786	8.27949	0.570097	12.1606	0.844226	17.9682	0.189929	4.54463	0.430823	9.13394	0.695867	14.7891	0.735079	15.7063
0.279566	5.83833	0.0666475	1.31884	0.278951	6.4333	0.387699	8.15727	0.570541	11.9329	0.844454	17.6236	0.191702	4.48703	0.431283	8.96659	0.695909	14.5028	0.73577	15.4142
0.279725	5.73017	0.0684991	1.33094	0.279057	6.30037	0.388485	8.05648	0.570993	11.7141	0.844687	17.2922	0.193488	4.43218	0.431753	8.80578	0.695958	14.2276	0.736469	15.1335
0.279897	5.62629	0.0703586	1.34276	0.279173	6.17314	0.389139	7.97539	0.571454	11.5037	0.844924	16.9733	0.195286	4.37989	0.432232	8.65115	0.696013	13.9628	0.737174	14.8634
0.28008	5.52648	0.0722258	1.35431	0.279301	6.05129	0.38966	7.91268	0.571924	11.3012	0.845166	16.6662	0.197095	4.32998	0.432719	8.50236	0.696075	13.7078	0.737888	14.6035
0.280275	5.4305	0.0741003	1.36561	0.279439	5.93449	0.390044	7.86732	0.572402	11.1062	0.845413	16.3703	0.198916	4.28232	0.433216	8.35909	0.696143	13.4621	0.738608	14.3531
0.280483	5.33816	0.0759819	1.37665	0.279588	5.82246	0.390291	7.83863	0.572889	10.9182	0.845664	16.085	0.200746	4.23675	0.433656	8.23851	0.696218	13.2253	0.739335	14.1117
0.280704	5.24928	0.0778702	1.38744	0.279749	5.71493	0.390647	7.79784	0.573384	10.737	0.845919	15.8097	0.202587	4.19314	0.434036	8.13873	0.6963	12.9968	0.74007	13.8789
0.280937	5.16368	0.079765	1.39799	0.279922	5.61165	0.391035	7.75408	0.573888	10.5622	0.846179	15.5439	0.204436	4.15137	0.434355	8.05822	0.696389	12.7763	0.740811	13.6542
0.281184	5.0812	0.081666	1.40831	0.280107	5.5124	0.391565	7.69554	0.574401	10.3934	0.846443	15.2871	0.206295	4.11134	0.434609	7.9958	0.696484	12.5633	0.74156	13.4373
0.281444	5.00169	0.0835729	1.41841	0.280304	5.41696	0.39224	7.62305	0.574922	10.2304	0.846712	15.0389	0.208163	4.07293	0.434797	7.95059	0.696586	12.3575	0.742315	13.2276
0.281718	4.925	0.0854855	1.42828	0.280514	5.32513	0.393061	7.53761	0.575451	10.0728	0.846986	14.7989	0.210039	4.03606	0.434918	7.92196	0.696695	12.1584	0.743077	13.025
0.282005	4.85102	0.0874035	1.43794	0.280737	5.23673	0.394031	7.44037	0.57599	9.92043	0.847264	14.5666	0.211923	4.00063	0.435093	7.8812	0.696811	11.9659	0.743847	12.829
0.282307	4.7796	0.0893269	1.4474	0.280972	5.15159	0.395154	7.33258	0.576537	9.77303	0.847546	14.3417	0.213814	3.96657	0.435284	7.83742	0.696934	11.7795	0.744622	12.6392
0.282623	4.71064	0.0912551	1.45665	0.281221	5.06955	0.396288	7.22864	0.577092	9.63035	0.847833	14.1239	0.215713	3.9338	0.435546	7.77875	0.697064	11.5991	0.745405	12.4555
0.282953	4.64403	0.0931882	1.46571	0.281483	4.99046	0.397431	7.12835	0.577656	9.49217	0.848124	13.9128	0.217618	3.90225	0.43588	7.70595	0.6972	11.4242	0.746194	12.2776
0.283298	4.57966	0.0951259	1.47458	0.281758	4.91417	0.398584	7.03153	0.578229	9.35831	0.84842	13.7082	0.21953	3.87185	0.436289	7.61994	0.697344	11.2548	0.74699	12.1051
0.283658	4.51744	0.097068	1.48326	0.282048	4.84056	0.399747	6.938	0.57881	9.22856	0.848721	13.5097	0.221449	3.84254	0.436774	7.52176	0.697494	11.0904	0.747793	11.9379
0.284032	4.45727	0.0990144	1.49177	0.282351	4.76951	0.400919	6.84761	0.579399	9.10274	0.849026	13.317	0.223373	3.81427	0.43734	7.41256	0.697651	10.931	0.748602	11.7757
0.284423	4.39908	0.100965	1.5001	0.282669	4.70089	0.4021	6.76021	0.579998	8.98068	0.849335	13.13	0.225303	3.78698	0.437914	7.30691	0.697815	10.7763	0.749418	11.6182
0.284828	4.34277	0.102919	1.50825	0.283002	4.63461	0.40329	6.67565	0.580604	8.86222	0.849649	12.9483	0.227239	3.76063	0.438498	7.20465	0.697987	10.626	0.75024	11.4653
0.28525	4.28828	0.104877	1.51625	0.283349	4.57056	0.404488	6.5938	0.581219	8.74722	0.849968	12.7719	0.22918	3.73516	0.43909	7.10561	0.698165	10.4801	0.751068	11.3169
0.285687	4.23553	0.106839	1.52408	0.283711	4.50864	0.405696	6.51454	0.581843	8.63552	0.850291	12.6003	0.231126	3.71053	0.439692	7.00966	0.69835	10.3383	0.751903	11.1726
0.286141	4.18446	0.108804	1.53175	0.284088	4.44876	0.406911	6.43774	0.582475	8.52699	0.850618	12.4335	0.233077	3.68671	0.440302	6.91665	0.698542	10.2004	0.752744	11.0324
0.286611	4.13499	0.110772	1.53927	0.28448	4.39084	0.408135	6.3633	0.583033	8.4349	0.85095	12.2712	0.235032	3.66364	0.440921	6.82647	0.698741	10.0664	0.753592	10.896
0.287098	4.08708	0.11249	1.54571	0.284888	4.3348	0.409366	6.29112	0.583514	8.35817	0.851287	12.1133	0.236992	3.64131	0.44155	6.73899	0.698947	9.93597	0.754446	10.7634
0.287601	4.04065	0.113957	1.5511	0.285312	4.28057	0.410606	6.22109	0.583915	8.2959	0.851628	11.9596	0.238956	3.61967	0.442187	6.65409	0.69916	9.80908	0.755306	10.6343
0.288054	4.00137	0.11517	1.55551	0.285752	4.22806	0.411853	6.15313	0.584234	8.24741	0.851973	11.81	0.240924	3.59869	0.442833	6.57168	0.69938	9.68556	0.756172	10.5086
0.28845	3.96872	0.116131	1.55895	0.286208	4.17723	0.413108	6.08715	0.58447	8.21217	0.852323	11.6642	0.242896	3.57834	0.443488	6.49165	0.699607	9.56529	0.757045	10.3863
0.288785	3.94229	0.116838	1.56146	0.28668	4.12799	0.41437	6.02305	0.584622	8.18979	0.852678	11.5221	0.244871	3.5586	0.444152	6.4139	0.699841	9.44813	0.757923	10.2671
0.289055	3.92174	0.11729	1.56306	0.287169	4.08029	0.415639	5.96078	0.584841	8.15787	0.853037	11.3836	0.24685	3.53943	0.444825	6.33834	0.700082	9.33398	0.758808	10.151
0.289256	3.90683	0.117941	1.56535	0.287675	4.03408	0.416915	5.90024	0.585079	8.1235	0.8534	11.2486	0.248832	3.52082	0.445507	6.26488	0.700329	9.22272	0.759699	10.0378
0.289386	3.89737	0.118648	1.56781	0.288199	3.98929	0.418198	5.84138	0.585406	8.07728	0.853768	11.117	0.250817	3.50273	0.446198	6.19345	0.700584	9.11424	0.760595	9.9274
0.289574	3.8839	0.119611	1.57114	0.288739	3.94589	0.419488	5.78412	0.585822	8.01969	0.854141	10.9885	0.252806	3.48515	0.446898	6.12397	0.700846	9.00846	0.761498	9.81977
0.289781	3.8694	0.12083	1.57531	0.289297	3.90381	0.420784	5.7284	0.586329	7.9513	0.854518	10.8631	0.254797	3.46806	0.447607	6.05636	0.701115	8.90527	0.762407	9.71477
0.290066	3.84994	0.122305	1.58028	0.289874	3.86302	0.422087	5.67416	0.58693	7.87276	0.854899	10.7408	0.25679	3.45142	0.448325	5.99056	0.701391	8.80458	0.763321	9.61231
0.290433	3.82575	0.124037	1.58602	0.290468	3.82347	0.423396	5.62135	0.587627	7.78483	0.855286	10.6213	0.258787	3.43524	0.449052	5.92649	0.701673	8.7063	0.764242	9.51229
0.290885	3.79709	0.126027	1.59249	0.291081	3.78511	0.424711	5.56991	0.588333	7.69915	0.855676	10.5046	0.260785	3.41948	0.449787	5.86409	0.701926	8.62257	0.765168	9.41465
0.29143	3.7643	0.128019	1.59884	0.291713	3.74792	0.426032	5.5198	0.589047	7.61564	0.856071	10.3906	0.262786	3.40412	0.450532	5.80331	0.702145	8.55254	0.7661	9.31928
0.292072	3.72774	0.130013	1.60507	0.292363	3.71185	0.427359	5.47095	0.58977	7.53423	0.856471	10.2792	0.264789	3.38917	0.451286	5.74408	0.702329	8.49556	0.767038	9.22612
0.292733	3.69227	0.13201	1.61119	0.293033	3.67686	0.428692	5.42333	0.590501	7.45483	0.856875	10.1704	0.266794	3.37459	0.452048	5.68635	0.702476	8.45108	0.767982	9.1351
0.293415	3.65788	0.134008	1.61719	0.293723	3.64293	0.43003	5.37688	0.59124	7.37739	0.857284	10.0639	0.268801	3.36037	0.45282	5.63007	0.702585	8.4187	0.768931	9.04614
0.294116	3.62452	0.136009	1.62308	0.294434	3.61003	0.431374	5.33158	0.591988	7.30184	0.857697	9.95983	0.27081	3.3465	0.4536	5.57519	0.702656	8.39811	0.769886	8.95917
0.294837	3.59217	0.138011	1.62887	0.295164	3.57811	0.432724	5.28737	0.592744	7.2281	0.858115	9.85802	0.27282	3.33297	0.45439	5.52166	0.702758	8.36871	0.770846	8.87414
0.295579	3.56079	0.140015	1.63455	0.295915	3.54715	0.434078	5.24422	0.593508	7.15612	0.858537	9.75842	0.274832	3.31977	0.455188	5.46944	0.70287	8.337	0.771813	8.79097
0.296342	3.53035	0.142021	1.64013	0.296688	3.51713	0.435438	5.20209	0.594281	7.08583	0.858964	9.66096	0.276845	3.30687	0.455996	5.41848	0.703023	8.2943	0.772659	8.71997
0.297127	3.50084	0.144029	1.64561	0.297482	3.48802	0.436803	5.16095	0.595062	7.01719	0.859395	9.56558	0.27886	3.29427	0.456812	5.36875	0.703219	8.24097	0.773384	8.66051
0.297933	3.47223	0.146038	1.65099	0.298298	3.4598	0.438173	5.12077	0.595852	6.95014	0.859831	9.4722	0.280876	3.28196	0.457637	5.32019	0.70346	8.17747	0.773986	8.61205
0.298762	3.44448	0.148049	1.65627	0.299137	3.43244	0.439548	5.0815	0.596649	6.88463	0.860271	9.38077	0.282893	3.26993	0.458472	5.27278	0.703747	8.10432	0.774463	8.57419
0.299613	3.41759	0.150061	1.66147	0.299999	3.40591	0.440927	5.04313	0.597455	6.8206	0.860716	9.29122	0.284911	3.25817	0.459315	5.22647	0.704083	8.02212	0.774815	8.5466
0.300488	3.39153	0.152075	1.66657	0.300884	3.38021	0.442311	5.00562	0.59827	6.75802	0.861165	9.20351	0.28693	3.24667	0.460167	5.18124	0.704427	7.94172	0.775041	8.52905
0.301386	3.36627	0.15409	1.67158	0.301793	3.3553	0.4437	4.96894	0.599092	6.69683	0.861619	9.11757	0.28895	3.23542	0.461028	5.13705	0.704777	7.86307	0.775365	8.50398
0.302309	3.3418	0.156106	1.67651	0.302727	3.33117	0.445093	4.93307	0.599923	6.637	0.862077	9.03336	0.290971	3.2244	0.461898	5.09386	0.705134	7.78612	0.775719	8.47692
0.303257	3.3181	0.158123	1.68135	0.303685	3.30781	0.44649	4.89798	0.600762	6.57847	0.86254	8.95082	0.292992	3.21362	0.462778	5.05165	0.705497	7.71081	0.776201	8.44045
0.304229	3.29515	0.160142	1.68611	0.30467	3.28519	0.447892	4.86365	0.60161	6.52122	0.862947	8.88023	0.295014	3.20307	0.463666	5.01039	0.705868	7.63709	0.776812	8.39485
0.305228	3.27294	0.162161	1.69079	0.30568	3.2633	0.449297	4.83004	0.602465	6.4652	0.863297	8.821	0.297036	3.19273	0.464563	4.97005	0.706246	7.56492	0.777554	8.34049
0.306253	3.25144	0.164182	1.69539	0.306717	3.24212	0.450707	4.79715	0.603329	6.41038	0.863588	8.77267	0.299059	3.1826	0.465469	4.93059	0.70663	7.49425	0.778429	8.27777
0.307305	3.23065	0.166204	1.69991	0.307781	3.22164	0.452121	4.76495	0.604201	6.35672	0.863819	8.73487	0.301082	3.17267	0.466384	4.89201	0.707022	7.42503	0.779437	8.20718
0.308384	3.21056	0.168227	1.70436	0.308873	3.20184	0.453539	4.73341	0.605081	6.30418	0.86399	8.7073	0.303106	3.16294	0.467308	4.85426	0.70742	7.35723	0.780451	8.13802
0.309492	3.19113	0.17025	1.70873	0.309993	3.18272	0.45496	4.70252	0.60597	6.25274	0.864099	8.68975	0.305129	3.1534	0.468241	4.81733	0.707825	7.29079	0.78147	8.07024
0.310628	3.17237	0.172275	1.71303	0.311142	3.16425	0.456385	4.67226	0.606866	6.20236	0.864257	8.66467	0.307153	3.14404	0.469183	4.78119	0.708236	7.22569	0.782494	8.00381
0.311794	3.15426	0.1743	1.71726	0.312321	3.14642	0.457814	4.6426	0.607771	6.15302	0.86443	8.63758	0.309177	3.13486	0.470134	4.74582	0.708655	7.16189	0.783524	7.93869
0.312989	3.13679	0.176326	1.72142	0.31353	3.12923	0.459246	4.61354	0.608683	6.10468	0.864665	8.60104	0.311201	3.12585	0.471094	4.71121	0.709081	7.09934	0.784558	7.87483
0.314215	3.11994	0.178353	1.72552	0.314769	3.11266	0.460682	4.58505	0.609604	6.05731	0.864964	8.5553	0.313224	3.11701	0.472063	4.67732	0.709513	7.03801	0.785598	7.81221
0.315471	3.10371	0.180381	1.72954	0.316039	3.09669	0.462122	4.55711	0.610533	6.0109	0.865328	8.50071	0.315248	3.10832	0.473041	4.64414	0.709952	6.97788	0.786643	7.75079
0.316759	3.08807	0.182409	1.7335	0.317341	3.08132	0.463564	4.52972	0.61147	5.9654	0.865758	8.43764	0.317271	3.0998	0.474028	4.61164	0.710398	6.9189	0.787694	7.69054
0.318079	3.07302	0.184438	1.7374	0.318675	3.06653	0.46501	4.50285	0.612415	5.9208	0.866255	8.36652	0.319294	3.09142	0.475024	4.57982	0.71085	6.86105	0.788749	7.63142
0.319431	3.05855	0.186467	1.74124	0.320042	3.05231	0.466459	4.4765	0.613368	5.87708	0.866757	8.29671	0.321316	3.08319	0.476029	4.54865	0.711309	6.80429	0.789809	7.57341
0.320815	3.04465	0.188497	1.74501	0.321441	3.03865	0.467911	4.45064	0.61433	5.83421	0.867264	8.22818	0.323338	3.0751	0.477043	4.51812	0.711775	6.74861	0.790874	7.51648
0.322232	3.0313	0.190528	1.74873	0.322872	3.02554	0.469366	4.42526	0.615299	5.79216	0.867775	8.16089	0.325359	3.06715	0.478067	4.4882	0.712248	6.69396	0.791945	7.46059
0.323682	3.01848	0.192559	1.75239	0.324337	3.01296	0.470824	4.40036	0.616276	5.75092	0.868291	8.09481	0.32738	3.05933	0.479099	4.45889	0.712728	6.64032	0.79302	7.40571
0.325166	3.0062	0.194591	1.75599	0.325835	3.0009	0.472285	4.37591	0.617261	5.71046	0.868811	8.02991	0.329401	3.05164	0.48014	4.43017	0.713214	6.58766	0.7941	7.35184
0.326682	2.99442	0.196623	1.75953	0.327367	2.98936	0.473749	4.3519	0.618254	5.67077	0.869336	7.96617	0.33142	3.04407	0.48119	4.40201	0.713707	6.53597	0.795185	7.29892
0.328232	2.98315	0.198655	1.76302	0.328931	2.9783	0.475216	4.32833	0.619255	5.63183	0.869865	7.90354	0.333439	3.03663	0.482249	4.37442	0.714206	6.48521	0.796275	7.24695
0.329815	2.97237	0.200688	1.76645	0.330529	2.96773	0.476685	4.30518	0.620264	5.5936	0.870399	7.842	0.335457	3.0293	0.483317	4.34737	0.714712	6.43536	0.79737	7.1959
0.331431	2.96206	0.202721	1.76983	0.332159	2.95763	0.478157	4.28244	0.621281	5.55609	0.870937	7.78153	0.337474	3.02209	0.484394	4.32085	0.715225	6.3864	0.79847	7.14574
0.333079	2.95221	0.204755	1.77316	0.333822	2.94798	0.479631	4.2601	0.622305	5.51927	0.87148	7.7221	0.33949	3.01499	0.485481	4.29484	0.715744	6.33831	0.799574	7.09645
0.33476	2.9428	0.206788	1.77644	0.335516	2.93876	0.481109	4.23815	0.623338	5.48312	0.872027	7.66368	0.341505	3.00799	0.486576	4.26934	0.71627	6.29106	0.800683	7.04802
0.336472	2.93382	0.208822	1.77967	0.337243	2.92997	0.482588	4.21657	0.624378	5.44762	0.872579	7.60625	0.343519	3.0011	0.48768	4.24433	0.716803	6.24464	0.801797	7.00041
0.338215	2.92526	0.210857	1.78285	0.339	2.92159	0.48407	4.19537	0.625426	5.41277	0.873136	7.54979	0.345532	2.99432	0.488794	4.21981	0.717342	6.19902	0.802915	6.95361
0.33999	2.9171	0.212891	1.78599	0.340787	2.9136	0.485554	4.17452	0.626482	5.37854	0.873697	7.49426	0.347543	2.98763	0.489916	4.19575	0.717888	6.15419	0.804039	6.9076
0.341794	2.90932	0.214926	1.78907	0.342604	2.90599	0.487041	4.15403	0.627546	5.34492	0.874262	7.43965	0.349554	2.98103	0.491047	4.17215	0.71844	6.11012	0.805166	6.86236
0.343627	2.90191	0.216961	1.79211	0.34445	2.89874	0.48853	4.13388	0.628618	5.31189	0.874832	7.38595	0.351563	2.97453	0.492188	4.14899	0.718999	6.0668	0.806299	6.81787
0.345488	2.89486	0.218996	1.79511	0.346324	2.89183	0.490021	4.11406	0.629697	5.27944	0.875406	7.33311	0.353571	2.96812	0.493337	4.12628	0.719565	6.02421	0.807436	6.77412
0.347377	2.88814	0.221031	1.79806	0.348225	2.88526	0.491515	4.09457	0.630784	5.24757	0.875985	7.28114	0.355577	2.9618	0.494496	4.10398	0.720137	5.98234	0.808577	6.73108
0.349293	2.88174	0.223067	1.80097	0.350153	2.879	0.49301	4.0754	0.631878	5.21624	0.876569	7.22999	0.357582	2.95557	0.495663	4.08211	0.720715	5.94116	0.809723	6.68874
0.351235	2.87566	0.225102	1.80383	0.352105	2.87305	0.494508	4.05654	0.632981	5.18546	0.877157	7.17967	0.359586	2.94941	0.49684	4.06064	0.7213	5.90066	0.810874	6.64709
0.353201	2.86986	0.227137	1.80665	0.354082	2.86738	0.496007	4.03798	0.63409	5.1552	0.877749	7.13015	0.361588	2.94334	0.498026	4.03957	0.721891	5.86083	0.812029	6.6061
0.355191	2.86435	0.229173	1.80943	0.356082	2.86199	0.497509	4.01971	0.635208	5.12547	0.878346	7.0814	0.363588	2.93735	0.49922	4.01889	0.722489	5.82165	0.813188	6.56577
0.357204	2.8591	0.231208	1.81217	0.358105	2.85685	0.499012	4.00173	0.636333	5.09623	0.878948	7.03342	0.365587	2.93143	0.500424	3.99859	0.723094	5.7831	0.814352	6.52607
0.359239	2.8541	0.233244	1.81488	0.36015	2.85196	0.500518	3.98404	0.637466	5.06749	0.879554	6.98618	0.367584	2.92558	0.501637	3.97866	0.723704	5.74518	0.81552	6.487
0.361295	2.84935	0.23528	1.81754	0.362214	2.84731	0.502025	3.96662	0.638606	5.03923	0.880164	6.93968	0.369579	2.91981	0.502858	3.95909	0.724321	5.70786	0.816692	6.44853
0.363371	2.84481	0.237315	1.82016	0.364299	2.84287	0.503534	3.94947	0.639754	5.01144	0.880779	6.89388	0.371572	2.91411	0.504089	3.93988	0.724945	5.67113	0.817869	6.41066
0.365466	2.8405	0.239351	1.82275	0.366402	2.83865	0.505045	3.93258	0.640909	4.98412	0.881399	6.84879	0.373564	2.90848	0.505329	3.92102	0.725575	5.63499	0.81905	6.37337
0.367579	2.83638	0.241386	1.8253	0.368523	2.83462	0.506558	3.91595	0.642071	4.95724	0.882023	6.80438	0.375554	2.90292	0.506578	3.9025	0.726211	5.59942	0.820235	6.33666
0.36971	2.83246	0.243421	1.82781	0.370661	2.83078	0.508072	3.89957	0.643241	4.9308	0.882652	6.76063	0.377542	2.89742	0.507836	3.88431	0.726854	5.5644	0.821424	6.3005
0.371857	2.82872	0.245457	1.83029	0.372816	2.82711	0.509588	3.88344	0.644419	4.9048	0.883285	6.71755	0.379528	2.89198	0.509102	3.86644	0.727503	5.52993	0.822618	6.26488
0.37402	2.82515	0.247492	1.83273	0.374985	2.82362	0.511106	3.86754	0.645603	4.87922	0.883922	6.6751	0.381512	2.8866	0.510378	3.8489	0.728158	5.49598	0.823816	6.2298
0.376197	2.82174	0.249527	1.83514	0.377169	2.82028	0.512625	3.85188	0.646795	4.85405	0.884564	6.63327	0.383494	2.88129	0.511663	3.83167	0.72882	5.46256	0.825017	6.19524
0.378389	2.81848	0.251562	1.83752	0.379367	2.81709	0.514146	3.83646	0.647995	4.82928	0.885211	6.59207	0.385474	2.87603	0.512957	3.81474	0.729488	5.42965	0.826223	6.16119
0.380594	2.81537	0.253597	1.83986	0.381578	2.81403	0.515669	3.82125	0.649201	4.80491	0.885862	6.55146	0.387452	2.87083	0.514259	3.79811	0.730162	5.39724	0.827433	6.12764
0.382812	2.8124	0.255631	1.84217	0.383802	2.81112	0.517193	3.80627	0.650415	4.78093	0.886518	6.51144	0.389428	2.86569	0.515571	3.78177	0.730842	5.36532	0.828647	6.09458
0.385043	2.80955	0.257666	1.84444	0.386037	2.80832	0.518718	3.7915	0.651636	4.75732	0.887178	6.472	0.391401	2.8606	0.516892	3.76573	0.731529	5.33388	0.829865	6.06199
0.387284	2.80682	0.2597	1.84669	0.388283	2.80565	0.520245	3.77694	0.652865	4.73409	0.887843	6.43313	0.393372	2.85556	0.518221	3.74996	0.732222	5.30291	0.831087	6.02988
0.389536	2.80421	0.261734	1.8489	0.39054	2.80309	0.521774	3.76258	0.6541	4.71122	0.888512	6.3948	0.395342	2.85058	0.51956	3.73447	0.732921	5.2724	0.832313	5.99823
0.391799	2.80171	0.263768	1.85109	0.392807	2.80063	0.523304	3.74843	0.655343	4.6887	0.889186	6.35703	0.397308	2.84564	0.520907	3.71925	0.733627	5.24234	0.833543	5.96703
0.394071	2.79931	0.265801	1.85324	0.395084	2.79827	0.524836	3.73448	0.656592	4.66654	0.889864	6.31978	0.399273	2.84076	0.522264	3.70429	0.734338	5.21272	0.834777	5.93627
0.396353	2.797	0.267835	1.85537	0.397369	2.79601	0.526368	3.72072	0.657849	4.64471	0.890547	6.28305	0.401235	2.83592	0.523629	3.68959	0.735056	5.18353	0.836014	5.90594
0.398643	2.79479	0.269868	1.85746	0.399663	2.79383	0.527903	3.70715	0.659113	4.62322	0.891234	6.24684	0.403195	2.83113	0.525003	3.67514	0.73578	5.15476	0.837256	5.87603
0.400941	2.79266	0.271901	1.85953	0.401965	2.79174	0.529438	3.69377	0.660383	4.60206	0.891926	6.21113	0.405152	2.82638	0.526386	3.66095	0.73651	5.12642	0.838501	5.84654
0.403248	2.79062	0.273933	1.86157	0.404275	2.78973	0.530975	3.68056	0.661661	4.58122	0.892622	6.17591	0.407108	2.82168	0.527778	3.647	0.737246	5.09848	0.83975	5.81746
0.405561	2.78865	0.275965	1.86358	0.406591	2.7878	0.532513	3.66754	0.662945	4.56069	0.893322	6.14117	0.40906	2.81702	0.529178	3.63328	0.737988	5.07094	0.841002	5.78877
0.407882	2.78675	0.277997	1.86556	0.408915	2.78593	0.534053	3.65469	0.664237	4.54047	0.894028	6.1069	0.411011	2.81241	0.530588	3.6198	0.738737	5.04379	0.842259	5.76048
0.410209	2.78492	0.280029	1.86752	0.411245	2.78413	0.535594	3.64202	0.665535	4.52056	0.894737	6.0731	0.412958	2.80784	0.532006	3.60656	0.739491	5.01703	0.843519	5.73257
0.412543	2.78316	0.282061	1.86945	0.413581	2.7824	0.537136	3.62951	0.66684	4.50094	0.895452	6.03975	0.414903	2.8033	0.533433	3.59353	0.740252	4.99064	0.844782	5.70503
0.414882	2.78146	0.284092	1.87136	0.415923	2.78072	0.53868	3.61717	0.668152	4.48161	0.89617	6.00685	0.416846	2.79881	0.534869	3.58073	0.741018	4.96462	0.84605	5.67786
0.417227	2.77982	0.286122	1.87324	0.41827	2.77911	0.540225	3.60499	0.66947	4.46256	0.896894	5.97439	0.418786	2.79436	0.536313	3.56814	0.741791	4.93897	0.847321	5.65106
0.419577	2.77823	0.288153	1.87509	0.420623	2.77754	0.541771	3.59297	0.670795	4.4438	0.897621	5.94236	0.420724	2.78994	0.537766	3.55577	0.742569	4.91367	0.848595	5.62461
0.421933	2.7767	0.290183	1.87693	0.42298	2.77603	0.543318	3.5811	0.672127	4.42531	0.898354	5.91075	0.422659	2.78557	0.539228	3.5436	0.743354	4.88873	0.849873	5.59851
0.424293	2.77521	0.292212	1.87873	0.425342	2.77457	0.544866	3.56939	0.673466	4.40709	0.89909	5.87955	0.424592	2.78122	0.540698	3.53164	0.744145	4.86412	0.851155	5.57275
0.426657	2.77377	0.294242	1.88051	0.427709	2.77315	0.546416	3.55783	0.674811	4.38913	0.899832	5.84876	0.426522	2.77692	0.542177	3.51988	0.744941	4.83985	0.85244	5.54732
0.429026	2.77238	0.29627	1.88227	0.430079	2.77178	0.547967	3.54641	0.676162	4.37143	0.900578	5.81838	0.428449	2.77265	0.543665	3.50832	0.745744	4.81592	0.853728	5.52222
0.431399	2.77103	0.298299	1.88401	0.432454	2.77044	0.54952	3.53514	0.67752	4.35398	0.901328	5.78838	0.430374	2.76841	0.545161	3.49695	0.746552	4.7923	0.85502	5.49745
0.433775	2.76972	0.300327	1.88572	0.434832	2.76915	0.551073	3.52401	0.678885	4.33678	0.902082	5.75877	0.432296	2.76421	0.546665	3.48577	0.747367	4.76901	0.856315	5.47299
0.436155	2.76845	0.302355	1.88741	0.437214	2.7679	0.552628	3.51303	0.680256	4.31983	0.902842	5.72954	0.434215	2.76004	0.548178	3.47477	0.748187	4.74603	0.857614	5.44885
0.438539	2.76721	0.304382	1.88908	0.439599	2.76668	0.554184	3.50217	0.681633	4.30311	0.903606	5.70068	0.436132	2.7559	0.5497	3.46396	0.749013	4.72335	0.858916	5.425
0.440926	2.76601	0.306409	1.89072	0.441987	2.76549	0.555742	3.49146	0.683016	4.28664	0.904374	5.67219	0.438047	2.7518	0.551229	3.45332	0.749846	4.70098	0.860221	5.40146
0.443316	2.76484	0.308435	1.89235	0.444378	2.76434	0.5573	3.48088	0.684406	4.27039	0.905146	5.64405	0.439958	2.74773	0.552768	3.44287	0.750684	4.67891	0.86153	5.37821
0.445708	2.76371	0.310461	1.89395	0.446772	2.76321	0.55886	3.47042	0.685802	4.25437	0.905924	5.61627	0.441867	2.74368	0.554314	3.43258	0.751527	4.65712	0.862842	5.35526
0.448103	2.7626	0.312487	1.89554	0.449168	2.76212	0.560421	3.4601	0.687204	4.23857	0.906705	5.58884	0.443774	2.73967	0.555869	3.42246	0.752377	4.63562	0.864157	5.33258
0.450501	2.76152	0.314512	1.8971	0.451567	2.76105	0.561983	3.4499	0.688613	4.22299	0.907492	5.56174	0.445677	2.73569	0.557432	3.41251	0.753233	4.6144	0.865475	5.31019
0.452901	2.76047	0.316536	1.89864	0.453968	2.76001	0.563547	3.43982	0.690027	4.20762	0.908282	5.53498	0.447579	2.73174	0.559003	3.40272	0.754094	4.59346	0.866796	5.28806
0.455304	2.75944	0.318561	1.90016	0.456372	2.75899	0.565112	3.42987	0.691448	4.19246	0.909078	5.50855	0.449477	2.72781	0.560583	3.39309	0.754961	4.57279	0.868121	5.26621
0.457708	2.75844	0.320584	1.90167	0.458777	2.758	0.566678	3.42004	0.692875	4.17751	0.909877	5.48245	0.451373	2.72392	0.56217	3.38362	0.755834	4.55239	0.869448	5.24462
0.460115	2.75746	0.322607	1.90315	0.461184	2.75703	0.568245	3.41032	0.694307	4.16277	0.910682	5.45666	0.453266	2.72005	0.563765	3.3743	0.756713	4.53225	0.870779	5.2233
0.462523	2.7565	0.32463	1.90461	0.463594	2.75608	0.569814	3.40072	0.695746	4.14822	0.91149	5.43118	0.455157	2.71621	0.565369	3.36513	0.757598	4.51237	0.872113	5.20222
0.464933	2.75556	0.326652	1.90606	0.466004	2.75515	0.571384	3.39123	0.69719	4.13387	0.912303	5.40602	0.457045	2.71239	0.56698	3.35611	0.758488	4.49274	0.87345	5.1814
0.467345	2.75464	0.328674	1.90748	0.468417	2.75424	0.572956	3.38186	0.69864	4.11971	0.913121	5.38115	0.458931	2.70861	0.5686	3.34723	0.759384	4.47336	0.874789	5.16082
0.469758	2.75374	0.330695	1.90889	0.47083	2.75335	0.574528	3.37259	0.700096	4.10574	0.913943	5.35659	0.460814	2.70485	0.570227	3.3385	0.760286	4.45423	0.876132	5.14049
0.472172	2.75286	0.332716	1.91028	0.473245	2.75248	0.576102	3.36344	0.701558	4.09195	0.91477	5.33232	0.462694	2.70111	0.571862	3.32991	0.761193	4.43533	0.877478	5.1204
0.474588	2.752	0.334736	1.91166	0.475662	2.75162	0.577678	3.35439	0.703025	4.07835	0.915601	5.30833	0.464572	2.69741	0.573504	3.32146	0.762106	4.41668	0.878826	5.10054
0.477005	2.75115	0.336756	1.91301	0.478079	2.75078	0.579255	3.34545	0.704498	4.06492	0.916437	5.28463	0.466448	2.69372	0.575155	3.31314	0.763025	4.39825	0.880178	5.08091
0.479423	2.75032	0.338775	1.91435	0.480498	2.74995	0.580833	3.33661	0.705977	4.05167	0.917277	5.26121	0.468321	2.69007	0.576813	3.30495	0.76395	4.38006	0.881532	5.0615
0.481842	2.7495	0.340793	1.91567	0.482917	2.74914	0.582413	3.32787	0.707461	4.0386	0.918121	5.23806	0.470191	2.68643	0.578478	3.29689	0.76488	4.36209	0.88289	5.04232
0.484262	2.74869	0.342812	1.91698	0.485337	2.74834	0.583994	3.31924	0.708951	4.02569	0.918971	5.21518	0.472059	2.68283	0.580151	3.28896	0.765816	4.34434	0.88425	5.02336
0.486683	2.7479	0.344829	1.91826	0.487758	2.74755	0.585577	3.3107	0.710446	4.01295	0.919824	5.19257	0.473925	2.67924	0.581831	3.28116	0.766757	4.32682	0.885612	5.00461
0.489104	2.74712	0.346846	1.91953	0.49018	2.74678	0.587161	3.30226	0.711947	4.00037	0.920682	5.17022	0.475788	2.67568	0.583519	3.27347	0.767704	4.3095	0.886978	4.98608
0.491526	2.74635	0.348862	1.92079	0.492602	2.74602	0.588747	3.29392	0.713453	3.98796	0.921545	5.14813	0.477649	2.67215	0.585214	3.26591	0.768657	4.2924	0.888346	4.96775
0.493949	2.7456	0.350878	1.92203	0.495025	2.74526	0.590334	3.28568	0.714964	3.9757	0.922412	5.12629	0.479508	2.66864	0.586916	3.25847	0.769615	4.27551	0.889717	4.94963
0.496372	2.74485	0.352894	1.92325	0.497448	2.74452	0.591923	3.27752	0.716481	3.9636	0.923283	5.10471	0.481364	2.66515	0.588625	3.25114	0.770579	4.25882	0.891091	4.93171
0.498795	2.74411	0.354908	1.92446	0.499872	2.74379	0.593513	3.26946	0.718003	3.95165	0.924159	5.08336	0.483218	2.66168	0.590342	3.24393	0.771549	4.24233	0.892467	4.91399
0.501219	2.74339	0.356923	1.92565	0.502295	2.74306	0.595106	3.26149	0.71953	3.93985	0.92504	5.06226	0.48507	2.65824	0.592065	3.23683	0.772524	4.22604	0.893846	4.89646
0.503643	2.74267	0.358936	1.92683	0.504719	2.74235	0.596699	3.25362	0.721062	3.9282	0.925925	5.0414	0.48692	2.65482	0.593796	3.22984	0.773504	4.20995	0.895228	4.87913
0.506067	2.74195	0.360949	1.928	0.507144	2.74164	0.598295	3.24583	0.722599	3.9167	0.926814	5.02078	0.488767	2.65142	0.595533	3.22295	0.77449	4.19405	0.896612	4.86198
0.508491	2.74125	0.362962	1.92914	0.509568	2.74094	0.599892	3.23812	0.724141	3.90533	0.927708	5.00038	0.490612	2.64805	0.597277	3.21618	0.775482	4.17834	0.897998	4.84502
0.510915	2.74055	0.364973	1.93028	0.511992	2.74025	0.601491	3.23051	0.725688	3.89411	0.928607	4.98021	0.492455	2.6447	0.599028	3.2095	0.776479	4.16281	0.899388	4.82825
0.513339	2.73986	0.366985	1.9314	0.514416	2.73956	0.603092	3.22298	0.72724	3.88303	0.92951	4.96027	0.494297	2.64137	0.600785	3.20293	0.777482	4.14747	0.900779	4.81165
0.515763	2.73918	0.368995	1.93251	0.51684	2.73888	0.604695	3.21553	0.728797	3.87208	0.930417	4.94055	0.496136	2.63806	0.602549	3.19646	0.77849	4.13231	0.902173	4.79523
0.518186	2.7385	0.371005	1.9336	0.519263	2.7382	0.6063	3.20817	0.730359	3.86126	0.931329	4.92104	0.497973	2.63478	0.604319	3.19008	0.779504	4.11733	0.90357	4.77899
0.52061	2.73783	0.373015	1.93468	0.521686	2.73753	0.607906	3.20089	0.731926	3.85058	0.932245	4.90175	0.499808	2.63152	0.606096	3.1838	0.780523	4.10253	0.904969	4.76292
0.523033	2.73716	0.375024	1.93574	0.524109	2.73686	0.609515	3.19369	0.733497	3.84002	0.933166	4.88268	0.501641	2.62828	0.607879	3.17762	0.781548	4.08789	0.90637	4.74702
0.525455	2.73649	0.377032	1.93679	0.526531	2.7362	0.611125	3.18658	0.735073	3.82959	0.934091	4.86381	0.503472	2.62506	0.609669	3.17152	0.782578	4.07343	0.907774	4.73128
0.527878	2.73583	0.37904	1.93783	0.528953	2.73554	0.612738	3.17954	0.736654	3.81929	0.935021	4.84514	0.505302	2.62186	0.611465	3.16552	0.783613	4.05913	0.90918	4.71571
0.530299	2.73518	0.381047	1.93886	0.531374	2.73488	0.614352	3.17258	0.738239	3.80911	0.935955	4.82668	0.507129	2.61868	0.613266	3.15961	0.784654	4.04501	0.910588	4.7003
0.53272	2.73452	0.383053	1.93987	0.533795	2.73423	0.615969	3.1657	0.739829	3.79905	0.936894	4.80842	0.508955	2.61553	0.615074	3.15379	0.785701	4.03104	0.911999	4.68505
0.53514	2.73387	0.385059	1.94087	0.536215	2.73358	0.617588	3.15889	0.741423	3.7891	0.937837	4.79036	0.510779	2.61239	0.616888	3.14805	0.786752	4.01723	0.913412	4.66996
0.537559	2.73322	0.387064	1.94186	0.538634	2.73293	0.61921	3.15216	0.743022	3.77928	0.938785	4.77248	0.512602	2.60928	0.618707	3.14239	0.78781	4.00358	0.914827	4.65502
0.539978	2.73257	0.389068	1.94283	0.541052	2.73228	0.620833	3.14551	0.744625	3.76957	0.939737	4.7548	0.514423	2.60619	0.620533	3.13682	0.788872	3.99009	0.916244	4.64023
0.542395	2.73192	0.391072	1.9438	0.543469	2.73164	0.622459	3.13893	0.746232	3.75997	0.940694	4.73731	0.516242	2.60312	0.622364	3.13133	0.78994	3.97675	0.917663	4.62559
0.544812	2.73128	0.393076	1.94475	0.545885	2.73099	0.624088	3.13243	0.747844	3.75049	0.941655	4.72001	0.51806	2.60007	0.6242	3.12591	0.791014	3.96357	0.919085	4.6111
0.547227	2.73063	0.395078	1.94569	0.5483	2.73035	0.625718	3.12599	0.749459	3.74111	0.942621	4.70288	0.519876	2.59704	0.626042	3.12058	0.792093	3.95053	0.920509	4.59676
0.549642	2.72999	0.39708	1.94661	0.550714	2.7297	0.627352	3.11963	0.751079	3.73184	0.943591	4.68594	0.521691	2.59403	0.62789	3.11532	0.793177	3.93764	0.921935	4.58256
0.552055	2.72934	0.399082	1.94753	0.553126	2.72906	0.628988	3.11334	0.752704	3.72268	0.944566	4.66918	0.523504	2.59105	0.629743	3.11014	0.794267	3.9249	0.923362	4.5685
0.554466	2.7287	0.401082	1.94843	0.555537	2.72841	0.630627	3.10713	0.754332	3.71362	0.945545	4.65259	0.525316	2.58808	0.631601	3.10502	0.795361	3.91229	0.924792	4.55458
0.556877	2.72805	0.403082	1.94933	0.557947	2.72776	0.632268	3.10098	0.755964	3.70466	0.946528	4.63618	0.527127	2.58514	0.633464	3.09999	0.796462	3.89983	0.926224	4.5408
0.559286	2.7274	0.405082	1.95021	0.560355	2.72712	0.633912	3.0949	0.7576	3.69581	0.947516	4.61993	0.528936	2.58221	0.635333	3.09502	0.797567	3.88751	0.927658	4.52715
0.561693	2.72675	0.407081	1.95108	0.562762	2.72647	0.635559	3.08889	0.759241	3.68705	0.948509	4.60386	0.530745	2.57931	0.637206	3.09012	0.798678	3.87533	0.929094	4.51363
0.564099	2.7261	0.409079	1.95194	0.565167	2.72581	0.637209	3.08295	0.760885	3.67839	0.949506	4.58795	0.532552	2.57642	0.639084	3.08529	0.799795	3.86328	0.930532	4.50025
0.566503	2.72545	0.411076	1.95279	0.56757	2.72516	0.638862	3.07708	0.762533	3.66983	0.950507	4.5722	0.534357	2.57356	0.640968	3.08052	0.800916	3.85137	0.931972	4.48699
0.568905	2.72479	0.413073	1.95363	0.569971	2.7245	0.640518	3.07127	0.764184	3.66136	0.951513	4.55662	0.536162	2.57072	0.642856	3.07582	0.802043	3.83958	0.933414	4.47387
0.571305	2.72413	0.415069	1.95446	0.572371	2.72384	0.642177	3.06553	0.76584	3.65298	0.952524	4.5412	0.537966	2.56789	0.644748	3.07119	0.803175	3.82793	0.934858	4.46087
0.573703	2.72347	0.417065	1.95528	0.574768	2.72317	0.64384	3.05986	0.767499	3.6447	0.953539	4.52593	0.539769	2.56509	0.646645	3.06662	0.804313	3.8164	0.936303	4.44799
0.5761	2.7228	0.41906	1.95608	0.577164	2.7225	0.645506	3.05425	0.769162	3.63651	0.954558	4.51082	0.54157	2.56231	0.648547	3.06211	0.805456	3.80501	0.937751	4.43524
0.578494	2.72213	0.421054	1.95688	0.579557	2.72183	0.647175	3.04871	0.770828	3.6284	0.955582	4.49587	0.543371	2.55954	0.650453	3.05766	0.806604	3.79373	0.9392	4.4226
0.580886	2.72146	0.423047	1.95767	0.581948	2.72115	0.648847	3.04323	0.772498	3.62039	0.95661	4.48106	0.545171	2.5568	0.652364	3.05326	0.807757	3.78258	0.940651	4.41009
0.583275	2.72077	0.42504	1.95845	0.584336	2.72047	0.650524	3.03782	0.774171	3.61245	0.957643	4.46641	0.54697	2.55408	0.654279	3.04893	0.808916	3.77155	0.942104	4.39769
0.585662	2.72009	0.427032	1.95922	0.586722	2.71978	0.652203	3.03247	0.775848	3.60461	0.958681	4.4519	0.548769	2.55138	0.656197	3.04465	0.81008	3.76064	0.943558	4.3854
0.588047	2.71939	0.429024	1.95998	0.589105	2.71909	0.653887	3.02718	0.777528	3.59684	0.959722	4.43754	0.550566	2.54869	0.65812	3.04043	0.81125	3.74985	0.945014	4.37323
0.590429	2.7187	0.431015	1.96073	0.591486	2.71838	0.655575	3.02196	0.779212	3.58916	0.960769	4.42332	0.552363	2.54603	0.660047	3.03626	0.812424	3.73918	0.946472	4.36118
0.592808	2.71799	0.433005	1.96147	0.593864	2.71768	0.657266	3.0168	0.780899	3.58156	0.961819	4.40925	0.55416	2.54339	0.661978	3.03215	0.813604	3.72862	0.947932	4.34923
0.595184	2.71728	0.434994	1.9622	0.596239	2.71696	0.658962	3.01171	0.782589	3.57404	0.962875	4.39531	0.555955	2.54077	0.663913	3.02809	0.814789	3.71818	0.949393	4.33739
0.597558	2.71656	0.436983	1.96292	0.598611	2.71624	0.660662	3.00667	0.784283	3.5666	0.963934	4.38152	0.55775	2.53816	0.665851	3.02408	0.81598	3.70784	0.950856	4.32567
0.599928	2.71583	0.438971	1.96363	0.60098	2.71551	0.662366	3.0017	0.785979	3.55924	0.964999	4.36786	0.559545	2.53558	0.667793	3.02012	0.817175	3.69762	0.95232	4.31404
0.602295	2.7151	0.440959	1.96434	0.603345	2.71477	0.664074	2.99679	0.787679	3.55195	0.966067	4.35433	0.561339	2.53302	0.669739	3.01621	0.818376	3.68751	0.953786	4.30252
0.604659	2.71435	0.442946	1.96503	0.605708	2.71402	0.665787	2.99194	0.789381	3.54473	0.967141	4.34094	0.563133	2.53047	0.671688	3.01235	0.819582	3.67751	0.955254	4.29111
0.607019	2.7136	0.444932	1.96572	0.608067	2.71326	0.667504	2.98715	0.791087	3.53759	0.968218	4.32768	0.564926	2.52794	0.67364	3.00853	0.820794	3.66761	0.956723	4.2798
0.609376	2.71283	0.446917	1.96639	0.610422	2.71249	0.669227	2.98242	0.792796	3.53052	0.969301	4.31455	0.566719	2.52544	0.675596	3.00477	0.822011	3.65782	0.958194	4.26859
0.611729	2.71206	0.448902	1.96706	0.612773	2.71171	0.670954	2.97776	0.794508	3.52353	0.970387	4.30155	0.568512	2.52295	0.677555	3.00104	0.823232	3.64813	0.959666	4.25747
0.614079	2.71128	0.450886	1.96772	0.615121	2.71093	0.672686	2.97315	0.796222	3.5166	0.971478	4.28867	0.570304	2.52049	0.679517	2.99736	0.82446	3.63855	0.96114	4.24646
0.616424	2.71048	0.45287	1.96838	0.617465	2.71013	0.674423	2.9686	0.79794	3.50974	0.972574	4.27592	0.572096	2.51804	0.681483	2.99373	0.825692	3.62906	0.962615	4.23554
0.618765	2.70968	0.454853	1.96902	0.619804	2.70932	0.676166	2.96412	0.79966	3.50295	0.973674	4.26329	0.573888	2.51561	0.683451	2.99014	0.82693	3.61968	0.964091	4.22472
0.621102	2.70886	0.456835	1.96966	0.622139	2.70849	0.677914	2.95969	0.801383	3.49623	0.974779	4.25079	0.57568	2.5132	0.685422	2.98659	0.828173	3.6104	0.965569	4.21399
0.623435	2.70803	0.458816	1.97029	0.62447	2.70766	0.679667	2.95532	0.803108	3.48957	0.975888	4.23841	0.577471	2.51081	0.687396	2.98308	0.829421	3.60121	0.967049	4.20335
0.625764	2.70719	0.460797	1.97091	0.626797	2.70681	0.681426	2.95102	0.804837	3.48298	0.977002	4.22614	0.579263	2.50843	0.689373	2.97961	0.830675	3.59212	0.968529	4.19281
0.628088	2.70633	0.462777	1.97152	0.629118	2.70595	0.683191	2.94677	0.806567	3.47646	0.97812	4.21399	0.581054	2.50608	0.691352	2.97618	0.831933	3.58313	0.970011	4.18236
0.630407	2.70546	0.464756	1.97212	0.631435	2.70507	0.684962	2.94258	0.808301	3.46999	0.979242	4.20196	0.582846	2.50375	0.693334	2.97279	0.833197	3.57423	0.971495	4.17199
0.632721	2.70458	0.466735	1.97272	0.633747	2.70418	0.686739	2.93846	0.810037	3.46359	0.980369	4.19005	0.584637	2.50143	0.695319	2.96944	0.834466	3.56543	0.97298	4.16172
0.63503	2.70368	0.468713	1.97331	0.636054	2.70328	0.688522	2.93439	0.811775	3.45725	0.981501	4.17825	0.586429	2.49913	0.697306	2.96612	0.835741	3.55671	0.974466	4.15153
0.637334	2.70277	0.47069	1.97389	0.638355	2.70236	0.690311	2.93038	0.813516	3.45098	0.982637	4.16656	0.588221	2.49686	0.699295	2.96284	0.837021	3.54809	0.975953	4.14143
0.639632	2.70184	0.472667	1.97447	0.640652	2.70143	0.692107	2.92643	0.81526	3.44476	0.983778	4.15498	0.590012	2.4946	0.701287	2.9596	0.838306	3.53956	0.977441	4.13141
0.641925	2.7009	0.474643	1.97504	0.642942	2.70048	0.69391	2.92254	0.817005	3.4386	0.984923	4.14351	0.591804	2.49235	0.703281	2.95639	0.839596	3.53112	0.978931	4.12148
0.644213	2.69994	0.476618	1.9756	0.645227	2.69951	0.695719	2.9187	0.818753	3.43249	0.986072	4.13215	0.593596	2.49013	0.705277	2.95321	0.840892	3.52276	0.980422	4.11163
0.646494	2.69896	0.478593	1.97615	0.647506	2.69853	0.697535	2.91493	0.820504	3.42645	0.987227	4.1209	0.595389	2.48793	0.707275	2.95007	0.842192	3.51449	0.981914	4.10186
0.64877	2.69797	0.480567	1.9767	0.649779	2.69752	0.699359	2.91122	0.822256	3.42046	0.988385	4.10975	0.597182	2.48574	0.709275	2.94696	0.843499	3.50631	0.983408	4.09217
0.65104	2.69696	0.48254	1.97723	0.652046	2.6965	0.70119	2.90756	0.824011	3.41452	0.989548	4.09871	0.598974	2.48357	0.711276	2.94388	0.84481	3.49821	0.984902	4.08256
0.653303	2.69593	0.484513	1.97777	0.654306	2.69547	0.703028	2.90396	0.825768	3.40864	0.990716	4.08777	0.600768	2.48142	0.71328	2.94083	0.846127	3.4902	0.986398	4.07303
0.65556	2.69488	0.486485	1.97829	0.65656	2.69441	0.704874	2.90043	0.827527	3.40282	0.991888	4.07693	0.602561	2.47929	0.715286	2.93781	0.847448	3.48227	0.987895	4.06358
0.65781	2.69382	0.488456	1.97881	0.658808	2.69334	0.706727	2.89695	0.829288	3.39704	0.993064	4.0662	0.604355	2.47717	0.717293	2.93483	0.848776	3.47442	0.989392	4.0542
0.660054	2.69273	0.490427	1.97932	0.661049	2.69224	0.708589	2.89353	0.831051	3.39132	0.994246	4.05556	0.606149	2.47507	0.719302	2.93187	0.850108	3.46666	0.990891	4.0449
0.662291	2.69163	0.492397	1.97983	0.663282	2.69113	0.710458	2.89016	0.832816	3.38565	0.995431	4.04503	0.607944	2.473	0.721312	2.92894	0.851446	3.45897	0.992391	4.03567
0.664521	2.6905	0.494366	1.98033	0.665509	2.68999	0.712336	2.88686	0.834582	3.38003	0.996621	4.03459	0.609739	2.47093	0.723324	2.92604	0.852789	3.45136	0.993892	4.02652
0.666744	2.68936	0.496334	1.98082	0.667729	2.68884	0.714221	2.88361	0.836351	3.37446	0.997816	4.02424	0.611535	2.46889	0.725337	2.92317	0.854137	3.44383	0.995394	4.01744
0.668959	2.68819	0.498302	1.98131	0.669941	2.68766	0.716116	2.88043	0.838122	3.36894	0.999015	4.014	0.613331	2.46686	0.727351	2.92032	0.855491	3.43638	0.996898	4.00844
0.671167	2.687	0.50027	1.98179	0.672146	2.68647	0.718019	2.8773	0.839895	3.36347	1.00022	4.00385	0.615128	2.46485	0.729367	2.9175	0.85685	3.42901	0.998402	3.9995
0.673368	2.6858	0.502236	1.98226	0.674343	2.68525	0.71993	2.87423	0.841669	3.35805			0.616925	2.46286	0.731384	2.9147	0.858214	3.42171	0.999907	3.99064
0.675561	2.68457	0.504202	1.98273	0.676533	2.68401	0.72185	2.87121	0.843445	3.35267			0.618723	2.46088	0.733402	2.91193	0.859584	3.41449	1.00141	3.98184
0.677746	2.68332	0.506167	1.98319	0.678714	2.68275	0.72378	2.86826	0.845223	3.34734			0.620522	2.45892	0.735421	2.90919	0.860959	3.40734		
0.679924	2.68204	0.508132	1.98365	0.680888	2.68147	0.725718	2.86536	0.847002	3.34206			0.622321	2.45698	0.737441	2.90647	0.862339	3.40026		
0.682093	2.68075	0.510096	1.9841	0.683054	2.68017	0.727665	2.86252	0.848783	3.33682			0.624121	2.45506	0.739462	2.90377	0.863725	3.39326		
0.684255	2.67943	0.512059	1.98454	0.685212	2.67884	0.729622	2.85973	0.850566	3.33162			0.625921	2.45315	0.741483	2.90109	0.865116	3.38633		
0.686408	2.67809	0.514022	1.98498	0.687362	2.67749	0.731588	2.85701	0.85235	3.32647			0.627723	2.45126	0.743506	2.89844	0.866512	3.37947		
0.688553	2.67673	0.515984	1.98542	0.689504	2.67612	0.733563	2.85433	0.854136	3.32136			0.629524	2.44938	0.745529	2.89581	0.867914	3.37268		
0.69069	2.67535	0.517945	1.98584	0.691637	2.67473	0.735548	2.85172	0.855923	3.3163			0.631327	2.44752	0.747553	2.8932	0.869321	3.36597		
0.692819	2.67395	0.519906	1.98627	0.693762	2.67332	0.737542	2.84916	0.857712	3.31128			0.63313	2.44568	0.749577	2.89061	0.870734	3.35932		
0.69494	2.67252	0.521866	1.98668	0.695879	2.67188	0.739545	2.84665	0.859502	3.3063			0.634935	2.44386	0.751602	2.88805	0.872152	3.35274		
0.697052	2.67107	0.523825	1.98709	0.697987	2.67042	0.741558	2.8442	0.861294	3.30135			0.63674	2.44205	0.753627	2.8855	0.873575	3.34622		
0.699155	2.6696	0.525784	1.9875	0.700087	2.66894	0.743581	2.8418	0.863086	3.29645			0.638545	2.44025	0.755653	2.88297	0.875004	3.33978		
0.701251	2.66811	0.527742	1.9879	0.702179	2.66744	0.745614	2.83946	0.864881	3.29159			0.640352	2.43847	0.757679	2.88046	0.876438	3.3334		
0.703337	2.6666	0.529699	1.98829	0.704262	2.66592	0.747656	2.83717	0.866676	3.28677			0.64216	2.43671	0.759705	2.87797	0.877877	3.32708		
0.705416	2.66506	0.531656	1.98868	0.706337	2.66438	0.749707	2.83493	0.868473	3.28199			0.643968	2.43496	0.761732	2.8755	0.879322	3.32083		
0.707486	2.66351	0.533612	1.98907	0.708403	2.66281	0.751768	2.83275	0.870271	3.27725			0.645777	2.43323	0.763758	2.87304	0.880773	3.31465		
0.709548	2.66194	0.535567	1.98945	0.710461	2.66123	0.753839	2.83061	0.87207	3.27254			0.647587	2.43152	0.765785	2.8706	0.882228	3.30852		
0.711602	2.66034	0.537522	1.98982	0.712511	2.65963	0.755919	2.82853	0.87387	3.26787			0.649398	2.42982	0.767811	2.86818	0.88369	3.30246		
0.713647	2.65873	0.539476	1.99019	0.714553	2.658	0.758008	2.82649	0.875671	3.26324			0.65121	2.42813	0.769838	2.86578	0.885157	3.29647		
0.715684	2.65709	0.54143	1.99056	0.716587	2.65636	0.760107	2.8245	0.877474	3.25864			0.653023	2.42646	0.771864	2.86339	0.886629	3.29053		
0.717714	2.65544	0.543383	1.99092	0.718612	2.6547	0.762215	2.82256	0.879277	3.25408			0.654837	2.42481	0.77389	2.86102	0.888106	3.28466		
0.719735	2.65377	0.545335	1.99127	0.72063	2.65303	0.764332	2.82067	0.881082	3.24955			0.656652	2.42317	0.775916	2.85866	0.88959	3.27885		
0.721748	2.65209	0.547286	1.99162	0.72264	2.65133	0.766458	2.81883	0.882887	3.24506			0.658468	2.42154	0.777942	2.85632	0.891078	3.27309		
0.723754	2.65038	0.549237	1.99197	0.724642	2.64962	0.768593	2.81703	0.884694	3.2406			0.660284	2.41993	0.779967	2.85399	0.892573	3.2674		
0.725752	2.64866	0.551188	1.99231	0.726637	2.64789	0.770737	2.81527	0.886501	3.23618			0.662102	2.41834	0.781992	2.85168	0.894072	3.26177		
0.727742	2.64693	0.553137	1.99265	0.728624	2.64615	0.77289	2.81356	0.88831	3.23179			0.663921	2.41676	0.784016	2.84938	0.895578	3.25619		
0.729725	2.64517	0.555087	1.99298	0.730604	2.64439	0.775052	2.81189	0.890119	3.22743			0.665741	2.41519	0.78604	2.8471	0.897088	3.25067		
0.731701	2.64341	0.557035	1.99331	0.732576	2.64262	0.777221	2.81026	0.891929	3.2231			0.667562	2.41364	0.788063	2.84482	0.898605	3.24521		
0.73367	2.64163	0.558983	1.99363	0.734542	2.64083	0.779399	2.80868	0.89374	3.21881			0.669384	2.4121	0.790085	2.84256	0.900127	3.2398		
0.735631	2.63984	0.56093	1.99395	0.7365	2.63904	0.781586	2.80713	0.895551	3.21455			0.671207	2.41058	0.792107	2.84032	0.901654	3.23446		
0.737586	2.63803	0.562877	1.99427	0.738452	2.63723	0.78378	2.80562	0.897364	3.21032			0.673031	2.40907	0.794128	2.83808	0.903187	3.22916		
0.739534	2.63621	0.564823	1.99458	0.740398	2.6354	0.785982	2.80415	0.899177	3.20612			0.674856	2.40757	0.796149	2.83586	0.904726	3.22392		
0.741476	2.63439	0.566768	1.99488	0.742336	2.63357	0.788192	2.80272	0.900991	3.20195			0.676682	2.40609	0.798168	2.83365	0.90627	3.21874		
0.743411	2.63255	0.568713	1.99519	0.744269	2.63173	0.790409	2.80133	0.902805	3.19781			0.67851	2.40462	0.800186	2.83145	0.90782	3.21361		
0.74534	2.6307	0.570657	1.99548	0.746195	2.62988	0.792634	2.79997	0.90462	3.1937			0.680338	2.40316	0.802204	2.82926	0.909375	3.20853		
0.747263	2.62884	0.572601	1.99578	0.748116	2.62802	0.794866	2.79864	0.906436	3.18962			0.682168	2.40172	0.80422	2.82708	0.910936	3.20351		
0.749181	2.62698	0.574544	1.99607	0.75003	2.62615	0.797105	2.79735	0.908253	3.18557			0.683999	2.4003	0.806236	2.82492	0.912502	3.19854		
0.751092	2.6251	0.576486	1.99635	0.751939	2.62427	0.799351	2.79608	0.91007	3.18154			0.68583	2.39888	0.80825	2.82276	0.914075	3.19362		
0.752998	2.62322	0.578428	1.99664	0.753843	2.62239	0.801603	2.79485	0.911887	3.17755			0.687663	2.39748	0.810263	2.82061	0.915653	3.18875		
0.754899	2.62134	0.580369	1.99692	0.755741	2.6205	0.803862	2.79365	0.913705	3.17358			0.689497	2.39609	0.812275	2.81847	0.917236	3.18394		
0.756794	2.61944	0.58231	1.99719	0.757635	2.6186	0.806127	2.79249	0.915524	3.16964			0.691333	2.39471	0.814285	2.81634	0.918825	3.17917		
0.758685	2.61755	0.58425	1.99746	0.759523	2.6167	0.808398	2.79134	0.917343	3.16573			0.693169	2.39335	0.816294	2.81422	0.92042	3.17446		
0.76057	2.61564	0.58619	1.99773	0.761407	2.6148	0.810676	2.79023	0.919163	3.16184			0.695007	2.392	0.818302	2.81211	0.92202	3.16979		
0.762451	2.61374	0.588128	1.99799	0.763285	2.61289	0.812959	2.78914	0.920983	3.15798			0.696845	2.39066	0.820309	2.81001	0.923626	3.16517		
0.764328	2.61183	0.590067	1.99825	0.76516	2.61098	0.815247	2.78808	0.922803	3.15414			0.698685	2.38934	0.822314	2.80792	0.925238	3.16061		
0.7662	2.60992	0.592005	1.99851	0.76703	2.60907	0.817541	2.78705	0.924624	3.15034			0.700526	2.38803	0.824317	2.80583	0.926855	3.15609		
0.768068	2.608	0.593942	1.99876	0.768896	2.60715	0.819841	2.78604	0.926446	3.14655			0.702369	2.38672	0.826319	2.80376	0.928478	3.15161		
0.769932	2.60609	0.595878	1.99901	0.770758	2.60524	0.822145	2.78505	0.928267	3.14279			0.704212	2.38544	0.82832	2.80169	0.930107	3.14719		
0.771792	2.60417	0.597814	1.99926	0.772617	2.60332	0.824455	2.78409	0.930089	3.13906			0.706057	2.38416	0.830318	2.79962	0.931742	3.14281		
0.773648	2.60225	0.59975	1.9995	0.774471	2.6014	0.826769	2.78315	0.931912	3.13535			0.707902	2.3829	0.832315	2.79757	0.933382	3.13848		
0.7755	2.60033	0.601685	1.99974	0.776322	2.59948	0.829088	2.78223	0.933735	3.13167			0.709749	2.38164	0.834311	2.79552	0.935027	3.1342		
0.77735	2.59842	0.603619	1.99998	0.77817	2.59757	0.831411	2.78133	0.935558	3.12801			0.711597	2.3804	0.836305	2.79348	0.936679	3.12996		
0.779195	2.5965	0.605553	2.00021	0.780014	2.59565	0.833739	2.78045	0.937381	3.12437			0.713447	2.37918	0.838296	2.79145	0.938336	3.12576		
0.781038	2.59459	0.607486	2.00044	0.781856	2.59374	0.836071	2.77959	0.939204	3.12076			0.715297	2.37796	0.840286	2.78942	0.939999	3.12161		
0.782878	2.59267	0.609419	2.00066	0.783694	2.59182	0.838407	2.77875	0.941028	3.11717			0.717149	2.37675	0.842275	2.7874	0.941667	3.11751		
0.784715	2.59076	0.611351	2.00089	0.78553	2.58991	0.840747	2.77792	0.942852	3.1136			0.719002	2.37556	0.844261	2.78539	0.943341	3.11345		
0.786548	2.58885	0.613283	2.00111	0.787362	2.58801	0.84309	2.77712	0.944677	3.11006			0.720856	2.37438	0.846245	2.78338	0.945021	3.10943		
0.78838	2.58695	0.615214	2.00132	0.789192	2.5861	0.845437	2.77633	0.946501	3.10654			0.722712	2.3732	0.848228	2.78137	0.946706	3.10545		
0.790209	2.58505	0.617144	2.00154	0.79102	2.5842	0.847788	2.77556	0.948326	3.10304			0.724568	2.37204	0.850208	2.77938	0.948397	3.10152		
0.792035	2.58315	0.619074	2.00175	0.792845	2.58231	0.850142	2.7748	0.950151	3.09956			0.726426	2.37089	0.852187	2.77739	0.950094	3.09763		
0.793859	2.58125	0.621004	2.00196	0.794668	2.58041	0.852499	2.77406	0.951976	3.0961			0.728285	2.36975	0.854163	2.7754	0.951796	3.09379		
0.795681	2.57936	0.622933	2.00216	0.796489	2.57852	0.85486	2.77333	0.953801	3.09267			0.730145	2.36863	0.856138	2.77342	0.953504	3.08998		
0.797501	2.57748	0.624861	2.00236	0.798308	2.57664	0.857223	2.77262	0.955627	3.08925			0.732006	2.36751	0.85811	2.77144	0.955218	3.08621		
0.799318	2.5756	0.626789	2.00256	0.800125	2.57476	0.859589	2.77192	0.957452	3.08586			0.733869	2.3664	0.86008	2.76947	0.956937	3.08249		
0.801134	2.57372	0.628717	2.00276	0.80194	2.57289	0.861958	2.77123	0.959278	3.08249			0.735733	2.36531	0.862048	2.76751	0.958662	3.07881		
0.802948	2.57185	0.630644	2.00295	0.803754	2.57102	0.86433	2.77056	0.961104	3.07914			0.737598	2.36422	0.864014	2.76555	0.960392	3.07516		
0.804761	2.56999	0.63257	2.00314	0.805565	2.56916	0.866704	2.7699	0.96293	3.07581			0.739464	2.36314	0.865978	2.76359	0.962128	3.07156		
0.806571	2.56813	0.634496	2.00333	0.807375	2.5673	0.869081	2.76925	0.964756	3.0725			0.741331	2.36208	0.867939	2.76164	0.96387	3.06799		
0.808381	2.56628	0.636421	2.00352	0.809184	2.56545	0.87146	2.76861	0.966583	3.06921			0.7432	2.36102	0.869899	2.75969	0.965617	3.06447		
0.810189	2.56443	0.638346	2.0037	0.810991	2.56361	0.873841	2.76798	0.968409	3.06594			0.74507	2.35998	0.871855	2.75775	0.96737	3.06098		
0.811995	2.56259	0.640271	2.00388	0.812797	2.56178	0.876224	2.76736	0.970236	3.06268			0.746941	2.35894	0.87381	2.75581	0.969128	3.05753		
0.8138	2.56076	0.642195	2.00406	0.814602	2.55995	0.87861	2.76675	0.972062	3.05945			0.748813	2.35792	0.875763	2.75388	0.970892	3.05411		
0.815604	2.55893	0.644118	2.00423	0.816405	2.55812	0.880997	2.76616	0.973889	3.05624			0.750686	2.3569	0.877713	2.75195	0.972661	3.05074		
0.817407	2.55711	0.646041	2.00441	0.818208	2.55631	0.883386	2.76557	0.975716	3.05305			0.752561	2.3559	0.879661	2.75002	0.974436	3.0474		
0.819209	2.5553	0.647964	2.00458	0.820009	2.5545	0.885777	2.76499	0.977543	3.04987			0.754437	2.3549	0.881606	2.7481	0.976216	3.0441		
0.82101	2.5535	0.649885	2.00474	0.82181	2.5527	0.88817	2.76442	0.97937	3.04672			0.756314	2.35391	0.88355	2.74618	0.978002	3.04083		
0.82281	2.5517	0.651807	2.00491	0.823609	2.55091	0.890564	2.76385	0.981197	3.04358			0.758192	2.35294	0.88549	2.74426	0.979793	3.0376		
0.824609	2.54992	0.653728	2.00507	0.825408	2.54912	0.89296	2.7633	0.983025	3.04046			0.760071	2.35197	0.887429	2.74235	0.981589	3.0344		
0.826408	2.54814	0.655649	2.00523	0.827206	2.54735	0.895357	2.76275	0.984852	3.03736			0.761952	2.35101	0.889365	2.74045	0.983391	3.03124		
0.828205	2.54636	0.657569	2.00539	0.829004	2.54558	0.897755	2.76221	0.98668	3.03428			0.763834	2.35006	0.891299	2.73854	0.985198	3.02812		
0.830002	2.5446	0.659488	2.00555	0.8308	2.54382	0.900155	2.76168	0.988507	3.03121			0.765717	2.34912	0.893231	2.73664	0.98701	3.02503		
0.831799	2.54284	0.661407	2.0057	0.832597	2.54207	0.902556	2.76115	0.990335	3.02817			0.767601	2.34819	0.89516	2.73475	0.988828	3.02197		
0.833595	2.5411	0.663326	2.00585	0.834392	2.54032	0.904958	2.76063	0.992163	3.02514			0.769486	2.34727	0.897086	2.73286	0.990651	3.01894		
0.83539	2.53936	0.665244	2.006	0.836187	2.53859	0.907361	2.76012	0.993991	3.02213			0.771373	2.34635	0.899011	2.73097	0.992479	3.01595		
0.837185	2.53763	0.667162	2.00615	0.837982	2.53686	0.909765	2.75961	0.99582	3.01913			0.77326	2.34545	0.900933	2.72908	0.994313	3.01299		
0.838979	2.5359	0.66908	2.00629	0.839776	2.53514	0.91217	2.7591	0.997648	3.01616			0.775149	2.34455	0.902852	2.7272	0.996151	3.01007		
0.840773	2.53419	0.670997	2.00643	0.84157	2.53343	0.914575	2.75861	0.999477	3.0132			0.777039	2.34366	0.904769	2.72532	0.997995	3.00717		
0.842567	2.53249	0.672913	2.00657	0.843364	2.53173	0.916982	2.75811	1.00131	3.01026			0.77893	2.34278	0.906684	2.72345	0.999844	3.00431		
0.844361	2.53079	0.674829	2.00671	0.845158	2.53004	0.919389	2.75763					0.780822	2.34191	0.908597	2.72157	1.0017	3.00147		
0.846154	2.5291	0.676745	2.00685	0.846951	2.52835	0.921797	2.75714					0.782716	2.34105	0.910507	2.71971				
0.847947	2.52742	0.67866	2.00698	0.848744	2.52668	0.924205	2.75666					0.78461	2.34019	0.912415	2.71784				
0.849741	2.52575	0.680575	2.00712	0.850537	2.52501	0.926614	2.75619					0.786506	2.33935	0.91432	2.71598				
0.851533	2.52409	0.682489	2.00725	0.85233	2.52336	0.929023	2.75572					0.788403	2.33851	0.916223	2.71412				
0.853326	2.52244	0.684403	2.00737	0.854123	2.52171	0.931432	2.75525					0.790301	2.33768	0.918124	2.71227				
0.855119	2.5208	0.686317	2.0075	0.855916	2.52007	0.933842	2.75479					0.7922	2.33686	0.920023	2.71041				
0.856912	2.51916	0.68823	2.00763	0.857708	2.51844	0.936252	2.75433					0.794101	2.33604	0.921919	2.70857				
0.858705	2.51754	0.690142	2.00775	0.859501	2.51682	0.938662	2.75387					0.796002	2.33523	0.923813	2.70672				
0.860498	2.51592	0.692055	2.00787	0.861294	2.51521	0.941072	2.75341					0.797905	2.33443	0.925704	2.70488				
0.862291	2.51432	0.693967	2.00799	0.863087	2.51361	0.943483	2.75296					0.799808	2.33364	0.927594	2.70304				
0.864084	2.51272	0.695878	2.00811	0.864881	2.51201	0.945893	2.75251					0.801713	2.33286	0.929481	2.70121				
0.865878	2.51113	0.697789	2.00822	0.866674	2.51043	0.948303	2.75206					0.803619	2.33208	0.931366	2.69938				
0.867671	2.50955	0.6997	2.00834	0.868468	2.50885	0.950713	2.75162					0.805526	2.33131	0.933248	2.69755				
0.869465	2.50798	0.70161	2.00845	0.870262	2.50729	0.953122	2.75117					0.807434	2.33055	0.935129	2.69572				
0.871259	2.50642	0.70352	2.00856	0.872056	2.50573	0.955532	2.75073					0.809343	2.3298	0.937007	2.6939				
0.873053	2.50487	0.70543	2.00867	0.87385	2.50418	0.957941	2.75029					0.811253	2.32905	0.938883	2.69209				
0.874848	2.50332	0.707339	2.00877	0.875645	2.50264	0.960349	2.74985					0.813165	2.32831	0.940758	2.69027				
0.876642	2.50179	0.709248	2.00888	0.87744	2.50111	0.962758	2.74941					0.815077	2.32758	0.942629	2.68846				
0.878438	2.50027	0.711156	2.00898	0.879235	2.49959	0.965165	2.74897					0.816991	2.32685	0.944499	2.68666				
0.880233	2.49875	0.713064	2.00909	0.881031	2.49808	0.967572	2.74853					0.818905	2.32613	0.946367	2.68485				
0.882029	2.49724	0.714972	2.00919	0.882827	2.49658	0.969979	2.74809					0.820821	2.32542	0.948233	2.68305				
0.883825	2.49575	0.71688	2.00929	0.884623	2.49508	0.972384	2.74766					0.822738	2.32471	0.950096	2.68126				
0.885622	2.49426	0.718787	2.00938	0.88642	2.4936	0.974789	2.74722					0.824656	2.32401	0.951958	2.67947				
0.887419	2.49278	0.720693	2.00948	0.888218	2.49212	0.977193	2.74678					0.826574	2.32332	0.953818	2.67768				
0.889217	2.49131	0.722599	2.00958	0.890015	2.49066	0.979596	2.74634					0.828494	2.32263	0.955676	2.6759				
0.891015	2.48985	0.724505	2.00967	0.891814	2.4892	0.981998	2.7459					0.830415	2.32195	0.957532	2.67412				
0.892813	2.48839	0.726411	2.00976	0.893612	2.48775	0.984399	2.74546					0.832337	2.32128	0.959386	2.67234				
0.894612	2.48695	0.728316	2.00985	0.895412	2.48631	0.986798	2.74502					0.83426	2.32061	0.961238	2.67057				
0.896412	2.48551	0.730221	2.00994	0.897211	2.48488	0.989197	2.74458					0.836184	2.31995	0.963088	2.6688				
0.898212	2.48409	0.732126	2.01003	0.899012	2.48346	0.991594	2.74414					0.838109	2.3193	0.964937	2.66704				
0.900012	2.48267	0.73403	2.01011	0.900812	2.48204	0.99399	2.7437					0.840035	2.31865	0.966783	2.66528				
0.901814	2.48126	0.735934	2.0102	0.902614	2.48064	0.996384	2.74325					0.841962	2.31801	0.968628	2.66352				
0.903615	2.47986	0.737838	2.01028	0.904416	2.47924	0.998777	2.7428					0.843891	2.31737	0.970471	2.66177				
0.905418	2.47847	0.739741	2.01036	0.906218	2.47786	1.00117	2.74235					0.84582	2.31674	0.972313	2.66003				
0.907221	2.47709	0.741644	2.01045	0.908022	2.47648							0.84775	2.31612	0.974153	2.65828				
0.909024	2.47571	0.743547	2.01053	0.909825	2.47511							0.849681	2.3155	0.975991	2.65655				
0.910828	2.47435	0.745449	2.0106	0.91163	2.47375							0.851613	2.31489	0.977827	2.65481				
0.912633	2.47299	0.747351	2.01068	0.913435	2.47239							0.853546	2.31428	0.979663	2.65308				
0.914438	2.47164	0.749253	2.01076	0.91524	2.47105							0.85548	2.31368	0.981496	2.65136				
0.916244	2.47031	0.751154	2.01083	0.917047	2.46971							0.857415	2.31309	0.983328	2.64964				
0.918051	2.46897	0.753055	2.01091	0.918854	2.46839							0.859351	2.3125	0.985158	2.64792				
0.919858	2.46765	0.754956	2.01098	0.920661	2.46707							0.861288	2.31191	0.986987	2.64621				
0.921666	2.46634	0.756857	2.01105	0.92247	2.46576							0.863226	2.31133	0.988815	2.64451				
0.923475	2.46503	0.758757	2.01112	0.924279	2.46445							0.865165	2.31076	0.990641	2.64281				
0.925284	2.46373	0.760657	2.01119	0.926088	2.46316							0.867104	2.31019	0.992466	2.64111				
0.927094	2.46245	0.762556	2.01126	0.927899	2.46188							0.869045	2.30963	0.994289	2.63942				
0.928905	2.46116	0.764456	2.01133	0.92971	2.4606							0.870987	2.30907	0.996112	2.63773				
0.930717	2.45989	0.766355	2.01139	0.931521	2.45933							0.872929	2.30852	0.997932	2.63605				
0.932529	2.45863	0.768254	2.01146	0.933334	2.45807							0.874873	2.30797	0.999752	2.63437				
0.934342	2.45737	0.770152	2.01152	0.935147	2.45681							0.876817	2.30743	1.00157	2.6327				
0.936155	2.45612	0.77205	2.01158	0.936961	2.45557							0.878763	2.30689						
0.93797	2.45488	0.773948	2.01165	0.938776	2.45433							0.880709	2.30636						
0.939785	2.45365	0.775846	2.01171	0.940591	2.4531							0.882656	2.30583						
0.941601	2.45242	0.777744	2.01177	0.942408	2.45188							0.884604	2.30531						
0.943417	2.45121	0.779641	2.01183	0.944225	2.45067							0.886553	2.3048						
0.945235	2.45	0.781538	2.01188	0.946042	2.44946							0.888503	2.30428						
0.947053	2.4488	0.783435	2.01194	0.947861	2.44827							0.890453	2.30378						
0.948872	2.4476	0.785331	2.012	0.94968	2.44708							0.892405	2.30327						
0.950692	2.44642	0.787227	2.01205	0.9515	2.44589							0.894357	2.30277						
0.952512	2.44524	0.789123	2.01211	0.953321	2.44472							0.89631	2.30228						
0.954333	2.44407	0.791019	2.01216	0.955143	2.44355							0.898265	2.30179						
0.956156	2.44291	0.792914	2.01221	0.956965	2.44239							0.90022	2.30131						
0.957978	2.44175	0.79481	2.01226	0.958788	2.44124							0.902175	2.30083						
0.959802	2.44061	0.796705	2.01232	0.960612	2.4401							0.904132	2.30035						
0.961626	2.43947	0.798599	2.01237	0.962437	2.43896							0.90609	2.29988						
0.963452	2.43833	0.800494	2.01242	0.964263	2.43783							0.908048	2.29941						
0.965278	2.43721	0.802388	2.01246	0.966089	2.43671							0.910007	2.29895						
0.967105	2.43609	0.804282	2.01251	0.967916	2.43559							0.911967	2.29849						
0.968932	2.43498	0.806176	2.01256	0.969744	2.43449							0.913928	2.29804						
0.970761	2.43387	0.80807	2.0126	0.971573	2.43339							0.915889	2.29759						
0.97259	2.43278	0.809963	2.01265	0.973403	2.43229							0.917852	2.29714						
0.97442	2.43169	0.811857	2.0127	0.975233	2.43121							0.919815	2.2967						
0.976251	2.43061	0.81375	2.01274	0.977064	2.43013							0.921779	2.29626						
0.978083	2.42953	0.815642	2.01278	0.978897	2.42906							0.923744	2.29583						
0.979915	2.42846	0.817535	2.01282	0.980729	2.42799							0.925709	2.2954						
0.981749	2.4274	0.819427	2.01287	0.982563	2.42693							0.927676	2.29497						
0.983583	2.42635	0.82132	2.01291	0.984398	2.42588							0.929643	2.29455						
0.985418	2.4253	0.823212	2.01295	0.986233	2.42484							0.931611	2.29413						
0.987254	2.42426	0.825103	2.01299	0.988069	2.4238							0.933579	2.29371						
0.98909	2.42322	0.826995	2.01303	0.989906	2.42277							0.935549	2.2933						
0.990928	2.4222	0.828886	2.01307	0.991744	2.42174							0.937519	2.2929						
0.992766	2.42118	0.830778	2.0131	0.993583	2.42073							0.93949	2.29249						
0.994605	2.42016	0.832669	2.01314	0.995422	2.41972							0.941461	2.29209						
0.996445	2.41916	0.834559	2.01318	0.997263	2.41871							0.943434	2.2917						
0.998286	2.41816	0.83645	2.01321	0.999104	2.41771							0.945407	2.2913						
1.00013	2.41716	0.83834	2.01325	1.00095	2.41672							0.947381	2.29091						
		0.840231	2.01328									0.949355	2.29053						
		0.842121	2.01332									0.95133	2.29015						
		0.844011	2.01335									0.953306	2.28977						
		0.845901	2.01339									0.955283	2.28939						
		0.84779	2.01342									0.95726	2.28902						
		0.84968	2.01345									0.959239	2.28865						
		0.851569	2.01348									0.961217	2.28829						
		0.853458	2.01351									0.963197	2.28792						
		0.855347	2.01354									0.965177	2.28756						
		0.857236	2.01357									0.967158	2.28721						
		0.859124	2.0136									0.969139	2.28686						
		0.861013	2.01363									0.971121	2.28651						
		0.862901	2.01366									0.973104	2.28616						
		0.864789	2.01369									0.975088	2.28582						
		0.866677	2.01372									0.977072	2.28548						
		0.868565	2.01374									0.979057	2.28514						
		0.870453	2.01377									0.981042	2.2848						
		0.87234	2.01379									0.983028	2.28447						
		0.874227	2.01382									0.985015	2.28414						
		0.876115	2.01385									0.987002	2.28382						
		0.878002	2.01387									0.98899	2.28349						
		0.879889	2.0139									0.990979	2.28317						
		0.881776	2.01392									0.992968	2.28286						
		0.883662	2.01394									0.994958	2.28254						
		0.885549	2.01397									0.996948	2.28223						
		0.887435	2.01399									0.998939	2.28192						
		0.889322	2.01401									1.00093	2.28162						
		0.891208	2.01403																
		0.893094	2.01405																
		0.89498	2.01408																
		0.896866	2.0141																
		0.898751	2.01412																
		0.900637	2.01414																
		0.902522	2.01416																
		0.904408	2.01418																
		0.906293	2.0142																
		0.908178	2.01421																
		0.910063	2.01423																
		0.911948	2.01425																
		0.913833	2.01427																
		0.915717	2.01429																
		0.917602	2.0143																
		0.919486	2.01432																
		0.921371	2.01434																
		0.923255	2.01435																
		0.925139	2.01437																
		0.927023	2.01439																
		0.928907	2.0144																
		0.930791	2.01442																
		0.932675	2.01443																
		0.934558	2.01445																
		0.936442	2.01446																
		0.938325	2.01447																
		0.940209	2.01449																
		0.942092	2.0145																
		0.943975	2.01452																
		0.945858	2.01453																
		0.947741	2.01454																
		0.949624	2.01455																
		0.951507	2.01457																
		0.95339	2.01458																
		0.955273	2.01459																
		0.957155	2.0146																
		0.959038	2.01462																
		0.96092	2.01463																
		0.962803	2.01464																
		0.964685	2.01465																
		0.966567	2.01466																
		0.968449	2.01467																
		0.970331	2.01468																
		0.972213	2.01469																
		0.974095	2.0147																
		0.975977	2.01471																
		0.977859	2.01472																
		0.979741	2.01473																
		0.981623	2.01474																
		0.983504	2.01475																
		0.985386	2.01476																
		0.987267	2.01477																
		0.989149	2.01478																
		0.99103	2.01478																
		0.992911	2.01479																
		0.994793	2.0148																
		0.996674	2.01481																
		0.998555	2.01482																
		1.00044	2.01483																
