Sym0		Asym0		Sym1		Sym2		Sym3		Sym4		Asym1		Asym2		Asym3		Asym4	
455  Points		539  Points		454  Points		403  Points		367  Points		277  Points		479  Points		418  Points		367  Points		278  Points	
Freq (MHz)	Vph (m/ms)	Freq (MHz)	Vph (m/ms)	Freq (MHz)	Vph (m/ms)	Freq (MHz)	Vph (m/ms)	Freq (MHz)	Vph (m/ms)	Freq (MHz)	Vph (m/ms)	Freq (MHz)	Vph (m/ms)	Freq (MHz)	Vph (m/ms)	Freq (MHz)	Vph (m/ms)	Freq (MHz)	Vph (m/ms)
0.279508	2380.54	0.00023256	0.094371	0.279507	362.622	0.356671	3504.26	0.559017	2077.18	0.838526	2216.54	0.139755	1093.24	0.419265	692.919	0.69877	1561.2	0.713342	4063.5
0.279506	266.422	0.000441006	0.12986	0.279501	164.172	0.356688	345.134	0.559024	465.536	0.83853	640.1	0.139798	131.943	0.419275	272.829	0.698759	506.611	0.713359	644.266
0.279498	141.103	0.000714723	0.16515	0.27949	106.101	0.356733	181.527	0.559039	262.15	0.838538	374.065	0.139907	70.2617	0.419294	169.86	0.698738	302.356	0.713402	349.889
0.279486	95.961	0.00105306	0.200225	0.279475	78.3748	0.356805	123.169	0.559063	182.45	0.838551	264.245	0.140083	47.9255	0.419321	123.324	0.698706	215.472	0.71347	240.174
0.27947	72.6992	0.00145501	0.235016	0.279456	62.1347	0.356906	93.2218	0.559096	139.917	0.838568	204.275	0.140324	36.4042	0.419358	96.808	0.698663	167.37	0.713562	182.856
0.279449	58.5124	0.00191946	0.269481	0.279432	51.4677	0.357034	75.003	0.559137	113.47	0.838589	166.493	0.140631	29.3819	0.419403	79.6806	0.698611	136.82	0.713679	147.637
0.279424	48.9566	0.00244534	0.3036	0.279404	43.9248	0.357189	62.7533	0.559186	95.4358	0.838615	140.507	0.141002	24.6594	0.419457	67.7063	0.69855	115.697	0.71382	123.804
0.279395	42.0821	0.00303115	0.337312	0.279372	38.3087	0.357372	53.9539	0.559245	82.351	0.838645	121.54	0.141437	21.2697	0.419519	58.8639	0.698481	100.22	0.713983	106.606
0.279362	36.8991	0.00367555	0.370598	0.279337	33.9646	0.357582	47.3283	0.559311	72.4245	0.838679	107.086	0.141934	18.7213	0.419591	52.0672	0.698404	88.3927	0.714169	93.6111
0.279325	32.8515	0.00437694	0.40342	0.279298	30.5042	0.357818	42.1606	0.559387	64.6363	0.838718	95.7052	0.142492	16.738	0.419671	46.6803	0.69832	79.0595	0.714376	83.4474
0.279285	29.603	0.00513375	0.435755	0.279256	27.6827	0.358082	38.0181	0.55947	58.3628	0.838761	86.5125	0.143109	15.1522	0.41976	42.3059	0.69823	71.5067	0.714605	75.281
0.279242	26.9381	0.00594422	0.467571	0.27921	25.338	0.358372	34.6239	0.559563	53.2017	0.838808	78.9322	0.143785	13.8568	0.419858	38.6833	0.698134	65.2692	0.714853	68.5763
0.279196	24.7126	0.00680674	0.498857	0.279163	23.3587	0.358688	31.7926	0.559664	48.8812	0.83886	72.5743	0.144517	12.7798	0.419964	35.6342	0.698034	60.0308	0.71512	62.9735
0.279148	22.8259	0.00771945	0.529587	0.279112	21.6655	0.35903	29.3954	0.559773	45.2117	0.838916	67.1652	0.145303	11.8713	0.420079	33.0326	0.69793	55.5694	0.715406	58.2219
0.279097	21.2061	0.00868068	0.559753	0.27906	20.2005	0.359397	27.3399	0.559891	42.0565	0.838977	62.5074	0.146143	11.0954	0.420203	30.7868	0.697823	51.7239	0.71571	54.1414
0.279044	19.8004	0.00968859	0.589339	0.279006	18.9205	0.359789	25.5583	0.560018	39.3146	0.839041	58.4546	0.147035	10.4256	0.420336	28.8287	0.697714	48.375	0.71603	50.5994
0.27899	18.569	0.0107414	0.618337	0.278951	17.7926	0.360207	23.9995	0.560153	36.9099	0.839111	54.8961	0.147976	9.8421	0.420478	27.1063	0.697603	45.4325	0.716367	47.496
0.278934	17.4812	0.0118374	0.64674	0.278895	16.7912	0.360649	22.6245	0.560297	34.7839	0.839184	51.7468	0.148964	9.32972	0.420628	25.5796	0.697491	42.8266	0.716719	44.7548
0.278878	16.5135	0.0129747	0.674543	0.278838	15.8961	0.361114	21.4028	0.560449	32.8909	0.839262	48.9399	0.149999	8.87655	0.420787	24.2172	0.697378	40.5026	0.717086	42.3158
0.278821	15.6469	0.0141518	0.701749	0.278781	15.0913	0.361604	20.3103	0.56061	31.1947	0.839344	46.4226	0.151078	8.47324	0.420955	22.9939	0.697266	38.4173	0.717468	40.1319
0.278764	14.8664	0.015367	0.728356	0.278724	14.3638	0.362117	19.3277	0.56078	29.6661	0.839431	44.1522	0.152053	8.15651	0.421132	21.8895	0.697154	36.5356	0.717864	38.1651
0.278708	14.1598	0.0166186	0.754364	0.278668	13.7029	0.362652	18.4393	0.560958	28.2816	0.839522	42.0942	0.152909	7.9088	0.421317	20.8876	0.697043	34.8292	0.718272	36.3845
0.278652	13.5171	0.017905	0.779781	0.278613	13.1001	0.363211	17.6324	0.561144	27.0217	0.839617	40.22	0.153633	7.7178	0.421511	19.9746	0.696934	33.2747	0.718694	34.7651
0.278597	12.9301	0.0192247	0.804608	0.278559	12.5478	0.363791	16.8963	0.561339	25.8704	0.839716	38.5062	0.154217	7.57489	0.421714	19.1392	0.696827	31.8527	0.719128	33.286
0.278544	12.3918	0.0205762	0.82885	0.278507	12.0402	0.364393	16.2223	0.561543	24.8143	0.83982	36.9331	0.154651	7.47407	0.421926	18.372	0.696722	30.5469	0.719574	31.9297
0.278492	11.8964	0.0219582	0.852523	0.278458	11.5719	0.365016	15.6029	0.561755	23.8421	0.839929	35.4839	0.154932	7.41136	0.422146	17.6649	0.696621	29.3438	0.720032	30.6815
0.278443	11.439	0.023369	0.875625	0.278411	11.1387	0.36566	15.0317	0.561976	22.9442	0.840041	34.1447	0.155338	7.32356	0.422376	17.0113	0.696522	28.2317	0.720501	29.5292
0.278397	11.0155	0.0248077	0.898175	0.278367	10.7367	0.366324	14.5036	0.562205	22.1124	0.840158	32.9034	0.155785	7.23117	0.422614	16.4053	0.696426	27.2006	0.720981	28.462
0.278354	10.6222	0.0262726	0.920175	0.278326	10.3628	0.367009	14.0137	0.562443	21.3398	0.84028	31.7497	0.156399	7.11034	0.42286	15.8419	0.696334	26.2421	0.721471	27.471
0.278315	10.2561	0.0277629	0.941642	0.278289	10.014	0.367713	13.5583	0.562689	20.6202	0.840405	30.6746	0.157189	6.96499	0.423116	15.3168	0.696247	25.3487	0.721972	26.5483
0.278279	9.91437	0.0292772	0.962585	0.278257	9.68805	0.368436	13.1337	0.562944	19.9484	0.840536	29.6703	0.15816	6.79951	0.42338	14.8264	0.696163	24.5141	0.722483	25.687
0.278248	9.59477	0.0308143	0.983011	0.278229	9.38272	0.369178	12.7371	0.563208	19.3199	0.84067	28.7302	0.159323	6.61848	0.423653	14.3672	0.696084	23.7327	0.723004	24.8813
0.278222	9.29523	0.0323734	1.00294	0.278206	9.09615	0.369938	12.3659	0.563479	18.7306	0.840809	27.8482	0.160687	6.42642	0.423935	13.9364	0.696009	22.9996	0.723535	24.126
0.2782	9.01394	0.0339533	1.02237	0.278189	8.8267	0.370716	12.0176	0.56376	18.177	0.840952	27.0192	0.162081	6.24932	0.424226	13.5315	0.695939	22.3104	0.724075	23.4166
0.278185	8.74931	0.035553	1.04133	0.278177	8.5729	0.371512	11.6903	0.564049	17.6559	0.841099	26.2385	0.163504	6.08558	0.424525	13.1502	0.695874	21.6613	0.724624	22.7489
0.278175	8.49992	0.0371718	1.05982	0.278172	8.33345	0.372325	11.3822	0.564346	17.1646	0.841251	25.502	0.164955	5.93381	0.424833	12.7906	0.695814	21.049	0.725182	22.1194
0.278171	8.26453	0.0388086	1.07786	0.278172	8.13558	0.373154	11.0916	0.564652	16.7007	0.841408	24.8061	0.166432	5.7928	0.42515	12.4509	0.695759	20.4704	0.72575	21.525
0.278174	8.04201	0.0404627	1.09545	0.278177	7.9743	0.374	10.8172	0.564967	16.2619	0.841568	24.1476	0.167934	5.66149	0.425476	12.1295	0.69571	19.9228	0.726326	20.9628
0.278184	7.83136	0.0421333	1.11261	0.278183	7.84577	0.374862	10.5577	0.56529	15.8462	0.841733	23.5235	0.169461	5.53897	0.42581	11.8249	0.695666	19.4038	0.72691	20.4303
0.278202	7.63168	0.0438196	1.12936	0.278191	7.7471	0.37574	10.3118	0.565622	15.4519	0.841902	22.9311	0.17101	5.42442	0.426153	11.536	0.695627	18.9113	0.727504	19.9252
0.278227	7.44216	0.0455208	1.14569	0.278197	7.67615	0.376633	10.0786	0.565962	15.0775	0.842076	22.3682	0.172581	5.31711	0.426505	11.2615	0.695595	18.4433	0.728105	19.4455
0.27826	7.26206	0.0472365	1.16163	0.278202	7.63143	0.377541	9.85715	0.56631	14.7214	0.842254	21.8326	0.174173	5.21641	0.426866	11.0004	0.695568	17.9979	0.728715	18.9893
0.278301	7.09073	0.0489658	1.17719	0.278209	7.56808	0.378464	9.64658	0.566667	14.3823	0.842437	21.3224	0.175784	5.12176	0.427236	10.7518	0.695547	17.5737	0.729333	18.5549
0.278351	6.92755	0.0507081	1.19237	0.278218	7.50043	0.379401	9.44614	0.567033	14.0591	0.842623	20.8358	0.177415	5.03265	0.427614	10.5148	0.695532	17.1692	0.729958	18.1408
0.27841	6.77199	0.0524629	1.20718	0.278232	7.4104	0.380352	9.25513	0.567407	13.7508	0.842814	20.3712	0.179063	4.94863	0.428001	10.2886	0.695523	16.783	0.730592	17.7457
0.278478	6.62354	0.0542295	1.22165	0.278252	7.29967	0.381317	9.07292	0.567789	13.4562	0.84301	19.9272	0.180729	4.86929	0.428397	10.0725	0.69552	16.4139	0.731234	17.3682
0.278556	6.48176	0.0560077	1.23576	0.278281	7.17023	0.382295	8.89891	0.568181	13.1746	0.84321	19.5024	0.182411	4.79426	0.428801	9.86588	0.695523	16.0608	0.731883	17.0073
0.278644	6.34621	0.0577967	1.24955	0.27832	7.0243	0.383286	8.73259	0.56858	12.905	0.843414	19.0956	0.184109	4.72323	0.429214	9.66814	0.695533	15.7228	0.73254	16.6618
0.278741	6.21652	0.059596	1.26301	0.278374	6.86424	0.38429	8.57347	0.568988	12.6469	0.843623	18.7057	0.185822	4.65588	0.429637	9.47872	0.695549	15.3988	0.733205	16.3309
0.278849	6.09234	0.0614054	1.27616	0.278436	6.71159	0.385306	8.42111	0.569405	12.3993	0.843836	18.3318	0.187549	4.59196	0.430067	9.29712	0.695571	15.0881	0.733877	16.0135
0.278968	5.97335	0.0632242	1.289	0.278508	6.56587	0.386335	8.27508	0.56983	12.1618	0.844053	17.9727	0.18929	4.53121	0.430507	9.12288	0.695599	14.7898	0.734556	15.709
0.279098	5.85923	0.0650522	1.30154	0.27859	6.42664	0.387241	8.15271	0.570263	11.9338	0.844275	17.6277	0.191043	4.47342	0.430956	8.95557	0.695634	14.5033	0.735243	15.4165
0.279239	5.74973	0.0668889	1.3138	0.278682	6.29349	0.38802	8.05179	0.570705	11.7146	0.844501	17.296	0.192809	4.41838	0.431413	8.79479	0.695676	14.2277	0.735937	15.1354
0.279391	5.64458	0.0687339	1.32578	0.278783	6.16605	0.38867	7.9706	0.571155	11.5039	0.844731	16.9767	0.194587	4.36591	0.431879	8.64018	0.695724	13.9627	0.736638	14.8649
0.279555	5.54355	0.0705869	1.33749	0.278896	6.04399	0.389186	7.90781	0.571614	11.301	0.844966	16.6693	0.196376	4.31583	0.432353	8.4914	0.695778	13.7075	0.737347	14.6047
0.279731	5.44641	0.0724476	1.34893	0.279019	5.92698	0.389567	7.8624	0.572081	11.1057	0.845205	16.3731	0.198176	4.268	0.432837	8.34814	0.69584	13.4616	0.738062	14.3539
0.279919	5.35297	0.0743156	1.36011	0.279153	5.81475	0.389812	7.83367	0.572557	10.9175	0.845449	16.0875	0.199987	4.22227	0.433265	8.22757	0.695907	13.2245	0.738785	14.1123
0.28012	5.26304	0.0761906	1.37105	0.279299	5.70703	0.390165	7.79282	0.573041	10.736	0.845697	15.8119	0.201807	4.1785	0.433636	8.12778	0.695982	12.9958	0.739514	13.8792
0.280333	5.17643	0.0780724	1.38175	0.279456	5.60356	0.39055	7.74901	0.573534	10.5609	0.845949	15.5458	0.203636	4.13658	0.433946	8.04727	0.696063	12.7751	0.74025	13.6543
0.280559	5.09298	0.0799605	1.39221	0.279624	5.50411	0.391076	7.69039	0.574035	10.3918	0.846206	15.2887	0.205475	4.0964	0.434193	7.98485	0.696151	12.5619	0.740994	13.4371
0.280798	5.01254	0.0818549	1.40244	0.279805	5.40848	0.391744	7.6178	0.574544	10.2285	0.846467	15.0403	0.207322	4.05785	0.434377	7.93963	0.696245	12.3559	0.741744	13.2272
0.281051	4.93497	0.0837552	1.41245	0.279998	5.31647	0.392558	7.53225	0.575062	10.0707	0.846732	14.8	0.209177	4.02084	0.434495	7.91099	0.696346	12.1567	0.742501	13.0243
0.281316	4.86013	0.0856613	1.42225	0.280204	5.22789	0.39352	7.43489	0.575589	9.91809	0.847002	14.5675	0.211041	3.98528	0.434665	7.87023	0.696454	11.964	0.743264	12.828
0.281596	4.78789	0.0875727	1.43184	0.280422	5.14257	0.394634	7.32695	0.576123	9.77045	0.847276	14.3424	0.212911	3.95109	0.434851	7.82645	0.696569	11.7774	0.744034	12.6381
0.281889	4.71814	0.0894894	1.44122	0.280653	5.06035	0.395758	7.22287	0.576666	9.62754	0.847555	14.1243	0.214789	3.9182	0.435106	7.76777	0.69669	11.5968	0.744811	12.4542
0.282197	4.65076	0.0914111	1.45041	0.280898	4.98108	0.396891	7.12244	0.577218	9.48914	0.847838	13.913	0.216674	3.88652	0.435432	7.69496	0.696819	11.4218	0.745595	12.276
0.282519	4.58565	0.0933376	1.4594	0.281156	4.90462	0.398034	7.02549	0.577778	9.35506	0.848125	13.7081	0.218565	3.856	0.43583	7.60892	0.696954	11.2522	0.746385	12.1034
0.282855	4.52272	0.0952687	1.46821	0.281427	4.83083	0.399186	6.93183	0.578346	9.2251	0.848417	13.5094	0.220462	3.82658	0.436303	7.51072	0.697096	11.0877	0.747181	11.936
0.283207	4.46187	0.0972043	1.47683	0.281712	4.75961	0.400347	6.84131	0.578923	9.09907	0.848713	13.3166	0.222366	3.7982	0.436854	7.4015	0.697244	10.9281	0.747984	11.7736
0.283573	4.403	0.0991442	1.48528	0.282011	4.69082	0.401517	6.75378	0.579508	8.97682	0.849014	13.1294	0.224275	3.7708	0.437414	7.29582	0.6974	10.7732	0.748793	11.616
0.283954	4.34605	0.101088	1.49355	0.282324	4.62437	0.402696	6.6691	0.580102	8.85817	0.849319	12.9475	0.22619	3.74434	0.437982	7.19351	0.697562	10.6228	0.749609	11.4629
0.284351	4.29093	0.103036	1.50166	0.282652	4.56014	0.403884	6.58713	0.580703	8.74297	0.849628	12.7709	0.228109	3.71876	0.43856	7.09444	0.697731	10.4768	0.750431	11.3143
0.284763	4.23757	0.104988	1.50961	0.282994	4.49806	0.40508	6.50774	0.581314	8.63109	0.849942	12.5991	0.230034	3.69403	0.439146	6.99844	0.697908	10.3348	0.751259	11.1699
0.285191	4.18591	0.106943	1.51739	0.283352	4.43801	0.406284	6.43083	0.581932	8.52238	0.85026	12.4321	0.231964	3.6701	0.439741	6.90539	0.69809	10.1969	0.752094	11.0295
0.285635	4.13586	0.108902	1.52503	0.283724	4.37992	0.407496	6.35627	0.582478	8.43013	0.850582	12.2697	0.233898	3.64694	0.440345	6.81516	0.69828	10.0627	0.752935	10.893
0.286095	4.08739	0.110864	1.53251	0.284111	4.32372	0.408716	6.28398	0.582948	8.35327	0.850909	12.1117	0.235836	3.62451	0.440957	6.72763	0.698477	9.93217	0.753781	10.7602
0.286571	4.04041	0.112829	1.53985	0.284514	4.26931	0.409943	6.21384	0.583341	8.2909	0.851241	11.9578	0.237779	3.60278	0.441579	6.64269	0.69868	9.80516	0.754635	10.631
0.287	4.00066	0.114544	1.54612	0.284933	4.21664	0.411178	6.14576	0.583653	8.24232	0.851576	11.808	0.239725	3.58171	0.442209	6.56022	0.698891	9.68152	0.755494	10.5052
0.287376	3.96762	0.116008	1.55139	0.285367	4.16563	0.41242	6.07966	0.583884	8.20702	0.851916	11.662	0.241675	3.56127	0.442848	6.48014	0.699108	9.56113	0.756359	10.3827
0.287694	3.94087	0.11722	1.55569	0.285817	4.11623	0.413669	6.01546	0.584033	8.18461	0.852261	11.5198	0.243629	3.54144	0.443496	6.40233	0.699332	9.44386	0.75723	10.2634
0.287949	3.92007	0.118179	1.55905	0.286284	4.06836	0.414926	5.95308	0.584247	8.15263	0.85261	11.3812	0.245586	3.52219	0.444152	6.32671	0.699563	9.3296	0.758108	10.1472
0.28814	3.90498	0.118885	1.5615	0.286767	4.02197	0.416189	5.89243	0.584481	8.1182	0.852963	11.246	0.247546	3.50349	0.444818	6.2532	0.699801	9.21823	0.758991	10.0339
0.288263	3.89541	0.119336	1.56306	0.287267	3.97702	0.417459	5.83346	0.5848	8.0719	0.853321	11.1142	0.24951	3.48532	0.445492	6.18172	0.700046	9.10965	0.75988	9.9234
0.288442	3.88176	0.119986	1.56529	0.287784	3.93344	0.418735	5.7761	0.585207	8.01421	0.853683	10.9856	0.251476	3.46765	0.446175	6.11217	0.700297	9.00377	0.760775	9.81566
0.288638	3.86709	0.120692	1.5677	0.288318	3.89119	0.420018	5.72027	0.585704	7.9457	0.854049	10.8601	0.253445	3.45048	0.446867	6.0445	0.700556	8.90047	0.761676	9.71056
0.288909	3.84739	0.121653	1.57095	0.28887	3.85022	0.421307	5.66594	0.586292	7.86703	0.85442	10.7376	0.255417	3.43377	0.447567	5.97863	0.700821	8.79968	0.762583	9.60799
0.289257	3.82289	0.12287	1.57502	0.289439	3.81048	0.422602	5.61302	0.586975	7.77894	0.854795	10.618	0.257391	3.4175	0.448277	5.9145	0.701093	8.7013	0.763495	9.50788
0.289688	3.79388	0.124342	1.57988	0.290026	3.77195	0.423903	5.56148	0.587666	7.6931	0.855175	10.5012	0.259368	3.40166	0.448995	5.85204	0.701336	8.61748	0.764413	9.41013
0.290205	3.76067	0.126071	1.58549	0.290632	3.73457	0.42521	5.51126	0.588365	7.60945	0.855559	10.3871	0.261346	3.38624	0.449722	5.79119	0.701547	8.54739	0.765337	9.31467
0.290816	3.72363	0.128057	1.59182	0.291256	3.69832	0.426523	5.46231	0.589072	7.52789	0.855947	10.2756	0.263327	3.37121	0.450458	5.7319	0.701724	8.49034	0.766267	9.22142
0.291446	3.6877	0.130046	1.59803	0.291899	3.66314	0.427841	5.41459	0.589788	7.44836	0.85634	10.1666	0.26531	3.35655	0.451203	5.67411	0.701866	8.44582	0.767202	9.13031
0.292094	3.65284	0.132037	1.60413	0.292561	3.62902	0.429165	5.36805	0.590512	7.37077	0.856738	10.06	0.267295	3.34226	0.451957	5.61776	0.701972	8.4134	0.768143	9.04126
0.292762	3.61902	0.134029	1.61011	0.293242	3.59591	0.430494	5.32264	0.591245	7.29508	0.857139	9.95583	0.269281	3.32833	0.452719	5.56282	0.70204	8.39279	0.76909	8.9542
0.29345	3.58622	0.136024	1.61599	0.293943	3.5638	0.431828	5.27834	0.591985	7.2212	0.857545	9.85391	0.271269	3.31473	0.45349	5.50922	0.702138	8.36336	0.770042	8.86908
0.294157	3.55439	0.138021	1.62176	0.294665	3.53264	0.433168	5.23509	0.592734	7.14909	0.857956	9.7542	0.273258	3.30145	0.45427	5.45694	0.702246	8.33162	0.771	8.78583
0.294884	3.52351	0.14002	1.62743	0.295407	3.50241	0.434512	5.19286	0.593491	7.07867	0.858371	9.65662	0.275249	3.28849	0.455059	5.40591	0.702394	8.28887	0.771839	8.71476
0.295632	3.49356	0.14202	1.63299	0.296169	3.47309	0.435861	5.15163	0.594257	7.0099	0.85879	9.56113	0.277241	3.27582	0.455857	5.3561	0.702583	8.23548	0.772557	8.65524
0.296401	3.4645	0.144022	1.63846	0.296953	3.44465	0.437215	5.11135	0.59503	6.94273	0.859214	9.46764	0.279235	3.26345	0.456664	5.30748	0.702815	8.17191	0.773153	8.60673
0.297192	3.43632	0.146026	1.64383	0.297759	3.41706	0.438574	5.07199	0.595812	6.87709	0.859642	9.3761	0.281229	3.25136	0.457479	5.26	0.703093	8.09868	0.773626	8.56883
0.298004	3.40898	0.148031	1.64911	0.298587	3.39031	0.439938	5.03352	0.596602	6.81294	0.860075	9.28645	0.283225	3.23953	0.458304	5.21363	0.703418	8.01639	0.773975	8.54122
0.298838	3.38248	0.150038	1.6543	0.299437	3.36437	0.441305	4.99591	0.5974	6.75023	0.860512	9.19863	0.285221	3.22797	0.459137	5.16833	0.703749	7.93591	0.774199	8.52365
0.299695	3.35678	0.152046	1.65939	0.30031	3.33923	0.442678	4.95914	0.598206	6.68892	0.860953	9.11259	0.287218	3.21665	0.459979	5.12407	0.704087	7.85717	0.77452	8.49855
0.300575	3.33187	0.154056	1.6644	0.301207	3.31486	0.444054	4.92317	0.599021	6.62897	0.861399	9.02828	0.289216	3.20558	0.46083	5.08081	0.704432	7.78013	0.774871	8.47146
0.301479	3.30772	0.156067	1.66933	0.302127	3.29124	0.445435	4.88799	0.599843	6.57033	0.861849	8.94564	0.291215	3.19474	0.46169	5.03854	0.704784	7.70473	0.775348	8.43495
0.302407	3.28433	0.158079	1.67416	0.303072	3.26836	0.446819	4.85356	0.600674	6.51296	0.862245	8.87496	0.293214	3.18413	0.462558	4.99721	0.705143	7.63093	0.775954	8.38931
0.303359	3.26167	0.160092	1.67892	0.304042	3.24621	0.448208	4.81987	0.601513	6.45683	0.862585	8.81566	0.295213	3.17373	0.463436	4.95679	0.705508	7.55867	0.77669	8.33489
0.304337	3.23973	0.162107	1.6836	0.305038	3.22476	0.449601	4.78688	0.60236	6.4019	0.862868	8.76727	0.297213	3.16354	0.464322	4.91727	0.70588	7.48791	0.777556	8.27211
0.30534	3.21849	0.164123	1.6882	0.306059	3.204	0.450997	4.75459	0.603215	6.34812	0.863093	8.72942	0.299214	3.15356	0.465218	4.87862	0.706259	7.41861	0.778555	8.20145
0.30637	3.19793	0.16614	1.69272	0.307108	3.18392	0.452397	4.72296	0.604078	6.29548	0.86326	8.70182	0.301214	3.14377	0.466122	4.84081	0.706645	7.35072	0.779559	8.13222
0.307426	3.17805	0.168157	1.69717	0.308183	3.1645	0.453801	4.69198	0.604949	6.24393	0.863366	8.68425	0.303215	3.13418	0.467035	4.80381	0.707037	7.28421	0.780569	8.06437
0.308509	3.15883	0.170176	1.70154	0.309286	3.14573	0.455209	4.66162	0.605828	6.19345	0.86352	8.65913	0.305215	3.12476	0.467957	4.7676	0.707436	7.21902	0.781584	7.99787
0.309621	3.14025	0.172196	1.70585	0.310417	3.1276	0.456619	4.63188	0.606716	6.144	0.863687	8.63201	0.307216	3.11553	0.468888	4.73217	0.707841	7.15514	0.782604	7.93268
0.310761	3.1223	0.174217	1.71008	0.311577	3.11009	0.458034	4.60272	0.607611	6.09555	0.863916	8.59542	0.309217	3.10647	0.469828	4.69748	0.708254	7.09251	0.783629	7.86875
0.311929	3.10498	0.176238	1.71425	0.312767	3.0932	0.459451	4.57414	0.608514	6.04809	0.864207	8.54963	0.311217	3.09757	0.470777	4.66353	0.708673	7.0311	0.784659	7.80607
0.313128	3.08827	0.17826	1.71834	0.313986	3.0769	0.460872	4.54612	0.609426	6.00157	0.864561	8.49497	0.313218	3.08884	0.471734	4.63028	0.709099	6.97089	0.785694	7.74458
0.314356	3.07215	0.180283	1.72238	0.315235	3.0612	0.462296	4.51864	0.610345	5.95598	0.86498	8.43181	0.315218	3.08026	0.472701	4.59772	0.709531	6.91183	0.786734	7.68427
0.315615	3.05662	0.182307	1.72634	0.316516	3.04608	0.463723	4.49168	0.611272	5.91128	0.865464	8.3606	0.317218	3.07183	0.473676	4.56583	0.70997	6.8539	0.78778	7.62509
0.316904	3.04167	0.184331	1.73025	0.317828	3.03152	0.465153	4.46524	0.612208	5.86746	0.865952	8.2907	0.319217	3.06355	0.474661	4.5346	0.710415	6.79707	0.78883	7.56701
0.318226	3.02728	0.186356	1.73409	0.319171	3.01751	0.466586	4.43929	0.613151	5.82449	0.866446	8.22208	0.321216	3.05542	0.475654	4.504	0.710868	6.7413	0.789885	7.51001
0.319578	3.01344	0.188382	1.73787	0.320546	3.00405	0.468022	4.41382	0.614102	5.78235	0.866943	8.1547	0.323214	3.04742	0.476657	4.47402	0.711326	6.68657	0.790945	7.45406
0.320963	3.00014	0.190408	1.7416	0.321954	2.99113	0.469461	4.38883	0.615061	5.74102	0.867445	8.08854	0.325212	3.03955	0.477668	4.44464	0.711792	6.63286	0.79201	7.39913
0.32238	2.98737	0.192435	1.74526	0.323393	2.97872	0.470902	4.36429	0.616028	5.70047	0.867951	8.02356	0.327209	3.03182	0.478688	4.41585	0.712264	6.58013	0.79308	7.34519
0.32383	2.97511	0.194462	1.74887	0.324866	2.96682	0.472346	4.3402	0.617003	5.66069	0.868462	7.95972	0.329205	3.02421	0.479717	4.38763	0.712742	6.52836	0.794154	7.29222
0.325312	2.96336	0.19649	1.75242	0.326371	2.95542	0.473793	4.31654	0.617986	5.62165	0.868977	7.89701	0.331201	3.01672	0.480755	4.35998	0.713227	6.47752	0.795234	7.24019
0.326826	2.95211	0.198518	1.75592	0.327908	2.9445	0.475243	4.2933	0.618977	5.58334	0.869497	7.83539	0.333195	3.00935	0.481802	4.33286	0.713719	6.4276	0.796318	7.18908
0.328374	2.94133	0.200547	1.75937	0.329478	2.93405	0.476694	4.27047	0.619975	5.54574	0.870021	7.77484	0.335189	3.00209	0.482858	4.30628	0.714217	6.37856	0.797407	7.13886
0.329953	2.93101	0.202576	1.76276	0.33108	2.92405	0.478149	4.24804	0.620981	5.50883	0.87055	7.71532	0.337182	2.99495	0.483923	4.28021	0.714722	6.3304	0.798501	7.08952
0.331565	2.92116	0.204606	1.7661	0.332714	2.9145	0.479605	4.22601	0.621995	5.47259	0.871083	7.65682	0.339174	2.98792	0.484997	4.25465	0.715233	6.28307	0.799599	7.04103
0.333208	2.91173	0.206635	1.76939	0.33438	2.90538	0.481064	4.20435	0.623017	5.43701	0.87162	7.59931	0.341165	2.98099	0.48608	4.22958	0.71575	6.23658	0.800702	6.99336
0.334883	2.90274	0.208665	1.77263	0.336077	2.89668	0.482526	4.18306	0.624047	5.40208	0.872162	7.54276	0.343154	2.97416	0.487172	4.20499	0.716275	6.19088	0.801809	6.94651
0.336589	2.89415	0.210696	1.77583	0.337804	2.88837	0.483989	4.16213	0.625084	5.36776	0.872708	7.48715	0.345143	2.96743	0.488273	4.18087	0.716805	6.14598	0.802921	6.90044
0.338326	2.88596	0.212726	1.77897	0.339561	2.88045	0.485455	4.14155	0.626129	5.33406	0.873258	7.43247	0.34713	2.9608	0.489382	4.1572	0.717342	6.10184	0.804038	6.85515
0.340092	2.87816	0.214757	1.78207	0.341348	2.8729	0.486923	4.12131	0.627182	5.30095	0.873813	7.37868	0.349116	2.95426	0.490501	4.13399	0.717886	6.05845	0.805159	6.81061
0.341887	2.87072	0.216788	1.78512	0.343163	2.86571	0.488393	4.10141	0.628242	5.26843	0.874373	7.32577	0.351101	2.94782	0.491629	4.11121	0.718435	6.01579	0.806285	6.7668
0.343711	2.86363	0.21882	1.78813	0.345007	2.85886	0.489865	4.08184	0.62931	5.23647	0.874937	7.27372	0.353084	2.94146	0.492765	4.08886	0.718992	5.97384	0.807415	6.72371
0.345562	2.85687	0.220851	1.79109	0.346877	2.85233	0.491339	4.06258	0.630386	5.20507	0.875505	7.2225	0.355066	2.93519	0.493911	4.06692	0.719554	5.93259	0.808549	6.68132
0.34744	2.85044	0.222883	1.79401	0.348773	2.84612	0.492815	4.04363	0.631469	5.17421	0.876078	7.1721	0.357046	2.929	0.495066	4.04539	0.720123	5.89202	0.809688	6.63961
0.349344	2.84432	0.224914	1.79689	0.350694	2.84021	0.494292	4.02499	0.63256	5.14388	0.876655	7.1225	0.359025	2.9229	0.496229	4.02426	0.720699	5.85212	0.810832	6.59858
0.351273	2.83849	0.226946	1.79973	0.35264	2.83458	0.495772	4.00664	0.633658	5.11406	0.877237	7.07368	0.361003	2.91687	0.497402	4.00352	0.72128	5.81286	0.811979	6.55819
0.353226	2.83295	0.228978	1.80253	0.354609	2.82922	0.497253	3.98858	0.634764	5.08475	0.877823	7.02562	0.362978	2.91092	0.498583	3.98316	0.721868	5.77424	0.813131	6.51844
0.355202	2.82767	0.23101	1.80528	0.356601	2.82411	0.498737	3.9708	0.635877	5.05594	0.878413	6.97831	0.364953	2.90504	0.499773	3.96317	0.722463	5.73625	0.814287	6.47932
0.3572	2.82264	0.233042	1.808	0.358614	2.81926	0.500222	3.9533	0.636998	5.02761	0.879008	6.93173	0.366925	2.89924	0.500973	3.94355	0.723063	5.69886	0.815448	6.4408
0.35922	2.81785	0.235074	1.81067	0.360648	2.81463	0.501708	3.93606	0.638127	4.99975	0.879608	6.88587	0.368896	2.89351	0.502181	3.92428	0.72367	5.66207	0.816612	6.40288
0.36126	2.81329	0.237106	1.81331	0.362702	2.81022	0.503197	3.91909	0.639262	4.97235	0.880211	6.8407	0.370865	2.88785	0.503399	3.90536	0.724284	5.62585	0.817781	6.36554
0.363319	2.80894	0.239139	1.81591	0.364774	2.80602	0.504687	3.90238	0.640406	4.9454	0.88082	6.79622	0.372832	2.88226	0.504625	3.88678	0.724903	5.59021	0.818954	6.32878
0.365397	2.8048	0.241171	1.81848	0.366864	2.80202	0.506178	3.88592	0.641556	4.91889	0.881432	6.7524	0.374797	2.87673	0.50586	3.86853	0.725529	5.55512	0.820131	6.29257
0.367492	2.80086	0.243203	1.82101	0.368971	2.7982	0.507671	3.8697	0.642714	4.89282	0.882049	6.70924	0.37676	2.87127	0.507104	3.85061	0.726161	5.52058	0.821313	6.2569
0.369604	2.79709	0.245235	1.8235	0.371095	2.79456	0.509166	3.85373	0.643879	4.86717	0.882671	6.66672	0.378722	2.86587	0.508357	3.833	0.726799	5.48657	0.822498	6.22177
0.371732	2.7935	0.247266	1.82596	0.373234	2.79108	0.510662	3.83799	0.645052	4.84193	0.883297	6.62483	0.380681	2.86053	0.509619	3.81571	0.727443	5.45308	0.823687	6.18716
0.373876	2.79008	0.249298	1.82839	0.375388	2.78777	0.512159	3.82248	0.646231	4.8171	0.883927	6.58356	0.382639	2.85525	0.51089	3.79873	0.728094	5.4201	0.824881	6.15307
0.376034	2.7868	0.25133	1.83078	0.377555	2.7846	0.513659	3.80719	0.647418	4.79266	0.884562	6.54288	0.384594	2.85002	0.51217	3.78205	0.728751	5.38762	0.826078	6.11947
0.378205	2.78368	0.253362	1.83313	0.379736	2.78157	0.515159	3.79212	0.648612	4.76861	0.885201	6.50279	0.386547	2.84486	0.513458	3.76565	0.729413	5.35563	0.827279	6.08636
0.38039	2.78069	0.255393	1.83546	0.381929	2.77867	0.516661	3.77727	0.649814	4.74494	0.885845	6.46329	0.388499	2.83975	0.514756	3.74955	0.730082	5.32412	0.828484	6.05373
0.382587	2.77783	0.257424	1.83775	0.384134	2.7759	0.518164	3.76263	0.651022	4.72164	0.886493	6.42434	0.390448	2.83469	0.516062	3.73373	0.730758	5.29308	0.829694	6.02157
0.384795	2.77509	0.259455	1.84001	0.386351	2.77324	0.519669	3.7482	0.652238	4.69871	0.887145	6.38595	0.392395	2.82968	0.517378	3.71818	0.731439	5.2625	0.830907	5.98987
0.387015	2.77247	0.261486	1.84224	0.388578	2.7707	0.521174	3.73397	0.65346	4.67613	0.887802	6.34811	0.394339	2.82473	0.518702	3.7029	0.732126	5.23238	0.832123	5.95862
0.389245	2.76996	0.263517	1.84444	0.390815	2.76826	0.522682	3.71994	0.65469	4.6539	0.888464	6.3108	0.396282	2.81982	0.520035	3.68789	0.73282	5.20269	0.833344	5.92781
0.391485	2.76755	0.265548	1.84661	0.393062	2.76592	0.52419	3.7061	0.655927	4.63201	0.88913	6.274	0.398222	2.81497	0.521376	3.67313	0.733519	5.17343	0.834568	5.89744
0.393735	2.76524	0.267578	1.84876	0.395318	2.76368	0.5257	3.69245	0.65717	4.61046	0.8898	6.23772	0.40016	2.81016	0.522727	3.65863	0.734225	5.1446	0.835797	5.86749
0.395994	2.76302	0.269608	1.85087	0.397583	2.76152	0.527211	3.67899	0.658421	4.58924	0.890474	6.20195	0.402096	2.8054	0.524086	3.64438	0.734936	5.11619	0.837028	5.83795
0.398261	2.76089	0.271638	1.85295	0.399855	2.75945	0.528723	3.66571	0.659679	4.56834	0.891154	6.16666	0.404029	2.80068	0.525454	3.63038	0.735654	5.08818	0.838264	5.80882
0.400536	2.75884	0.273668	1.85501	0.402135	2.75746	0.530236	3.6526	0.660943	4.54775	0.891837	6.13186	0.40596	2.79601	0.526831	3.61661	0.736377	5.06058	0.839503	5.78009
0.402818	2.75687	0.275697	1.85703	0.404423	2.75554	0.531751	3.63968	0.662214	4.52747	0.892525	6.09753	0.407889	2.79138	0.528217	3.60308	0.737107	5.03337	0.840746	5.75175
0.405108	2.75498	0.277726	1.85903	0.406718	2.75369	0.533267	3.62692	0.663492	4.5075	0.893218	6.06366	0.409816	2.7868	0.529611	3.58977	0.737843	5.00654	0.841992	5.7238
0.407404	2.75315	0.279755	1.86101	0.409019	2.75191	0.534784	3.61434	0.664777	4.48782	0.893914	6.03025	0.411739	2.78225	0.531014	3.57669	0.738584	4.98008	0.843242	5.69622
0.409707	2.75139	0.281783	1.86296	0.411326	2.75019	0.536302	3.60192	0.666068	4.46843	0.894616	5.99729	0.413661	2.77775	0.532426	3.56384	0.739332	4.954	0.844496	5.669
0.412016	2.74969	0.283812	1.86488	0.413639	2.74854	0.537821	3.58966	0.667367	4.44933	0.895322	5.96477	0.41558	2.77329	0.533846	3.5512	0.740085	4.92828	0.845753	5.64215
0.414331	2.74806	0.285839	1.86677	0.415958	2.74694	0.539342	3.57756	0.668671	4.43051	0.896032	5.93267	0.417497	2.76886	0.535275	3.53877	0.740845	4.90292	0.847014	5.61566
0.416651	2.74647	0.287867	1.86865	0.418282	2.74539	0.540864	3.56562	0.669983	4.41196	0.896746	5.901	0.419411	2.76447	0.536712	3.52655	0.74161	4.87791	0.848278	5.58951
0.418977	2.74494	0.289894	1.87049	0.420611	2.7439	0.542386	3.55383	0.671301	4.39369	0.897465	5.86975	0.421323	2.76012	0.538158	3.51454	0.742381	4.85324	0.849545	5.56371
0.421307	2.74346	0.291921	1.87231	0.422944	2.74246	0.54391	3.54219	0.672625	4.37567	0.898189	5.8389	0.423232	2.75581	0.539613	3.50272	0.743158	4.82891	0.850816	5.53824
0.423642	2.74203	0.293947	1.87411	0.425282	2.74106	0.545435	3.5307	0.673956	4.35792	0.898917	5.80845	0.425139	2.75154	0.541076	3.49111	0.743941	4.80491	0.85209	5.5131
0.425982	2.74065	0.295974	1.87589	0.427625	2.7397	0.546962	3.51935	0.675294	4.34042	0.899649	5.77839	0.427043	2.74729	0.542547	3.47968	0.74473	4.78123	0.853368	5.48828
0.428325	2.7393	0.297999	1.87764	0.429971	2.73839	0.548489	3.50815	0.676638	4.32317	0.900386	5.74872	0.428945	2.74309	0.544027	3.46845	0.745524	4.75787	0.854649	5.46378
0.430672	2.738	0.300025	1.87937	0.432321	2.73711	0.550017	3.49709	0.677988	4.30616	0.901127	5.71943	0.430845	2.73892	0.545516	3.4574	0.746325	4.73483	0.855933	5.43959
0.433024	2.73674	0.30205	1.88107	0.434674	2.73588	0.551547	3.48616	0.679345	4.28939	0.901872	5.69052	0.432741	2.73478	0.547012	3.44653	0.747131	4.71209	0.85722	5.4157
0.435378	2.73551	0.304074	1.88276	0.437031	2.73467	0.553078	3.47537	0.680708	4.27286	0.902622	5.66196	0.434636	2.73067	0.548517	3.43585	0.747943	4.68965	0.858511	5.39212
0.437736	2.73432	0.306098	1.88442	0.439392	2.73351	0.55461	3.46471	0.682077	4.25656	0.903377	5.63377	0.436528	2.7266	0.55003	3.42534	0.748761	4.66752	0.859805	5.36883
0.440097	2.73317	0.308122	1.88606	0.441755	2.73237	0.556143	3.45418	0.683452	4.24049	0.904136	5.60593	0.438417	2.72255	0.551552	3.415	0.749585	4.64567	0.861102	5.34583
0.442461	2.73204	0.310145	1.88768	0.444121	2.73127	0.557677	3.44378	0.684833	4.22464	0.904899	5.57844	0.440304	2.71854	0.553082	3.40483	0.750414	4.62411	0.862402	5.32311
0.444828	2.73094	0.312168	1.88928	0.44649	2.73019	0.559212	3.43351	0.686221	4.20901	0.905667	5.55129	0.442188	2.71456	0.554619	3.39482	0.751249	4.60283	0.863705	5.30067
0.447198	2.72987	0.31419	1.89086	0.448861	2.72914	0.560748	3.42336	0.687615	4.19359	0.906439	5.52447	0.44407	2.71061	0.556165	3.38498	0.75209	4.58182	0.865012	5.2785
0.44957	2.72883	0.316212	1.89241	0.451235	2.72812	0.562286	3.41333	0.689014	4.17839	0.907216	5.49798	0.445949	2.70669	0.557719	3.3753	0.752936	4.56109	0.866321	5.25661
0.451944	2.72782	0.318234	1.89395	0.45361	2.72712	0.563825	3.40343	0.69042	4.16339	0.907997	5.47182	0.447826	2.7028	0.559281	3.36577	0.753789	4.54063	0.867633	5.23498
0.454321	2.72683	0.320255	1.89547	0.455989	2.72615	0.565365	3.39363	0.691832	4.14859	0.908782	5.44598	0.449701	2.69893	0.560851	3.3564	0.754646	4.52043	0.868949	5.21361
0.456699	2.72586	0.322275	1.89697	0.458369	2.7252	0.566906	3.38396	0.693249	4.13399	0.909572	5.42045	0.451573	2.6951	0.562429	3.34718	0.75551	4.50048	0.870267	5.19249
0.45908	2.72492	0.324295	1.89844	0.46075	2.72427	0.568448	3.3744	0.694672	4.11959	0.910367	5.39523	0.453443	2.69129	0.564015	3.33811	0.756379	4.48079	0.871589	5.17163
0.461462	2.724	0.326315	1.89991	0.463134	2.72336	0.569992	3.36495	0.696102	4.10539	0.911165	5.37031	0.45531	2.68751	0.565608	3.32918	0.757254	4.46135	0.872913	5.15101
0.463846	2.72309	0.328334	1.90135	0.465519	2.72247	0.571537	3.35562	0.697536	4.09137	0.911969	5.34569	0.457175	2.68376	0.56721	3.3204	0.758135	4.44215	0.87424	5.13063
0.466232	2.72221	0.330353	1.90277	0.467906	2.7216	0.573083	3.34639	0.698977	4.07753	0.912776	5.32136	0.459037	2.68004	0.568819	3.31176	0.759021	4.4232	0.87557	5.1105
0.468619	2.72134	0.332371	1.90417	0.470294	2.72075	0.57463	3.33727	0.700423	4.06388	0.913589	5.29732	0.460897	2.67634	0.570435	3.30325	0.759913	4.40448	0.876903	5.09059
0.471008	2.72049	0.334388	1.90556	0.472683	2.71991	0.576179	3.32825	0.701875	4.05041	0.914405	5.27357	0.462755	2.67266	0.57206	3.29488	0.76081	4.386	0.878239	5.07092
0.473398	2.71966	0.336405	1.90693	0.475074	2.71909	0.577729	3.31934	0.703333	4.03712	0.915226	5.25009	0.46461	2.66902	0.573691	3.28664	0.761713	4.36774	0.879578	5.05147
0.475789	2.71884	0.338422	1.90828	0.477466	2.71828	0.57928	3.31053	0.704796	4.02399	0.916051	5.22689	0.466463	2.6654	0.575331	3.27853	0.762622	4.34972	0.880919	5.03225
0.478181	2.71804	0.340437	1.90962	0.479859	2.71749	0.580833	3.30183	0.706264	4.01104	0.916881	5.20396	0.468314	2.6618	0.576977	3.27055	0.763536	4.33191	0.882263	5.01325
0.480574	2.71726	0.342453	1.91094	0.482252	2.71671	0.582387	3.29322	0.707738	3.99826	0.917715	5.1813	0.470163	2.65823	0.578631	3.2627	0.764455	4.31432	0.88361	4.99446
0.482968	2.71648	0.344468	1.91224	0.484647	2.71595	0.583942	3.28471	0.709217	3.98563	0.918554	5.15889	0.472009	2.65469	0.580293	3.25496	0.765381	4.29695	0.884959	4.97588
0.485362	2.71572	0.346482	1.91352	0.487042	2.71519	0.585499	3.27629	0.710702	3.97317	0.919397	5.13675	0.473853	2.65117	0.581961	3.24735	0.766311	4.27979	0.886311	4.95751
0.487758	2.71497	0.348496	1.91479	0.489438	2.71445	0.587057	3.26798	0.712191	3.96087	0.920245	5.11486	0.475695	2.64767	0.583637	3.23986	0.767247	4.26284	0.887666	4.93935
0.490154	2.71423	0.350509	1.91604	0.491835	2.71372	0.588617	3.25975	0.713687	3.94873	0.921097	5.09322	0.477535	2.6442	0.585319	3.23248	0.768189	4.24609	0.889023	4.92139
0.492551	2.7135	0.352521	1.91728	0.494232	2.713	0.590178	3.25162	0.715187	3.93673	0.921953	5.07183	0.479372	2.64075	0.587009	3.22522	0.769136	4.22954	0.890383	4.90362
0.494948	2.71279	0.354533	1.9185	0.49663	2.71229	0.591741	3.24358	0.716692	3.92489	0.922814	5.05068	0.481208	2.63733	0.588706	3.21807	0.770089	4.2132	0.891745	4.88606
0.497346	2.71208	0.356545	1.91971	0.499028	2.71159	0.593305	3.23563	0.718203	3.9132	0.923679	5.02976	0.483042	2.63393	0.590409	3.21102	0.771047	4.19704	0.89311	4.86868
0.499744	2.71138	0.358556	1.9209	0.501426	2.7109	0.594871	3.22777	0.719718	3.90165	0.924549	5.00909	0.484873	2.63055	0.59212	3.20409	0.772011	4.18109	0.894478	4.85149
0.502142	2.71069	0.360566	1.92207	0.503824	2.71021	0.596438	3.21999	0.721239	3.89024	0.925423	4.98864	0.486703	2.6272	0.593837	3.19726	0.77298	4.16532	0.895848	4.83449
0.504541	2.71001	0.362576	1.92324	0.506223	2.70953	0.598007	3.21231	0.722764	3.87898	0.926302	4.96842	0.48853	2.62387	0.59556	3.19054	0.773955	4.14973	0.89722	4.81768
0.506939	2.70933	0.364585	1.92438	0.508622	2.70886	0.599578	3.20471	0.724294	3.86785	0.927185	4.94843	0.490356	2.62056	0.597291	3.18392	0.774935	4.13434	0.898595	4.80104
0.509338	2.70867	0.366593	1.92551	0.51102	2.7082	0.60115	3.19719	0.72583	3.85686	0.928072	4.92866	0.49218	2.61727	0.599027	3.17739	0.77592	4.11912	0.899972	4.78458
0.511737	2.708	0.368601	1.92663	0.513419	2.70754	0.602725	3.18976	0.727369	3.846	0.928964	4.9091	0.494002	2.61401	0.600771	3.17097	0.776911	4.10408	0.901351	4.76829
0.514135	2.70735	0.370608	1.92774	0.515817	2.70689	0.6043	3.1824	0.728914	3.83527	0.92986	4.88977	0.495822	2.61077	0.60252	3.16464	0.777907	4.08921	0.902733	4.75218
0.516534	2.7067	0.372615	1.92883	0.518216	2.70625	0.605878	3.17513	0.730464	3.82467	0.930761	4.87064	0.497641	2.60755	0.604276	3.15841	0.778909	4.07452	0.904117	4.73624
0.518932	2.70605	0.374621	1.9299	0.520614	2.70561	0.607458	3.16794	0.732017	3.8142	0.931666	4.85172	0.499457	2.60436	0.606038	3.15227	0.779916	4.06	0.905503	4.72046
0.52133	2.70541	0.376626	1.93096	0.523012	2.70497	0.60904	3.16083	0.733576	3.80386	0.932576	4.83301	0.501273	2.60119	0.607806	3.14622	0.780928	4.04565	0.906892	4.70485
0.523728	2.70478	0.378631	1.93201	0.525409	2.70434	0.610623	3.1538	0.735139	3.79364	0.93349	4.8145	0.503086	2.59804	0.609581	3.14026	0.781946	4.03147	0.908283	4.6894
0.526125	2.70415	0.380635	1.93305	0.527806	2.70371	0.612209	3.14685	0.736707	3.78354	0.934408	4.79619	0.504898	2.59491	0.611361	3.13438	0.782969	4.01744	0.909676	4.67411
0.528522	2.70352	0.382639	1.93407	0.530202	2.70308	0.613796	3.13997	0.738279	3.77355	0.935331	4.77808	0.506708	2.5918	0.613147	3.1286	0.783997	4.00358	0.911071	4.65897
0.530918	2.7029	0.384641	1.93508	0.532598	2.70246	0.615386	3.13317	0.739855	3.76369	0.936259	4.76016	0.508517	2.58872	0.614939	3.12289	0.785031	3.98988	0.912469	4.64399
0.533313	2.70227	0.386644	1.93608	0.534993	2.70184	0.616977	3.12644	0.741436	3.75394	0.93719	4.74243	0.510324	2.58565	0.616737	3.11727	0.78607	3.97633	0.913868	4.62916
0.535708	2.70165	0.388645	1.93707	0.537387	2.70122	0.618571	3.11979	0.743021	3.7443	0.938127	4.72489	0.51213	2.58261	0.61854	3.11173	0.787115	3.96293	0.91527	4.61449
0.538102	2.70104	0.390646	1.93804	0.539781	2.7006	0.620168	3.11321	0.74461	3.73477	0.939067	4.70754	0.513935	2.57959	0.620349	3.10627	0.788164	3.94969	0.916673	4.59995
0.540495	2.70042	0.392646	1.939	0.542173	2.69999	0.621766	3.10671	0.746204	3.72536	0.940012	4.69037	0.515738	2.57659	0.622163	3.10089	0.789219	3.9366	0.918079	4.58557
0.542888	2.69981	0.394646	1.93995	0.544565	2.69938	0.623367	3.10027	0.747801	3.71605	0.940962	4.67338	0.51754	2.57362	0.623983	3.09559	0.79028	3.92365	0.919487	4.57133
0.545279	2.69919	0.396645	1.94089	0.546956	2.69876	0.62497	3.09391	0.749403	3.70684	0.941916	4.65657	0.51934	2.57066	0.625808	3.09036	0.791345	3.91085	0.920897	4.55723
0.54767	2.69858	0.398643	1.94181	0.549345	2.69815	0.626576	3.08762	0.751009	3.69775	0.942874	4.63994	0.52114	2.56772	0.627638	3.0852	0.792416	3.8982	0.922308	4.54327
0.550059	2.69797	0.400641	1.94273	0.551734	2.69754	0.628184	3.08139	0.752619	3.68875	0.943837	4.62348	0.522938	2.56481	0.629474	3.08012	0.793492	3.88568	0.923722	4.52944
0.552447	2.69735	0.402638	1.94363	0.554121	2.69692	0.629794	3.07524	0.754232	3.67985	0.944804	4.60719	0.524735	2.56192	0.631314	3.0751	0.794574	3.87331	0.925138	4.51575
0.554834	2.69674	0.404634	1.94452	0.556507	2.69631	0.631408	3.06916	0.75585	3.67106	0.945776	4.59107	0.526531	2.55905	0.63316	3.07016	0.795661	3.86107	0.926555	4.5022
0.557219	2.69612	0.40663	1.9454	0.558891	2.69569	0.633024	3.06314	0.757471	3.66236	0.946752	4.57512	0.528326	2.5562	0.63501	3.06528	0.796753	3.84897	0.927975	4.48877
0.559603	2.69551	0.408624	1.94627	0.561274	2.69508	0.634643	3.05719	0.759096	3.65376	0.947733	4.55933	0.530121	2.55337	0.636865	3.06048	0.79785	3.837	0.929396	4.47548
0.561986	2.69489	0.410619	1.94713	0.563656	2.69446	0.636264	3.05131	0.760725	3.64525	0.948718	4.5437	0.531914	2.55056	0.638725	3.05573	0.798952	3.82516	0.930819	4.46231
0.564367	2.69427	0.412612	1.94797	0.566036	2.69384	0.637889	3.04549	0.762358	3.63684	0.949707	4.52823	0.533706	2.54777	0.64059	3.05105	0.80006	3.81345	0.932244	4.44927
0.566747	2.69365	0.414605	1.94881	0.568414	2.69321	0.639516	3.03974	0.763994	3.62852	0.950701	4.51292	0.535497	2.545	0.642459	3.04644	0.801173	3.80187	0.93367	4.43635
0.569124	2.69303	0.416597	1.94964	0.570791	2.69259	0.641147	3.03405	0.765634	3.62029	0.951699	4.49777	0.537288	2.54226	0.644333	3.04188	0.802291	3.79042	0.935099	4.42356
0.5715	2.6924	0.418589	1.95045	0.573166	2.69196	0.642781	3.02843	0.767278	3.61214	0.952702	4.48277	0.539078	2.53953	0.646211	3.03739	0.803415	3.77909	0.936529	4.41088
0.573874	2.69177	0.42058	1.95126	0.575538	2.69132	0.644418	3.02287	0.768924	3.60409	0.953709	4.46792	0.540867	2.53682	0.648093	3.03295	0.804543	3.76789	0.937961	4.39832
0.576247	2.69113	0.42257	1.95205	0.577909	2.69069	0.646058	3.01738	0.770575	3.59612	0.954721	4.45323	0.542656	2.53414	0.64998	3.02858	0.805677	3.75681	0.939395	4.38588
0.578617	2.6905	0.424559	1.95284	0.580278	2.69005	0.647701	3.01195	0.772229	3.58824	0.955737	4.43868	0.544443	2.53147	0.65187	3.02426	0.806816	3.74584	0.94083	4.37356
0.580985	2.68985	0.426548	1.95361	0.582644	2.6894	0.649348	3.00658	0.773886	3.58044	0.956758	4.42427	0.546231	2.52883	0.653765	3.02	0.80796	3.735	0.942267	4.36135
0.58335	2.68921	0.428536	1.95438	0.585008	2.68875	0.650999	3.00128	0.775546	3.57272	0.957783	4.41001	0.548017	2.5262	0.655664	3.01579	0.80911	3.72427	0.943705	4.34925
0.585714	2.68856	0.430523	1.95513	0.58737	2.68809	0.652653	2.99603	0.77721	3.56508	0.958812	4.39589	0.549804	2.5236	0.657567	3.01163	0.810265	3.71366	0.945145	4.33727
0.588075	2.6879	0.43251	1.95588	0.589729	2.68743	0.654311	2.99085	0.778877	3.55752	0.959846	4.38192	0.551589	2.52101	0.659473	3.00753	0.811424	3.70317	0.946587	4.32539
0.590434	2.68723	0.434496	1.95662	0.592086	2.68677	0.655972	2.98573	0.780547	3.55004	0.960884	4.36808	0.553375	2.51845	0.661384	3.00348	0.81259	3.69278	0.94803	4.31362
0.592789	2.68656	0.436481	1.95734	0.59444	2.68609	0.657638	2.98067	0.78222	3.54264	0.961927	4.35437	0.55516	2.51591	0.663298	2.99948	0.81376	3.68251	0.949475	4.30196
0.595143	2.68589	0.438465	1.95806	0.596791	2.68541	0.659308	2.97568	0.783896	3.53531	0.962974	4.34081	0.556944	2.51338	0.665215	2.99553	0.814935	3.67234	0.950921	4.2904
0.597493	2.6852	0.440449	1.95877	0.59914	2.68472	0.660981	2.97074	0.785575	3.52806	0.964026	4.32737	0.558729	2.51088	0.667136	2.99163	0.816116	3.66229	0.952369	4.27894
0.59984	2.68451	0.442432	1.95947	0.601485	2.68403	0.662659	2.96586	0.787257	3.52089	0.965082	4.31407	0.560513	2.50839	0.669061	2.98778	0.817302	3.65234	0.953818	4.26759
0.602185	2.68382	0.444415	1.96016	0.603827	2.68332	0.664342	2.96104	0.788943	3.51378	0.966143	4.3009	0.562297	2.50593	0.670988	2.98397	0.818493	3.6425	0.955269	4.25634
0.604526	2.68311	0.446396	1.96085	0.606166	2.68261	0.666028	2.95628	0.790631	3.50675	0.967208	4.28786	0.564081	2.50348	0.672919	2.98021	0.819689	3.63276	0.956721	4.24518
0.606864	2.68239	0.448377	1.96152	0.608502	2.68189	0.667719	2.95158	0.792322	3.49978	0.968277	4.27494	0.565864	2.50106	0.674854	2.9765	0.82089	3.62312	0.958174	4.23413
0.609199	2.68167	0.450357	1.96218	0.610834	2.68116	0.669415	2.94694	0.794015	3.49289	0.969351	4.26215	0.567648	2.49865	0.676791	2.97283	0.822097	3.61359	0.959629	4.22317
0.61153	2.68094	0.452337	1.96284	0.613163	2.68042	0.671116	2.94236	0.795712	3.48607	0.97043	4.24948	0.569431	2.49626	0.678731	2.9692	0.823309	3.60415	0.961085	4.21231
0.613858	2.68019	0.454316	1.96349	0.615488	2.67967	0.672822	2.93784	0.797411	3.47931	0.971512	4.23694	0.571215	2.49389	0.680674	2.96561	0.824526	3.59482	0.962543	4.20154
0.616182	2.67944	0.456294	1.96413	0.617809	2.67891	0.674532	2.93337	0.799113	3.47262	0.9726	4.22452	0.572998	2.49155	0.682621	2.96207	0.825748	3.58558	0.964002	4.19086
0.618502	2.67868	0.458271	1.96476	0.620126	2.67813	0.676248	2.92897	0.800817	3.46599	0.973691	4.21221	0.574782	2.48922	0.68457	2.95856	0.826975	3.57644	0.965462	4.18028
0.620818	2.6779	0.460248	1.96539	0.622439	2.67735	0.677969	2.92462	0.802524	3.45943	0.974788	4.20003	0.576565	2.48691	0.686521	2.9551	0.828207	3.5674	0.966923	4.16978
0.62313	2.67711	0.462224	1.966	0.624748	2.67656	0.679695	2.92033	0.804233	3.45293	0.975888	4.18796	0.578349	2.48462	0.688475	2.95167	0.829445	3.55845	0.968386	4.15938
0.625437	2.67632	0.464199	1.96661	0.627053	2.67575	0.681427	2.9161	0.805945	3.44649	0.976993	4.176	0.580133	2.48234	0.690432	2.94828	0.830688	3.54959	0.96985	4.14906
0.627741	2.67551	0.466174	1.96721	0.629353	2.67493	0.683165	2.91193	0.80766	3.44012	0.978103	4.16416	0.581917	2.48009	0.692392	2.94493	0.831936	3.54083	0.971315	4.13884
0.630039	2.67468	0.468147	1.9678	0.631649	2.6741	0.684909	2.90781	0.809377	3.4338	0.979217	4.15243	0.583702	2.47786	0.694353	2.94162	0.833189	3.53215	0.972781	4.12869
0.632333	2.67385	0.470121	1.96839	0.633939	2.67325	0.686658	2.90375	0.811096	3.42755	0.980336	4.14082	0.585486	2.47564	0.696317	2.93834	0.834447	3.52357	0.974249	4.11863
0.634623	2.67299	0.472093	1.96897	0.636225	2.67239	0.688414	2.89975	0.812817	3.42135	0.981459	4.12931	0.587271	2.47344	0.698284	2.9351	0.835711	3.51508	0.975718	4.10866
0.636907	2.67213	0.474065	1.96953	0.638506	2.67152	0.690175	2.89581	0.814541	3.41521	0.982586	4.11791	0.589056	2.47127	0.700252	2.93189	0.836979	3.50667	0.977187	4.09877
0.639186	2.67125	0.476036	1.9701	0.640782	2.67063	0.691944	2.89192	0.816267	3.40913	0.983718	4.10662	0.590842	2.46911	0.702223	2.92872	0.838253	3.49835	0.978658	4.08896
0.64146	2.67036	0.478006	1.97065	0.643052	2.66972	0.693718	2.88809	0.817995	3.40311	0.984854	4.09544	0.592628	2.46696	0.704195	2.92558	0.839533	3.49012	0.98013	4.07923
0.643729	2.66945	0.479975	1.9712	0.645317	2.6688	0.6955	2.88432	0.819725	3.39714	0.985995	4.08436	0.594414	2.46484	0.70617	2.92247	0.840817	3.48197	0.981603	4.06958
0.645992	2.66852	0.481944	1.97174	0.647576	2.66786	0.697288	2.88061	0.821458	3.39123	0.98714	4.07338	0.596201	2.46274	0.708146	2.91939	0.842106	3.47391	0.983078	4.06001
0.64825	2.66758	0.483912	1.97228	0.649829	2.66691	0.699083	2.87695	0.823192	3.38536	0.98829	4.0625	0.597989	2.46065	0.710124	2.91635	0.843401	3.46593	0.984553	4.05052
0.650501	2.66662	0.485879	1.9728	0.652077	2.66594	0.700886	2.87335	0.824928	3.37956	0.989444	4.05173	0.599777	2.45858	0.712104	2.91333	0.844701	3.45803	0.986029	4.0411
0.652747	2.66565	0.487846	1.97332	0.654318	2.66495	0.702695	2.86981	0.826667	3.3738	0.990603	4.04106	0.601565	2.45653	0.714086	2.91034	0.846006	3.45022	0.987506	4.03176
0.654986	2.66465	0.489812	1.97384	0.656553	2.66395	0.704512	2.86632	0.828407	3.3681	0.991766	4.03048	0.603354	2.4545	0.716069	2.90739	0.847316	3.44248	0.988985	4.02249
0.65722	2.66364	0.491777	1.97434	0.658782	2.66292	0.706337	2.86289	0.830149	3.36244	0.992934	4.02001	0.605143	2.45248	0.718054	2.90446	0.848632	3.43482	0.990464	4.0133
0.659446	2.66261	0.493742	1.97484	0.661004	2.66188	0.708169	2.85952	0.831894	3.35684	0.994106	4.00963	0.606934	2.45048	0.72004	2.90156	0.849953	3.42724	0.991944	4.00418
0.661667	2.66157	0.495705	1.97534	0.66322	2.66082	0.710009	2.85621	0.833639	3.35129	0.995283	3.99935	0.608724	2.4485	0.722028	2.89868	0.851279	3.41974	0.993425	3.99514
0.66388	2.6605	0.497668	1.97582	0.665428	2.65974	0.711858	2.85295	0.835387	3.34578	0.996464	3.98916	0.610516	2.44654	0.724017	2.89584	0.85261	3.41232	0.994907	3.98616
0.666087	2.65941	0.499631	1.9763	0.66763	2.65864	0.713714	2.84975	0.837137	3.34032	0.997649	3.97906	0.612308	2.44459	0.726007	2.89302	0.853946	3.40497	0.99639	3.97726
0.668287	2.65831	0.501592	1.97678	0.669825	2.65752	0.715579	2.8466	0.838888	3.33491	0.998839	3.96906	0.614101	2.44267	0.727999	2.89022	0.855288	3.3977	0.997874	3.96842
0.670479	2.65718	0.503553	1.97725	0.672013	2.65638	0.717452	2.84351	0.840641	3.32955	1.00003	3.95915	0.615895	2.44076	0.729991	2.88745	0.856635	3.3905	0.999359	3.95965
0.672665	2.65604	0.505513	1.97771	0.674193	2.65522	0.719333	2.84048	0.842395	3.32423			0.617689	2.43886	0.731985	2.88471	0.857987	3.38338	1.00084	3.95095
0.674843	2.65487	0.507473	1.97816	0.676366	2.65404	0.721224	2.83751	0.844151	3.31896			0.619484	2.43698	0.733979	2.88199	0.859345	3.37632		
0.677013	2.65368	0.509432	1.97861	0.678531	2.65284	0.723123	2.83459	0.845909	3.31373			0.62128	2.43512	0.735975	2.87929	0.860707	3.36934		
0.679177	2.65247	0.51139	1.97906	0.680689	2.65161	0.72503	2.83173	0.847668	3.30854			0.623077	2.43328	0.737971	2.87661	0.862075	3.36244		
0.681332	2.65124	0.513347	1.97949	0.682839	2.65037	0.726947	2.82892	0.849428	3.3034			0.624874	2.43145	0.739968	2.87396	0.863449	3.3556		
0.68348	2.64999	0.515304	1.97993	0.684981	2.6491	0.728873	2.82617	0.85119	3.2983			0.626673	2.42964	0.741966	2.87133	0.864827	3.34883		
0.685619	2.64872	0.51726	1.98035	0.687115	2.64782	0.730808	2.82347	0.852954	3.29325			0.628472	2.42785	0.743964	2.86872	0.866211	3.34213		
0.687751	2.64743	0.519215	1.98077	0.689241	2.64651	0.732753	2.82083	0.854719	3.28823			0.630272	2.42607	0.745964	2.86613	0.8676	3.3355		
0.689875	2.64611	0.52117	1.98119	0.691359	2.64518	0.734706	2.81824	0.856485	3.28326			0.632074	2.42431	0.747963	2.86356	0.868995	3.32894		
0.691991	2.64478	0.523124	1.9816	0.69347	2.64383	0.736669	2.81571	0.858252	3.27833			0.633876	2.42257	0.749963	2.86102	0.870394	3.32244		
0.694098	2.64342	0.525077	1.982	0.695572	2.64245	0.738642	2.81323	0.860021	3.27343			0.635679	2.42084	0.751964	2.85849	0.871799	3.31601		
0.696198	2.64204	0.527029	1.9824	0.697665	2.64106	0.740624	2.8108	0.861791	3.26858			0.637483	2.41912	0.753965	2.85598	0.87321	3.30965		
0.698289	2.64064	0.528981	1.98279	0.699751	2.63965	0.742615	2.80843	0.863562	3.26376			0.639288	2.41743	0.755966	2.85349	0.874626	3.30335		
0.700372	2.63922	0.530932	1.98318	0.701828	2.63821	0.744616	2.80611	0.865334	3.25898			0.641094	2.41575	0.757967	2.85102	0.876047	3.29711		
0.702447	2.63778	0.532882	1.98356	0.703897	2.63675	0.746626	2.80384	0.867108	3.25425			0.642901	2.41408	0.759969	2.84856	0.877473	3.29094		
0.704514	2.63631	0.534832	1.98394	0.705958	2.63528	0.748646	2.80162	0.868883	3.24954			0.644709	2.41243	0.76197	2.84612	0.878905	3.28483		
0.706572	2.63483	0.536781	1.98431	0.708011	2.63378	0.750676	2.79946	0.870658	3.24488			0.646518	2.41079	0.763972	2.84371	0.880342	3.27879		
0.708623	2.63333	0.53873	1.98468	0.710056	2.63226	0.752715	2.79734	0.872435	3.24025			0.648328	2.40917	0.765974	2.8413	0.881785	3.2728		
0.710665	2.63181	0.540677	1.98504	0.712092	2.63073	0.754763	2.79527	0.874213	3.23565			0.650139	2.40757	0.767975	2.83892	0.883232	3.26688		
0.712699	2.63026	0.542624	1.98539	0.714121	2.62917	0.75682	2.79326	0.875991	3.23109			0.651952	2.40598	0.769977	2.83654	0.884686	3.26102		
0.714725	2.6287	0.544571	1.98575	0.716141	2.6276	0.758887	2.79129	0.877771	3.22657			0.653765	2.4044	0.771978	2.83419	0.886144	3.25522		
0.716743	2.62712	0.546516	1.98609	0.718154	2.626	0.760964	2.78936	0.879552	3.22208			0.65558	2.40284	0.773979	2.83185	0.887609	3.24947		
0.718754	2.62552	0.548461	1.98644	0.720159	2.62439	0.763049	2.78749	0.881333	3.21762			0.657395	2.4013	0.77598	2.82952	0.889078	3.24379		
0.720756	2.62391	0.550406	1.98677	0.722156	2.62277	0.765143	2.78566	0.883115	3.2132			0.659212	2.39977	0.77798	2.82721	0.890553	3.23816		
0.722751	2.62228	0.552349	1.98711	0.724145	2.62112	0.767247	2.78387	0.884898	3.20881			0.66103	2.39825	0.77998	2.82492	0.892033	3.23259		
0.724738	2.62063	0.554292	1.98743	0.726127	2.61946	0.769359	2.78213	0.886682	3.20445			0.662849	2.39675	0.781979	2.82263	0.893519	3.22708		
0.726718	2.61896	0.556234	1.98776	0.728102	2.61779	0.77148	2.78044	0.888467	3.20013			0.664669	2.39526	0.783978	2.82036	0.895011	3.22163		
0.72869	2.61728	0.558176	1.98808	0.730069	2.6161	0.77361	2.77878	0.890253	3.19584			0.666491	2.39379	0.785977	2.81811	0.896507	3.21623		
0.730655	2.61559	0.560117	1.98839	0.732029	2.61439	0.775748	2.77717	0.892039	3.19157			0.668313	2.39233	0.787975	2.81586	0.898009	3.21089		
0.732613	2.61388	0.562057	1.9887	0.733982	2.61267	0.777895	2.77559	0.893826	3.18734			0.670137	2.39088	0.789972	2.81363	0.899517	3.2056		
0.734565	2.61216	0.563997	1.98901	0.735929	2.61094	0.780049	2.77406	0.895613	3.18314			0.671962	2.38945	0.791968	2.81141	0.90103	3.20036		
0.736509	2.61042	0.565936	1.98931	0.737868	2.6092	0.782212	2.77256	0.897401	3.17897			0.673788	2.38803	0.793964	2.80921	0.902549	3.19518		
0.738446	2.60868	0.567874	1.98961	0.739801	2.60744	0.784383	2.77111	0.89919	3.17483			0.675616	2.38663	0.795958	2.80701	0.904073	3.19006		
0.740378	2.60692	0.569812	1.9899	0.741728	2.60568	0.786562	2.76969	0.90098	3.17072			0.677444	2.38524	0.797952	2.80483	0.905603	3.18498		
0.742302	2.60515	0.571749	1.99019	0.743648	2.6039	0.788748	2.7683	0.902769	3.16663			0.679274	2.38386	0.799945	2.80265	0.907138	3.17996		
0.744221	2.60337	0.573686	1.99048	0.745563	2.60212	0.790941	2.76695	0.90456	3.16258			0.681105	2.3825	0.801937	2.80049	0.908678	3.17499		
0.746133	2.60158	0.575621	1.99076	0.747471	2.60032	0.793142	2.76564	0.906351	3.15855			0.682937	2.38115	0.803928	2.79834	0.910225	3.17008		
0.74804	2.59978	0.577557	1.99104	0.749374	2.59852	0.79535	2.76436	0.908143	3.15455			0.684771	2.37981	0.805918	2.7962	0.911776	3.16521		
0.749941	2.59798	0.579491	1.99131	0.751271	2.59671	0.797565	2.76311	0.909935	3.15058			0.686606	2.37848	0.807907	2.79406	0.913334	3.16039		
0.751836	2.59616	0.581425	1.99158	0.753163	2.59489	0.799786	2.76189	0.911727	3.14663			0.688442	2.37717	0.809894	2.79194	0.914896	3.15563		
0.753727	2.59435	0.583358	1.99184	0.755049	2.59306	0.802014	2.7607	0.91352	3.14272			0.690279	2.37587	0.81188	2.78983	0.916465	3.15091		
0.755612	2.59252	0.585291	1.9921	0.75693	2.59123	0.804249	2.75954	0.915313	3.13882			0.692117	2.37458	0.813865	2.78773	0.918038	3.14624		
0.757491	2.59069	0.587223	1.99236	0.758807	2.5894	0.806489	2.75841	0.917107	3.13496			0.693957	2.37331	0.815849	2.78563	0.919618	3.14163		
0.759366	2.58885	0.589155	1.99262	0.760679	2.58756	0.808736	2.75731	0.918901	3.13112			0.695798	2.37205	0.817832	2.78354	0.921203	3.13706		
0.761237	2.58701	0.591085	1.99287	0.762546	2.58572	0.810989	2.75624	0.920695	3.12731			0.69764	2.3708	0.819813	2.78147	0.922793	3.13253		
0.763103	2.58517	0.593016	1.99311	0.764408	2.58387	0.813247	2.75519	0.92249	3.12352			0.699484	2.36956	0.821792	2.7794	0.924389	3.12806		
0.764964	2.58332	0.594945	1.99336	0.766267	2.58202	0.815511	2.75416	0.924285	3.11975			0.701329	2.36834	0.82377	2.77734	0.925991	3.12363		
0.766821	2.58147	0.596874	1.9936	0.768121	2.58017	0.81778	2.75316	0.92608	3.11601			0.703175	2.36712	0.825747	2.77528	0.927598	3.11925		
0.768674	2.57961	0.598803	1.99383	0.769972	2.57831	0.820055	2.75219	0.927876	3.1123			0.705023	2.36592	0.827722	2.77324	0.929211	3.11491		
0.770524	2.57776	0.60073	1.99407	0.771818	2.57646	0.822335	2.75124	0.929672	3.10861			0.706871	2.36473	0.829696	2.7712	0.930829	3.11062		
0.772369	2.57591	0.602658	1.9943	0.773661	2.5746	0.824619	2.75031	0.931468	3.10494			0.708721	2.36355	0.831668	2.76917	0.932453	3.10638		
0.774211	2.57405	0.604584	1.99452	0.775501	2.57275	0.826908	2.7494	0.933264	3.1013			0.710573	2.36239	0.833638	2.76714	0.934083	3.10218		
0.77605	2.5722	0.60651	1.99475	0.777337	2.57089	0.829202	2.74851	0.935061	3.09768			0.712425	2.36123	0.835606	2.76513	0.935718	3.09802		
0.777885	2.57034	0.608436	1.99497	0.77917	2.56904	0.8315	2.74764	0.936858	3.09408			0.714279	2.36009	0.837573	2.76311	0.937359	3.09391		
0.779717	2.56849	0.610361	1.99518	0.781	2.56719	0.833803	2.74679	0.938655	3.0905			0.716134	2.35896	0.839538	2.76111	0.939005	3.08984		
0.781546	2.56663	0.612285	1.99539	0.782826	2.56534	0.836109	2.74596	0.940452	3.08695			0.717991	2.35784	0.841502	2.75911	0.940656	3.08582		
0.783372	2.56478	0.614209	1.9956	0.78465	2.56349	0.83842	2.74515	0.942249	3.08342			0.719848	2.35673	0.843463	2.75712	0.942314	3.08183		
0.785195	2.56293	0.616132	1.99581	0.786472	2.56164	0.840734	2.74436	0.944046	3.07991			0.721707	2.35563	0.845423	2.75514	0.943977	3.07789		
0.787015	2.56109	0.618054	1.99602	0.788291	2.5598	0.843052	2.74358	0.945844	3.07643			0.723568	2.35454	0.84738	2.75316	0.945645	3.07399		
0.788834	2.55925	0.619977	1.99622	0.790107	2.55795	0.845374	2.74282	0.947641	3.07296			0.725429	2.35346	0.849336	2.75118	0.947319	3.07014		
0.790649	2.55741	0.621898	1.99641	0.791921	2.55612	0.8477	2.74208	0.949439	3.06952			0.727292	2.35239	0.85129	2.74922	0.948998	3.06632		
0.792463	2.55557	0.623819	1.99661	0.793733	2.55428	0.850028	2.74135	0.951237	3.06609			0.729156	2.35134	0.853242	2.74725	0.950684	3.06255		
0.794274	2.55374	0.625739	1.9968	0.795543	2.55246	0.85236	2.74063	0.953035	3.06269			0.731022	2.35029	0.855192	2.7453	0.952374	3.05881		
0.796083	2.55191	0.627659	1.99699	0.79735	2.55063	0.854695	2.73993	0.954833	3.05931			0.732889	2.34926	0.85714	2.74334	0.95407	3.05512		
0.79789	2.55009	0.629578	1.99718	0.799156	2.54881	0.857032	2.73924	0.956631	3.05595			0.734757	2.34823	0.859086	2.7414	0.955772	3.05146		
0.799695	2.54827	0.631497	1.99736	0.80096	2.547	0.859373	2.73857	0.958429	3.05261			0.736626	2.34722	0.86103	2.73946	0.957479	3.04785		
0.801499	2.54646	0.633415	1.99754	0.802763	2.54519	0.861717	2.73791	0.960228	3.04929			0.738497	2.34621	0.862971	2.73752	0.959191	3.04427		
0.803301	2.54465	0.635333	1.99772	0.804563	2.54338	0.864063	2.73726	0.962026	3.04598			0.740369	2.34522	0.864911	2.73559	0.960909	3.04073		
0.805101	2.54285	0.63725	1.99789	0.806362	2.54158	0.866411	2.73662	0.963824	3.0427			0.742242	2.34423	0.866849	2.73366	0.962633	3.03723		
0.8069	2.54105	0.639167	1.99807	0.80816	2.53979	0.868762	2.736	0.965622	3.03944			0.744116	2.34326	0.868784	2.73174	0.964362	3.03377		
0.808697	2.53926	0.641083	1.99824	0.809957	2.53801	0.871116	2.73538	0.967421	3.0362			0.745992	2.34229	0.870717	2.72982	0.966096	3.03034		
0.810493	2.53748	0.642999	1.9984	0.811752	2.53623	0.873471	2.73478	0.969219	3.03297			0.747869	2.34134	0.872648	2.7279	0.967836	3.02695		
0.812288	2.5357	0.644914	1.99857	0.813546	2.53446	0.875829	2.73419	0.971018	3.02977			0.749747	2.34039	0.874577	2.726	0.969581	3.0236		
0.814082	2.53393	0.646828	1.99873	0.815339	2.53269	0.878189	2.7336	0.972816	3.02658			0.751627	2.33945	0.876504	2.72409	0.971331	3.02028		
0.815874	2.53216	0.648742	1.99889	0.817131	2.53093	0.88055	2.73303	0.974615	3.02341			0.753508	2.33853	0.878429	2.72219	0.973087	3.017		
0.817666	2.53041	0.650656	1.99905	0.818922	2.52918	0.882914	2.73246	0.976414	3.02026			0.75539	2.33761	0.880351	2.72029	0.974848	3.01376		
0.819457	2.52866	0.652569	1.9992	0.820712	2.52744	0.885279	2.7319	0.978212	3.01713			0.757273	2.3367	0.882271	2.7184	0.976615	3.01055		
0.821246	2.52692	0.654482	1.99935	0.822501	2.5257	0.887646	2.73135	0.980011	3.01402			0.759158	2.3358	0.884189	2.71651	0.978386	3.00737		
0.823035	2.52518	0.656394	1.9995	0.82429	2.52397	0.890014	2.73081	0.98181	3.01092			0.761043	2.33491	0.886105	2.71463	0.980163	3.00423		
0.824824	2.52346	0.658305	1.99965	0.826077	2.52225	0.892385	2.73028	0.983608	3.00784			0.76293	2.33403	0.888018	2.71274	0.981946	3.00112		
0.826611	2.52174	0.660216	1.9998	0.827865	2.52054	0.894756	2.72975	0.985407	3.00478			0.764819	2.33315	0.889929	2.71087	0.983733	2.99805		
0.828398	2.52002	0.662127	1.99994	0.829651	2.51883	0.897129	2.72924	0.987206	3.00174			0.766708	2.33229	0.891838	2.70899	0.985526	2.99501		
0.830185	2.51832	0.664037	2.00008	0.831437	2.51713	0.899503	2.72872	0.989005	2.99871			0.768599	2.33143	0.893745	2.70712	0.987324	2.992		
0.831971	2.51663	0.665947	2.00022	0.833223	2.51544	0.901878	2.72822	0.990804	2.99571			0.770491	2.33058	0.895649	2.70526	0.989127	2.98902		
0.833756	2.51494	0.667856	2.00036	0.835008	2.51376	0.904255	2.72772	0.992603	2.99272			0.772384	2.32974	0.897552	2.7034	0.990935	2.98608		
0.835541	2.51326	0.669765	2.00049	0.836793	2.51209	0.906632	2.72723	0.994402	2.98974			0.774279	2.32891	0.899452	2.70154	0.992748	2.98317		
0.837326	2.51159	0.671673	2.00062	0.838577	2.51042	0.909011	2.72674	0.996201	2.98678			0.776175	2.32809	0.901349	2.69968	0.994566	2.98029		
0.83911	2.50993	0.673581	2.00076	0.840362	2.50877	0.91139	2.72626	0.998001	2.98384			0.778072	2.32728	0.903245	2.69783	0.996389	2.97744		
0.840895	2.50828	0.675488	2.00088	0.842146	2.50712	0.913771	2.72578	0.9998	2.98092			0.77997	2.32647	0.905138	2.69598	0.998218	2.97462		
0.842679	2.50663	0.677395	2.00101	0.84393	2.50548	0.916152	2.72531	1.0016	2.97801			0.781869	2.32567	0.907029	2.69414	1.00005	2.97183		
0.844463	2.50499	0.679302	2.00113	0.845713	2.50385	0.918534	2.72484					0.78377	2.32488	0.908918	2.6923				
0.846246	2.50337	0.681208	2.00126	0.847497	2.50223	0.920916	2.72438					0.785671	2.3241	0.910804	2.69046				
0.84803	2.50175	0.683113	2.00138	0.849281	2.50062	0.923299	2.72392					0.787574	2.32333	0.912689	2.68863				
0.849814	2.50014	0.685019	2.00149	0.851064	2.49901	0.925683	2.72347					0.789478	2.32256	0.914571	2.6868				
0.851597	2.49854	0.686923	2.00161	0.852848	2.49742	0.928067	2.72302					0.791384	2.3218	0.916451	2.68497				
0.853381	2.49694	0.688828	2.00173	0.854632	2.49583	0.930451	2.72257					0.79329	2.32105	0.918328	2.68315				
0.855164	2.49536	0.690732	2.00184	0.856415	2.49426	0.932836	2.72213					0.795198	2.32031	0.920204	2.68133				
0.856948	2.49379	0.692635	2.00195	0.858199	2.49269	0.935221	2.72169					0.797107	2.31957	0.922077	2.67952				
0.858732	2.49222	0.694538	2.00206	0.859983	2.49113	0.937606	2.72125					0.799017	2.31884	0.923949	2.6777				
0.860516	2.49066	0.696441	2.00217	0.861768	2.48958	0.939992	2.72082					0.800928	2.31812	0.925818	2.67589				
0.862301	2.48912	0.698343	2.00227	0.863552	2.48804	0.942377	2.72039					0.80284	2.31741	0.927685	2.67409				
0.864085	2.48758	0.700245	2.00238	0.865337	2.4865	0.944763	2.71996					0.804753	2.3167	0.92955	2.67229				
0.86587	2.48605	0.702146	2.00248	0.867122	2.48498	0.947148	2.71953					0.806668	2.316	0.931413	2.67049				
0.867655	2.48453	0.704047	2.00258	0.868907	2.48346	0.949534	2.71911					0.808584	2.31531	0.933274	2.6687				
0.86944	2.48301	0.705948	2.00268	0.870693	2.48196	0.951919	2.71868					0.810501	2.31462	0.935132	2.66691				
0.871226	2.48151	0.707848	2.00277	0.872478	2.48046	0.954304	2.71826					0.812419	2.31394	0.936989	2.66512				
0.873012	2.48002	0.709748	2.00287	0.874265	2.47897	0.956689	2.71784					0.814338	2.31327	0.938844	2.66334				
0.874798	2.47853	0.711648	2.00296	0.876051	2.4775	0.959073	2.71742					0.816258	2.3126	0.940697	2.66156				
0.876585	2.47706	0.713547	2.00306	0.877839	2.47603	0.961457	2.71701					0.818179	2.31194	0.942548	2.65979				
0.878372	2.47559	0.715446	2.00315	0.879626	2.47456	0.963841	2.71659					0.820102	2.31129	0.944396	2.65802				
0.88016	2.47413	0.717344	2.00324	0.881414	2.47311	0.966224	2.71617					0.822025	2.31064	0.946243	2.65625				
0.881948	2.47268	0.719242	2.00333	0.883202	2.47167	0.968607	2.71576					0.82395	2.31	0.948089	2.65449				
0.883737	2.47124	0.72114	2.00341	0.884991	2.47023	0.970989	2.71535					0.825876	2.30937	0.949932	2.65273				
0.885526	2.46981	0.723037	2.0035	0.886781	2.46881	0.97337	2.71493					0.827802	2.30874	0.951773	2.65097				
0.887316	2.46838	0.724934	2.00358	0.888571	2.46739	0.975751	2.71452					0.82973	2.30812	0.953613	2.64922				
0.889106	2.46697	0.726831	2.00366	0.890361	2.46598	0.97813	2.7141					0.831659	2.30751	0.955451	2.64747				
0.890896	2.46557	0.728727	2.00375	0.892153	2.46459	0.980509	2.71369					0.833589	2.3069	0.957287	2.64573				
0.892688	2.46417	0.730623	2.00382	0.893944	2.46319	0.982887	2.71327					0.83552	2.3063	0.959121	2.64399				
0.89448	2.46278	0.732518	2.0039	0.895736	2.46181	0.985264	2.71286					0.837452	2.3057	0.960953	2.64226				
0.896272	2.4614	0.734414	2.00398	0.897529	2.46044	0.98764	2.71244					0.839385	2.30511	0.962784	2.64053				
0.898065	2.46003	0.736309	2.00406	0.899323	2.45908	0.990015	2.71202					0.84132	2.30453	0.964613	2.6388				
0.899859	2.45867	0.738203	2.00413	0.901117	2.45772	0.992388	2.7116					0.843255	2.30395	0.966441	2.63708				
0.901653	2.45732	0.740097	2.0042	0.902912	2.45637	0.994761	2.71118					0.845191	2.30337	0.968267	2.63536				
0.903448	2.45597	0.741991	2.00428	0.904707	2.45504	0.997131	2.71076					0.847128	2.30281	0.970091	2.63365				
0.905244	2.45464	0.743885	2.00435	0.906503	2.45371	0.999501	2.71034					0.849067	2.30224	0.971914	2.63194				
0.90704	2.45331	0.745778	2.00442	0.9083	2.45238	1.00187	2.70991					0.851006	2.30169	0.973736	2.63024				
0.908837	2.45199	0.747671	2.00448	0.910098	2.45107							0.852946	2.30114	0.975555	2.62854				
0.910635	2.45068	0.749564	2.00455	0.911896	2.44977							0.854887	2.30059	0.977374	2.62684				
0.912433	2.44938	0.751456	2.00462	0.913695	2.44847							0.85683	2.30005	0.979191	2.62515				
0.914232	2.44809	0.753348	2.00468	0.915494	2.44718							0.858773	2.29952	0.981006	2.62347				
0.916032	2.4468	0.75524	2.00475	0.917295	2.44591							0.860717	2.29899	0.982821	2.62179				
0.917833	2.44553	0.757132	2.00481	0.919096	2.44463							0.862662	2.29846	0.984633	2.62011				
0.919634	2.44426	0.759023	2.00487	0.920897	2.44337							0.864609	2.29794	0.986445	2.61844				
0.921436	2.443	0.760914	2.00493	0.9227	2.44212							0.866556	2.29743	0.988255	2.61677				
0.923239	2.44175	0.762804	2.00499	0.924503	2.44087							0.868504	2.29692	0.990064	2.61511				
0.925042	2.4405	0.764695	2.00505	0.926308	2.43963							0.870453	2.29642	0.991872	2.61345				
0.926847	2.43927	0.766585	2.00511	0.928112	2.4384							0.872403	2.29592	0.993678	2.6118				
0.928652	2.43804	0.768474	2.00516	0.929918	2.43718							0.874354	2.29542	0.995484	2.61015				
0.930458	2.43682	0.770364	2.00522	0.931725	2.43597							0.876306	2.29494	0.997288	2.60851				
0.932264	2.43561	0.772253	2.00527	0.933532	2.43476							0.878258	2.29445	0.999091	2.60688				
0.934072	2.4344	0.774142	2.00533	0.93534	2.43357							0.880212	2.29397	1.00089	2.60524				
0.93588	2.43321	0.776031	2.00538	0.937149	2.43238							0.882167	2.2935						
0.937689	2.43202	0.777919	2.00543	0.938959	2.43119							0.884122	2.29303						
0.939499	2.43084	0.779807	2.00548	0.940769	2.43002							0.886079	2.29256						
0.94131	2.42967	0.781695	2.00553	0.942581	2.42885							0.888036	2.2921						
0.943122	2.42851	0.783583	2.00558	0.944393	2.42769							0.889994	2.29164						
0.944934	2.42735	0.785471	2.00563	0.946206	2.42654							0.891953	2.29119						
0.946748	2.4262	0.787358	2.00567	0.94802	2.4254							0.893913	2.29074						
0.948562	2.42506	0.789245	2.00572	0.949834	2.42426							0.895874	2.2903						
0.950377	2.42393	0.791131	2.00577	0.95165	2.42314							0.897836	2.28986						
0.952193	2.4228	0.793018	2.00581	0.953466	2.42202							0.899798	2.28943						
0.954009	2.42168	0.794904	2.00586	0.955284	2.4209							0.901762	2.28899						
0.955827	2.42057	0.79679	2.0059	0.957102	2.4198							0.903726	2.28857						
0.957645	2.41947	0.798676	2.00594	0.958921	2.4187							0.905691	2.28815						
0.959464	2.41837	0.800561	2.00598	0.960741	2.41761							0.907657	2.28773						
0.961285	2.41728	0.802447	2.00602	0.962562	2.41652							0.909624	2.28731						
0.963106	2.4162	0.804332	2.00606	0.964383	2.41545							0.911591	2.2869						
0.964927	2.41513	0.806217	2.0061	0.966206	2.41438							0.91356	2.2865						
0.96675	2.41406	0.808101	2.00614	0.968029	2.41331							0.915529	2.2861						
0.968574	2.413	0.809986	2.00618	0.969853	2.41226							0.917499	2.2857						
0.970398	2.41195	0.81187	2.00622	0.971678	2.41121							0.91947	2.2853						
0.972224	2.4109	0.813754	2.00625	0.973504	2.41017							0.921441	2.28491						
0.97405	2.40986	0.815638	2.00629	0.975331	2.40914							0.923414	2.28452						
0.975877	2.40883	0.817522	2.00633	0.977159	2.40811							0.925387	2.28414						
0.977705	2.4078	0.819405	2.00636	0.978988	2.40709							0.927361	2.28376						
0.979534	2.40678	0.821288	2.00639	0.980817	2.40607							0.929336	2.28339						
0.981364	2.40577	0.823171	2.00643	0.982648	2.40507							0.931311	2.28301						
0.983195	2.40477	0.825054	2.00646	0.984479	2.40407							0.933288	2.28264						
0.985026	2.40377	0.826937	2.00649	0.986311	2.40307							0.935265	2.28228						
0.986859	2.40278	0.82882	2.00652	0.988144	2.40209							0.937242	2.28192						
0.988692	2.4018	0.830702	2.00656	0.989978	2.40111							0.939221	2.28156						
0.990526	2.40082	0.832584	2.00659	0.991813	2.40014							0.9412	2.2812						
0.992361	2.39985	0.834466	2.00662	0.993649	2.39917							0.94318	2.28085						
0.994197	2.39888	0.836348	2.00664	0.995486	2.39821							0.945161	2.2805						
0.996034	2.39792	0.838229	2.00667	0.997323	2.39725							0.947143	2.28016						
0.997872	2.39697	0.840111	2.0067	0.999161	2.39631							0.949125	2.27982						
0.999711	2.39602	0.841992	2.00673	1.001	2.39537							0.951108	2.27948						
1.00155	2.39509	0.843873	2.00676									0.953091	2.27914						
		0.845754	2.00678									0.955076	2.27881						
		0.847635	2.00681									0.957061	2.27848						
		0.849515	2.00684									0.959046	2.27816						
		0.851396	2.00686									0.961033	2.27784						
		0.853276	2.00689									0.96302	2.27752						
		0.855156	2.00691									0.965008	2.2772						
		0.857036	2.00693									0.966996	2.27689						
		0.858916	2.00696									0.968985	2.27657						
		0.860796	2.00698									0.970975	2.27627						
		0.862675	2.007									0.972965	2.27596						
		0.864555	2.00702									0.974956	2.27566						
		0.866434	2.00705									0.976948	2.27536						
		0.868313	2.00707									0.978941	2.27506						
		0.870192	2.00709									0.980934	2.27477						
		0.872071	2.00711									0.982927	2.27448						
		0.87395	2.00713									0.984921	2.27419						
		0.875828	2.00715									0.986916	2.27391						
		0.877707	2.00717									0.988912	2.27362						
		0.879585	2.00719									0.990908	2.27334						
		0.881464	2.0072									0.992905	2.27306						
		0.883342	2.00722									0.994902	2.27279						
		0.88522	2.00724									0.9969	2.27252						
		0.887097	2.00726									0.998899	2.27225						
		0.888975	2.00728									1.0009	2.27198						
		0.890853	2.00729																
		0.89273	2.00731																
		0.894608	2.00732																
		0.896485	2.00734																
		0.898362	2.00736																
		0.900239	2.00737																
		0.902116	2.00739																
		0.903993	2.0074																
		0.90587	2.00741																
		0.907746	2.00743																
		0.909623	2.00744																
		0.911499	2.00746																
		0.913376	2.00747																
		0.915252	2.00748																
		0.917128	2.00749																
		0.919004	2.00751																
		0.92088	2.00752																
		0.922756	2.00753																
		0.924632	2.00754																
		0.926507	2.00755																
		0.928383	2.00757																
		0.930258	2.00758																
		0.932134	2.00759																
		0.934009	2.0076																
		0.935885	2.00761																
		0.93776	2.00762																
		0.939635	2.00763																
		0.94151	2.00764																
		0.943385	2.00765																
		0.94526	2.00766																
		0.947134	2.00767																
		0.949009	2.00767																
		0.950884	2.00768																
		0.952758	2.00769																
		0.954633	2.0077																
		0.956507	2.00771																
		0.958382	2.00772																
		0.960256	2.00772																
		0.96213	2.00773																
		0.964005	2.00774																
		0.965879	2.00775																
		0.967753	2.00775																
		0.969627	2.00776																
		0.971501	2.00777																
		0.973375	2.00777																
		0.975249	2.00778																
		0.977122	2.00779																
		0.978996	2.00779																
		0.98087	2.0078																
		0.982743	2.00781																
		0.984617	2.00781																
		0.98649	2.00782																
		0.988364	2.00782																
		0.990237	2.00783																
		0.992111	2.00783																
		0.993984	2.00784																
		0.995857	2.00784																
		0.99773	2.00785																
		0.999603	2.00785																
		1.00148	2.00786																
