Sym0		Asym0		Sym1		Sym2		Sym3		Sym4		Asym1		Asym2		Asym3		Asym4	
456  Points		540  Points		456  Points		405  Points		369  Points		279  Points		480  Points		420  Points		369  Points		279  Points	
Freq (MHz)	Vph (m/ms)	Freq (MHz)	Vph (m/ms)	Freq (MHz)	Vph (m/ms)	Freq (MHz)	Vph (m/ms)	Freq (MHz)	Vph (m/ms)	Freq (MHz)	Vph (m/ms)	Freq (MHz)	Vph (m/ms)	Freq (MHz)	Vph (m/ms)	Freq (MHz)	Vph (m/ms)	Freq (MHz)	Vph (m/ms)
0.279506	302.217	0.000186558	0.084295	0.279507	365.432	0.356552	4101.21	0.559017	1794.04	0.838526	2288.3	0.139755	1175.37	0.419265	706.452	0.69877	1599.82	0.713105	4611.51
0.279499	150.548	0.000376166	0.119613	0.279501	164.745	0.356569	350.046	0.559025	449.632	0.83853	645.949	0.139796	133.064	0.419274	274.903	0.698759	510.611	0.713122	656.45
0.279487	100.238	0.000630894	0.154762	0.27949	106.34	0.356613	182.848	0.55904	257.031	0.838538	376.055	0.139904	70.5771	0.419293	170.661	0.698737	303.776	0.713164	353.397
0.279471	75.1278	0.000950077	0.189703	0.279474	78.5049	0.356685	123.762	0.559064	179.955	0.83855	265.236	0.140078	48.071	0.41932	123.746	0.698704	216.192	0.713232	241.796
0.27945	60.0756	0.0013328	0.224379	0.279454	62.2163	0.356785	93.553	0.559096	138.446	0.838567	204.867	0.140317	36.487	0.419356	97.0672	0.698661	167.804	0.713325	183.78
0.279424	50.0462	0.00177804	0.258751	0.279429	51.5234	0.356912	75.212	0.559137	112.501	0.838588	166.886	0.140622	29.4349	0.4194	79.856	0.698608	137.109	0.713442	148.229
0.279394	42.8847	0.00228459	0.292771	0.2794	43.9651	0.357067	62.8959	0.559187	94.749	0.838613	140.787	0.14099	24.6957	0.419453	67.8326	0.698545	115.904	0.713583	124.214
0.279361	37.5146	0.00285125	0.326416	0.279367	38.3391	0.357249	54.0565	0.559245	81.8391	0.838642	121.749	0.141421	21.2958	0.419515	58.9591	0.698474	100.375	0.713747	106.904
0.279323	33.3384	0.00347657	0.359643	0.27933	33.9882	0.357458	47.4051	0.559311	72.0283	0.838676	107.248	0.141913	18.7407	0.419585	52.1415	0.698395	88.5126	0.713934	93.8374
0.279282	29.9977	0.00415902	0.392419	0.279289	30.523	0.357694	42.2197	0.559386	64.3205	0.838714	95.8345	0.142467	16.7526	0.419664	46.7397	0.698308	79.155	0.714142	83.6242
0.279237	27.2644	0.00489707	0.42472	0.279245	27.6979	0.357956	38.0647	0.559469	58.1052	0.838757	86.6181	0.143079	15.1634	0.419751	42.3545	0.698216	71.5845	0.714371	75.4225
0.279189	24.9867	0.00568911	0.456523	0.279198	25.3505	0.358245	34.6614	0.559561	52.9875	0.838803	79.0199	0.14375	13.8653	0.419847	38.7237	0.698118	65.3337	0.71462	68.6918
0.279139	23.0594	0.00653331	0.487797	0.279148	23.369	0.35856	31.8232	0.559661	48.7003	0.838854	72.6483	0.144476	12.7863	0.419952	35.6683	0.698015	60.085	0.714888	63.0693
0.279086	21.4074	0.00742807	0.518532	0.279095	21.6741	0.358901	29.4206	0.559769	45.0568	0.838909	67.2285	0.145257	11.8762	0.420066	33.0617	0.697909	55.6155	0.715175	58.3023
0.279031	19.9756	0.00837154	0.548706	0.27904	20.2077	0.359267	27.3609	0.559886	41.9223	0.838969	62.5621	0.146091	11.0989	0.420188	30.8118	0.697799	51.7635	0.71548	54.2097
0.278974	18.7227	0.00936208	0.578314	0.278983	18.9266	0.359659	25.576	0.560012	39.1972	0.839033	58.5023	0.146975	10.428	0.420318	28.8504	0.697687	48.4094	0.715801	50.658
0.278915	17.6172	0.0103979	0.607342	0.278925	17.7977	0.360075	24.0145	0.560146	36.8064	0.839101	54.9381	0.14791	9.84356	0.420458	27.1253	0.697573	45.4626	0.716139	47.5468
0.278856	16.6345	0.0114771	0.635781	0.278866	16.7954	0.360515	22.6372	0.560288	34.6919	0.839173	51.784	0.148891	9.33036	0.420606	25.5963	0.697458	42.853	0.716492	44.7991
0.278796	15.7553	0.0125982	0.663631	0.278806	15.8996	0.36098	21.4137	0.560439	32.8086	0.83925	48.9731	0.149919	8.8765	0.420762	24.2319	0.697343	40.526	0.716859	42.3547
0.278735	14.964	0.0137592	0.690884	0.278746	15.0942	0.361468	20.3196	0.560598	31.1205	0.839331	46.4523	0.150991	8.47257	0.420928	23.0069	0.697227	38.4381	0.717242	40.1662
0.278675	14.2481	0.0149587	0.717547	0.278685	14.3661	0.361979	19.3356	0.560766	29.5989	0.839416	44.179	0.151959	8.15536	0.421101	21.9011	0.697113	36.5542	0.717638	38.1955
0.278615	13.5973	0.016195	0.743614	0.278625	13.7048	0.362513	18.4461	0.560943	28.2204	0.839505	42.1184	0.152809	7.90727	0.421284	20.898	0.696999	34.8458	0.718047	36.4117
0.278556	13.0032	0.0174664	0.769093	0.278566	13.1015	0.36307	17.6382	0.561127	26.9657	0.839599	40.242	0.153529	7.71599	0.421475	19.9839	0.696887	33.2896	0.718469	34.7894
0.278499	12.4587	0.0187716	0.79399	0.278509	12.5489	0.363648	16.9014	0.56132	25.819	0.839697	38.5263	0.154108	7.57286	0.421675	19.1475	0.696777	31.8661	0.718903	33.3078
0.278443	11.9578	0.0201089	0.818305	0.278452	12.0409	0.364248	16.2266	0.561522	24.7669	0.839799	36.9514	0.154539	7.4719	0.421883	18.3794	0.69667	30.5591	0.719349	31.9493
0.278389	11.4955	0.0214769	0.842048	0.278398	11.5723	0.36487	15.6065	0.561732	23.7982	0.839906	35.5008	0.154818	7.40909	0.4221	17.6716	0.696565	29.3548	0.719807	30.6993
0.278338	11.0676	0.0228742	0.865229	0.278347	11.1388	0.365512	15.0348	0.56195	22.9034	0.840017	34.1602	0.155222	7.32116	0.422326	17.0172	0.696463	28.2417	0.720276	29.5453
0.27829	10.6704	0.0242997	0.887857	0.278298	10.7366	0.366174	14.5061	0.562177	22.0744	0.840132	32.9177	0.155666	7.22864	0.422561	16.4106	0.696365	27.2097	0.720755	28.4766
0.278245	10.3007	0.0257518	0.909937	0.278253	10.3623	0.366856	14.0158	0.562413	21.3043	0.840251	31.7629	0.156276	7.10763	0.422804	15.8467	0.69627	26.2503	0.721246	27.4843
0.278204	9.95578	0.0272295	0.931485	0.278211	10.0134	0.367558	13.56	0.562656	20.5869	0.840375	30.6868	0.15706	6.96206	0.423055	15.3211	0.69618	25.3563	0.721746	26.5604
0.278168	9.63328	0.0287315	0.952508	0.278174	9.68716	0.368279	13.1351	0.562909	19.9172	0.840503	29.6816	0.158025	6.79633	0.423316	14.8301	0.696093	24.521	0.722257	25.6981
0.278135	9.33109	0.0302567	0.973018	0.278141	9.38162	0.369018	12.7382	0.563169	19.2905	0.840636	28.7407	0.159181	6.61504	0.423585	14.3705	0.696011	23.739	0.722777	24.8914
0.278108	9.04738	0.0318041	0.993026	0.278112	9.09485	0.369776	12.3666	0.563438	18.7028	0.840772	27.858	0.160536	6.42268	0.423862	13.9393	0.695933	23.0053	0.723307	24.1353
0.278086	8.78053	0.0333725	1.01254	0.27809	8.82522	0.370552	12.0181	0.563716	18.1507	0.840913	27.0283	0.161921	6.24532	0.424148	13.534	0.69586	22.3156	0.723846	23.425
0.27807	8.52911	0.0349613	1.03159	0.278072	8.57124	0.371345	11.6905	0.564002	17.631	0.841058	26.2469	0.163336	6.08133	0.424443	13.1524	0.695792	21.666	0.724394	22.7566
0.27806	8.29184	0.0365692	1.05016	0.278061	8.33162	0.372155	11.3822	0.564296	17.141	0.841208	25.5099	0.164778	5.92933	0.424747	12.7925	0.695729	21.0533	0.724952	22.1265
0.278056	8.06758	0.0381954	1.06828	0.278057	8.13362	0.372982	11.0914	0.564599	16.6781	0.841362	24.8135	0.166246	5.78811	0.425059	12.4525	0.695672	20.4743	0.725518	21.5315
0.278059	7.85532	0.0398392	1.08596	0.278057	7.97222	0.373825	10.8168	0.56491	16.2404	0.84152	24.1544	0.167739	5.65661	0.42538	12.1308	0.695619	19.9264	0.726093	20.9688
0.27807	7.65415	0.0414997	1.1032	0.27806	7.8436	0.374684	10.5571	0.56523	15.8257	0.841682	23.5298	0.169256	5.53389	0.425709	11.826	0.695572	19.4071	0.726676	20.4358
0.278087	7.46324	0.0431761	1.12003	0.278064	7.74485	0.375559	10.311	0.565558	15.4323	0.841849	22.9371	0.170796	5.41916	0.426047	11.5368	0.695531	18.9142	0.727268	19.9302
0.278113	7.28185	0.0448679	1.13644	0.278068	7.67385	0.376449	10.0777	0.565894	15.0586	0.84202	22.3738	0.172357	5.31169	0.426394	11.262	0.695495	18.4459	0.727868	19.45
0.278147	7.1093	0.0465741	1.15246	0.278072	7.6291	0.377354	9.85607	0.566239	14.7033	0.842195	21.8378	0.17394	5.21083	0.42675	11.0007	0.695465	18.0003	0.728476	18.9934
0.278189	6.945	0.0482942	1.1681	0.278077	7.5657	0.378273	9.64536	0.566593	14.3649	0.842375	21.3272	0.175542	5.11603	0.427114	10.7519	0.695441	17.5759	0.729093	18.5587
0.27824	6.78838	0.0500275	1.18335	0.278084	7.49801	0.379207	9.44479	0.566954	14.0424	0.842559	20.8403	0.177163	5.02678	0.427487	10.5146	0.695423	17.1711	0.729717	18.1443
0.2783	6.63893	0.0517735	1.19825	0.278094	7.40791	0.380154	9.25366	0.567324	13.7346	0.842747	20.3754	0.178802	4.94262	0.427868	10.2882	0.695411	16.7846	0.730349	17.7488
0.27837	6.49621	0.0535317	1.21279	0.278111	7.29709	0.381115	9.07132	0.567703	13.4406	0.842939	19.9311	0.180458	4.86315	0.428258	10.072	0.695405	16.4154	0.730989	17.371
0.278449	6.35978	0.0553014	1.22698	0.278134	7.16755	0.38209	8.89721	0.56809	13.1595	0.843136	19.506	0.18213	4.78801	0.428657	9.86519	0.695405	16.0621	0.731636	17.0098
0.278538	6.22926	0.0570821	1.24084	0.278168	7.02151	0.383077	8.73078	0.568485	12.8904	0.843337	19.099	0.183819	4.71685	0.429064	9.66728	0.695411	15.7239	0.732291	16.6641
0.278638	6.10429	0.0588735	1.25438	0.278215	6.86133	0.384077	8.57156	0.568889	12.6327	0.843543	18.7089	0.185522	4.6494	0.42948	9.4777	0.695424	15.3997	0.732954	16.3329
0.278747	5.98454	0.060675	1.2676	0.278271	6.70856	0.385089	8.41909	0.569301	12.3856	0.843753	18.3347	0.187239	4.58537	0.429905	9.29594	0.695442	15.0888	0.733624	16.0153
0.278868	5.86972	0.0624861	1.28051	0.278336	6.56272	0.386114	8.27298	0.569721	12.1485	0.843967	17.9754	0.18897	4.52452	0.430338	9.12154	0.695468	14.7904	0.734301	15.7105
0.279	5.75955	0.0643066	1.29312	0.27841	6.42337	0.387016	8.15052	0.57015	11.9208	0.844185	17.6302	0.190713	4.46663	0.43078	8.95409	0.695499	14.5037	0.734986	15.4179
0.279143	5.65376	0.0661359	1.30545	0.278495	6.29011	0.387792	8.04954	0.570587	11.702	0.844408	17.2983	0.192469	4.4115	0.431231	8.79317	0.695537	14.2281	0.735678	15.1365
0.279298	5.55212	0.0679736	1.3175	0.278589	6.16257	0.388439	7.9683	0.571033	11.4916	0.844635	16.9788	0.194237	4.35893	0.431691	8.63842	0.695582	13.9628	0.736377	14.8659
0.279464	5.4544	0.0698195	1.32927	0.278694	6.0404	0.388953	7.90546	0.571487	11.289	0.844866	16.6713	0.196016	4.30877	0.432159	8.48951	0.695633	13.7075	0.737083	14.6055
0.279642	5.36041	0.0716732	1.34078	0.27881	5.92329	0.389333	7.86002	0.571949	11.094	0.845101	16.3749	0.197806	4.26085	0.432635	8.34612	0.69569	13.4615	0.737796	14.3546
0.279833	5.26994	0.0735344	1.35203	0.278936	5.81096	0.389577	7.83128	0.57242	10.906	0.845341	16.0891	0.199607	4.21504	0.433058	8.22544	0.695754	13.2243	0.738516	14.1128
0.280036	5.18283	0.0754027	1.36303	0.279074	5.70313	0.389928	7.7904	0.572899	10.7248	0.845586	15.8133	0.201417	4.17119	0.433423	8.12556	0.695825	12.9955	0.739243	13.8796
0.280252	5.0989	0.0772779	1.37379	0.279223	5.59956	0.390312	7.74656	0.573387	10.5499	0.845834	15.5471	0.203236	4.1292	0.433729	8.04497	0.695902	12.7747	0.739977	13.6545
0.28048	5.018	0.0791596	1.38432	0.279384	5.50002	0.390835	7.6879	0.573882	10.3811	0.846087	15.2899	0.205064	4.08894	0.433973	7.9825	0.695986	12.5614	0.740717	13.4371
0.280722	4.93998	0.0810477	1.39461	0.279557	5.4043	0.391501	7.61527	0.574386	10.218	0.846344	15.0413	0.206901	4.05032	0.434154	7.93724	0.696077	12.3553	0.741464	13.2271
0.280977	4.86471	0.0829418	1.40468	0.279741	5.31219	0.392311	7.52966	0.574899	10.0604	0.846606	14.8008	0.208746	4.01325	0.43427	7.90858	0.696174	12.156	0.742219	13.0241
0.281246	4.79206	0.0848417	1.41454	0.279939	5.22352	0.393269	7.43223	0.57542	9.90793	0.846871	14.5682	0.210599	3.97762	0.434438	7.86777	0.696278	11.9632	0.742979	12.8277
0.281528	4.72191	0.0867471	1.42419	0.280148	5.1381	0.394378	7.32422	0.575949	9.76046	0.847142	14.343	0.212459	3.94337	0.434622	7.82395	0.696389	11.7765	0.743747	12.6377
0.281825	4.65415	0.088658	1.43363	0.280371	5.05579	0.395497	7.22007	0.576486	9.61771	0.847416	14.1248	0.214327	3.91041	0.434873	7.76522	0.696506	11.5958	0.744521	12.4537
0.282135	4.58868	0.0905739	1.44287	0.280606	4.97643	0.396625	7.11957	0.577032	9.47947	0.847695	13.9134	0.216201	3.87867	0.435194	7.69234	0.69663	11.4207	0.745301	12.2754
0.28246	4.52539	0.0924948	1.45192	0.280855	4.89988	0.397763	7.02255	0.577586	9.34553	0.847978	13.7084	0.218082	3.84809	0.435587	7.60622	0.696761	11.251	0.746088	12.1027
0.282799	4.46419	0.0944204	1.46079	0.281117	4.82601	0.39891	6.92882	0.578149	9.21571	0.848265	13.5096	0.219969	3.81861	0.436054	7.50793	0.696899	11.0865	0.746881	11.9352
0.283153	4.40499	0.0963505	1.46946	0.281393	4.7547	0.400066	6.83824	0.57872	9.08981	0.848557	13.3166	0.221862	3.79017	0.436597	7.3986	0.697043	10.9268	0.747681	11.7727
0.283523	4.34772	0.098285	1.47797	0.281683	4.68583	0.401231	6.75065	0.579299	8.96767	0.848853	13.1293	0.223761	3.76272	0.437149	7.29282	0.697195	10.7719	0.748487	11.615
0.283907	4.29229	0.100224	1.4863	0.281987	4.61929	0.402404	6.6659	0.579886	8.84914	0.849154	12.9474	0.225665	3.7362	0.43771	7.19042	0.697353	10.6214	0.7493	11.4619
0.284307	4.23862	0.102166	1.49446	0.282305	4.55498	0.403586	6.58386	0.580482	8.73405	0.849458	12.7706	0.227574	3.71057	0.43828	7.09124	0.697518	10.4753	0.750119	11.3132
0.284722	4.18666	0.104113	1.50245	0.282637	4.4928	0.404776	6.50442	0.581086	8.62226	0.849767	12.5988	0.229488	3.68579	0.438859	6.99515	0.697689	10.3333	0.750944	11.1687
0.285153	4.13633	0.106063	1.51029	0.282985	4.43267	0.405975	6.42744	0.581698	8.51365	0.850081	12.4317	0.231407	3.66181	0.439446	6.90201	0.697867	10.1952	0.751775	11.0282
0.2856	4.08757	0.108017	1.51798	0.283347	4.3745	0.407181	6.35283	0.582238	8.42149	0.850399	12.2692	0.23333	3.6386	0.440042	6.81169	0.698053	10.061	0.752612	10.8916
0.286063	4.04033	0.109974	1.52551	0.283724	4.31821	0.408395	6.28048	0.582704	8.34468	0.850721	12.111	0.235258	3.61613	0.440646	6.72407	0.698245	9.93039	0.753456	10.7588
0.28648	4.00034	0.111935	1.53289	0.284116	4.26372	0.409616	6.21028	0.583092	8.28236	0.851047	11.9571	0.23719	3.59434	0.441259	6.63904	0.698444	9.80332	0.754305	10.6295
0.286845	3.9671	0.113899	1.54013	0.284524	4.21097	0.410845	6.14215	0.583402	8.23383	0.851378	11.8072	0.239126	3.57323	0.441881	6.55649	0.698649	9.67962	0.755161	10.5036
0.287155	3.94019	0.115612	1.54633	0.284948	4.15987	0.412081	6.07599	0.58363	8.19856	0.851713	11.6611	0.241065	3.55274	0.442512	6.47632	0.698862	9.55917	0.756022	10.3811
0.287404	3.91927	0.117075	1.55153	0.285387	4.11038	0.413324	6.01173	0.583777	8.17616	0.852052	11.5188	0.243008	3.53287	0.443151	6.39843	0.699081	9.44185	0.75689	10.2617
0.287589	3.90409	0.118286	1.55578	0.285842	4.06243	0.414574	5.94929	0.583989	8.14421	0.852396	11.3801	0.244954	3.51357	0.4438	6.32273	0.699307	9.32753	0.757764	10.1454
0.287709	3.89446	0.119244	1.5591	0.286314	4.01596	0.415831	5.8886	0.584221	8.1098	0.852744	11.2449	0.246903	3.49483	0.444456	6.24914	0.69954	9.2161	0.758643	10.0321
0.287883	3.88073	0.119949	1.56152	0.286803	3.97091	0.417094	5.82957	0.584537	8.06354	0.853097	11.113	0.248856	3.47662	0.445122	6.17758	0.699779	9.10747	0.759528	9.92152
0.288074	3.86597	0.1204	1.56306	0.287308	3.92725	0.418364	5.77215	0.58494	8.00589	0.853453	10.9844	0.250811	3.45891	0.445796	6.10796	0.700026	9.00153	0.76042	9.81373
0.288338	3.84615	0.121049	1.56527	0.28783	3.88491	0.41964	5.71628	0.585431	7.93743	0.853815	10.8588	0.25277	3.4417	0.446479	6.04021	0.700279	8.89818	0.761317	9.70857
0.288677	3.8215	0.121755	1.56765	0.288369	3.84385	0.420922	5.66189	0.586014	7.85881	0.85418	10.7362	0.25473	3.42494	0.447171	5.97427	0.700539	8.79733	0.762219	9.60595
0.289097	3.79231	0.122715	1.57086	0.288926	3.80403	0.42221	5.60892	0.586689	7.77078	0.85455	10.6166	0.256693	3.40864	0.447872	5.91006	0.700806	8.69891	0.763128	9.50578
0.289601	3.75889	0.12393	1.57488	0.289501	3.7654	0.423504	5.55733	0.587374	7.68501	0.854924	10.4997	0.258659	3.39276	0.448581	5.84753	0.701044	8.61504	0.764042	9.40799
0.290197	3.72161	0.125401	1.57968	0.290093	3.72794	0.424804	5.50706	0.588066	7.60141	0.855303	10.3855	0.260627	3.3773	0.449299	5.78661	0.701251	8.54491	0.764962	9.31248
0.290811	3.68545	0.127129	1.58523	0.290704	3.69159	0.42611	5.45806	0.588766	7.5199	0.855686	10.2739	0.262596	3.36223	0.450026	5.72725	0.701425	8.48783	0.765888	9.21918
0.291443	3.65037	0.129113	1.59148	0.291333	3.65632	0.427421	5.41028	0.589475	7.44041	0.856073	10.1648	0.264568	3.34754	0.450762	5.66938	0.701564	8.44328	0.766819	9.12802
0.292095	3.61633	0.1311	1.59762	0.291981	3.6221	0.428737	5.36369	0.590192	7.36287	0.856464	10.0582	0.266541	3.33322	0.451506	5.61297	0.701668	8.41085	0.767756	9.03892
0.292765	3.5833	0.133089	1.60365	0.292649	3.5889	0.430059	5.31824	0.590917	7.28722	0.85686	9.95396	0.268517	3.31925	0.452259	5.55796	0.701735	8.39023	0.768698	8.95182
0.293455	3.55125	0.135079	1.60957	0.293336	3.55668	0.431385	5.27388	0.591651	7.21338	0.857261	9.85198	0.270493	3.30561	0.453021	5.5043	0.701831	8.36078	0.769646	8.86666
0.294165	3.52015	0.137072	1.61538	0.294042	3.52542	0.432717	5.23059	0.592392	7.14131	0.857665	9.75221	0.272472	3.2923	0.453792	5.45195	0.701937	8.32902	0.770599	8.78336
0.294896	3.48998	0.139067	1.62109	0.294769	3.49509	0.434054	5.18831	0.593142	7.07092	0.858074	9.65458	0.274451	3.2793	0.454571	5.40086	0.702082	8.28625	0.771435	8.71226
0.295646	3.4607	0.141064	1.6267	0.295516	3.46567	0.435396	5.14703	0.5939	7.00219	0.858488	9.55902	0.276432	3.26661	0.455359	5.35099	0.702268	8.23283	0.77215	8.6527
0.296418	3.4323	0.143062	1.6322	0.296284	3.43712	0.436742	5.1067	0.594666	6.93504	0.858905	9.46548	0.278414	3.2542	0.456157	5.3023	0.702496	8.16922	0.772744	8.60417
0.297211	3.40475	0.145062	1.63762	0.297073	3.40942	0.438093	5.06729	0.59544	6.86943	0.859328	9.37388	0.280397	3.24208	0.456962	5.25476	0.702769	8.09595	0.773214	8.56625
0.298026	3.37803	0.147064	1.64293	0.297884	3.38256	0.439448	5.02877	0.596222	6.80531	0.859754	9.28418	0.282382	3.23022	0.457777	5.20833	0.703087	8.01362	0.773561	8.53862
0.298862	3.35211	0.149067	1.64816	0.298717	3.35651	0.440808	4.99112	0.597013	6.74262	0.860185	9.1963	0.284367	3.21862	0.4586	5.16297	0.703413	7.93309	0.773784	8.52105
0.299722	3.32699	0.151072	1.65329	0.299573	3.33125	0.442172	4.9543	0.597811	6.68134	0.86062	9.11021	0.286352	3.20728	0.459433	5.11865	0.703746	7.8543	0.774104	8.49593
0.300604	3.30263	0.153078	1.65834	0.300451	3.30676	0.44354	4.91829	0.598618	6.6214	0.86106	9.02585	0.288339	3.19617	0.460274	5.07533	0.704085	7.77722	0.774453	8.46883
0.30151	3.27901	0.155086	1.6633	0.301353	3.28302	0.444913	4.88306	0.599433	6.56278	0.861504	8.94316	0.290326	3.1853	0.461124	5.033	0.704431	7.70178	0.774928	8.4323
0.30244	3.25614	0.157095	1.66818	0.302279	3.26001	0.446289	4.84858	0.600256	6.50543	0.861894	8.87243	0.292314	3.17466	0.461983	4.99161	0.704783	7.62793	0.775532	8.38664
0.303395	3.23397	0.159105	1.67297	0.303229	3.23773	0.447669	4.81484	0.601087	6.44932	0.862229	8.81309	0.294302	3.16423	0.46285	4.95114	0.705142	7.55563	0.776263	8.33219
0.304374	3.21251	0.161116	1.67768	0.304204	3.21615	0.449053	4.78181	0.601926	6.3944	0.862509	8.76467	0.29629	3.15402	0.463727	4.91157	0.705508	7.48483	0.777126	8.26938
0.305379	3.19173	0.163129	1.68232	0.305205	3.19525	0.450441	4.74947	0.602773	6.34064	0.86273	8.7268	0.298279	3.14401	0.464612	4.87286	0.705881	7.41548	0.77812	8.19868
0.30641	3.17163	0.165142	1.68688	0.306232	3.17503	0.451832	4.71779	0.603628	6.28801	0.862894	8.69917	0.300268	3.13419	0.465506	4.83499	0.70626	7.34755	0.77912	8.12941
0.307468	3.15217	0.167157	1.69136	0.307285	3.15547	0.453228	4.68676	0.604491	6.23647	0.862999	8.6816	0.302257	3.12457	0.466409	4.79794	0.706646	7.28099	0.780125	8.06152
0.308553	3.13337	0.169173	1.69577	0.308365	3.13655	0.454626	4.65636	0.605362	6.186	0.863151	8.65646	0.304247	3.11513	0.467321	4.76168	0.707038	7.21576	0.781135	7.99499
0.309666	3.1152	0.17119	1.70011	0.309473	3.11827	0.456028	4.62657	0.606241	6.13656	0.863316	8.62932	0.306236	3.10587	0.468241	4.72619	0.707438	7.15183	0.78215	7.92976
0.310807	3.09764	0.173207	1.70438	0.310609	3.10061	0.457433	4.59737	0.607128	6.08812	0.863542	8.59271	0.308225	3.09678	0.469171	4.69146	0.707843	7.08916	0.78317	7.8658
0.311977	3.08069	0.175226	1.70857	0.311774	3.08356	0.458842	4.56875	0.608023	6.04066	0.863829	8.54689	0.310214	3.08786	0.470109	4.65745	0.708256	7.02772	0.784196	7.80308
0.313176	3.06434	0.177245	1.71271	0.312968	3.06711	0.460253	4.54068	0.608927	5.99415	0.864178	8.49219	0.312203	3.0791	0.471056	4.62415	0.708675	6.96746	0.785226	7.74156
0.314405	3.04857	0.179265	1.71677	0.314192	3.05124	0.461668	4.51315	0.609838	5.94856	0.86459	8.42899	0.314191	3.0705	0.472013	4.59154	0.7091	6.90837	0.786261	7.68122
0.315664	3.03338	0.181286	1.72077	0.315446	3.03595	0.463086	4.48615	0.610757	5.90387	0.865068	8.35773	0.316179	3.06204	0.472977	4.55961	0.709533	6.8504	0.787302	7.622
0.316954	3.01875	0.183308	1.72471	0.31673	3.02122	0.464506	4.45966	0.611683	5.86005	0.86555	8.28779	0.318167	3.05374	0.473951	4.52832	0.709971	6.79352	0.788347	7.5639
0.318275	3.00467	0.18533	1.72858	0.318046	3.00705	0.46593	4.43367	0.612618	5.81708	0.866036	8.21912	0.320154	3.04558	0.474934	4.49767	0.710416	6.73771	0.789397	7.50687
0.319628	2.99113	0.187353	1.7324	0.319393	2.99342	0.467356	4.40816	0.613561	5.77495	0.866527	8.1517	0.322141	3.03756	0.475926	4.46765	0.710868	6.68295	0.790452	7.45088
0.321012	2.97812	0.189377	1.73615	0.320772	2.98031	0.468785	4.38312	0.614512	5.73361	0.867022	8.08549	0.324127	3.02967	0.476926	4.43822	0.711327	6.62919	0.791512	7.39592
0.322428	2.96562	0.191401	1.73985	0.322183	2.96773	0.470217	4.35854	0.61547	5.69307	0.867521	8.02046	0.326112	3.02191	0.477936	4.40939	0.711792	6.57642	0.792576	7.34195
0.323877	2.95363	0.193426	1.74349	0.323626	2.95566	0.471651	4.3344	0.616436	5.65328	0.868025	7.95658	0.328097	3.01428	0.478954	4.38112	0.712263	6.52461	0.793646	7.28895
0.325357	2.94214	0.195451	1.74707	0.325101	2.94408	0.473088	4.3107	0.61741	5.61425	0.868533	7.89382	0.330081	3.00677	0.479982	4.35342	0.712741	6.47374	0.79472	7.23689
0.32687	2.93112	0.197477	1.7506	0.326608	2.93298	0.474528	4.28742	0.618392	5.57594	0.869046	7.83216	0.332064	2.99937	0.481018	4.32626	0.713225	6.42377	0.795799	7.18575
0.328415	2.92058	0.199503	1.75408	0.328148	2.92236	0.47597	4.26455	0.619382	5.53833	0.869563	7.77156	0.334046	2.9921	0.482063	4.29963	0.713716	6.3747	0.796882	7.1355
0.329993	2.91049	0.20153	1.7575	0.329719	2.91219	0.477414	4.24208	0.62038	5.50142	0.870084	7.71201	0.336027	2.98493	0.483117	4.27352	0.714213	6.3265	0.797971	7.08613
0.331601	2.90084	0.203557	1.76087	0.331323	2.90247	0.47886	4.21999	0.621385	5.46518	0.87061	7.65346	0.338008	2.97788	0.48418	4.24791	0.714717	6.27914	0.799064	7.03761
0.333242	2.89162	0.205585	1.76419	0.332958	2.89318	0.480309	4.19829	0.622398	5.4296	0.87114	7.59591	0.339987	2.97093	0.485252	4.2228	0.715227	6.2326	0.800161	6.98992
0.334913	2.88282	0.207612	1.76746	0.334624	2.8843	0.48176	4.17696	0.623419	5.39466	0.871674	7.53932	0.341965	2.96408	0.486333	4.19816	0.715743	6.18687	0.801263	6.94303
0.336615	2.87442	0.209641	1.77068	0.336321	2.87584	0.483214	4.15599	0.624447	5.36034	0.872213	7.48367	0.343942	2.95733	0.487422	4.174	0.716266	6.14193	0.80237	6.89694
0.338348	2.86641	0.211669	1.77385	0.338048	2.86776	0.484669	4.13536	0.625483	5.32663	0.872756	7.42895	0.345917	2.95068	0.488521	4.1503	0.716796	6.09775	0.803481	6.85162
0.340109	2.85877	0.213698	1.77698	0.339805	2.86005	0.486126	4.11509	0.626527	5.29352	0.873304	7.37512	0.347892	2.94413	0.489629	4.12704	0.717331	6.05432	0.804596	6.80705
0.341899	2.85148	0.215727	1.78006	0.34159	2.85271	0.487585	4.09514	0.627578	5.26099	0.873856	7.32217	0.349865	2.93766	0.490745	4.10422	0.717873	6.01162	0.805716	6.76322
0.343718	2.84454	0.217756	1.7831	0.343404	2.84571	0.489047	4.07552	0.628637	5.22902	0.874412	7.27007	0.351836	2.93128	0.491871	4.08183	0.718422	5.96964	0.806841	6.7201
0.345563	2.83794	0.219785	1.78609	0.345244	2.83905	0.49051	4.05622	0.629704	5.19762	0.874973	7.21882	0.353807	2.92499	0.493005	4.05985	0.718977	5.92835	0.807969	6.67768
0.347435	2.83164	0.221815	1.78904	0.347112	2.8327	0.491975	4.03723	0.630778	5.16675	0.875538	7.16838	0.355775	2.91879	0.494149	4.03828	0.719538	5.88775	0.809103	6.63595
0.349332	2.82565	0.223845	1.79194	0.349005	2.82666	0.493442	4.01855	0.63186	5.13641	0.876108	7.11874	0.357743	2.91267	0.495301	4.01711	0.720105	5.84781	0.81024	6.59489
0.351254	2.81994	0.225874	1.7948	0.350923	2.8209	0.494911	4.00016	0.632949	5.10659	0.876682	7.06988	0.359708	2.90662	0.496462	3.99633	0.720679	5.80852	0.811382	6.55447
0.3532	2.81451	0.227904	1.79763	0.352864	2.81542	0.496381	3.98205	0.634046	5.07727	0.87726	7.02178	0.361673	2.90066	0.497632	3.97593	0.721258	5.76986	0.812528	6.5147
0.355168	2.80934	0.229934	1.80041	0.354829	2.81021	0.497853	3.96423	0.63515	5.04845	0.877843	6.97444	0.363635	2.89476	0.498811	3.95591	0.721845	5.73183	0.813678	6.47555
0.357158	2.80441	0.231965	1.80315	0.356815	2.80524	0.499327	3.94669	0.636262	5.02011	0.87843	6.92782	0.365596	2.88895	0.499999	3.93624	0.722437	5.69441	0.814833	6.43701
0.35917	2.79972	0.233995	1.80585	0.358823	2.80051	0.500803	3.92942	0.637381	4.99224	0.879021	6.88192	0.367555	2.8832	0.501196	3.91694	0.723036	5.65758	0.815991	6.39906
0.361201	2.79526	0.236025	1.80852	0.360851	2.79601	0.50228	3.9124	0.638507	4.96483	0.879617	6.83671	0.369513	2.87753	0.502402	3.89798	0.72364	5.62133	0.817154	6.3617
0.363251	2.791	0.238055	1.81114	0.362898	2.79172	0.503758	3.89565	0.639641	4.93788	0.880217	6.79219	0.371468	2.87192	0.503617	3.87936	0.724252	5.58565	0.818321	6.32491
0.36532	2.78694	0.240086	1.81373	0.364963	2.78763	0.505238	3.87915	0.640782	4.91136	0.880822	6.74834	0.373422	2.86637	0.50484	3.86107	0.724869	5.55053	0.819492	6.28867
0.367406	2.78307	0.242116	1.81629	0.367046	2.78373	0.50672	3.86289	0.641931	4.88528	0.881431	6.70515	0.375374	2.8609	0.506073	3.84312	0.725492	5.51595	0.820667	6.25298
0.369508	2.77939	0.244146	1.8188	0.369146	2.78001	0.508203	3.84687	0.643087	4.85962	0.882045	6.66259	0.377324	2.85548	0.507314	3.82548	0.726122	5.4819	0.821847	6.21783
0.371627	2.77587	0.246176	1.82129	0.371262	2.77646	0.509688	3.83109	0.64425	4.83437	0.882662	6.62066	0.379272	2.85013	0.508565	3.80815	0.726757	5.44838	0.82303	6.1832
0.37376	2.77251	0.248206	1.82374	0.373393	2.77307	0.511174	3.81554	0.64542	4.80953	0.883285	6.57935	0.381218	2.84483	0.509824	3.79113	0.727399	5.41537	0.824217	6.14907
0.375907	2.7693	0.250236	1.82615	0.375538	2.76984	0.512661	3.80021	0.646598	4.78508	0.883911	6.53864	0.383162	2.8396	0.511092	3.77441	0.728047	5.38285	0.825408	6.11545
0.378068	2.76623	0.252266	1.82853	0.377696	2.76675	0.51415	3.78511	0.647783	4.76102	0.884542	6.49852	0.385104	2.83442	0.512369	3.75798	0.728701	5.35083	0.826603	6.08232
0.380242	2.7633	0.254296	1.83088	0.379868	2.76379	0.515639	3.77022	0.648974	4.73734	0.885178	6.45898	0.387044	2.8293	0.513655	3.74184	0.729362	5.31929	0.827802	6.04967
0.382428	2.76049	0.256326	1.8332	0.382052	2.76097	0.517131	3.75554	0.650173	4.71403	0.885817	6.42	0.388982	2.82423	0.514949	3.72599	0.730028	5.28821	0.829004	6.01748
0.384626	2.75781	0.258355	1.83548	0.384248	2.75826	0.518623	3.74106	0.65138	4.69109	0.886462	6.38158	0.390917	2.81921	0.516253	3.7104	0.7307	5.2576	0.830211	5.98576
0.386834	2.75524	0.260385	1.83773	0.386454	2.75567	0.520117	3.72679	0.652593	4.6685	0.88711	6.3437	0.392851	2.81425	0.517565	3.69509	0.731378	5.22743	0.831421	5.95449
0.389053	2.75277	0.262414	1.83996	0.388671	2.75319	0.521612	3.71272	0.653813	4.64626	0.887763	6.30635	0.394782	2.80933	0.518886	3.68004	0.732063	5.19771	0.832635	5.92366
0.391282	2.75041	0.264443	1.84215	0.390898	2.75081	0.523109	3.69884	0.65504	4.62436	0.88842	6.26953	0.396711	2.80446	0.520216	3.66526	0.732753	5.16843	0.833853	5.89326
0.39352	2.74814	0.266472	1.84431	0.393135	2.74853	0.524606	3.68515	0.656274	4.6028	0.889082	6.23321	0.398638	2.79965	0.521554	3.65072	0.733449	5.13956	0.835075	5.86328
0.395766	2.74597	0.2685	1.84645	0.39538	2.74633	0.526105	3.67165	0.657515	4.58157	0.889748	6.1974	0.400563	2.79488	0.522902	3.63644	0.734152	5.11111	0.8363	5.83372
0.398021	2.74388	0.270529	1.84855	0.397634	2.74423	0.527605	3.65833	0.658763	4.56065	0.890419	6.16208	0.402485	2.79015	0.524258	3.6224	0.73486	5.08308	0.837529	5.80457
0.400284	2.74187	0.272557	1.85063	0.399895	2.74221	0.529106	3.64519	0.660018	4.54006	0.891094	6.12725	0.404405	2.78547	0.525623	3.6086	0.735574	5.05544	0.838761	5.77582
0.402555	2.73993	0.274585	1.85268	0.402164	2.74026	0.530608	3.63222	0.661279	4.51977	0.891773	6.09289	0.406323	2.78083	0.526996	3.59503	0.736295	5.02819	0.839998	5.74745
0.404832	2.73807	0.276612	1.8547	0.404441	2.73838	0.532111	3.61943	0.662547	4.49978	0.892457	6.05899	0.408238	2.77624	0.528378	3.5817	0.737021	5.00133	0.841237	5.71948
0.407116	2.73628	0.27864	1.85669	0.406724	2.73658	0.533616	3.6068	0.663823	4.48009	0.893145	6.02555	0.410152	2.77169	0.529769	3.56859	0.737753	4.97484	0.84248	5.69187
0.409407	2.73455	0.280667	1.85866	0.409013	2.73484	0.535121	3.59435	0.665104	4.46069	0.893838	5.99255	0.412062	2.76718	0.531169	3.5557	0.738491	4.94873	0.843727	5.66464
0.411704	2.73288	0.282694	1.8606	0.411309	2.73316	0.536628	3.58205	0.666393	4.44158	0.894535	5.95999	0.413971	2.76271	0.532577	3.54303	0.739235	4.92298	0.844977	5.63777
0.414006	2.73127	0.28472	1.86252	0.41361	2.73154	0.538136	3.56991	0.667688	4.42275	0.895236	5.92787	0.415877	2.75828	0.533993	3.53057	0.739985	4.89758	0.846231	5.61125
0.416314	2.72972	0.286746	1.86441	0.415917	2.72998	0.539644	3.55793	0.668989	4.40419	0.895942	5.89617	0.41778	2.75389	0.535418	3.51832	0.74074	4.87254	0.847488	5.58508
0.418626	2.72822	0.288772	1.86628	0.418229	2.72847	0.541154	3.5461	0.670298	4.3859	0.896652	5.86488	0.419681	2.74953	0.536852	3.50627	0.741502	4.84783	0.848749	5.55925
0.420944	2.72676	0.290798	1.86812	0.420546	2.72701	0.542665	3.53442	0.671612	4.36788	0.897366	5.834	0.42158	2.74521	0.538294	3.49443	0.742269	4.82347	0.850012	5.53376
0.423266	2.72536	0.292823	1.86994	0.422867	2.7256	0.544177	3.5229	0.672934	4.35011	0.898085	5.80352	0.423476	2.74093	0.539745	3.48278	0.743042	4.79943	0.851279	5.5086
0.425593	2.724	0.294848	1.87173	0.425193	2.72423	0.545691	3.51151	0.674261	4.3326	0.898809	5.77344	0.42537	2.73669	0.541204	3.47132	0.743821	4.77573	0.85255	5.48376
0.427923	2.72268	0.296872	1.8735	0.427523	2.7229	0.547205	3.50027	0.675595	4.31533	0.899536	5.74374	0.427261	2.73248	0.542671	3.46006	0.744605	4.75233	0.853824	5.45923
0.430258	2.7214	0.298896	1.87525	0.429857	2.72162	0.54872	3.48917	0.676935	4.29832	0.900268	5.71442	0.42915	2.7283	0.544147	3.44898	0.745396	4.72926	0.855101	5.43502
0.432596	2.72016	0.30092	1.87697	0.432194	2.72037	0.550236	3.4782	0.678282	4.28154	0.901005	5.68547	0.431037	2.72416	0.545631	3.43808	0.746192	4.70649	0.856381	5.41112
0.434938	2.71895	0.302943	1.87868	0.434536	2.71916	0.551754	3.46737	0.679635	4.26499	0.901746	5.65689	0.432921	2.72005	0.547124	3.42737	0.746994	4.68402	0.857664	5.38751
0.437283	2.71778	0.304966	1.88036	0.43688	2.71798	0.553272	3.45668	0.680994	4.24868	0.902491	5.62866	0.434803	2.71597	0.548624	3.41682	0.747802	4.66185	0.858951	5.3642
0.439631	2.71665	0.306988	1.88201	0.439228	2.71684	0.554792	3.44611	0.68236	4.2326	0.903241	5.60079	0.436682	2.71193	0.550133	3.40646	0.748615	4.63997	0.86024	5.34117
0.441982	2.71554	0.30901	1.88365	0.441578	2.71573	0.556313	3.43568	0.683731	4.21674	0.903995	5.57327	0.438559	2.70792	0.55165	3.39625	0.749434	4.61838	0.861533	5.31843
0.444336	2.71446	0.311032	1.88527	0.443931	2.71465	0.557835	3.42536	0.685109	4.20109	0.904754	5.54609	0.440433	2.70393	0.553175	3.38622	0.750259	4.59707	0.862829	5.29597
0.446692	2.71341	0.313053	1.88686	0.446287	2.71359	0.559357	3.41518	0.686492	4.18566	0.905517	5.51925	0.442305	2.69998	0.554708	3.37635	0.75109	4.57603	0.864128	5.27379
0.449051	2.71239	0.315074	1.88844	0.448646	2.71257	0.560881	3.40511	0.687882	4.17044	0.906284	5.49273	0.444175	2.69606	0.556249	3.36664	0.751926	4.55527	0.86543	5.25187
0.451412	2.7114	0.317094	1.88999	0.451007	2.71157	0.562407	3.39517	0.689277	4.15543	0.907056	5.46654	0.446042	2.69217	0.557798	3.35708	0.752768	4.53477	0.866735	5.23022
0.453776	2.71042	0.319114	1.89153	0.45337	2.71059	0.563933	3.38534	0.690679	4.14062	0.907832	5.44067	0.447906	2.68831	0.559356	3.34768	0.753615	4.51454	0.868043	5.20882
0.456141	2.70948	0.321133	1.89304	0.455735	2.70964	0.56546	3.37563	0.692086	4.12602	0.908612	5.41511	0.449769	2.68447	0.560921	3.33843	0.754468	4.49456	0.869354	5.18769
0.458509	2.70855	0.323152	1.89454	0.458102	2.70871	0.566989	3.36603	0.693499	4.1116	0.909397	5.38986	0.451629	2.68067	0.562493	3.32933	0.755327	4.47484	0.870668	5.1668
0.460878	2.70764	0.32517	1.89601	0.460471	2.7078	0.568518	3.35655	0.694918	4.09738	0.910186	5.36491	0.453486	2.67689	0.564074	3.32038	0.756191	4.45537	0.871984	5.14616
0.463249	2.70675	0.327188	1.89747	0.462842	2.70691	0.570049	3.34717	0.696343	4.08335	0.91098	5.34026	0.455342	2.67314	0.565662	3.31157	0.757061	4.43615	0.873304	5.12576
0.465621	2.70589	0.329206	1.89891	0.465214	2.70603	0.571581	3.33791	0.697774	4.06951	0.911778	5.31591	0.457195	2.66942	0.567258	3.30289	0.757937	4.41716	0.874626	5.10561
0.467995	2.70504	0.331223	1.90033	0.467588	2.70518	0.573115	3.32875	0.69921	4.05584	0.912581	5.29184	0.459046	2.66572	0.568862	3.29436	0.758818	4.39841	0.875951	5.08568
0.470371	2.7042	0.333239	1.90174	0.469963	2.70435	0.574649	3.3197	0.700651	4.04236	0.913388	5.26806	0.460894	2.66205	0.570473	3.28596	0.759704	4.3799	0.877279	5.06599
0.472747	2.70339	0.335255	1.90312	0.472339	2.70353	0.576185	3.31075	0.702098	4.02905	0.914199	5.24456	0.46274	2.65841	0.572091	3.27769	0.760597	4.36161	0.87861	5.04652
0.475125	2.70259	0.33727	1.90449	0.474717	2.70272	0.577722	3.30191	0.703551	4.01591	0.915015	5.22133	0.464584	2.6548	0.573717	3.26956	0.761494	4.34355	0.879943	5.02728
0.477504	2.7018	0.339285	1.90584	0.477096	2.70193	0.57926	3.29316	0.705009	4.00295	0.915835	5.19837	0.466426	2.65121	0.575351	3.26155	0.762398	4.32572	0.881279	5.00825
0.479884	2.70103	0.341299	1.90717	0.479476	2.70116	0.5808	3.28452	0.706473	3.99015	0.91666	5.17568	0.468265	2.64764	0.576992	3.25366	0.763306	4.3081	0.882618	4.98944
0.482265	2.70027	0.343313	1.90849	0.481856	2.7004	0.582341	3.27597	0.707942	3.97752	0.917489	5.15325	0.470103	2.6441	0.57864	3.2459	0.76422	4.2907	0.88396	4.97084
0.484647	2.69952	0.345326	1.90979	0.484238	2.69965	0.583883	3.26752	0.709416	3.96504	0.918322	5.13108	0.471938	2.64059	0.580295	3.23826	0.76514	4.27351	0.885304	4.95245
0.487029	2.69878	0.347338	1.91107	0.48662	2.69891	0.585427	3.25917	0.710895	3.95273	0.91916	5.10917	0.473771	2.63709	0.581957	3.23074	0.766065	4.25652	0.88665	4.93427
0.489413	2.69806	0.349351	1.91234	0.489003	2.69818	0.586972	3.25091	0.71238	3.94057	0.920002	5.0875	0.475602	2.63363	0.583626	3.22334	0.766996	4.23975	0.887999	4.91629
0.491796	2.69735	0.351362	1.91359	0.491387	2.69747	0.588518	3.24274	0.71387	3.92857	0.920849	5.06608	0.477432	2.63019	0.585303	3.21605	0.767932	4.22317	0.889351	4.8985
0.494181	2.69664	0.353373	1.91482	0.493771	2.69676	0.590066	3.23466	0.715365	3.91671	0.9217	5.0449	0.479259	2.62677	0.586986	3.20887	0.768874	4.20679	0.890705	4.88091
0.496565	2.69595	0.355383	1.91604	0.496156	2.69607	0.591616	3.22668	0.716865	3.905	0.922555	5.02396	0.481084	2.62338	0.588676	3.2018	0.769821	4.19061	0.892062	4.86352
0.49895	2.69527	0.357393	1.91725	0.498541	2.69538	0.593167	3.21878	0.71837	3.89344	0.923415	5.00326	0.482907	2.62001	0.590373	3.19484	0.770773	4.17463	0.893421	4.84631
0.501336	2.69459	0.359402	1.91844	0.500926	2.69471	0.594719	3.21097	0.71988	3.88202	0.924279	4.98279	0.484728	2.61666	0.592076	3.18798	0.771731	4.15883	0.894782	4.82929
0.503721	2.69392	0.36141	1.91961	0.503312	2.69404	0.596273	3.20325	0.721395	3.87074	0.925148	4.96255	0.486548	2.61334	0.593786	3.18123	0.772694	4.14322	0.896146	4.81245
0.506107	2.69326	0.363418	1.92077	0.505697	2.69337	0.597829	3.19561	0.722914	3.8596	0.926021	4.94253	0.488365	2.61004	0.595503	3.17458	0.773663	4.12779	0.897513	4.79579
0.508493	2.69261	0.365426	1.92192	0.508083	2.69272	0.599386	3.18806	0.724439	3.8486	0.926898	4.92273	0.490181	2.60677	0.597226	3.16803	0.774637	4.11254	0.898881	4.77931
0.510879	2.69196	0.367432	1.92305	0.510469	2.69207	0.600945	3.18059	0.725968	3.83773	0.92778	4.90315	0.491995	2.60351	0.598956	3.16158	0.775616	4.09747	0.900252	4.76301
0.513264	2.69132	0.369438	1.92416	0.512855	2.69143	0.602506	3.1732	0.727502	3.82699	0.928666	4.88379	0.493808	2.60028	0.600692	3.15523	0.776601	4.08258	0.901626	4.74687
0.51565	2.69068	0.371444	1.92527	0.51524	2.69079	0.604069	3.1659	0.729041	3.81638	0.929557	4.86464	0.495618	2.59708	0.602434	3.14897	0.777591	4.06786	0.903001	4.73091
0.518036	2.69005	0.373448	1.92635	0.517626	2.69016	0.605633	3.15867	0.730584	3.80589	0.930452	4.8457	0.497427	2.59389	0.604182	3.1428	0.778586	4.05331	0.904379	4.71511
0.520421	2.68943	0.375453	1.92743	0.520011	2.68953	0.607199	3.15153	0.732132	3.79554	0.931351	4.82696	0.499235	2.59073	0.605937	3.13673	0.779587	4.03893	0.905759	4.69948
0.522806	2.68881	0.377456	1.92849	0.522396	2.68891	0.608767	3.14446	0.733685	3.7853	0.932255	4.80843	0.501041	2.58759	0.607697	3.13074	0.780593	4.02472	0.907141	4.68401
0.52519	2.68819	0.379459	1.92954	0.524781	2.68829	0.610337	3.13747	0.735241	3.77519	0.933163	4.79009	0.502845	2.58448	0.609464	3.12484	0.781605	4.01067	0.908525	4.6687
0.527575	2.68758	0.381461	1.93057	0.527165	2.68768	0.611909	3.13055	0.736803	3.76519	0.934076	4.77195	0.504648	2.58138	0.611236	3.11903	0.782621	3.99678	0.909912	4.65354
0.529958	2.68697	0.383463	1.9316	0.529549	2.68707	0.613482	3.12372	0.738368	3.75531	0.934993	4.75401	0.506449	2.57831	0.613014	3.1133	0.783643	3.98304	0.9113	4.63854
0.532341	2.68636	0.385464	1.93261	0.531932	2.68646	0.615058	3.11695	0.739938	3.74555	0.935915	4.73626	0.508249	2.57526	0.614798	3.10766	0.784671	3.96947	0.912691	4.62369
0.534724	2.68575	0.387464	1.9336	0.534315	2.68586	0.616636	3.11026	0.741513	3.7359	0.936841	4.7187	0.510048	2.57223	0.616587	3.10209	0.785703	3.95604	0.914084	4.60899
0.537105	2.68515	0.389464	1.93459	0.536696	2.68525	0.618216	3.10365	0.743091	3.72636	0.937771	4.70132	0.511846	2.56922	0.618382	3.09661	0.786741	3.94277	0.915478	4.59444
0.539486	2.68455	0.391463	1.93556	0.539077	2.68465	0.619799	3.09711	0.744673	3.71693	0.938706	4.68413	0.513642	2.56624	0.620182	3.0912	0.787784	3.92965	0.916875	4.58004
0.541866	2.68395	0.393461	1.93652	0.541458	2.68405	0.621383	3.09064	0.74626	3.70761	0.939645	4.66712	0.515437	2.56327	0.621988	3.08587	0.788833	3.91668	0.918274	4.56577
0.544246	2.68335	0.395459	1.93747	0.543837	2.68345	0.62297	3.08424	0.747851	3.69839	0.940589	4.65028	0.517231	2.56033	0.623799	3.08062	0.789886	3.90385	0.919675	4.55165
0.546624	2.68275	0.397456	1.9384	0.546216	2.68286	0.62456	3.07791	0.749446	3.68928	0.941537	4.63363	0.519023	2.55741	0.625616	3.07543	0.790945	3.89117	0.921077	4.53767
0.549001	2.68216	0.399452	1.93932	0.548593	2.68226	0.626151	3.07165	0.751044	3.68027	0.942489	4.61714	0.520815	2.55451	0.627437	3.07033	0.792009	3.87863	0.922482	4.52383
0.551377	2.68156	0.401448	1.94024	0.550969	2.68166	0.627745	3.06546	0.752647	3.67136	0.943446	4.60083	0.522605	2.55163	0.629264	3.06529	0.793079	3.86622	0.923889	4.51012
0.553752	2.68096	0.403443	1.94114	0.553344	2.68106	0.629342	3.05933	0.754254	3.66255	0.944407	4.58469	0.524395	2.54877	0.631095	3.06032	0.794153	3.85396	0.925297	4.49654
0.556126	2.68036	0.405437	1.94203	0.555718	2.68046	0.630941	3.05328	0.755864	3.65384	0.945373	4.56871	0.526184	2.54594	0.632931	3.05542	0.795233	3.84183	0.926707	4.4831
0.558498	2.67976	0.40743	1.94291	0.558091	2.67986	0.632543	3.04729	0.757478	3.64523	0.946343	4.5529	0.527971	2.54312	0.634773	3.05059	0.796318	3.82983	0.928119	4.46978
0.560869	2.67916	0.409423	1.94377	0.560462	2.67926	0.634148	3.04137	0.759096	3.63671	0.947317	4.53725	0.529758	2.54033	0.636618	3.04582	0.797409	3.81797	0.929533	4.45659
0.563238	2.67856	0.411415	1.94463	0.562832	2.67866	0.635755	3.03552	0.760717	3.62828	0.948296	4.52176	0.531544	2.53756	0.638469	3.04112	0.798504	3.80623	0.930948	4.44353
0.565606	2.67795	0.413407	1.94547	0.5652	2.67806	0.637365	3.02973	0.762342	3.61994	0.94928	4.50643	0.533329	2.53481	0.640324	3.03648	0.799605	3.79463	0.932366	4.43059
0.567973	2.67735	0.415398	1.94631	0.567567	2.67745	0.638978	3.024	0.763971	3.6117	0.950267	4.49126	0.535114	2.53208	0.642184	3.0319	0.800711	3.78315	0.933785	4.41778
0.570337	2.67674	0.417388	1.94713	0.569931	2.67684	0.640594	3.01834	0.765603	3.60354	0.95126	4.47623	0.536898	2.52937	0.644048	3.02739	0.801822	3.77179	0.935205	4.40508
0.5727	2.67613	0.419377	1.94795	0.572295	2.67623	0.642214	3.01275	0.767239	3.59547	0.952256	4.46136	0.538681	2.52668	0.645916	3.02293	0.802938	3.76056	0.936628	4.3925
0.575061	2.67551	0.421366	1.94875	0.574656	2.67562	0.643836	3.00721	0.768878	3.58749	0.953257	4.44664	0.540464	2.52401	0.647788	3.01853	0.804059	3.74945	0.938052	4.38004
0.57742	2.67489	0.423354	1.94954	0.577015	2.675	0.645461	3.00174	0.770521	3.57959	0.954263	4.43207	0.542246	2.52136	0.649665	3.01419	0.805186	3.73846	0.939477	4.3677
0.579777	2.67427	0.425341	1.95033	0.579373	2.67437	0.64709	2.99633	0.772166	3.57178	0.955273	4.41765	0.544028	2.51873	0.651546	3.00991	0.806318	3.72759	0.940905	4.35547
0.582132	2.67364	0.427328	1.9511	0.581728	2.67375	0.648723	2.99099	0.773815	3.56405	0.956287	4.40336	0.545809	2.51612	0.653431	3.00568	0.807455	3.71684	0.942334	4.34335
0.584485	2.67301	0.429313	1.95187	0.584081	2.67311	0.650358	2.9857	0.775468	3.5564	0.957306	4.38923	0.547589	2.51354	0.655319	3.0015	0.808597	3.7062	0.943764	4.33134
0.586835	2.67237	0.431298	1.95262	0.586432	2.67248	0.651998	2.98048	0.777123	3.54882	0.958329	4.37523	0.54937	2.51097	0.657212	2.99738	0.809744	3.69568	0.945196	4.31945
0.589183	2.67172	0.433283	1.95336	0.58878	2.67184	0.653641	2.97532	0.778782	3.54133	0.959356	4.36137	0.55115	2.50843	0.659108	2.99331	0.810896	3.68527	0.946629	4.30766
0.591529	2.67108	0.435267	1.9541	0.591126	2.67119	0.655287	2.97022	0.780443	3.53392	0.960388	4.34764	0.55293	2.5059	0.661008	2.98929	0.812054	3.67497	0.948064	4.29597
0.593871	2.67042	0.437249	1.95482	0.593469	2.67053	0.656938	2.96518	0.782108	3.52658	0.961425	4.33405	0.554709	2.50339	0.662911	2.98531	0.813217	3.66478	0.949501	4.28439
0.596212	2.66976	0.439232	1.95554	0.59581	2.66987	0.658592	2.9602	0.783776	3.51931	0.962466	4.3206	0.556488	2.50091	0.664818	2.98139	0.814385	3.6547	0.950939	4.27292
0.598549	2.66909	0.441213	1.95625	0.598148	2.66921	0.660251	2.95528	0.785447	3.51212	0.963511	4.30728	0.558267	2.49844	0.666728	2.97752	0.815558	3.64472	0.952378	4.26154
0.600884	2.66841	0.443194	1.95695	0.600483	2.66853	0.661913	2.95041	0.78712	3.505	0.964561	4.29409	0.560046	2.496	0.668642	2.97369	0.816736	3.63485	0.953819	4.25027
0.603215	2.66773	0.445174	1.95764	0.602815	2.66785	0.66358	2.94561	0.788797	3.49795	0.965615	4.28102	0.561825	2.49357	0.670559	2.96991	0.817919	3.62509	0.955261	4.2391
0.605544	2.66704	0.447153	1.95832	0.605144	2.66716	0.665251	2.94087	0.790476	3.49098	0.966674	4.26809	0.563604	2.49116	0.672479	2.96618	0.819108	3.61542	0.956704	4.22802
0.607869	2.66634	0.449132	1.95899	0.60747	2.66646	0.666927	2.93618	0.792158	3.48407	0.967737	4.25527	0.565383	2.48878	0.674403	2.96249	0.820301	3.60586	0.958149	4.21704
0.610191	2.66563	0.45111	1.95965	0.609792	2.66575	0.668607	2.93155	0.793843	3.47723	0.968804	4.24259	0.567161	2.48641	0.676329	2.95884	0.8215	3.59641	0.959595	4.20616
0.612509	2.66491	0.453087	1.96031	0.612111	2.66503	0.670292	2.92698	0.79553	3.47046	0.969876	4.23002	0.56894	2.48406	0.678258	2.95523	0.822704	3.58704	0.961042	4.19537
0.614824	2.66418	0.455063	1.96095	0.614427	2.66431	0.671981	2.92247	0.79722	3.46375	0.970952	4.21758	0.570719	2.48173	0.68019	2.95167	0.823913	3.57778	0.962491	4.18467
0.617135	2.66344	0.457039	1.96159	0.616739	2.66357	0.673676	2.91802	0.798913	3.45711	0.972033	4.20525	0.572498	2.47942	0.682125	2.94815	0.825127	3.56862	0.963941	4.17407
0.619443	2.6627	0.459014	1.96222	0.619047	2.66283	0.675375	2.91362	0.800608	3.45054	0.973119	4.19305	0.574278	2.47713	0.684063	2.94466	0.826347	3.55955	0.965392	4.16356
0.621746	2.66194	0.460988	1.96284	0.621351	2.66207	0.67708	2.90928	0.802306	3.44403	0.974208	4.18096	0.576057	2.47486	0.686003	2.94122	0.827571	3.55057	0.966844	4.15313
0.624045	2.66117	0.462961	1.96345	0.623651	2.6613	0.67879	2.905	0.804006	3.43757	0.975302	4.16899	0.577837	2.47261	0.687946	2.93781	0.828801	3.54169	0.968298	4.1428
0.626341	2.66038	0.464934	1.96406	0.625947	2.66052	0.680506	2.90077	0.805708	3.43119	0.976401	4.15712	0.579617	2.47038	0.689891	2.93445	0.830035	3.5329	0.969753	4.13255
0.628631	2.65959	0.466906	1.96466	0.628238	2.65973	0.682227	2.89661	0.807413	3.42486	0.977504	4.14538	0.581397	2.46817	0.691839	2.93111	0.831275	3.5242	0.971209	4.12238
0.630918	2.65878	0.468877	1.96525	0.630526	2.65892	0.683953	2.89249	0.809121	3.41859	0.978611	4.13374	0.583177	2.46597	0.693789	2.92782	0.83252	3.5156	0.972666	4.11231
0.6332	2.65796	0.470847	1.96583	0.632808	2.6581	0.685686	2.88844	0.81083	3.41238	0.979723	4.12221	0.584958	2.4638	0.695742	2.92456	0.833771	3.50708	0.974124	4.10231
0.635477	2.65713	0.472817	1.9664	0.635086	2.65727	0.687424	2.88444	0.812542	3.40623	0.98084	4.1108	0.58674	2.46164	0.697696	2.92134	0.835026	3.49865	0.975583	4.0924
0.637749	2.65628	0.474786	1.96697	0.637359	2.65643	0.689169	2.8805	0.814256	3.40013	0.98196	4.09949	0.588522	2.4595	0.699653	2.91814	0.836286	3.4903	0.977044	4.08257
0.640016	2.65542	0.476754	1.96753	0.639627	2.65557	0.69092	2.87662	0.815972	3.39409	0.983086	4.08828	0.590304	2.45738	0.701612	2.91499	0.837552	3.48204	0.978505	4.07282
0.642278	2.65454	0.478722	1.96808	0.64189	2.65469	0.692677	2.87279	0.81769	3.38811	0.984215	4.07718	0.592087	2.45528	0.703573	2.91186	0.838823	3.47387	0.979967	4.06315
0.644534	2.65365	0.480689	1.96863	0.644147	2.6538	0.694441	2.86902	0.819411	3.38218	0.985349	4.06619	0.59387	2.4532	0.705535	2.90877	0.840099	3.46578	0.981431	4.05356
0.646785	2.65274	0.482655	1.96917	0.646399	2.6529	0.696211	2.86531	0.821133	3.37631	0.986488	4.05529	0.595654	2.45113	0.7075	2.90571	0.84138	3.45778	0.982895	4.04405
0.649031	2.65182	0.48462	1.9697	0.648646	2.65198	0.697989	2.86165	0.822857	3.37048	0.987631	4.0445	0.597438	2.44908	0.709466	2.90267	0.842666	3.44986	0.984361	4.03461
0.651271	2.65088	0.486584	1.97022	0.650886	2.65104	0.699773	2.85805	0.824584	3.36472	0.988779	4.03381	0.599223	2.44705	0.711434	2.89967	0.843958	3.44201	0.985827	4.02525
0.653504	2.64992	0.488548	1.97074	0.653121	2.65009	0.701564	2.8545	0.826312	3.359	0.989931	4.02322	0.601009	2.44504	0.713404	2.8967	0.845255	3.43425	0.987295	4.01596
0.655732	2.64895	0.490511	1.97125	0.65535	2.64911	0.703363	2.85101	0.828042	3.35333	0.991087	4.01272	0.602795	2.44305	0.715375	2.89376	0.846556	3.42657	0.988763	4.00675
0.657954	2.64795	0.492474	1.97175	0.657573	2.64813	0.705169	2.84758	0.829774	3.34771	0.992248	4.00233	0.604582	2.44108	0.717348	2.89084	0.847863	3.41897	0.990232	3.99761
0.660169	2.64694	0.494435	1.97225	0.659789	2.64712	0.706983	2.8442	0.831507	3.34214	0.993413	3.99202	0.606369	2.43912	0.719322	2.88795	0.849176	3.41144	0.991702	3.98854
0.662378	2.64592	0.496396	1.97274	0.661999	2.64609	0.708804	2.84088	0.833243	3.33662	0.994583	3.98182	0.608158	2.43718	0.721297	2.88509	0.850493	3.40399	0.993173	3.97955
0.66458	2.64487	0.498356	1.97322	0.664202	2.64505	0.710633	2.83761	0.83498	3.33115	0.995757	3.9717	0.609947	2.43526	0.723274	2.88226	0.851816	3.39662	0.994645	3.97062
0.666775	2.6438	0.500316	1.9737	0.666399	2.64399	0.712471	2.83441	0.836719	3.32573	0.996936	3.96168	0.611737	2.43335	0.725252	2.87945	0.853143	3.38932	0.996118	3.96177
0.668964	2.64272	0.502274	1.97417	0.668588	2.64291	0.714316	2.83125	0.838459	3.32035	0.998119	3.95175	0.613528	2.43146	0.727231	2.87667	0.854476	3.3821	0.997592	3.95298
0.671145	2.64161	0.504232	1.97463	0.670771	2.6418	0.716169	2.82816	0.840201	3.31502	0.999307	3.94191	0.615319	2.42959	0.729211	2.87391	0.855815	3.37495	0.999066	3.94426
0.673319	2.64049	0.506189	1.97509	0.672947	2.64068	0.718031	2.82511	0.841945	3.30973	1.0005	3.93217	0.617112	2.42774	0.731192	2.87117	0.857158	3.36788	1.00054	3.93561
0.675486	2.63934	0.508146	1.97554	0.675115	2.63954	0.719902	2.82213	0.84369	3.30449			0.618905	2.4259	0.733175	2.86846	0.858507	3.36087		
0.677646	2.63818	0.510102	1.97599	0.677276	2.63838	0.721781	2.8192	0.845437	3.29929			0.620699	2.42408	0.735158	2.86578	0.85986	3.35394		
0.679798	2.63699	0.512057	1.97643	0.679429	2.6372	0.723669	2.81632	0.847185	3.29413			0.622494	2.42228	0.737142	2.86311	0.86122	3.34708		
0.681943	2.63578	0.514011	1.97686	0.681575	2.63599	0.725566	2.8135	0.848935	3.28902			0.62429	2.42049	0.739126	2.86047	0.862584	3.34028		
0.68408	2.63456	0.515964	1.97729	0.683713	2.63477	0.727471	2.81074	0.850686	3.28395			0.626087	2.41872	0.741112	2.85785	0.863953	3.33356		
0.686209	2.63331	0.517917	1.97771	0.685844	2.63352	0.729386	2.80803	0.852438	3.27892			0.627885	2.41697	0.743098	2.85525	0.865328	3.3269		
0.68833	2.63204	0.519869	1.97813	0.687967	2.63226	0.73131	2.80537	0.854191	3.27393			0.629684	2.41523	0.745084	2.85267	0.866708	3.32032		
0.690444	2.63075	0.521821	1.97854	0.690081	2.63097	0.733243	2.80277	0.855946	3.26899			0.631484	2.41351	0.747072	2.85011	0.868094	3.3138		
0.692549	2.62943	0.523771	1.97895	0.692188	2.62966	0.735186	2.80022	0.857702	3.26408			0.633285	2.4118	0.749059	2.84757	0.869485	3.30734		
0.694646	2.6281	0.525721	1.97935	0.694287	2.62833	0.737137	2.79773	0.85946	3.25921			0.635087	2.41011	0.751047	2.84505	0.87088	3.30095		
0.696736	2.62675	0.52767	1.97974	0.696378	2.62698	0.739098	2.79529	0.861218	3.25438			0.63689	2.40844	0.753035	2.84255	0.872282	3.29463		
0.698817	2.62537	0.529619	1.98013	0.69846	2.62561	0.741069	2.7929	0.862978	3.24959			0.638694	2.40678	0.755024	2.84007	0.873688	3.28837		
0.70089	2.62397	0.531567	1.98051	0.700535	2.62422	0.743049	2.79056	0.864739	3.24484			0.640499	2.40514	0.757013	2.83761	0.8751	3.28217		
0.702955	2.62256	0.533514	1.98089	0.702601	2.6228	0.745038	2.78828	0.866501	3.24012			0.642305	2.40351	0.759002	2.83516	0.876517	3.27604		
0.705012	2.62112	0.53546	1.98126	0.70466	2.62137	0.747037	2.78604	0.868264	3.23544			0.644112	2.4019	0.760991	2.83273	0.87794	3.26997		
0.707061	2.61966	0.537406	1.98163	0.70671	2.61992	0.749045	2.78386	0.870027	3.2308			0.645921	2.40031	0.76298	2.83032	0.879367	3.26396		
0.709102	2.61819	0.539351	1.98199	0.708752	2.61844	0.751063	2.78173	0.871792	3.22619			0.64773	2.39873	0.764969	2.82792	0.880801	3.25802		
0.711134	2.61669	0.541295	1.98235	0.710786	2.61695	0.753091	2.77964	0.873558	3.22162			0.649541	2.39716	0.766958	2.82554	0.882239	3.25213		
0.713159	2.61518	0.543238	1.9827	0.712812	2.61544	0.755127	2.77761	0.875325	3.21708			0.651353	2.39561	0.768947	2.82318	0.883683	3.2463		
0.715176	2.61364	0.545181	1.98305	0.71483	2.61391	0.757173	2.77562	0.877093	3.21257			0.653166	2.39407	0.770935	2.82083	0.885132	3.24053		
0.717185	2.61209	0.547123	1.9834	0.71684	2.61236	0.759228	2.77368	0.878861	3.2081			0.65498	2.39255	0.772924	2.8185	0.886587	3.23483		
0.719186	2.61052	0.549065	1.98373	0.718843	2.61079	0.761293	2.77179	0.880631	3.20367			0.656796	2.39105	0.774912	2.81618	0.888047	3.22917		
0.721179	2.60893	0.551006	1.98407	0.720837	2.60921	0.763366	2.76994	0.882401	3.19926			0.658612	2.38956	0.7769	2.81388	0.889512	3.22358		
0.723165	2.60733	0.552946	1.98439	0.722825	2.6076	0.765449	2.76814	0.884172	3.19489			0.66043	2.38808	0.778887	2.81159	0.890983	3.21805		
0.725143	2.60571	0.554885	1.98472	0.724804	2.60599	0.76754	2.76638	0.885944	3.19055			0.662249	2.38662	0.780874	2.80931	0.892459	3.21257		
0.727114	2.60407	0.556824	1.98504	0.726776	2.60435	0.769641	2.76467	0.887716	3.18624			0.664069	2.38517	0.78286	2.80705	0.89394	3.20714		
0.729078	2.60242	0.558762	1.98535	0.728741	2.6027	0.77175	2.763	0.889489	3.18197			0.665891	2.38373	0.784846	2.8048	0.895427	3.20178		
0.731034	2.60075	0.560699	1.98566	0.730699	2.60104	0.773867	2.76137	0.891263	3.17772			0.667714	2.38231	0.786832	2.80256	0.89692	3.19646		
0.732984	2.59907	0.562636	1.98597	0.732649	2.59936	0.775993	2.75978	0.893037	3.17351			0.669537	2.38091	0.788816	2.80034	0.898417	3.19121		
0.734926	2.59738	0.564572	1.98627	0.734593	2.59767	0.778128	2.75823	0.894813	3.16932			0.671363	2.37951	0.7908	2.79813	0.899921	3.186		
0.736862	2.59568	0.566507	1.98657	0.73653	2.59597	0.78027	2.75672	0.896588	3.16517			0.673189	2.37813	0.792783	2.79593	0.901429	3.18085		
0.738791	2.59396	0.568442	1.98686	0.73846	2.59425	0.782421	2.75525	0.898364	3.16104			0.675017	2.37677	0.794765	2.79374	0.902943	3.17575		
0.740714	2.59223	0.570376	1.98715	0.740384	2.59253	0.78458	2.75382	0.900141	3.15694			0.676846	2.37541	0.796747	2.79156	0.904463	3.17071		
0.74263	2.59049	0.572309	1.98743	0.742302	2.59079	0.786746	2.75242	0.901919	3.15287			0.678676	2.37408	0.798727	2.78939	0.905988	3.16571		
0.744541	2.58874	0.574242	1.98771	0.744213	2.58904	0.78892	2.75106	0.903696	3.14883			0.680508	2.37275	0.800707	2.78724	0.907518	3.16077		
0.746445	2.58698	0.576174	1.98799	0.746119	2.58728	0.791101	2.74973	0.905475	3.14482			0.682341	2.37144	0.802685	2.78509	0.909054	3.15588		
0.748344	2.58521	0.578105	1.98826	0.748018	2.58552	0.793289	2.74844	0.907253	3.14083			0.684175	2.37014	0.804663	2.78296	0.910596	3.15104		
0.750237	2.58344	0.580036	1.98853	0.749912	2.58374	0.795484	2.74717	0.909033	3.13688			0.686011	2.36885	0.806639	2.78083	0.912143	3.14625		
0.752125	2.58166	0.581966	1.98879	0.751801	2.58196	0.797687	2.74594	0.910812	3.13294			0.687848	2.36758	0.808614	2.77872	0.913695	3.14151		
0.754007	2.57987	0.583895	1.98905	0.753684	2.58017	0.799896	2.74475	0.912592	3.12904			0.689686	2.36631	0.810588	2.77661	0.915253	3.13682		
0.755884	2.57807	0.585824	1.98931	0.755562	2.57838	0.802111	2.74358	0.914372	3.12516			0.691525	2.36507	0.812561	2.77451	0.916817	3.13217		
0.757756	2.57627	0.587752	1.98956	0.757435	2.57658	0.804333	2.74244	0.916153	3.12131			0.693366	2.36383	0.814533	2.77242	0.918385	3.12758		
0.759624	2.57446	0.589679	1.98981	0.759304	2.57477	0.806561	2.74133	0.917934	3.11748			0.695208	2.3626	0.816503	2.77035	0.91996	3.12303		
0.761487	2.57265	0.591606	1.99006	0.761167	2.57297	0.808795	2.74024	0.919715	3.11367			0.697052	2.36139	0.818472	2.76827	0.92154	3.11853		
0.763345	2.57084	0.593533	1.9903	0.763026	2.57115	0.811035	2.73918	0.921497	3.1099			0.698896	2.36019	0.820439	2.76621	0.923125	3.11408		
0.765199	2.56902	0.595458	1.99054	0.764881	2.56934	0.813281	2.73815	0.923279	3.10614			0.700742	2.359	0.822405	2.76416	0.924716	3.10967		
0.767049	2.5672	0.597383	1.99077	0.766732	2.56752	0.815532	2.73715	0.925061	3.10241			0.70259	2.35783	0.82437	2.76211	0.926313	3.10531		
0.768895	2.56538	0.599307	1.991	0.768578	2.56569	0.817789	2.73616	0.926843	3.09871			0.704439	2.35666	0.826333	2.76007	0.927915	3.10099		
0.770737	2.56356	0.601231	1.99123	0.770421	2.56387	0.82005	2.7352	0.928626	3.09503			0.706289	2.35551	0.828294	2.75804	0.929522	3.09672		
0.772575	2.56174	0.603154	1.99146	0.77226	2.56205	0.822317	2.73427	0.930408	3.09137			0.70814	2.35437	0.830254	2.75602	0.931135	3.0925		
0.77441	2.55991	0.605077	1.99168	0.774095	2.56022	0.824589	2.73335	0.932191	3.08774			0.709993	2.35324	0.832213	2.754	0.932754	3.08832		
0.776242	2.55809	0.606999	1.99189	0.775927	2.5584	0.826865	2.73246	0.933974	3.08412			0.711847	2.35212	0.834169	2.75199	0.934378	3.08418		
0.77807	2.55626	0.60892	1.99211	0.777756	2.55658	0.829146	2.73159	0.935758	3.08054			0.713702	2.35102	0.836124	2.74999	0.936008	3.08009		
0.779895	2.55444	0.610841	1.99232	0.779582	2.55475	0.831431	2.73073	0.937541	3.07697			0.715559	2.34992	0.838078	2.74799	0.937643	3.07604		
0.781717	2.55262	0.612761	1.99253	0.781404	2.55293	0.833721	2.7299	0.939325	3.07342			0.717417	2.34884	0.840029	2.746	0.939283	3.07203		
0.783536	2.5508	0.614681	1.99273	0.783224	2.55111	0.836014	2.72908	0.941108	3.0699			0.719277	2.34776	0.841979	2.74402	0.94093	3.06807		
0.785353	2.54898	0.6166	1.99293	0.785041	2.54929	0.838312	2.72829	0.942892	3.0664			0.721138	2.3467	0.843927	2.74204	0.942581	3.06414		
0.787167	2.54717	0.618518	1.99313	0.786855	2.54748	0.840614	2.72751	0.944676	3.06292			0.723	2.34565	0.845873	2.74007	0.944238	3.06026		
0.788978	2.54535	0.620436	1.99333	0.788667	2.54566	0.842919	2.72674	0.94646	3.05946			0.724863	2.34461	0.847817	2.7381	0.945901	3.05642		
0.790787	2.54354	0.622353	1.99352	0.790477	2.54385	0.845227	2.726	0.948244	3.05603			0.726728	2.34357	0.84976	2.73614	0.947569	3.05262		
0.792594	2.54174	0.62427	1.99371	0.792284	2.54205	0.84754	2.72526	0.950028	3.05261			0.728594	2.34255	0.8517	2.73419	0.949243	3.04886		
0.794399	2.53994	0.626186	1.9939	0.794089	2.54025	0.849855	2.72455	0.951812	3.04921			0.730461	2.34154	0.853639	2.73224	0.950922	3.04514		
0.796202	2.53814	0.628101	1.99408	0.795892	2.53845	0.852174	2.72385	0.953596	3.04584			0.73233	2.34054	0.855575	2.7303	0.952606	3.04146		
0.798003	2.53635	0.630016	1.99426	0.797693	2.53666	0.854496	2.72316	0.95538	3.04248			0.7342	2.33955	0.85751	2.72836	0.954296	3.03782		
0.799802	2.53456	0.631931	1.99444	0.799493	2.53487	0.85682	2.72248	0.957165	3.03915			0.736072	2.33857	0.859442	2.72642	0.955991	3.03422		
0.801599	2.53278	0.633845	1.99461	0.80129	2.53308	0.859148	2.72182	0.958949	3.03583			0.737945	2.33761	0.861373	2.7245	0.957692	3.03065		
0.803395	2.531	0.635758	1.99479	0.803086	2.53131	0.861478	2.72117	0.960733	3.03254			0.739819	2.33665	0.863301	2.72257	0.959399	3.02713		
0.805189	2.52923	0.637671	1.99495	0.804881	2.52953	0.863811	2.72053	0.962517	3.02926			0.741694	2.3357	0.865228	2.72065	0.96111	3.02364		
0.806982	2.52746	0.639583	1.99512	0.806674	2.52777	0.866147	2.71991	0.964302	3.026			0.743571	2.33476	0.867152	2.71874	0.962827	3.02019		
0.808773	2.52571	0.641495	1.99529	0.808466	2.52601	0.868485	2.71929	0.966086	3.02276			0.745449	2.33382	0.869075	2.71683	0.96455	3.01678		
0.810563	2.52395	0.643406	1.99545	0.810256	2.52425	0.870825	2.71869	0.96787	3.01954			0.747328	2.3329	0.870995	2.71493	0.966277	3.0134		
0.812352	2.52221	0.645316	1.99561	0.812045	2.5225	0.873167	2.7181	0.969655	3.01634			0.749209	2.33199	0.872913	2.71303	0.96801	3.01006		
0.81414	2.52047	0.647227	1.99576	0.813833	2.52076	0.875512	2.71751	0.971439	3.01316			0.751091	2.33109	0.874829	2.71113	0.969749	3.00675		
0.815927	2.51873	0.649136	1.99592	0.81562	2.51903	0.877859	2.71694	0.973223	3.01			0.752974	2.3302	0.876743	2.70924	0.971492	3.00348		
0.817713	2.51701	0.651045	1.99607	0.817406	2.5173	0.880207	2.71638	0.975007	3.00685			0.754858	2.32931	0.878654	2.70735	0.973241	3.00025		
0.819498	2.51529	0.652954	1.99622	0.819191	2.51558	0.882558	2.71582	0.976792	3.00372			0.756744	2.32844	0.880564	2.70547	0.974996	2.99705		
0.821282	2.51358	0.654862	1.99637	0.820976	2.51387	0.88491	2.71528	0.978576	3.00061			0.758631	2.32757	0.882471	2.70359	0.976755	2.99388		
0.823065	2.51187	0.65677	1.99651	0.822759	2.51216	0.887264	2.71474	0.98036	2.99752			0.76052	2.32671	0.884376	2.70171	0.97852	2.99075		
0.824848	2.51017	0.658677	1.99665	0.824542	2.51046	0.889619	2.71421	0.982145	2.99445			0.762409	2.32587	0.886279	2.69984	0.98029	2.98765		
0.82663	2.50848	0.660583	1.99679	0.826324	2.50877	0.891976	2.71368	0.983929	2.99139			0.7643	2.32503	0.88818	2.69798	0.982065	2.98459		
0.828412	2.5068	0.662489	1.99693	0.828106	2.50709	0.894335	2.71317	0.985713	2.98835			0.766193	2.32419	0.890079	2.69611	0.983845	2.98155		
0.830193	2.50513	0.664395	1.99707	0.829887	2.50542	0.896695	2.71266	0.987497	2.98533			0.768086	2.32337	0.891975	2.69425	0.98563	2.97855		
0.831974	2.50347	0.6663	1.9972	0.831668	2.50375	0.899056	2.71216	0.989282	2.98232			0.769981	2.32256	0.893869	2.6924	0.987421	2.97559		
0.833754	2.50181	0.668205	1.99733	0.833448	2.50209	0.901418	2.71166	0.991066	2.97933			0.771877	2.32175	0.895761	2.69055	0.989216	2.97265		
0.835534	2.50016	0.670109	1.99746	0.835228	2.50044	0.903782	2.71118	0.992851	2.97636			0.773774	2.32095	0.897651	2.6887	0.991017	2.96975		
0.837313	2.49852	0.672013	1.99759	0.837008	2.4988	0.906146	2.71069	0.994635	2.9734			0.775673	2.32016	0.899539	2.68686	0.992822	2.96687		
0.839093	2.49689	0.673916	1.99771	0.838787	2.49717	0.908512	2.71022	0.99642	2.97047			0.777572	2.31938	0.901424	2.68501	0.994633	2.96403		
0.840872	2.49526	0.675819	1.99784	0.840566	2.49554	0.910878	2.70974	0.998204	2.96754			0.779473	2.31861	0.903308	2.68318	0.996448	2.96122		
0.842651	2.49365	0.677721	1.99796	0.842345	2.49392	0.913246	2.70928	0.999989	2.96464			0.781376	2.31784	0.905189	2.68135	0.998268	2.95844		
0.84443	2.49204	0.679623	1.99807	0.844124	2.49232	0.915614	2.70882	1.00177	2.96175			0.783279	2.31709	0.907068	2.67952	1.00009	2.95569		
0.846208	2.49044	0.681524	1.99819	0.845903	2.49072	0.917983	2.70836					0.785184	2.31634	0.908945	2.67769				
0.847987	2.48885	0.683425	1.99831	0.847682	2.48913	0.920353	2.70791					0.78709	2.3156	0.910819	2.67587				
0.849766	2.48727	0.685326	1.99842	0.84946	2.48754	0.922723	2.70746					0.788997	2.31486	0.912692	2.67405				
0.851545	2.4857	0.687226	1.99853	0.851239	2.48597	0.925094	2.70701					0.790905	2.31413	0.914562	2.67224				
0.853324	2.48414	0.689126	1.99864	0.853018	2.4844	0.927465	2.70657					0.792815	2.31342	0.91643	2.67042				
0.855103	2.48258	0.691025	1.99875	0.854797	2.48285	0.929837	2.70614					0.794725	2.3127	0.918296	2.66862				
0.856882	2.48104	0.692924	1.99885	0.856576	2.4813	0.932209	2.7057					0.796637	2.312	0.920161	2.66681				
0.858661	2.4795	0.694822	1.99896	0.858356	2.47976	0.934581	2.70527					0.79855	2.3113	0.922022	2.66501				
0.860441	2.47797	0.69672	1.99906	0.860135	2.47823	0.936954	2.70485					0.800465	2.31061	0.923882	2.66322				
0.86222	2.47645	0.698618	1.99916	0.861915	2.47671	0.939327	2.70442					0.80238	2.30993	0.92574	2.66143				
0.864001	2.47494	0.700515	1.99926	0.863695	2.4752	0.9417	2.704					0.804297	2.30925	0.927596	2.65964				
0.865781	2.47344	0.702412	1.99935	0.865475	2.4737	0.944073	2.70358					0.806215	2.30858	0.92945	2.65785				
0.867561	2.47195	0.704308	1.99945	0.867256	2.4722	0.946446	2.70317					0.808134	2.30792	0.931302	2.65607				
0.869343	2.47046	0.706204	1.99954	0.869037	2.47072	0.948819	2.70275					0.810054	2.30726	0.933151	2.65429				
0.871124	2.46899	0.7081	1.99964	0.870818	2.46924	0.951192	2.70234					0.811975	2.30662	0.934999	2.65252				
0.872906	2.46752	0.709995	1.99973	0.8726	2.46777	0.953564	2.70193					0.813897	2.30597	0.936845	2.65075				
0.874688	2.46607	0.71189	1.99982	0.874382	2.46632	0.955937	2.70152					0.815821	2.30534	0.938689	2.64898				
0.876471	2.46462	0.713784	1.9999	0.876164	2.46487	0.958309	2.70111					0.817745	2.30471	0.940531	2.64722				
0.878254	2.46318	0.715678	1.99999	0.877947	2.46343	0.960681	2.70071					0.819671	2.30409	0.942371	2.64546				
0.880037	2.46175	0.717572	2.00007	0.879731	2.46199	0.963053	2.7003					0.821598	2.30347	0.94421	2.64371				
0.881821	2.46033	0.719465	2.00016	0.881515	2.46057	0.965424	2.69989					0.823526	2.30286	0.946046	2.64196				
0.883606	2.45892	0.721358	2.00024	0.883299	2.45916	0.967794	2.69949					0.825455	2.30226	0.947881	2.64021				
0.885391	2.45751	0.723251	2.00032	0.885085	2.45775	0.970164	2.69909					0.827385	2.30166	0.949714	2.63847				
0.887177	2.45612	0.725143	2.0004	0.88687	2.45635	0.972534	2.69868					0.829317	2.30107	0.951545	2.63674				
0.888963	2.45473	0.727035	2.00047	0.888656	2.45497	0.974902	2.69828					0.831249	2.30048	0.953374	2.635				
0.89075	2.45335	0.728926	2.00055	0.890443	2.45359	0.97727	2.69788					0.833182	2.2999	0.955202	2.63327				
0.892538	2.45198	0.730817	2.00062	0.892231	2.45222	0.979638	2.69747					0.835117	2.29933	0.957028	2.63155				
0.894326	2.45062	0.732708	2.0007	0.894019	2.45086	0.982004	2.69707					0.837052	2.29876	0.958852	2.62983				
0.896114	2.44927	0.734599	2.00077	0.895807	2.4495	0.984369	2.69667					0.838989	2.2982	0.960675	2.62811				
0.897904	2.44793	0.736489	2.00084	0.897596	2.44816	0.986734	2.69626					0.840927	2.29764	0.962496	2.6264				
0.899694	2.44659	0.738379	2.00091	0.899386	2.44682	0.989097	2.69586					0.842866	2.29709	0.964315	2.62469				
0.901485	2.44527	0.740268	2.00098	0.901177	2.4455	0.991459	2.69545					0.844805	2.29655	0.966133	2.62299				
0.903276	2.44395	0.742157	2.00105	0.902968	2.44418	0.99382	2.69504					0.846746	2.29601	0.96795	2.62129				
0.905068	2.44264	0.744046	2.00111	0.90476	2.44287	0.99618	2.69463					0.848688	2.29547	0.969765	2.61959				
0.906861	2.44134	0.745935	2.00118	0.906553	2.44157	0.998538	2.69422					0.850631	2.29495	0.971578	2.6179				
0.908655	2.44005	0.747823	2.00124	0.908347	2.44027	1.0009	2.69381					0.852575	2.29442	0.97339	2.61622				
0.910449	2.43877	0.749711	2.0013	0.910141	2.43899							0.85452	2.29391	0.975201	2.61454				
0.912244	2.43749	0.751599	2.00136	0.911936	2.43771							0.856465	2.29339	0.97701	2.61286				
0.91404	2.43623	0.753486	2.00142	0.913731	2.43644							0.858412	2.29289	0.978818	2.61119				
0.915836	2.43497	0.755373	2.00148	0.915528	2.43518							0.86036	2.29238	0.980624	2.60952				
0.917634	2.43372	0.75726	2.00154	0.917325	2.43393							0.862309	2.29189	0.982429	2.60786				
0.919432	2.43248	0.759146	2.0016	0.919123	2.43269							0.864259	2.29139	0.984233	2.6062				
0.921231	2.43124	0.761032	2.00165	0.920922	2.43145							0.86621	2.29091	0.986036	2.60455				
0.92303	2.43002	0.762918	2.00171	0.922721	2.43023							0.868161	2.29043	0.987837	2.6029				
0.924831	2.4288	0.764804	2.00176	0.924522	2.42901							0.870114	2.28995	0.989637	2.60126				
0.926632	2.42759	0.766689	2.00182	0.926323	2.4278							0.872068	2.28948	0.991436	2.59962				
0.928434	2.42639	0.768574	2.00187	0.928125	2.4266							0.874022	2.28901	0.993234	2.59799				
0.930237	2.4252	0.770459	2.00192	0.929928	2.4254							0.875978	2.28855	0.995031	2.59636				
0.932041	2.42401	0.772343	2.00197	0.931731	2.42421							0.877934	2.28809	0.996827	2.59474				
0.933846	2.42283	0.774228	2.00202	0.933536	2.42304							0.879892	2.28764	0.998622	2.59312				
0.935651	2.42166	0.776111	2.00207	0.935341	2.42186							0.88185	2.28719	1.00042	2.59151				
0.937458	2.4205	0.777995	2.00211	0.937147	2.4207							0.883809	2.28674						
0.939265	2.41935	0.779879	2.00216	0.938954	2.41955							0.885769	2.2863						
0.941073	2.4182	0.781762	2.0022	0.940762	2.4184							0.88773	2.28587						
0.942882	2.41706	0.783645	2.00225	0.942571	2.41726							0.889692	2.28544						
0.944692	2.41593	0.785527	2.00229	0.944381	2.41613							0.891655	2.28501						
0.946502	2.41481	0.78741	2.00234	0.946191	2.415							0.893619	2.28459						
0.948314	2.41369	0.789292	2.00238	0.948003	2.41389							0.895584	2.28417						
0.950126	2.41259	0.791174	2.00242	0.949815	2.41278							0.897549	2.28375						
0.95194	2.41149	0.793056	2.00246	0.951628	2.41167							0.899515	2.28334						
0.953754	2.41039	0.794937	2.0025	0.953442	2.41058							0.901482	2.28294						
0.955569	2.40931	0.796819	2.00254	0.955257	2.40949							0.90345	2.28254						
0.957385	2.40823	0.7987	2.00258	0.957073	2.40841							0.905419	2.28214						
0.959202	2.40716	0.800581	2.00262	0.95889	2.40734							0.907389	2.28175						
0.961019	2.40609	0.802461	2.00265	0.960707	2.40628							0.90936	2.28136						
0.962838	2.40504	0.804342	2.00269	0.962526	2.40522							0.911331	2.28097						
0.964658	2.40399	0.806222	2.00272	0.964345	2.40417							0.913303	2.28059						
0.966478	2.40294	0.808102	2.00276	0.966166	2.40312							0.915276	2.28021						
0.9683	2.40191	0.809982	2.00279	0.967987	2.40209							0.91725	2.27984						
0.970122	2.40088	0.811861	2.00283	0.969809	2.40106							0.919225	2.27946						
0.971945	2.39986	0.813741	2.00286	0.971632	2.40003							0.9212	2.2791						
0.973769	2.39884	0.81562	2.00289	0.973456	2.39902							0.923176	2.27873						
0.975595	2.39784	0.817499	2.00292	0.975281	2.39801							0.925153	2.27837						
0.977421	2.39684	0.819378	2.00295	0.977107	2.39701							0.927131	2.27802						
0.979247	2.39584	0.821256	2.00299	0.978934	2.39601							0.929109	2.27767						
0.981075	2.39486	0.823134	2.00301	0.980761	2.39502							0.931089	2.27732						
0.982904	2.39388	0.825013	2.00304	0.98259	2.39404							0.933069	2.27697						
0.984734	2.3929	0.826891	2.00307	0.984419	2.39307							0.93505	2.27663						
0.986564	2.39193	0.828769	2.0031	0.98625	2.3921							0.937031	2.27629						
0.988396	2.39097	0.830646	2.00313	0.988081	2.39114							0.939014	2.27595						
0.990228	2.39002	0.832524	2.00316	0.989913	2.39018							0.940997	2.27562						
0.992062	2.38907	0.834401	2.00318	0.991747	2.38924							0.94298	2.27529						
0.993896	2.38813	0.836278	2.00321	0.993581	2.38829							0.944965	2.27497						
0.995731	2.3872	0.838155	2.00323	0.995416	2.38736							0.94695	2.27464						
0.997567	2.38627	0.840032	2.00326	0.997252	2.38643							0.948936	2.27432						
0.999404	2.38535	0.841909	2.00328	0.999089	2.38551							0.950923	2.27401						
1.00124	2.38443	0.843785	2.00331	1.00093	2.38459							0.95291	2.27369						
		0.845662	2.00333									0.954898	2.27338						
		0.847538	2.00335									0.956887	2.27308						
		0.849414	2.00337									0.958877	2.27277						
		0.85129	2.0034									0.960867	2.27247						
		0.853165	2.00342									0.962858	2.27217						
		0.855041	2.00344									0.964849	2.27188						
		0.856916	2.00346									0.966841	2.27159						
		0.858792	2.00348									0.968834	2.2713						
		0.860667	2.0035									0.970828	2.27101						
		0.862542	2.00352									0.972822	2.27072						
		0.864417	2.00354									0.974817	2.27044						
		0.866291	2.00356									0.976812	2.27016						
		0.868166	2.00358									0.978808	2.26989						
		0.870041	2.00359									0.980805	2.26962						
		0.871915	2.00361									0.982802	2.26935						
		0.873789	2.00363									0.984801	2.26908						
		0.875663	2.00364									0.986799	2.26881						
		0.877537	2.00366									0.988798	2.26855						
		0.879411	2.00368									0.990798	2.26829						
		0.881285	2.00369									0.992799	2.26803						
		0.883158	2.00371									0.9948	2.26777						
		0.885032	2.00372									0.996801	2.26752						
		0.886905	2.00374									0.998804	2.26727						
		0.888779	2.00375									1.00081	2.26702						
		0.890652	2.00377																
		0.892525	2.00378																
		0.894398	2.00379																
		0.896271	2.00381																
		0.898143	2.00382																
		0.900016	2.00383																
		0.901888	2.00384																
		0.903761	2.00386																
		0.905633	2.00387																
		0.907505	2.00388																
		0.909378	2.00389																
		0.91125	2.0039																
		0.913122	2.00391																
		0.914993	2.00392																
		0.916865	2.00393																
		0.918737	2.00394																
		0.920609	2.00395																
		0.92248	2.00396																
		0.924352	2.00397																
		0.926223	2.00398																
		0.928094	2.00399																
		0.929965	2.004																
		0.931836	2.00401																
		0.933707	2.00402																
		0.935578	2.00403																
		0.937449	2.00403																
		0.93932	2.00404																
		0.941191	2.00405																
		0.943062	2.00406																
		0.944932	2.00406																
		0.946803	2.00407																
		0.948673	2.00408																
		0.950544	2.00409																
		0.952414	2.00409																
		0.954284	2.0041																
		0.956155	2.0041																
		0.958025	2.00411																
		0.959895	2.00412																
		0.961765	2.00412																
		0.963635	2.00413																
		0.965505	2.00413																
		0.967375	2.00414																
		0.969245	2.00415																
		0.971114	2.00415																
		0.972984	2.00416																
		0.974854	2.00416																
		0.976723	2.00416																
		0.978593	2.00417																
		0.980462	2.00417																
		0.982332	2.00418																
		0.984201	2.00418																
		0.986071	2.00419																
		0.98794	2.00419																
		0.989809	2.0042																
		0.991678	2.0042																
		0.993548	2.0042																
		0.995417	2.00421																
		0.997286	2.00421																
		0.999155	2.00421																
		1.00102	2.00422																
