Sym0		Asym0		Sym1		Sym2		Sym3		Sym4		Asym1		Asym2		Asym3		Asym4	
456  Points		539  Points		455  Points		404  Points		368  Points		278  Points		480  Points		419  Points		369  Points		279  Points	
Freq (MHz)	Vph (m/ms)	Freq (MHz)	Vph (m/ms)	Freq (MHz)	Vph (m/ms)	Freq (MHz)	Vph (m/ms)	Freq (MHz)	Vph (m/ms)	Freq (MHz)	Vph (m/ms)	Freq (MHz)	Vph (m/ms)	Freq (MHz)	Vph (m/ms)	Freq (MHz)	Vph (m/ms)	Freq (MHz)	Vph (m/ms)
0.279509	7390.53	0.000320196	0.110496	0.279507	364.391	0.356594	3863.88	0.559017	1764.34	0.838526	2261.02	0.139755	1144.11	0.419265	701.428	0.69877	1585.36	0.713189	4396.63
0.279506	288.295	0.000558203	0.145764	0.279501	164.533	0.356611	348.258	0.559025	447.743	0.83853	643.757	0.139797	132.654	0.419274	274.139	0.698759	509.129	0.713206	651.98
0.279499	147.011	0.000860961	0.180829	0.27949	106.252	0.356655	182.369	0.55904	256.413	0.838538	375.31	0.139905	70.462	0.419293	170.367	0.698737	303.251	0.713249	352.117
0.279487	98.6573	0.00122771	0.215657	0.279474	78.4569	0.356728	123.547	0.559064	179.652	0.83855	264.866	0.14008	48.018	0.41932	123.591	0.698705	215.926	0.713316	241.205
0.27947	74.2364	0.00165735	0.250182	0.279454	62.1862	0.356828	93.4332	0.559097	138.266	0.838567	204.646	0.14032	36.4568	0.419356	96.972	0.698662	167.644	0.713409	183.443
0.279449	59.5042	0.00214875	0.284366	0.27943	51.5028	0.356955	75.1364	0.559138	112.382	0.838588	166.739	0.140625	29.4156	0.419401	79.7916	0.698609	137.003	0.713526	148.013
0.279424	49.649	0.00270076	0.318186	0.279401	43.9502	0.35711	62.8443	0.559188	94.6651	0.838614	140.683	0.140994	24.6825	0.419454	67.7862	0.698547	115.827	0.713667	124.065
0.279395	42.5927	0.00331188	0.351593	0.279369	38.3279	0.357292	54.0194	0.559246	81.7766	0.838643	121.671	0.141426	21.2863	0.419516	58.9242	0.698476	100.318	0.713831	106.796
0.279361	37.291	0.00398066	0.384554	0.279332	33.9795	0.357502	47.3773	0.559313	71.9799	0.838677	107.187	0.141921	18.7337	0.419587	52.1142	0.698398	88.4684	0.714017	93.7551
0.279324	33.1617	0.00470548	0.41704	0.279292	30.516	0.357738	42.1983	0.559388	64.2819	0.838716	95.7862	0.142476	16.7473	0.419666	46.7179	0.698312	79.1198	0.714225	83.5599
0.279283	29.8546	0.00548482	0.449033	0.279249	27.6923	0.358001	38.0478	0.559471	58.0738	0.838758	86.5787	0.14309	15.1593	0.419754	42.3366	0.698221	71.5558	0.714454	75.371
0.279239	27.1462	0.00631697	0.480508	0.279202	25.3459	0.35829	34.6478	0.559564	52.9614	0.838805	78.9872	0.143762	13.8622	0.419851	38.7089	0.698124	65.3098	0.714703	68.6498
0.279192	24.8875	0.00720012	0.51144	0.279153	23.3652	0.358606	31.8121	0.559664	48.6784	0.838856	72.6207	0.144491	12.784	0.419956	35.6558	0.698022	60.065	0.714971	63.0344
0.279142	22.9749	0.00813262	0.54182	0.279101	21.6709	0.358947	29.4114	0.559773	45.0381	0.838912	67.2049	0.145274	11.8744	0.420071	33.051	0.697916	55.5985	0.715257	58.273
0.27909	21.3346	0.00911263	0.571628	0.279047	20.205	0.359313	27.3533	0.559891	41.9062	0.838972	62.5417	0.14611	11.0976	0.420193	30.8027	0.697808	51.7489	0.715561	54.1848
0.279035	19.9123	0.0101384	0.600857	0.278992	18.9243	0.359705	25.5696	0.560017	39.1832	0.839036	58.4845	0.146997	10.4271	0.420325	28.8424	0.697696	48.3967	0.715882	50.6366
0.278979	18.6671	0.0112081	0.629497	0.278935	17.7958	0.360122	24.0091	0.560152	36.7941	0.839104	54.9225	0.147933	9.84301	0.420465	27.1183	0.697583	45.4514	0.71622	47.5283
0.278922	17.5681	0.0123202	0.657546	0.278876	16.7938	0.360563	22.6326	0.560295	34.681	0.839177	51.7701	0.148918	9.33011	0.420614	25.5902	0.69747	42.8432	0.716572	44.7829
0.278864	16.5908	0.0134728	0.685002	0.278818	15.8983	0.361028	21.4097	0.560446	32.7989	0.839254	48.9607	0.149948	8.8765	0.420771	24.2265	0.697355	40.5173	0.71694	42.3405
0.278805	15.7161	0.0146643	0.711858	0.278758	15.0931	0.361516	20.3162	0.560606	31.1119	0.839335	46.4412	0.151022	8.47279	0.420937	23.0021	0.697241	38.4304	0.717322	40.1537
0.278746	14.9288	0.015893	0.738122	0.278699	14.3652	0.362028	19.3327	0.560775	29.5912	0.839421	44.169	0.151993	8.15577	0.421112	21.8969	0.697127	36.5473	0.717718	38.1844
0.278687	14.2162	0.0171573	0.763792	0.278641	13.7041	0.362563	18.4436	0.560952	28.2134	0.839511	42.1093	0.152845	7.90781	0.421296	20.8942	0.697015	34.8397	0.718127	36.4018
0.278628	13.5684	0.0184557	0.788872	0.278583	13.101	0.36312	17.6361	0.561138	26.9594	0.839605	40.2338	0.153566	7.71663	0.421488	19.9805	0.696904	33.2841	0.718549	34.7805
0.278571	12.9768	0.0197867	0.813372	0.278527	12.5485	0.363699	16.8995	0.561332	25.8133	0.839704	38.5188	0.154147	7.57358	0.421689	19.1444	0.696795	31.8611	0.718983	33.2998
0.278515	12.4345	0.0211488	0.837296	0.278472	12.0406	0.3643	16.225	0.561534	24.7617	0.839807	36.9446	0.15458	7.47267	0.421899	18.3767	0.696689	30.5546	0.719429	31.9421
0.278461	11.9356	0.0225407	0.860654	0.27842	11.5722	0.364922	15.6052	0.561745	23.7935	0.839914	35.4945	0.154859	7.40989	0.422117	17.6691	0.696585	29.3507	0.719887	30.6928
0.278409	11.4751	0.0239609	0.883452	0.27837	11.1387	0.365565	15.0337	0.561965	22.8991	0.840026	34.1544	0.155264	7.32202	0.422344	17.015	0.696484	28.2379	0.720356	29.5394
0.278359	11.0488	0.0254082	0.905702	0.278323	10.7366	0.366228	14.5052	0.562192	22.0705	0.840141	32.9124	0.155709	7.22954	0.42258	16.4086	0.696387	27.2063	0.720835	28.4713
0.278313	10.653	0.0268813	0.927412	0.278279	10.3625	0.366911	14.0151	0.562429	21.3007	0.840262	31.7579	0.156321	7.1086	0.422824	15.8449	0.696293	26.2473	0.721326	27.4794
0.27827	10.2846	0.0283791	0.948597	0.278239	10.0136	0.367613	13.5593	0.562674	20.5836	0.840386	30.6822	0.157106	6.96311	0.423077	15.3195	0.696204	25.3534	0.721826	26.5559
0.278231	9.94085	0.0299004	0.96926	0.278204	9.68746	0.368335	13.1346	0.562927	19.9142	0.840515	29.6774	0.158074	6.79747	0.423339	14.8287	0.696118	24.5184	0.722337	25.694
0.278196	9.61939	0.0314441	0.98942	0.278172	9.38199	0.369075	12.7378	0.563189	19.2877	0.840648	28.7368	0.159232	6.61627	0.423609	14.3692	0.696037	23.7366	0.722858	24.8877
0.278166	9.31816	0.0330092	1.00909	0.278146	9.0953	0.369834	12.3663	0.563459	18.7003	0.840785	27.8543	0.16059	6.42402	0.423888	13.9382	0.69596	23.0031	0.723388	24.1319
0.278141	9.03532	0.0345948	1.02827	0.278125	8.82573	0.37061	12.0179	0.563738	18.1483	0.840927	27.0249	0.161979	6.24675	0.424176	13.5331	0.695888	22.3136	0.723927	23.4219
0.278121	8.76927	0.0361998	1.04698	0.27811	8.57182	0.371404	11.6904	0.564025	17.6288	0.841073	26.2438	0.163396	6.08286	0.424473	13.1516	0.695821	21.6643	0.724476	22.7538
0.278107	8.51858	0.0378234	1.06523	0.278101	8.33227	0.372215	11.3822	0.564321	17.139	0.841224	25.5069	0.164841	5.93094	0.424778	12.7918	0.695759	21.0517	0.725034	22.1239
0.2781	8.28199	0.0394647	1.08304	0.278098	8.13431	0.373043	11.0915	0.564625	16.6763	0.841378	24.8107	0.166313	5.78979	0.425092	12.4519	0.695703	20.4728	0.7256	21.5291
0.278098	8.05836	0.0411229	1.10041	0.2781	7.97296	0.373888	10.8169	0.564938	16.2387	0.841537	24.1519	0.167809	5.65836	0.425414	12.1303	0.695651	19.925	0.726176	20.9666
0.278104	7.84669	0.0427972	1.11736	0.278104	7.84437	0.374748	10.5573	0.565259	15.8242	0.841701	23.5274	0.16933	5.53572	0.425746	11.8256	0.695606	19.4058	0.72676	20.4338
0.278117	7.64605	0.044487	1.13389	0.278109	7.74565	0.375624	10.3113	0.565588	15.4309	0.841868	22.9348	0.170873	5.42105	0.426086	11.5365	0.695565	18.9131	0.727352	19.9284
0.278137	7.45564	0.0461914	1.15002	0.278115	7.67466	0.376515	10.078	0.565926	15.0574	0.84204	22.3717	0.172438	5.31363	0.426434	11.2618	0.695531	18.4449	0.727953	19.4484
0.278166	7.27471	0.0479099	1.16577	0.278118	7.62993	0.377421	9.85644	0.566273	14.7021	0.842216	21.8358	0.174024	5.21284	0.426792	11.0006	0.695502	17.9994	0.728561	18.9919
0.278202	7.10261	0.0496418	1.18113	0.278124	7.56655	0.378341	9.64579	0.566627	14.3639	0.842397	21.3254	0.175629	5.11809	0.427158	10.7518	0.695479	17.575	0.729178	18.5573
0.278247	6.93871	0.0513865	1.19613	0.278132	7.49887	0.379276	9.44526	0.566991	14.0415	0.842582	20.8386	0.177254	5.02889	0.427532	10.5147	0.695462	17.1703	0.729803	18.143
0.278301	6.78247	0.0531434	1.21077	0.278144	7.40879	0.380225	9.25417	0.567362	13.7338	0.842771	20.3738	0.178896	4.94478	0.427916	10.2883	0.695451	16.784	0.730436	17.7476
0.278364	6.63338	0.0549121	1.22506	0.278161	7.29801	0.381187	9.07188	0.567743	13.4399	0.842965	19.9296	0.180556	4.86536	0.428308	10.0721	0.695446	16.4148	0.731076	17.37
0.278436	6.491	0.0566919	1.23901	0.278187	7.1685	0.382163	8.89781	0.568131	13.1589	0.843163	19.5046	0.182232	4.79026	0.428709	9.86542	0.695447	16.0616	0.731724	17.0089
0.278519	6.35489	0.0584824	1.25264	0.278223	7.0225	0.383152	8.73142	0.568528	12.8899	0.843365	19.0977	0.183923	4.71915	0.429118	9.66757	0.695455	15.7234	0.73238	16.6632
0.278611	6.22467	0.0602831	1.26594	0.278272	6.86237	0.384153	8.57224	0.568934	12.6322	0.843572	18.7077	0.18563	4.65173	0.429537	9.47805	0.695468	15.3994	0.733043	16.3321
0.278713	6.09998	0.0620937	1.27894	0.27833	6.70964	0.385167	8.41981	0.569347	12.3852	0.843782	18.3336	0.18735	4.58774	0.429963	9.29635	0.695488	15.0885	0.733714	16.0146
0.278827	5.98051	0.0639135	1.29164	0.278398	6.56385	0.386193	8.27372	0.56977	12.1482	0.843998	17.9744	0.189085	4.52693	0.430399	9.12201	0.695515	14.7902	0.734392	15.7099
0.278951	5.86594	0.0657424	1.30404	0.278475	6.42454	0.387097	8.1513	0.5702	11.9206	0.844217	17.6292	0.190832	4.46907	0.430843	8.9546	0.695548	14.5035	0.735078	15.4173
0.279086	5.75601	0.0675798	1.31617	0.278562	6.29132	0.387874	8.05034	0.570639	11.7018	0.844441	17.2974	0.192592	4.41397	0.431296	8.79374	0.695587	14.2279	0.73577	15.1361
0.279232	5.65045	0.0694253	1.32801	0.278659	6.16381	0.388521	7.96912	0.571087	11.4915	0.844669	16.978	0.194363	4.36144	0.431758	8.63904	0.695633	13.9627	0.73647	14.8656
0.27939	5.54903	0.0712788	1.33959	0.278767	6.04168	0.389036	7.90629	0.571543	11.289	0.844902	16.6705	0.196146	4.31131	0.432229	8.49018	0.695685	13.7075	0.737177	14.6052
0.27956	5.45152	0.0731398	1.35091	0.278885	5.92461	0.389417	7.86087	0.572007	11.094	0.845139	16.3742	0.19794	4.26342	0.432708	8.34683	0.695744	13.4615	0.737891	14.3543
0.279742	5.35773	0.075008	1.36198	0.279014	5.81231	0.389661	7.83212	0.57248	10.9061	0.84538	16.0884	0.199743	4.21764	0.433133	8.22619	0.695809	13.2244	0.738612	14.1126
0.279936	5.26745	0.0768831	1.3728	0.279155	5.70452	0.390013	7.79126	0.572961	10.7249	0.845626	15.8127	0.201557	4.17382	0.4335	8.12635	0.695881	12.9956	0.73934	13.8794
0.280142	5.18052	0.0787649	1.38339	0.279307	5.60099	0.390397	7.74743	0.57345	10.5501	0.845876	15.5466	0.20338	4.13186	0.433807	8.04579	0.69596	12.7748	0.740074	13.6544
0.280362	5.09676	0.080653	1.39375	0.27947	5.50149	0.390921	7.68879	0.573948	10.3813	0.84613	15.2894	0.205212	4.09163	0.434052	7.98333	0.696045	12.5615	0.740816	13.4371
0.280594	5.01603	0.0825472	1.40388	0.279646	5.4058	0.391588	7.61617	0.574455	10.2182	0.846388	15.0409	0.207053	4.05303	0.434234	7.93809	0.696137	12.3555	0.741564	13.2271
0.28084	4.93817	0.0844473	1.41379	0.279834	5.31372	0.3924	7.53058	0.574969	10.0607	0.846651	14.8005	0.208901	4.01598	0.434351	7.90944	0.696236	12.1562	0.742319	13.0241
0.281099	4.86306	0.0863529	1.42349	0.280034	5.22508	0.393359	7.43318	0.575492	9.90828	0.846918	14.5679	0.210758	3.98038	0.43452	7.86865	0.696341	11.9634	0.743081	12.8278
0.281371	4.79056	0.088264	1.43298	0.280247	5.1397	0.39447	7.32519	0.576024	9.76086	0.84719	14.3427	0.212622	3.94615	0.434704	7.82484	0.696453	11.7768	0.743849	12.6378
0.281658	4.72055	0.0901802	1.44228	0.280472	5.05743	0.39559	7.22107	0.576563	9.61815	0.847466	14.1246	0.214493	3.91321	0.434957	7.76613	0.696572	11.5962	0.744624	12.4539
0.281958	4.65293	0.0921013	1.45138	0.280711	4.9781	0.39672	7.12059	0.577111	9.47995	0.847746	13.9132	0.216371	3.8815	0.43528	7.69327	0.696698	11.4211	0.745406	12.2756
0.282273	4.58759	0.0940273	1.46029	0.280963	4.90158	0.39786	7.0236	0.577668	9.34606	0.848031	13.7083	0.218256	3.85094	0.435674	7.60719	0.69683	11.2514	0.746194	12.1029
0.282602	4.52442	0.0959578	1.46901	0.281229	4.82774	0.399009	6.9299	0.578233	9.21627	0.84832	13.5095	0.220147	3.82148	0.436143	7.50892	0.696969	11.0869	0.746988	11.9354
0.282945	4.46335	0.0978927	1.47756	0.281508	4.75646	0.400167	6.83934	0.578806	9.09041	0.848613	13.3166	0.222043	3.79306	0.43669	7.39964	0.697115	10.9273	0.747789	11.773
0.283304	4.40427	0.0998318	1.48593	0.281801	4.68762	0.401333	6.75177	0.579387	8.96831	0.848911	13.1293	0.223946	3.76562	0.437245	7.29389	0.697268	10.7723	0.748597	11.6153
0.283677	4.34711	0.101775	1.49413	0.282108	4.62111	0.402509	6.66704	0.579977	8.84981	0.849213	12.9474	0.225854	3.73913	0.437808	7.19152	0.697428	10.6219	0.74941	11.4622
0.284066	4.2918	0.103722	1.50217	0.28243	4.55683	0.403693	6.58503	0.580575	8.73476	0.849519	12.7707	0.227767	3.71352	0.438381	7.09238	0.697594	10.4758	0.75023	11.3135
0.28447	4.23824	0.105673	1.51005	0.282766	4.49469	0.404885	6.50561	0.581181	8.62301	0.84983	12.5989	0.229685	3.68875	0.438962	6.99633	0.697767	10.3338	0.751056	11.1691
0.28489	4.18639	0.107627	1.51777	0.283117	4.43459	0.406085	6.42865	0.581796	8.51443	0.850145	12.4318	0.231607	3.6648	0.439552	6.90322	0.697947	10.1958	0.751889	11.0287
0.285326	4.13616	0.109585	1.52533	0.283482	4.37645	0.407294	6.35406	0.582338	8.4223	0.850465	12.2693	0.233535	3.64161	0.440151	6.81293	0.698134	10.0616	0.752727	10.8921
0.285777	4.0875	0.111546	1.53275	0.283863	4.32019	0.40851	6.28173	0.582806	8.34552	0.850789	12.1112	0.235466	3.61914	0.440758	6.72535	0.698328	9.93101	0.753572	10.7593
0.286245	4.04035	0.11351	1.54003	0.284259	4.26573	0.409733	6.21155	0.583196	8.28322	0.851117	11.9573	0.237402	3.59738	0.441374	6.64035	0.698528	9.80397	0.754423	10.63
0.286667	4.00045	0.115225	1.54626	0.284671	4.213	0.410964	6.14344	0.583506	8.2347	0.851449	11.8074	0.239341	3.57628	0.441999	6.55783	0.698736	9.68029	0.75528	10.5042
0.287036	3.96729	0.116688	1.55148	0.285098	4.16194	0.412203	6.07731	0.583736	8.19944	0.851786	11.6614	0.241285	3.55581	0.442633	6.47769	0.69895	9.55986	0.756143	10.3817
0.287348	3.94043	0.117899	1.55574	0.285542	4.11248	0.413448	6.01307	0.583884	8.17705	0.852127	11.5192	0.243231	3.53595	0.443275	6.39983	0.699171	9.44256	0.757012	10.2623
0.287599	3.91956	0.118857	1.55908	0.286001	4.06456	0.4147	5.95065	0.584096	8.14511	0.852473	11.3805	0.245182	3.51667	0.443927	6.32416	0.699399	9.32826	0.757887	10.146
0.287787	3.9044	0.119562	1.56151	0.286477	4.01812	0.415959	5.88997	0.584329	8.11071	0.852823	11.2453	0.247135	3.49795	0.444587	6.2506	0.699633	9.21685	0.758767	10.0327
0.287908	3.89479	0.120014	1.56306	0.28697	3.97311	0.417225	5.83096	0.584646	8.06447	0.853177	11.1134	0.249091	3.47975	0.445255	6.17906	0.699875	9.10824	0.759654	9.92218
0.288084	3.8811	0.120663	1.56528	0.287479	3.92947	0.418497	5.77357	0.585051	8.00684	0.853536	10.9848	0.251051	3.46206	0.445933	6.10947	0.700123	9.00232	0.760547	9.81441
0.288277	3.86637	0.121369	1.56767	0.288006	3.88716	0.419775	5.71771	0.585544	7.93839	0.853899	10.8593	0.253013	3.44486	0.446619	6.04175	0.700378	8.89899	0.761445	9.70927
0.288543	3.84659	0.12233	1.57089	0.288549	3.84614	0.42106	5.66334	0.586129	7.8598	0.854266	10.7367	0.254977	3.42812	0.447314	5.97583	0.70064	8.79816	0.762349	9.60667
0.288886	3.822	0.123545	1.57493	0.289111	3.80635	0.422351	5.61039	0.586807	7.7718	0.854638	10.6171	0.256945	3.41183	0.448018	5.91165	0.700909	8.69975	0.763259	9.50652
0.289309	3.79287	0.125017	1.57975	0.28969	3.76776	0.423647	5.55882	0.587494	7.68606	0.855014	10.5002	0.258914	3.39597	0.44873	5.84915	0.701149	8.6159	0.764175	9.40874
0.289818	3.75952	0.126745	1.58532	0.290287	3.73032	0.42495	5.50856	0.588189	7.60248	0.855395	10.386	0.260886	3.38052	0.449452	5.78825	0.701357	8.54578	0.765097	9.31325
0.290419	3.72233	0.12873	1.5916	0.290902	3.694	0.426258	5.45958	0.588892	7.521	0.85578	10.2745	0.262859	3.36546	0.450182	5.72892	0.701532	8.48872	0.766024	9.21997
0.291039	3.68626	0.130717	1.59777	0.291537	3.65877	0.427571	5.41183	0.589604	7.44154	0.856169	10.1655	0.264835	3.35079	0.450921	5.67108	0.701673	8.44418	0.766956	9.12883
0.291677	3.65125	0.132707	1.60382	0.29219	3.62458	0.42889	5.36525	0.590323	7.36403	0.856563	10.0589	0.266813	3.33648	0.451668	5.61469	0.701777	8.41175	0.767895	9.03975
0.292334	3.61729	0.134698	1.60976	0.292862	3.59142	0.430215	5.31982	0.591051	7.2884	0.856961	9.95461	0.268792	3.32252	0.452425	5.5597	0.701844	8.39114	0.768838	8.95267
0.293011	3.58434	0.136692	1.6156	0.293554	3.55924	0.431544	5.27548	0.591788	7.21459	0.857363	9.85266	0.270773	3.30889	0.45319	5.50607	0.701941	8.36169	0.769788	8.86752
0.293707	3.55237	0.138687	1.62133	0.294266	3.52801	0.432879	5.2322	0.592532	7.14254	0.85777	9.75291	0.272755	3.29559	0.453964	5.45374	0.702048	8.32994	0.770743	8.78424
0.294423	3.52135	0.140685	1.62696	0.294998	3.49772	0.434218	5.18994	0.593285	7.07218	0.858181	9.6553	0.274739	3.28261	0.454747	5.40267	0.702194	8.28718	0.771579	8.71315
0.29516	3.49126	0.142684	1.63249	0.295751	3.46833	0.435563	5.14868	0.594045	7.00347	0.858597	9.55976	0.276724	3.26992	0.455539	5.35283	0.702381	8.23377	0.772296	8.6536
0.295917	3.46206	0.144685	1.63792	0.296525	3.43982	0.436912	5.10837	0.594814	6.93634	0.859017	9.46624	0.27871	3.25753	0.456339	5.30416	0.702611	8.17018	0.77289	8.60508
0.296696	3.43374	0.146687	1.64326	0.29732	3.41217	0.438266	5.06897	0.595591	6.87076	0.859441	9.37466	0.280697	3.24542	0.457148	5.25664	0.702885	8.09692	0.773362	8.56717
0.297495	3.40627	0.148691	1.6485	0.298137	3.38534	0.439624	5.03048	0.596376	6.80666	0.859869	9.28498	0.282685	3.23357	0.457967	5.21023	0.703206	8.0146	0.77371	8.53954
0.298317	3.37962	0.150697	1.65366	0.298976	3.35933	0.440987	4.99284	0.59717	6.744	0.860303	9.19713	0.284674	3.22199	0.458794	5.16489	0.703534	7.93409	0.773932	8.52197
0.299161	3.35379	0.152704	1.65872	0.299838	3.33411	0.442354	4.95604	0.597971	6.68273	0.86074	9.11105	0.286664	3.21065	0.459629	5.12059	0.703868	7.85532	0.774253	8.49686
0.300028	3.32874	0.154712	1.6637	0.300723	3.30967	0.443725	4.92004	0.598781	6.62282	0.861182	9.02671	0.288655	3.19956	0.460474	5.0773	0.704209	7.77825	0.774603	8.46977
0.300918	3.30445	0.156721	1.66859	0.301631	3.28597	0.4451	4.88483	0.599599	6.56422	0.861628	8.94404	0.290646	3.1887	0.461328	5.03499	0.704557	7.70283	0.775079	8.43324
0.301832	3.28092	0.158732	1.6734	0.302564	3.26301	0.446479	4.85037	0.600425	6.50689	0.86202	8.87333	0.292638	3.17807	0.46219	4.99362	0.704912	7.629	0.775683	8.38759
0.30277	3.25812	0.160745	1.67813	0.303521	3.24077	0.447863	4.81665	0.601259	6.4508	0.862357	8.814	0.29463	3.16765	0.463061	4.95317	0.705274	7.55671	0.776416	8.33315
0.303733	3.23603	0.162758	1.68278	0.304504	3.21924	0.44925	4.78363	0.602101	6.3959	0.862638	8.7656	0.296623	3.15745	0.463941	4.91362	0.705642	7.48593	0.77728	8.27035
0.304721	3.21465	0.164772	1.68736	0.305512	3.19839	0.450641	4.75131	0.602951	6.34216	0.862861	8.72773	0.298616	3.14745	0.46483	4.87493	0.706017	7.4166	0.778276	8.19966
0.305734	3.19395	0.166788	1.69185	0.306546	3.17822	0.452035	4.71965	0.603809	6.28955	0.863026	8.70011	0.300609	3.13764	0.465728	4.83708	0.706398	7.34868	0.779277	8.13041
0.306775	3.17393	0.168804	1.69628	0.307607	3.15871	0.453433	4.68863	0.604675	6.23803	0.863131	8.68254	0.302602	3.12803	0.466634	4.80005	0.706786	7.28214	0.780284	8.06254
0.307842	3.15456	0.170822	1.70063	0.308696	3.13985	0.454835	4.65825	0.605549	6.18758	0.863284	8.65741	0.304595	3.1186	0.46755	4.76381	0.707181	7.21693	0.781296	7.99601
0.308936	3.13583	0.17284	1.70491	0.309812	3.12162	0.45624	4.62848	0.606432	6.13816	0.86345	8.63028	0.306589	3.10935	0.468474	4.72834	0.707583	7.15301	0.782313	7.9308
0.310058	3.11774	0.174859	1.70912	0.310957	3.10402	0.457649	4.59929	0.607322	6.08974	0.863677	8.59367	0.308582	3.10027	0.469407	4.69362	0.707991	7.09036	0.783335	7.86685
0.311209	3.10027	0.17688	1.71326	0.312131	3.08702	0.45906	4.57068	0.60822	6.0423	0.863965	8.54786	0.310575	3.09136	0.470349	4.65963	0.708406	7.02893	0.784362	7.80415
0.312389	3.08341	0.1789	1.71734	0.313334	3.07063	0.460475	4.54263	0.609126	5.9958	0.864316	8.49318	0.312568	3.08261	0.4713	4.62635	0.708827	6.96869	0.785394	7.74264
0.313599	3.06714	0.180922	1.72135	0.314567	3.05482	0.461893	4.51512	0.610041	5.95023	0.864731	8.43	0.314561	3.07401	0.47226	4.59376	0.709255	6.9096	0.786431	7.6823
0.314839	3.05146	0.182945	1.7253	0.31583	3.03959	0.463314	4.48814	0.610963	5.90556	0.86521	8.35875	0.316553	3.06557	0.473229	4.56184	0.70969	6.85165	0.787473	7.6231
0.316109	3.03635	0.184968	1.72919	0.317125	3.02492	0.464739	4.46166	0.611893	5.86176	0.865695	8.28883	0.318545	3.05727	0.474207	4.53058	0.710131	6.79479	0.78852	7.56501
0.31741	3.02181	0.186991	1.73301	0.31845	3.01081	0.466165	4.43569	0.612831	5.81881	0.866184	8.22018	0.320536	3.04912	0.475193	4.49995	0.710579	6.739	0.789572	7.50799
0.318742	3.00781	0.189016	1.73677	0.319807	2.99724	0.467595	4.41019	0.613777	5.77669	0.866677	8.15277	0.322527	3.04111	0.476189	4.46994	0.711033	6.68424	0.790629	7.45202
0.320107	2.99436	0.191041	1.74048	0.321197	2.9842	0.469028	4.38517	0.614731	5.73538	0.867174	8.08658	0.324517	3.03323	0.477193	4.44053	0.711494	6.6305	0.79169	7.39707
0.321503	2.98143	0.193066	1.74413	0.322618	2.97168	0.470463	4.36061	0.615692	5.69485	0.867676	8.02156	0.326507	3.02547	0.478207	4.41171	0.711961	6.57775	0.792757	7.34311
0.322931	2.96902	0.195092	1.74772	0.324071	2.95967	0.471901	4.33648	0.616662	5.65508	0.868182	7.9577	0.328496	3.01785	0.479229	4.38346	0.712435	6.52595	0.793828	7.29012
0.324391	2.95712	0.197119	1.75126	0.325557	2.94815	0.473342	4.3128	0.617639	5.61606	0.868693	7.89496	0.330484	3.01035	0.48026	4.35578	0.712916	6.47509	0.794904	7.23807
0.325884	2.94571	0.199146	1.75474	0.327075	2.93712	0.474784	4.28953	0.618625	5.57776	0.869208	7.83331	0.332471	3.00297	0.4813	4.32863	0.713403	6.42514	0.795985	7.18694
0.327409	2.93478	0.201173	1.75817	0.328626	2.92656	0.47623	4.26667	0.619618	5.54018	0.869728	7.77273	0.334458	2.9957	0.482349	4.30202	0.713896	6.37608	0.79707	7.1367
0.328967	2.92432	0.203201	1.76155	0.330208	2.91645	0.477678	4.24422	0.620618	5.50328	0.870252	7.71319	0.336443	2.98854	0.483407	4.27592	0.714396	6.32789	0.798161	7.08734
0.330557	2.91432	0.205229	1.76488	0.331823	2.90679	0.479128	4.22215	0.621627	5.46706	0.87078	7.65466	0.338427	2.98149	0.484474	4.25033	0.714902	6.28055	0.799255	7.03883
0.332178	2.90475	0.207258	1.76816	0.333469	2.89756	0.480581	4.20047	0.622643	5.43149	0.871313	7.59712	0.340411	2.97455	0.48555	4.22524	0.715415	6.23402	0.800355	6.99115
0.333831	2.89561	0.209287	1.77139	0.335146	2.88875	0.482035	4.17915	0.623667	5.39656	0.87185	7.54055	0.342393	2.96771	0.486635	4.20062	0.715934	6.18831	0.801459	6.94428
0.335515	2.88689	0.211316	1.77457	0.336854	2.88034	0.483492	4.15819	0.624699	5.36226	0.872391	7.48492	0.344374	2.96097	0.487729	4.17647	0.71646	6.14338	0.802567	6.89819
0.337229	2.87857	0.213345	1.7777	0.338592	2.87232	0.484951	4.13758	0.625739	5.32857	0.872937	7.43021	0.346354	2.95433	0.488831	4.15278	0.716992	6.09921	0.80368	6.85288
0.338974	2.87063	0.215375	1.78079	0.34036	2.86467	0.486412	4.11732	0.626786	5.29547	0.873487	7.37639	0.348332	2.94778	0.489943	4.12954	0.717531	6.0558	0.804798	6.80832
0.340748	2.86306	0.217405	1.78383	0.342156	2.85738	0.487875	4.09739	0.627841	5.26296	0.874042	7.32346	0.35031	2.94132	0.491063	4.10673	0.718075	6.01311	0.80592	6.7645
0.34255	2.85584	0.219435	1.78683	0.34398	2.85044	0.489341	4.07779	0.628903	5.23101	0.874601	7.27138	0.352286	2.93495	0.492193	4.08436	0.718627	5.97114	0.807047	6.72139
0.34438	2.84897	0.221465	1.78978	0.345832	2.84382	0.490808	4.05851	0.629973	5.19961	0.875165	7.22013	0.35426	2.92866	0.493331	4.06239	0.719184	5.92987	0.808177	6.67898
0.346237	2.84243	0.223495	1.79269	0.347709	2.83753	0.492277	4.03953	0.631051	5.16876	0.875733	7.16971	0.356233	2.92247	0.494479	4.04084	0.719748	5.88928	0.809313	6.63726
0.348121	2.8362	0.225526	1.79556	0.349613	2.83153	0.493748	4.02086	0.632136	5.13844	0.876305	7.12008	0.358205	2.91635	0.495635	4.01969	0.720318	5.84935	0.810452	6.5962
0.35003	2.83027	0.227557	1.79839	0.351541	2.82582	0.49522	4.00248	0.633228	5.10863	0.876882	7.07124	0.360174	2.91031	0.4968	3.99892	0.720895	5.81008	0.811596	6.5558
0.351963	2.82462	0.229587	1.80117	0.353492	2.82039	0.496695	3.9844	0.634329	5.07932	0.877463	7.02316	0.362143	2.90435	0.497975	3.97853	0.721478	5.77143	0.812744	6.51604
0.353919	2.81924	0.231618	1.80392	0.355467	2.81521	0.498171	3.96659	0.635436	5.05052	0.878048	6.97582	0.36411	2.89847	0.499158	3.95852	0.722067	5.73342	0.813897	6.4769
0.355899	2.81412	0.233649	1.80663	0.357463	2.81029	0.499649	3.94906	0.636552	5.02219	0.878638	6.92922	0.366075	2.89265	0.50035	3.93887	0.722662	5.696	0.815053	6.43836
0.357899	2.80925	0.23568	1.8093	0.35948	2.80559	0.501128	3.9318	0.637674	4.99433	0.879232	6.88333	0.368038	2.88691	0.501551	3.91958	0.723264	5.65919	0.816214	6.40043
0.359921	2.8046	0.237711	1.81193	0.361517	2.80112	0.502609	3.91481	0.638804	4.96694	0.879831	6.83814	0.369999	2.88124	0.502761	3.90063	0.723872	5.62295	0.817379	6.36308
0.361962	2.80018	0.239742	1.81452	0.363573	2.79686	0.504092	3.89807	0.639942	4.94	0.880434	6.79363	0.371959	2.87564	0.50398	3.88203	0.724486	5.58729	0.818548	6.32629
0.364023	2.79597	0.241773	1.81708	0.365648	2.79281	0.505576	3.88158	0.641086	4.91349	0.881042	6.7498	0.373917	2.8701	0.505207	3.86376	0.725106	5.55218	0.819722	6.29007
0.366101	2.79195	0.243804	1.8196	0.36774	2.78894	0.507062	3.86534	0.642238	4.88742	0.881654	6.70661	0.375873	2.86463	0.506444	3.84581	0.725733	5.51761	0.820899	6.25439
0.368196	2.78812	0.245834	1.82209	0.369848	2.78525	0.508549	3.84934	0.643398	4.86178	0.88227	6.66407	0.377827	2.85922	0.50769	3.82819	0.726365	5.48358	0.82208	6.21924
0.370308	2.78447	0.247865	1.82454	0.371972	2.78173	0.510038	3.83357	0.644564	4.83654	0.882891	6.62216	0.379779	2.85387	0.508944	3.81087	0.727004	5.45007	0.823266	6.18462
0.372436	2.78098	0.249896	1.82696	0.374111	2.77836	0.511528	3.81803	0.645738	4.81171	0.883516	6.58086	0.381729	2.84858	0.510208	3.79387	0.727649	5.41706	0.824455	6.1505
0.374578	2.77765	0.251926	1.82934	0.376264	2.77515	0.513019	3.80272	0.646919	4.78728	0.884145	6.54016	0.383678	2.84335	0.51148	3.77716	0.7283	5.38456	0.825648	6.11689
0.376734	2.77447	0.253957	1.8317	0.378431	2.77208	0.514512	3.78763	0.648108	4.76323	0.884779	6.50005	0.385624	2.83818	0.512761	3.76074	0.728957	5.35255	0.826846	6.08376
0.378904	2.77144	0.255987	1.83402	0.380611	2.76915	0.516007	3.77275	0.649303	4.73956	0.885418	6.46052	0.387568	2.83306	0.514051	3.74462	0.729621	5.32102	0.828047	6.05112
0.381086	2.76853	0.258017	1.8363	0.382802	2.76634	0.517502	3.75809	0.650506	4.71626	0.886061	6.42156	0.38951	2.82799	0.51535	3.72877	0.73029	5.28996	0.829252	6.01895
0.38328	2.76575	0.260047	1.83856	0.385005	2.76366	0.518999	3.74363	0.651715	4.69333	0.886708	6.38315	0.391449	2.82298	0.516658	3.7132	0.730966	5.25936	0.830461	5.98723
0.385486	2.76309	0.262077	1.84078	0.38722	2.76109	0.520497	3.72937	0.652932	4.67075	0.887359	6.34528	0.393387	2.81802	0.517974	3.6979	0.731647	5.22921	0.831673	5.95597
0.387702	2.76054	0.264107	1.84298	0.389444	2.75862	0.521997	3.71531	0.654156	4.64853	0.888015	6.30794	0.395322	2.81311	0.5193	3.68287	0.732335	5.1995	0.83289	5.92515
0.389929	2.7581	0.266136	1.84515	0.391678	2.75625	0.523497	3.70145	0.655386	4.62664	0.888676	6.27113	0.397256	2.80825	0.520634	3.66809	0.733029	5.17022	0.83411	5.89475
0.392165	2.75575	0.268166	1.84728	0.393922	2.75399	0.524999	3.68777	0.656624	4.60509	0.889341	6.23483	0.399186	2.80343	0.521977	3.65357	0.733728	5.14137	0.835334	5.86479
0.39441	2.7535	0.270195	1.84939	0.396174	2.75181	0.526502	3.67428	0.657869	4.58386	0.89001	6.19903	0.401115	2.79867	0.523328	3.6393	0.734434	5.11294	0.836561	5.83524
0.396664	2.75134	0.272223	1.85147	0.398434	2.74971	0.528007	3.66098	0.65912	4.56296	0.890683	6.16373	0.403042	2.79394	0.524689	3.62527	0.735146	5.08491	0.837793	5.80609
0.398927	2.74927	0.274252	1.85352	0.400703	2.7477	0.529512	3.64785	0.660379	4.54238	0.891362	6.1289	0.404966	2.78927	0.526058	3.61148	0.735863	5.05728	0.839028	5.77735
0.401197	2.74727	0.27628	1.85554	0.402979	2.74577	0.531019	3.6349	0.661644	4.5221	0.892044	6.09455	0.406887	2.78463	0.527436	3.59793	0.736587	5.03005	0.840266	5.74899
0.403474	2.74535	0.278308	1.85754	0.405261	2.7439	0.532527	3.62212	0.662916	4.50212	0.892731	6.06066	0.408807	2.78004	0.528822	3.5846	0.737316	5.0032	0.841508	5.72102
0.405758	2.74351	0.280336	1.85951	0.407551	2.74211	0.534036	3.60951	0.664194	4.48244	0.893422	6.02723	0.410724	2.77549	0.530217	3.5715	0.738052	4.97672	0.842754	5.69343
0.408049	2.74172	0.282363	1.86146	0.409847	2.74037	0.535546	3.59707	0.66548	4.46306	0.894118	5.99425	0.412638	2.77099	0.531621	3.55863	0.738793	4.95062	0.844003	5.6662
0.410347	2.74001	0.28439	1.86337	0.412149	2.7387	0.537057	3.58478	0.666772	4.44395	0.894818	5.96171	0.414551	2.76652	0.533034	3.54597	0.739541	4.92488	0.845256	5.63934
0.41265	2.73835	0.286417	1.86527	0.414457	2.73709	0.538569	3.57266	0.668071	4.42513	0.895522	5.92959	0.41646	2.76209	0.534455	3.53352	0.740294	4.8995	0.846512	5.61283
0.414959	2.73675	0.288444	1.86714	0.416769	2.73554	0.540083	3.56069	0.669376	4.40658	0.896231	5.8979	0.418368	2.7577	0.535884	3.52128	0.741053	4.87447	0.847771	5.58667
0.417273	2.73521	0.29047	1.86898	0.419088	2.73403	0.541597	3.54888	0.670688	4.3883	0.896945	5.86663	0.420273	2.75335	0.537322	3.50925	0.741818	4.84978	0.849034	5.56085
0.419592	2.73371	0.292496	1.8708	0.42141	2.73258	0.543113	3.53722	0.672006	4.37029	0.897662	5.83576	0.422175	2.74903	0.538769	3.49741	0.742589	4.82542	0.850301	5.53537
0.421916	2.73227	0.294521	1.87259	0.423738	2.73117	0.54463	3.5257	0.673331	4.35253	0.898385	5.80529	0.424075	2.74475	0.540224	3.48578	0.743365	4.8014	0.85157	5.51021
0.424244	2.73087	0.296546	1.87437	0.42607	2.72981	0.546147	3.51433	0.674662	4.33503	0.899111	5.77522	0.425973	2.74051	0.541688	3.47433	0.744148	4.7777	0.852843	5.48538
0.426577	2.72951	0.298571	1.87612	0.428406	2.72848	0.547666	3.5031	0.676	4.31778	0.899842	5.74553	0.427868	2.7363	0.54316	3.46308	0.744936	4.75432	0.85412	5.46086
0.428914	2.7282	0.300595	1.87784	0.430745	2.7272	0.549186	3.49201	0.677344	4.30077	0.900577	5.71622	0.429761	2.73213	0.54464	3.45201	0.74573	4.73126	0.855399	5.43666
0.431254	2.72693	0.302619	1.87955	0.433089	2.72596	0.550708	3.48106	0.678695	4.284	0.901317	5.68728	0.431651	2.72798	0.546128	3.44112	0.74653	4.7085	0.856682	5.41276
0.433598	2.72569	0.304642	1.88123	0.435436	2.72475	0.55223	3.47025	0.680051	4.26746	0.902062	5.65871	0.433539	2.72388	0.547625	3.43042	0.747335	4.68604	0.857968	5.38916
0.435946	2.72449	0.306665	1.88289	0.437786	2.72358	0.553753	3.45957	0.681414	4.25116	0.90281	5.6305	0.435424	2.7198	0.549131	3.41989	0.748147	4.66389	0.859257	5.36586
0.438297	2.72333	0.308688	1.88452	0.440139	2.72244	0.555278	3.44901	0.682783	4.23509	0.903563	5.60264	0.437307	2.71576	0.550644	3.40953	0.748964	4.64202	0.86055	5.34284
0.440651	2.7222	0.31071	1.88614	0.442495	2.72133	0.556803	3.43859	0.684158	4.21923	0.904321	5.57513	0.439188	2.71175	0.552165	3.39934	0.749787	4.62044	0.861845	5.32011
0.443007	2.72109	0.312732	1.88774	0.444854	2.72025	0.55833	3.42829	0.68554	4.2036	0.905083	5.54796	0.441066	2.70776	0.553695	3.38932	0.750615	4.59914	0.863144	5.29766
0.445367	2.72002	0.314753	1.88931	0.447215	2.7192	0.559858	3.41812	0.686927	4.18818	0.905849	5.52112	0.442941	2.70381	0.555233	3.37946	0.751449	4.57811	0.864445	5.27548
0.447729	2.71897	0.316774	1.89087	0.449579	2.71817	0.561386	3.40807	0.68832	4.17297	0.906619	5.49462	0.444814	2.69989	0.556779	3.36975	0.752289	4.55736	0.86575	5.25357
0.450093	2.71796	0.318795	1.89241	0.451946	2.71718	0.562916	3.39814	0.68972	4.15797	0.907395	5.46844	0.446685	2.696	0.558332	3.36021	0.753135	4.53688	0.867058	5.23192
0.45246	2.71696	0.320815	1.89392	0.454314	2.7162	0.564448	3.38832	0.691125	4.14317	0.908174	5.44258	0.448553	2.69214	0.559894	3.35082	0.753986	4.51665	0.868368	5.21054
0.454829	2.71599	0.322834	1.89542	0.456685	2.71525	0.56598	3.37862	0.692536	4.12857	0.908958	5.41703	0.450419	2.6883	0.561464	3.34158	0.754843	4.49669	0.869682	5.18941
0.4572	2.71504	0.324853	1.8969	0.459057	2.71432	0.567513	3.36904	0.693953	4.11416	0.909746	5.39179	0.452283	2.6845	0.563041	3.33249	0.755706	4.47698	0.870998	5.16853
0.459573	2.71412	0.326872	1.89835	0.461431	2.71341	0.569048	3.35957	0.695376	4.09995	0.910539	5.36685	0.454144	2.68072	0.564626	3.32355	0.756574	4.45752	0.872318	5.1479
0.461948	2.71321	0.328889	1.89979	0.463807	2.71252	0.570584	3.35021	0.696804	4.08593	0.911336	5.34221	0.456003	2.67697	0.566219	3.31474	0.757447	4.4383	0.87364	5.12751
0.464324	2.71233	0.330907	1.90122	0.466185	2.71165	0.572121	3.34096	0.698239	4.07209	0.912138	5.31787	0.457859	2.67325	0.56782	3.30608	0.758327	4.41933	0.874965	5.10736
0.466702	2.71146	0.332924	1.90262	0.468564	2.71079	0.57366	3.33181	0.699678	4.05844	0.912944	5.29381	0.459713	2.66955	0.569428	3.29756	0.759212	4.40059	0.876293	5.08744
0.469081	2.71061	0.33494	1.90401	0.470944	2.70996	0.575199	3.32278	0.701124	4.04496	0.913754	5.27004	0.461565	2.66588	0.571044	3.28917	0.760102	4.38209	0.877624	5.06776
0.471461	2.70978	0.336956	1.90537	0.473326	2.70914	0.57674	3.31384	0.702575	4.03166	0.914569	5.24655	0.463414	2.66224	0.572667	3.28091	0.760998	4.36382	0.878957	5.0483
0.473843	2.70896	0.338972	1.90672	0.475708	2.70833	0.578282	3.30501	0.704031	4.01854	0.915388	5.22333	0.465262	2.65862	0.574298	3.27279	0.7619	4.34577	0.880294	5.02906
0.476226	2.70816	0.340987	1.90806	0.478092	2.70754	0.579826	3.29628	0.705493	4.00558	0.916212	5.20038	0.467107	2.65503	0.575936	3.26479	0.762807	4.32794	0.881633	5.01004
0.47861	2.70737	0.343001	1.90938	0.480477	2.70677	0.58137	3.28765	0.706961	3.99279	0.91704	5.1777	0.46895	2.65146	0.577582	3.25691	0.76372	4.31034	0.882974	4.99124
0.480996	2.7066	0.345015	1.91068	0.482863	2.706	0.582917	3.27911	0.708433	3.98016	0.917872	5.15528	0.47079	2.64792	0.579235	3.24916	0.764638	4.29295	0.884318	4.97265
0.483381	2.70584	0.347028	1.91196	0.485249	2.70525	0.584464	3.27068	0.709911	3.9677	0.918709	5.13312	0.472629	2.6444	0.580894	3.24153	0.765562	4.27577	0.885665	4.95427
0.485768	2.70509	0.34904	1.91323	0.487637	2.70452	0.586013	3.26234	0.711395	3.95539	0.919551	5.11121	0.474465	2.64091	0.582562	3.23402	0.766491	4.25879	0.887015	4.93609
0.488156	2.70436	0.351052	1.91448	0.490025	2.70379	0.587563	3.25409	0.712883	3.94324	0.920396	5.08956	0.476299	2.63744	0.584236	3.22663	0.767425	4.24203	0.888367	4.91812
0.490544	2.70363	0.353064	1.91571	0.492413	2.70307	0.589115	3.24593	0.714377	3.93124	0.921246	5.06815	0.478132	2.634	0.585917	3.21935	0.768366	4.22546	0.889721	4.90034
0.492932	2.70292	0.355075	1.91694	0.494802	2.70236	0.590668	3.23787	0.715876	3.91939	0.922101	5.04698	0.479962	2.63058	0.587605	3.21218	0.769311	4.2091	0.891079	4.88276
0.495321	2.70221	0.357085	1.91814	0.497192	2.70167	0.592223	3.2299	0.71738	3.9077	0.92296	5.02605	0.48179	2.62718	0.5893	3.20512	0.770262	4.19293	0.892438	4.86537
0.497711	2.70152	0.359095	1.91933	0.499581	2.70098	0.593779	3.22201	0.718888	3.89614	0.923823	5.00536	0.483616	2.62381	0.591001	3.19817	0.771219	4.17695	0.8938	4.84817
0.500101	2.70083	0.361104	1.9205	0.501972	2.7003	0.595337	3.21422	0.720402	3.88473	0.924691	4.98489	0.485441	2.62046	0.59271	3.19132	0.77218	4.16116	0.895165	4.83116
0.502491	2.70015	0.363113	1.92166	0.504362	2.69963	0.596897	3.20651	0.721921	3.87346	0.925563	4.96466	0.487263	2.61714	0.594425	3.18458	0.773148	4.14556	0.896532	4.81433
0.504881	2.69948	0.365121	1.92281	0.506752	2.69896	0.598458	3.19888	0.723445	3.86233	0.92644	4.94465	0.489084	2.61384	0.596146	3.17794	0.77412	4.13014	0.897901	4.79767
0.507272	2.69882	0.367128	1.92394	0.509143	2.6983	0.600021	3.19134	0.724973	3.85133	0.927321	4.92486	0.490902	2.61056	0.597875	3.1714	0.775099	4.11491	0.899273	4.7812
0.509662	2.69816	0.369135	1.92506	0.511533	2.69765	0.601585	3.18389	0.726506	3.84047	0.928206	4.90529	0.492719	2.6073	0.599609	3.16496	0.776082	4.09985	0.900647	4.7649
0.512053	2.69751	0.371141	1.92616	0.513924	2.69701	0.603151	3.17651	0.728044	3.82973	0.929096	4.88594	0.494534	2.60407	0.60135	3.15862	0.777071	4.08497	0.902023	4.74878
0.514443	2.69687	0.373146	1.92725	0.516314	2.69637	0.604719	3.16922	0.729587	3.81913	0.92999	4.8668	0.496348	2.60086	0.603097	3.15237	0.778065	4.07026	0.903402	4.73282
0.516833	2.69623	0.375151	1.92833	0.518704	2.69573	0.606289	3.16201	0.731134	3.80866	0.930889	4.84786	0.49816	2.59767	0.60485	3.14621	0.779065	4.05572	0.904783	4.71703
0.519223	2.69559	0.377155	1.92939	0.521094	2.6951	0.607861	3.15487	0.732686	3.7983	0.931792	4.82913	0.49997	2.5945	0.60661	3.14014	0.78007	4.04135	0.906166	4.70141
0.521613	2.69497	0.379159	1.93044	0.523483	2.69448	0.609434	3.14782	0.734243	3.78808	0.9327	4.81061	0.501779	2.59136	0.608375	3.13416	0.78108	4.02714	0.907551	4.68594
0.524002	2.69434	0.381162	1.93147	0.525872	2.69385	0.61101	3.14084	0.735803	3.77797	0.933612	4.79228	0.503586	2.58824	0.610146	3.12827	0.782096	4.0131	0.908938	4.67064
0.526391	2.69372	0.383164	1.93249	0.528261	2.69324	0.612587	3.13394	0.737369	3.76798	0.934528	4.77416	0.505391	2.58514	0.611924	3.12247	0.783117	3.99922	0.910328	4.65549
0.52878	2.6931	0.385166	1.9335	0.530649	2.69262	0.614167	3.12712	0.738938	3.75811	0.935449	4.75622	0.507196	2.58206	0.613707	3.11675	0.784143	3.9855	0.91172	4.6405
0.531168	2.69249	0.387167	1.9345	0.533036	2.69201	0.615748	3.12037	0.740512	3.74835	0.936374	4.73848	0.508998	2.57901	0.615496	3.11112	0.785174	3.97193	0.913114	4.62565
0.533555	2.69188	0.389167	1.93549	0.535423	2.6914	0.617332	3.11369	0.74209	3.73871	0.937304	4.72093	0.5108	2.57598	0.61729	3.10556	0.786211	3.95852	0.91451	4.61096
0.535942	2.69127	0.391167	1.93646	0.537809	2.69079	0.618918	3.10709	0.743673	3.72918	0.938238	4.70356	0.5126	2.57296	0.61909	3.10008	0.787253	3.94526	0.915908	4.59642
0.538328	2.69066	0.393166	1.93742	0.540195	2.69019	0.620506	3.10056	0.745259	3.71975	0.939176	4.68637	0.514398	2.56997	0.620895	3.09469	0.788301	3.93215	0.917308	4.58202
0.540713	2.69005	0.395164	1.93837	0.542579	2.68958	0.622097	3.0941	0.74685	3.71044	0.940119	4.66937	0.516196	2.567	0.622706	3.08937	0.789353	3.91919	0.91871	4.56777
0.543097	2.68945	0.397162	1.9393	0.544962	2.68898	0.623689	3.08771	0.748445	3.70123	0.941067	4.65255	0.517992	2.56406	0.624522	3.08412	0.790411	3.90637	0.920114	4.55365
0.54548	2.68885	0.399159	1.94023	0.547345	2.68837	0.625284	3.0814	0.750044	3.69213	0.942018	4.6359	0.519787	2.56113	0.626344	3.07895	0.791475	3.8937	0.92152	4.53968
0.547862	2.68824	0.401155	1.94114	0.549726	2.68777	0.626882	3.07515	0.751646	3.68312	0.942974	4.61942	0.521581	2.55823	0.62817	3.07385	0.792543	3.88116	0.922927	4.52584
0.550244	2.68764	0.403151	1.94204	0.552106	2.68717	0.628482	3.06898	0.753253	3.67422	0.943935	4.60312	0.523374	2.55534	0.630002	3.06882	0.793617	3.86877	0.924337	4.51214
0.552624	2.68704	0.405146	1.94293	0.554486	2.68656	0.630085	3.06287	0.754864	3.66542	0.9449	4.58698	0.525166	2.55248	0.631838	3.06386	0.794696	3.85651	0.925749	4.49857
0.555002	2.68643	0.40714	1.94381	0.556863	2.68596	0.63169	3.05683	0.756478	3.65672	0.945869	4.57102	0.526957	2.54964	0.633679	3.05897	0.79578	3.84439	0.927162	4.48513
0.55738	2.68583	0.409134	1.94468	0.55924	2.68535	0.633298	3.05085	0.758096	3.64811	0.946843	4.55521	0.528747	2.54682	0.635526	3.05415	0.796869	3.83241	0.928578	4.47183
0.559756	2.68522	0.411127	1.94554	0.561615	2.68475	0.634909	3.04494	0.759718	3.63959	0.947822	4.53957	0.530537	2.54402	0.637377	3.04939	0.797964	3.82055	0.929995	4.45864
0.562131	2.68461	0.413119	1.94638	0.563988	2.68414	0.636522	3.0391	0.761344	3.63117	0.948804	4.52409	0.532325	2.54125	0.639232	3.04469	0.799064	3.80883	0.931414	4.44559
0.564504	2.68401	0.41511	1.94722	0.56636	2.68353	0.638139	3.03333	0.762973	3.62285	0.949792	4.50877	0.534112	2.53849	0.641092	3.04006	0.800169	3.79723	0.932834	4.43266
0.566875	2.68339	0.417101	1.94804	0.56873	2.68291	0.639758	3.02762	0.764606	3.61461	0.950783	4.4936	0.535899	2.53575	0.642957	3.03549	0.801279	3.78576	0.934257	4.41985
0.569245	2.68278	0.419091	1.94886	0.571099	2.6823	0.641381	3.02197	0.766242	3.60646	0.951779	4.47859	0.537685	2.53304	0.644826	3.03099	0.802395	3.77442	0.935681	4.40716
0.571613	2.68216	0.421081	1.94966	0.573465	2.68168	0.643006	3.01639	0.767882	3.5984	0.95278	4.46372	0.539471	2.53034	0.646699	3.02654	0.803516	3.7632	0.937107	4.39459
0.573979	2.68154	0.423069	1.95045	0.57583	2.68106	0.644635	3.01087	0.769525	3.59042	0.953784	4.44901	0.541255	2.52767	0.648577	3.02215	0.804642	3.7521	0.938534	4.38214
0.576344	2.68092	0.425057	1.95124	0.578193	2.68043	0.646267	3.00541	0.771172	3.58253	0.954794	4.43445	0.54304	2.52501	0.650459	3.01781	0.805773	3.74112	0.939963	4.3698
0.578706	2.68029	0.427045	1.95201	0.580553	2.6798	0.647902	3.00002	0.772821	3.57472	0.955807	4.42003	0.544823	2.52238	0.652345	3.01354	0.806909	3.73026	0.941394	4.35758
0.581066	2.67966	0.429031	1.95278	0.582912	2.67916	0.649541	2.99469	0.774475	3.567	0.956826	4.40576	0.546607	2.51977	0.654234	3.00931	0.80805	3.71951	0.942826	4.34547
0.583424	2.67902	0.431017	1.95353	0.585268	2.67852	0.651183	2.98942	0.776131	3.55935	0.957848	4.39162	0.548389	2.51717	0.656128	3.00515	0.809197	3.70889	0.94426	4.33347
0.58578	2.67838	0.433002	1.95428	0.587622	2.67788	0.652829	2.98421	0.777791	3.55179	0.958875	4.37763	0.550172	2.5146	0.658026	3.00103	0.810349	3.69837	0.945696	4.32158
0.588133	2.67774	0.434987	1.95501	0.589974	2.67722	0.654479	2.97906	0.779454	3.5443	0.959907	4.36378	0.551954	2.51205	0.659927	2.99697	0.811506	3.68797	0.947133	4.3098
0.590484	2.67708	0.436971	1.95574	0.592322	2.67657	0.656132	2.97398	0.781119	3.53689	0.960943	4.35006	0.553735	2.50951	0.661832	2.99295	0.812668	3.67768	0.948571	4.29812
0.592833	2.67642	0.438954	1.95646	0.594669	2.6759	0.65779	2.96895	0.782788	3.52956	0.961983	4.33648	0.555517	2.507	0.66374	2.98899	0.813835	3.6675	0.950011	4.28655
0.595178	2.67576	0.440936	1.95716	0.597012	2.67523	0.659451	2.96399	0.78446	3.5223	0.963028	4.32304	0.557298	2.50451	0.665652	2.98508	0.815008	3.65743	0.951452	4.27508
0.597521	2.67509	0.442918	1.95786	0.599353	2.67456	0.661117	2.95908	0.786135	3.51512	0.964077	4.30972	0.559079	2.50204	0.667568	2.98121	0.816185	3.64746	0.952895	4.26371
0.599861	2.67441	0.444899	1.95855	0.601691	2.67387	0.662786	2.95423	0.787813	3.50801	0.965131	4.29654	0.56086	2.49958	0.669486	2.97739	0.817368	3.6376	0.954339	4.25245
0.602198	2.67372	0.446879	1.95923	0.604025	2.67318	0.66446	2.94945	0.789494	3.50096	0.966189	4.28348	0.56264	2.49715	0.671409	2.97362	0.818556	3.62785	0.955785	4.24128
0.604532	2.67303	0.448858	1.95991	0.606357	2.67248	0.666139	2.94472	0.791177	3.49399	0.967251	4.27055	0.564421	2.49474	0.673334	2.96989	0.819749	3.61819	0.957232	4.23021
0.606863	2.67232	0.450837	1.96057	0.608685	2.67177	0.667821	2.94005	0.792864	3.48709	0.968318	4.25775	0.566201	2.49234	0.675262	2.96621	0.820947	3.60864	0.958681	4.21924
0.60919	2.67161	0.452815	1.96123	0.61101	2.67105	0.669509	2.93544	0.794553	3.48026	0.969389	4.24507	0.567982	2.48997	0.677193	2.96256	0.822151	3.59919	0.96013	4.20837
0.611514	2.67089	0.454792	1.96187	0.613331	2.67032	0.671201	2.93088	0.796244	3.4735	0.970465	4.23251	0.569762	2.48761	0.679128	2.95897	0.823359	3.58984	0.961581	4.19758
0.613835	2.67016	0.456769	1.96251	0.615648	2.66958	0.672898	2.92639	0.797939	3.4668	0.971546	4.22007	0.571543	2.48528	0.681065	2.95541	0.824573	3.58059	0.963034	4.1869
0.616152	2.66942	0.458744	1.96314	0.617962	2.66883	0.6746	2.92195	0.799635	3.46016	0.97263	4.20776	0.573324	2.48296	0.683005	2.95189	0.825792	3.57143	0.964487	4.1763
0.618465	2.66867	0.46072	1.96376	0.620272	2.66807	0.676308	2.91757	0.801335	3.45359	0.97372	4.19556	0.575104	2.48067	0.684948	2.94842	0.827016	3.56237	0.965942	4.16579
0.620774	2.66791	0.462694	1.96438	0.622578	2.6673	0.67802	2.91325	0.803037	3.44709	0.974813	4.18348	0.576886	2.47839	0.686893	2.94498	0.828245	3.5534	0.967398	4.15538
0.623079	2.66713	0.464667	1.96499	0.62488	2.66652	0.679738	2.90899	0.804741	3.44064	0.975911	4.17151	0.578667	2.47613	0.688841	2.94158	0.82948	3.54453	0.968856	4.14505
0.62538	2.66635	0.46664	1.96558	0.627177	2.66572	0.681462	2.90478	0.806448	3.43426	0.977014	4.15966	0.580448	2.47389	0.690791	2.93822	0.830719	3.53575	0.970314	4.13481
0.627676	2.66555	0.468612	1.96617	0.62947	2.66492	0.683191	2.90063	0.808158	3.42794	0.978121	4.14792	0.58223	2.47167	0.692744	2.93489	0.831964	3.52706	0.971774	4.12465
0.629968	2.66474	0.470584	1.96676	0.631759	2.6641	0.684926	2.89654	0.809869	3.42168	0.979232	4.13629	0.584012	2.46947	0.694699	2.93161	0.833214	3.51846	0.973235	4.11458
0.632256	2.66392	0.472555	1.96733	0.634043	2.66326	0.686666	2.89251	0.811583	3.41547	0.980348	4.12477	0.585795	2.46728	0.696656	2.92835	0.834469	3.50995	0.974696	4.10459
0.634538	2.66308	0.474525	1.9679	0.636322	2.66242	0.688413	2.88853	0.813299	3.40933	0.981469	4.11336	0.587577	2.46512	0.698616	2.92513	0.835729	3.50153	0.97616	4.09469
0.636816	2.66223	0.476494	1.96846	0.638596	2.66156	0.690166	2.88461	0.815017	3.40324	0.982593	4.10205	0.589361	2.46297	0.700578	2.92195	0.836994	3.4932	0.977624	4.08486
0.639089	2.66137	0.478462	1.96902	0.640865	2.66068	0.691926	2.88074	0.816738	3.39721	0.983723	4.09086	0.591144	2.46085	0.702542	2.9188	0.838265	3.48495	0.979089	4.07512
0.641357	2.66049	0.48043	1.96956	0.643128	2.65979	0.693691	2.87693	0.818461	3.39123	0.984856	4.07976	0.592928	2.45874	0.704507	2.91568	0.83954	3.47679	0.980555	4.06546
0.643619	2.65959	0.482397	1.9701	0.645386	2.65888	0.695464	2.87318	0.820185	3.38531	0.985994	4.06877	0.594713	2.45665	0.706475	2.91259	0.840821	3.46871	0.982022	4.05588
0.645876	2.65869	0.484363	1.97063	0.647639	2.65796	0.697243	2.86949	0.821912	3.37944	0.987137	4.05789	0.596498	2.45457	0.708444	2.90953	0.842107	3.46071	0.983491	4.04637
0.648128	2.65776	0.486329	1.97116	0.649886	2.65702	0.69903	2.86585	0.823641	3.37362	0.988284	4.0471	0.598284	2.45252	0.710416	2.90651	0.843399	3.4528	0.98496	4.03694
0.650373	2.65682	0.488294	1.97168	0.652127	2.65607	0.700823	2.86227	0.825371	3.36786	0.989436	4.03642	0.60007	2.45048	0.712389	2.90351	0.844695	3.44496	0.986431	4.02759
0.652613	2.65586	0.490258	1.97219	0.654362	2.6551	0.702624	2.85875	0.827104	3.36215	0.990592	4.02583	0.601857	2.44846	0.714363	2.90055	0.845996	3.43721	0.987902	4.01831
0.654847	2.65488	0.492221	1.97269	0.656591	2.65411	0.704432	2.85528	0.828839	3.35648	0.991752	4.01535	0.603644	2.44646	0.716339	2.89761	0.847303	3.42954	0.989374	4.0091
0.657074	2.65389	0.494184	1.97319	0.658813	2.6531	0.706247	2.85187	0.830575	3.35087	0.992917	4.00495	0.605432	2.44448	0.718317	2.8947	0.848615	3.42194	0.990847	3.99997
0.659295	2.65288	0.496146	1.97368	0.661029	2.65207	0.70807	2.84851	0.832313	3.34531	0.994086	3.99466	0.607221	2.44251	0.720296	2.89182	0.849932	3.41443	0.992321	3.99091
0.66151	2.65185	0.498107	1.97417	0.663239	2.65103	0.709901	2.84522	0.834053	3.3398	0.99526	3.98446	0.609011	2.44056	0.722276	2.88896	0.851255	3.40699	0.993796	3.98192
0.663718	2.6508	0.500067	1.97464	0.665442	2.64996	0.71174	2.84197	0.835794	3.33433	0.996439	3.97435	0.610801	2.43863	0.724258	2.88613	0.852582	3.39962	0.995272	3.97301
0.66592	2.64973	0.502027	1.97512	0.667638	2.64888	0.713587	2.83879	0.837538	3.32891	0.997621	3.96434	0.612592	2.43672	0.72624	2.88333	0.853915	3.39234	0.996749	3.96416
0.668114	2.64864	0.503986	1.97558	0.669827	2.64778	0.715443	2.83566	0.839283	3.32354	0.998809	3.95441	0.614384	2.43482	0.728224	2.88055	0.855253	3.38512	0.998227	3.95538
0.670302	2.64754	0.505944	1.97604	0.672009	2.64666	0.717306	2.83258	0.841029	3.31821	1	3.94458	0.616176	2.43294	0.730209	2.87779	0.856596	3.37798	0.999705	3.94667
0.672482	2.64641	0.507902	1.9765	0.674183	2.64551	0.719178	2.82957	0.842777	3.31293			0.61797	2.43108	0.732195	2.87506	0.857945	3.37091	1.00118	3.93802
0.674655	2.64526	0.509859	1.97694	0.676351	2.64435	0.721059	2.8266	0.844527	3.3077			0.619764	2.42924	0.734182	2.87236	0.859299	3.36392		
0.676821	2.64409	0.511815	1.97738	0.67851	2.64317	0.722949	2.8237	0.846278	3.30251			0.621559	2.42741	0.73617	2.86968	0.860657	3.35699		
0.678979	2.64291	0.51377	1.97782	0.680663	2.64196	0.724847	2.82085	0.848031	3.29736			0.623355	2.4256	0.738159	2.86701	0.862022	3.35014		
0.681129	2.6417	0.515725	1.97825	0.682807	2.64074	0.726754	2.81805	0.849785	3.29225			0.625152	2.4238	0.740148	2.86438	0.863391	3.34336		
0.683272	2.64047	0.517679	1.97867	0.684944	2.63949	0.72867	2.81531	0.85154	3.28719			0.62695	2.42202	0.742139	2.86176	0.864766	3.33664		
0.685407	2.63922	0.519632	1.97909	0.687073	2.63822	0.730596	2.81263	0.853297	3.28216			0.628749	2.42026	0.744129	2.85916	0.866146	3.33		
0.687535	2.63794	0.521585	1.9795	0.689194	2.63693	0.73253	2.81	0.855055	3.27718			0.630549	2.41851	0.746121	2.85659	0.867531	3.32342		
0.689654	2.63665	0.523537	1.97991	0.691307	2.63562	0.734474	2.80742	0.856815	3.27224			0.632349	2.41679	0.748112	2.85403	0.868922	3.31691		
0.691765	2.63533	0.525488	1.98031	0.693412	2.63429	0.736427	2.8049	0.858576	3.26734			0.634151	2.41507	0.750105	2.8515	0.870318	3.31046		
0.693869	2.634	0.527438	1.98071	0.695509	2.63294	0.73839	2.80243	0.860337	3.26247			0.635954	2.41337	0.752097	2.84898	0.871719	3.30408		
0.695964	2.63264	0.529388	1.9811	0.697598	2.63156	0.740362	2.80001	0.862101	3.25765			0.637757	2.41169	0.75409	2.84649	0.873125	3.29777		
0.698051	2.63126	0.531337	1.98148	0.699679	2.63017	0.742343	2.79764	0.863865	3.25287			0.639562	2.41003	0.756083	2.84401	0.874537	3.29151		
0.70013	2.62986	0.533285	1.98186	0.701752	2.62875	0.744334	2.79533	0.86563	3.24812			0.641368	2.40837	0.758077	2.84155	0.875954	3.28533		
0.702201	2.62844	0.535233	1.98224	0.703816	2.62732	0.746335	2.79307	0.867397	3.24341			0.643175	2.40674	0.76007	2.83911	0.877376	3.2792		
0.704264	2.627	0.53718	1.9826	0.705872	2.62586	0.748345	2.79086	0.869164	3.23873			0.644983	2.40512	0.762064	2.83668	0.878804	3.27314		
0.706318	2.62554	0.539126	1.98297	0.707921	2.62438	0.750364	2.7887	0.870933	3.2341			0.646792	2.40352	0.764058	2.83427	0.880237	3.26714		
0.708365	2.62406	0.541071	1.98333	0.709961	2.62289	0.752393	2.7866	0.872702	3.22949			0.648602	2.40193	0.766051	2.83188	0.881676	3.2612		
0.710403	2.62256	0.543016	1.98368	0.711993	2.62137	0.754431	2.78454	0.874473	3.22493			0.650414	2.40035	0.768045	2.8295	0.883119	3.25533		
0.712433	2.62104	0.54496	1.98403	0.714017	2.61984	0.756479	2.78252	0.876244	3.22039			0.652226	2.39879	0.770038	2.82714	0.884569	3.24951		
0.714456	2.6195	0.546904	1.98438	0.716033	2.61828	0.758536	2.78056	0.878017	3.2159			0.65404	2.39725	0.772031	2.8248	0.886023	3.24375		
0.71647	2.61794	0.548846	1.98471	0.718041	2.61671	0.760602	2.77865	0.87979	3.21143			0.655854	2.39572	0.774024	2.82247	0.887483	3.23805		
0.718477	2.61637	0.550788	1.98505	0.720042	2.61512	0.762677	2.77678	0.881564	3.207			0.65767	2.3942	0.776017	2.82015	0.888948	3.23241		
0.720476	2.61478	0.55273	1.98538	0.722035	2.61352	0.764761	2.77495	0.883339	3.2026			0.659487	2.3927	0.778009	2.81785	0.890419	3.22682		
0.722467	2.61317	0.55467	1.98571	0.72402	2.61189	0.766855	2.77317	0.885114	3.19824			0.661306	2.39122	0.780001	2.81556	0.891895	3.2213		
0.72445	2.61154	0.55661	1.98603	0.725998	2.61026	0.768957	2.77144	0.886891	3.1939			0.663125	2.38975	0.781992	2.81329	0.893377	3.21583		
0.726426	2.6099	0.55855	1.98634	0.727968	2.6086	0.771068	2.76974	0.888668	3.1896			0.664946	2.38829	0.783983	2.81103	0.894864	3.21041		
0.728395	2.60824	0.560488	1.98665	0.729931	2.60693	0.773188	2.76809	0.890446	3.18533			0.666768	2.38684	0.785973	2.80878	0.896356	3.20505		
0.730357	2.60657	0.562426	1.98696	0.731887	2.60525	0.775316	2.76649	0.892224	3.18109			0.668591	2.38542	0.787962	2.80655	0.897854	3.19975		
0.732311	2.60488	0.564364	1.98726	0.733836	2.60355	0.777452	2.76492	0.894004	3.17688			0.670415	2.384	0.789951	2.80433	0.899357	3.1945		
0.734259	2.60318	0.5663	1.98756	0.735778	2.60184	0.779597	2.76339	0.895783	3.1727			0.672241	2.3826	0.791939	2.80212	0.900866	3.1893		
0.736199	2.60147	0.568236	1.98786	0.737714	2.60012	0.78175	2.7619	0.897564	3.16855			0.674068	2.38121	0.793926	2.79992	0.90238	3.18416		
0.738133	2.59975	0.570172	1.98815	0.739643	2.59839	0.78391	2.76044	0.899345	3.16443			0.675896	2.37983	0.795913	2.79773	0.9039	3.17907		
0.740061	2.59801	0.572106	1.98843	0.741565	2.59664	0.786079	2.75903	0.901126	3.16034			0.677725	2.37847	0.797898	2.79555	0.905425	3.17404		
0.741982	2.59626	0.57404	1.98872	0.743482	2.59489	0.788255	2.75765	0.902908	3.15628			0.679556	2.37712	0.799883	2.79339	0.906956	3.16905		
0.743897	2.5945	0.575974	1.98899	0.745392	2.59312	0.790439	2.7563	0.904691	3.15224			0.681388	2.37579	0.801867	2.79123	0.908492	3.16412		
0.745806	2.59274	0.577907	1.98927	0.747296	2.59135	0.79263	2.75499	0.906474	3.14823			0.683221	2.37447	0.803849	2.78909	0.910034	3.15924		
0.747709	2.59096	0.579839	1.98954	0.749195	2.58957	0.794828	2.75372	0.908258	3.14425			0.685055	2.37316	0.805831	2.78696	0.911581	3.1544		
0.749607	2.58918	0.58177	1.9898	0.751088	2.58778	0.797032	2.75247	0.910041	3.1403			0.686891	2.37186	0.807811	2.78483	0.913133	3.14962		
0.751499	2.58739	0.583701	1.99007	0.752976	2.58598	0.799244	2.75126	0.911826	3.13637			0.688728	2.37058	0.809791	2.78272	0.914691	3.14489		
0.753385	2.58559	0.585631	1.99033	0.754858	2.58417	0.801462	2.75007	0.913611	3.13247			0.690566	2.36931	0.811769	2.78061	0.916255	3.14021		
0.755267	2.58378	0.587561	1.99058	0.756736	2.58237	0.803687	2.74892	0.915396	3.1286			0.692406	2.36805	0.813745	2.77852	0.917824	3.13557		
0.757143	2.58197	0.58949	1.99083	0.758608	2.58055	0.805918	2.74779	0.917181	3.12475			0.694247	2.36681	0.815721	2.77643	0.919399	3.13099		
0.759015	2.58016	0.591418	1.99108	0.760476	2.57873	0.808155	2.74669	0.918967	3.12093			0.696089	2.36557	0.817695	2.77435	0.920979	3.12645		
0.760881	2.57834	0.593346	1.99132	0.762339	2.57691	0.810398	2.74562	0.920753	3.11713			0.697933	2.36435	0.819668	2.77228	0.922565	3.12196		
0.762744	2.57651	0.595273	1.99156	0.764198	2.57508	0.812647	2.74458	0.92254	3.11336			0.699777	2.36314	0.821639	2.77022	0.924156	3.11751		
0.764601	2.57468	0.597199	1.9918	0.766053	2.57325	0.814901	2.74356	0.924326	3.10961			0.701624	2.36194	0.823609	2.76816	0.925753	3.11311		
0.766455	2.57285	0.599125	1.99203	0.767903	2.57142	0.817161	2.74256	0.926113	3.10589			0.703471	2.36076	0.825577	2.76612	0.927355	3.10876		
0.768305	2.57102	0.60105	1.99226	0.76975	2.56959	0.819426	2.74159	0.9279	3.10219			0.70532	2.35959	0.827544	2.76408	0.928963	3.10446		
0.77015	2.56919	0.602975	1.99249	0.771592	2.56775	0.821696	2.74064	0.929688	3.09851			0.70717	2.35842	0.82951	2.76205	0.930577	3.1002		
0.771992	2.56735	0.604899	1.99271	0.773432	2.56592	0.82397	2.73972	0.931476	3.09486			0.709021	2.35727	0.831473	2.76002	0.932196	3.09598		
0.773831	2.56552	0.606822	1.99293	0.775267	2.56408	0.82625	2.73881	0.933263	3.09123			0.710874	2.35614	0.833435	2.75801	0.93382	3.09181		
0.775666	2.56368	0.608745	1.99315	0.7771	2.56225	0.828534	2.73793	0.935051	3.08763			0.712728	2.35501	0.835396	2.756	0.93545	3.08768		
0.777497	2.56185	0.610667	1.99336	0.778929	2.56041	0.830823	2.73706	0.93684	3.08404			0.714583	2.35389	0.837354	2.75399	0.937086	3.0836		
0.779326	2.56001	0.612589	1.99357	0.780755	2.55858	0.833116	2.73622	0.938628	3.08048			0.71644	2.35279	0.839311	2.752	0.938727	3.07955		
0.781151	2.55818	0.61451	1.99378	0.782578	2.55675	0.835413	2.73539	0.940416	3.07694			0.718298	2.35169	0.841266	2.75001	0.940373	3.07556		
0.782974	2.55635	0.61643	1.99398	0.784398	2.55492	0.837715	2.73459	0.942205	3.07343			0.720157	2.35061	0.84322	2.74802	0.942026	3.0716		
0.784793	2.55452	0.61835	1.99418	0.786216	2.55309	0.84002	2.7338	0.943994	3.06993			0.722018	2.34954	0.845171	2.74605	0.943683	3.06769		
0.78661	2.55269	0.62027	1.99438	0.788031	2.55126	0.842329	2.73302	0.945782	3.06646			0.72388	2.34848	0.847121	2.74407	0.945346	3.06381		
0.788425	2.55087	0.622189	1.99457	0.789843	2.54944	0.844641	2.73227	0.947571	3.063			0.725743	2.34743	0.849069	2.74211	0.947015	3.05998		
0.790237	2.54905	0.624107	1.99476	0.791654	2.54762	0.846957	2.73153	0.94936	3.05957			0.727608	2.34639	0.851014	2.74015	0.948689	3.05619		
0.792047	2.54723	0.626024	1.99495	0.793462	2.54581	0.849276	2.7308	0.951149	3.05616			0.729474	2.34536	0.852958	2.73819	0.950369	3.05244		
0.793854	2.54542	0.627942	1.99514	0.795268	2.544	0.851599	2.73009	0.952939	3.05277			0.731341	2.34434	0.8549	2.73624	0.952054	3.04873		
0.79566	2.54361	0.629858	1.99532	0.797072	2.54219	0.853925	2.72939	0.954728	3.0494			0.733209	2.34333	0.85684	2.7343	0.953745	3.04506		
0.797464	2.5418	0.631774	1.9955	0.798874	2.54039	0.856253	2.72871	0.956517	3.04605			0.735079	2.34233	0.858778	2.73236	0.955441	3.04143		
0.799266	2.54	0.63369	1.99568	0.800675	2.5386	0.858585	2.72804	0.958306	3.04272			0.73695	2.34134	0.860714	2.73042	0.957142	3.03783		
0.801066	2.53821	0.635604	1.99585	0.802473	2.53681	0.860919	2.72738	0.960095	3.03941			0.738823	2.34036	0.862648	2.72849	0.958849	3.03428		
0.802864	2.53642	0.637519	1.99602	0.80427	2.53502	0.863256	2.72674	0.961885	3.03612			0.740697	2.33939	0.86458	2.72657	0.960562	3.03076		
0.804661	2.53463	0.639433	1.99619	0.806066	2.53324	0.865596	2.72611	0.963674	3.03285			0.742572	2.33844	0.86651	2.72465	0.96228	3.02728		
0.806456	2.53286	0.641346	1.99636	0.80786	2.53147	0.867938	2.72549	0.965464	3.0296			0.744448	2.33749	0.868437	2.72273	0.964003	3.02384		
0.80825	2.53108	0.643259	1.99652	0.809653	2.5297	0.870282	2.72488	0.967253	3.02637			0.746326	2.33655	0.870363	2.72082	0.965731	3.02043		
0.810043	2.52932	0.645171	1.99668	0.811445	2.52794	0.872629	2.72428	0.969042	3.02315			0.748205	2.33562	0.872286	2.71892	0.967465	3.01707		
0.811834	2.52756	0.647083	1.99684	0.813235	2.52619	0.874977	2.72369	0.970832	3.01996			0.750085	2.3347	0.874207	2.71701	0.969205	3.01373		
0.813624	2.5258	0.648994	1.997	0.815025	2.52444	0.877328	2.72311	0.972621	3.01678			0.751967	2.33378	0.876126	2.71512	0.970949	3.01044		
0.815414	2.52406	0.650905	1.99715	0.816813	2.5227	0.879681	2.72253	0.974411	3.01362			0.753849	2.33288	0.878043	2.71322	0.972699	3.00718		
0.817202	2.52232	0.652815	1.9973	0.818601	2.52096	0.882035	2.72197	0.9762	3.01048			0.755733	2.33199	0.879958	2.71133	0.974455	3.00395		
0.818989	2.52059	0.654725	1.99745	0.820387	2.51924	0.884392	2.72142	0.97799	3.00736			0.757619	2.3311	0.881871	2.70945	0.976215	3.00076		
0.820775	2.51886	0.656634	1.9976	0.822173	2.51752	0.88675	2.72088	0.979779	3.00425			0.759506	2.33023	0.883781	2.70757	0.977981	2.9976		
0.822561	2.51715	0.658543	1.99774	0.823958	2.51581	0.88911	2.72034	0.981568	3.00117			0.761393	2.32936	0.885689	2.70569	0.979752	2.99448		
0.824346	2.51544	0.660451	1.99789	0.825743	2.5141	0.891471	2.71981	0.983358	2.9981			0.763283	2.32851	0.887595	2.70382	0.981528	2.99139		
0.82613	2.51373	0.662359	1.99803	0.827526	2.51241	0.893834	2.71929	0.985147	2.99505			0.765173	2.32766	0.889499	2.70195	0.98331	2.98833		
0.827914	2.51204	0.664266	1.99816	0.82931	2.51072	0.896198	2.71878	0.986937	2.99201			0.767065	2.32682	0.8914	2.70008	0.985096	2.98531		
0.829697	2.51035	0.666173	1.9983	0.831093	2.50904	0.898564	2.71827	0.988727	2.98899			0.768958	2.32599	0.8933	2.69822	0.986888	2.98232		
0.83148	2.50868	0.668079	1.99843	0.832875	2.50737	0.90093	2.71777	0.990516	2.98599			0.770852	2.32516	0.895197	2.69636	0.988685	2.97936		
0.833262	2.50701	0.669985	1.99856	0.834657	2.5057	0.903298	2.71728	0.992306	2.98301			0.772748	2.32435	0.897092	2.69451	0.990486	2.97643		
0.835044	2.50534	0.67189	1.99869	0.836438	2.50405	0.905667	2.71679	0.994096	2.98004			0.774644	2.32354	0.898985	2.69266	0.992293	2.97354		
0.836826	2.50369	0.673795	1.99882	0.83822	2.5024	0.908037	2.71631	0.995886	2.9771			0.776542	2.32274	0.900875	2.69081	0.994105	2.97067		
0.838607	2.50205	0.6757	1.99894	0.840001	2.50076	0.910408	2.71583	0.997675	2.97416			0.778441	2.32195	0.902763	2.68897	0.995922	2.96784		
0.840388	2.50041	0.677604	1.99907	0.841782	2.49913	0.91278	2.71536	0.999465	2.97125			0.780342	2.32117	0.90465	2.68713	0.997744	2.96503		
0.842169	2.49878	0.679507	1.99919	0.843562	2.49751	0.915153	2.71489	1.00126	2.96835			0.782243	2.3204	0.906533	2.68529	0.99957	2.96226		
0.843949	2.49716	0.68141	1.99931	0.845343	2.4959	0.917526	2.71443					0.784146	2.31963	0.908415	2.68346	1.0014	2.95952		
0.84573	2.49555	0.683313	1.99942	0.847124	2.49429	0.9199	2.71397					0.78605	2.31887	0.910295	2.68163				
0.847511	2.49395	0.685215	1.99954	0.848904	2.4927	0.922275	2.71352					0.787956	2.31812	0.912172	2.67981				
0.849291	2.49235	0.687117	1.99965	0.850685	2.49111	0.92465	2.71307					0.789862	2.31738	0.914047	2.67799				
0.851072	2.49077	0.689019	1.99976	0.852465	2.48953	0.927026	2.71263					0.79177	2.31664	0.91592	2.67617				
0.852852	2.48919	0.690919	1.99987	0.854246	2.48796	0.929402	2.71218					0.793679	2.31591	0.917791	2.67436				
0.854633	2.48762	0.69282	1.99998	0.856027	2.4864	0.931779	2.71175					0.795589	2.31519	0.91966	2.67255				
0.856414	2.48607	0.69472	2.00008	0.857808	2.48485	0.934156	2.71131					0.7975	2.31448	0.921527	2.67074				
0.858195	2.48452	0.69662	2.00019	0.859589	2.48331	0.936533	2.71088					0.799412	2.31377	0.923391	2.66894				
0.859976	2.48298	0.698519	2.00029	0.86137	2.48178	0.93891	2.71045					0.801326	2.31308	0.925254	2.66714				
0.861757	2.48144	0.700418	2.00039	0.863152	2.48025	0.941288	2.71003					0.803241	2.31238	0.927114	2.66534				
0.863539	2.47992	0.702316	2.00049	0.864933	2.47873	0.943665	2.7096					0.805157	2.3117	0.928973	2.66355				
0.865321	2.47841	0.704214	2.00059	0.866715	2.47723	0.946043	2.70918					0.807074	2.31102	0.930829	2.66176				
0.867103	2.4769	0.706112	2.00068	0.868498	2.47573	0.94842	2.70876					0.808992	2.31035	0.932683	2.65998				
0.868885	2.4754	0.708009	2.00078	0.870281	2.47424	0.950798	2.70835					0.810911	2.30969	0.934536	2.6582				
0.870668	2.47392	0.709906	2.00087	0.872064	2.47276	0.953175	2.70793					0.812832	2.30903	0.936386	2.65642				
0.872451	2.47244	0.711803	2.00096	0.873847	2.47129	0.955552	2.70752					0.814753	2.30838	0.938235	2.65465				
0.874235	2.47097	0.713699	2.00105	0.875631	2.46983	0.957929	2.70711					0.816676	2.30773	0.940081	2.65288				
0.876019	2.46951	0.715595	2.00114	0.877416	2.46837	0.960305	2.7067					0.8186	2.3071	0.941926	2.65112				
0.877803	2.46806	0.71749	2.00122	0.8792	2.46693	0.962681	2.70629					0.820525	2.30646	0.943768	2.64935				
0.879588	2.46661	0.719385	2.00131	0.880986	2.46549	0.965057	2.70588					0.822451	2.30584	0.945609	2.6476				
0.881374	2.46518	0.72128	2.00139	0.882772	2.46406	0.967432	2.70547					0.824378	2.30522	0.947448	2.64584				
0.88316	2.46375	0.723174	2.00147	0.884558	2.46265	0.969806	2.70506					0.826306	2.30461	0.949285	2.6441				
0.884946	2.46234	0.725068	2.00155	0.886345	2.46124	0.97218	2.70465					0.828236	2.304	0.951121	2.64235				
0.886733	2.46093	0.726962	2.00163	0.888132	2.45984	0.974553	2.70425					0.830166	2.3034	0.952954	2.64061				
0.888521	2.45953	0.728855	2.00171	0.88992	2.45844	0.976926	2.70384					0.832098	2.30281	0.954786	2.63887				
0.890309	2.45814	0.730748	2.00179	0.891709	2.45706	0.979297	2.70343					0.83403	2.30222	0.956616	2.63714				
0.892097	2.45676	0.73264	2.00186	0.893498	2.45569	0.981668	2.70303					0.835964	2.30164	0.958444	2.63541				
0.893887	2.45539	0.734533	2.00194	0.895288	2.45432	0.984038	2.70262					0.837899	2.30106	0.960271	2.63369				
0.895677	2.45402	0.736425	2.00201	0.897078	2.45296	0.986407	2.70221					0.839834	2.30049	0.962096	2.63197				
0.897467	2.45267	0.738316	2.00208	0.898869	2.45161	0.988774	2.7018					0.841771	2.29993	0.96392	2.63025				
0.899258	2.45132	0.740207	2.00215	0.900661	2.45028	0.991141	2.70139					0.843709	2.29937	0.965741	2.62854				
0.90105	2.44999	0.742098	2.00222	0.902453	2.44894	0.993506	2.70098					0.845648	2.29882	0.967562	2.62683				
0.902843	2.44866	0.743989	2.00229	0.904246	2.44762	0.995871	2.70056					0.847588	2.29827	0.96938	2.62513				
0.904636	2.44734	0.745879	2.00235	0.90604	2.44631	0.998233	2.70015					0.849529	2.29773	0.971198	2.62343				
0.90643	2.44602	0.747769	2.00242	0.907834	2.445	1.00059	2.69973					0.851471	2.29719	0.973014	2.62174				
0.908224	2.44472	0.749659	2.00248	0.90963	2.4437							0.853414	2.29666	0.974828	2.62005				
0.91002	2.44342	0.751548	2.00255	0.911426	2.44242							0.855358	2.29613	0.976641	2.61837				
0.911816	2.44214	0.753437	2.00261	0.913222	2.44114							0.857303	2.29561	0.978452	2.61669				
0.913613	2.44086	0.755326	2.00267	0.91502	2.43986							0.859248	2.2951	0.980262	2.61501				
0.91541	2.43959	0.757214	2.00273	0.916818	2.4386							0.861195	2.29459	0.982071	2.61334				
0.917209	2.43833	0.759103	2.00279	0.918617	2.43734							0.863143	2.29408	0.983879	2.61168				
0.919008	2.43707	0.76099	2.00284	0.920416	2.4361							0.865092	2.29358	0.985685	2.61002				
0.920807	2.43583	0.762878	2.0029	0.922217	2.43486							0.867042	2.29309	0.98749	2.60836				
0.922608	2.43459	0.764765	2.00296	0.924018	2.43363							0.868993	2.2926	0.989293	2.60671				
0.924409	2.43336	0.766652	2.00301	0.92582	2.43241							0.870944	2.29211	0.991096	2.60506				
0.926212	2.43214	0.768539	2.00306	0.927623	2.43119							0.872897	2.29163	0.992897	2.60342				
0.928015	2.43093	0.770426	2.00312	0.929426	2.42998							0.874851	2.29116	0.994697	2.60179				
0.929819	2.42972	0.772312	2.00317	0.931231	2.42879							0.876805	2.29069	0.996497	2.60016				
0.931623	2.42853	0.774198	2.00322	0.933036	2.4276							0.878761	2.29022	0.998295	2.59853				
0.933429	2.42734	0.776083	2.00327	0.934842	2.42641							0.880717	2.28976	1.00009	2.59691				
0.935235	2.42616	0.777969	2.00332	0.936649	2.42524							0.882674	2.28931						
0.937042	2.42498	0.779854	2.00337	0.938457	2.42407							0.884633	2.28885						
0.93885	2.42382	0.781739	2.00341	0.940266	2.42291							0.886592	2.28841						
0.940659	2.42266	0.783624	2.00346	0.942075	2.42176							0.888552	2.28796						
0.942468	2.42151	0.785508	2.00351	0.943885	2.42062							0.890513	2.28752						
0.944279	2.42037	0.787392	2.00355	0.945697	2.41948							0.892475	2.28709						
0.94609	2.41923	0.789276	2.00359	0.947509	2.41835							0.894437	2.28666						
0.947903	2.41811	0.79116	2.00364	0.949322	2.41723							0.896401	2.28623						
0.949716	2.41699	0.793043	2.00368	0.951136	2.41612							0.898365	2.28581						
0.95153	2.41588	0.794926	2.00372	0.95295	2.41501							0.90033	2.28539						
0.953345	2.41477	0.796809	2.00376	0.954766	2.41391							0.902297	2.28498						
0.95516	2.41367	0.798692	2.0038	0.956582	2.41282							0.904264	2.28457						
0.956977	2.41259	0.800575	2.00384	0.958399	2.41174							0.906231	2.28417						
0.958794	2.4115	0.802457	2.00388	0.960218	2.41066							0.9082	2.28377						
0.960613	2.41043	0.804339	2.00392	0.962037	2.40959							0.91017	2.28337						
0.962432	2.40936	0.806221	2.00395	0.963857	2.40853							0.91214	2.28298						
0.964252	2.4083	0.808103	2.00399	0.965678	2.40747							0.914111	2.28259						
0.966073	2.40725	0.809984	2.00402	0.967499	2.40643							0.916083	2.2822						
0.967895	2.4062	0.811866	2.00406	0.969322	2.40539							0.918056	2.28182						
0.969718	2.40516	0.813747	2.00409	0.971146	2.40435							0.920029	2.28144						
0.971542	2.40413	0.815628	2.00413	0.97297	2.40333							0.922004	2.28107						
0.973367	2.4031	0.817508	2.00416	0.974796	2.40231							0.923979	2.2807						
0.975192	2.40209	0.819389	2.00419	0.976622	2.40129							0.925955	2.28033						
0.977019	2.40107	0.821269	2.00422	0.978449	2.40029							0.927931	2.27997						
0.978846	2.40007	0.823149	2.00426	0.980277	2.39929							0.929909	2.27961						
0.980675	2.39907	0.825029	2.00429	0.982106	2.3983							0.931887	2.27925						
0.982504	2.39808	0.826909	2.00432	0.983936	2.39731							0.933866	2.2789						
0.984334	2.3971	0.828788	2.00435	0.985767	2.39633							0.935846	2.27855						
0.986165	2.39612	0.830668	2.00437	0.987599	2.39536							0.937826	2.2782						
0.987997	2.39515	0.832547	2.0044	0.989431	2.39439							0.939807	2.27786						
0.98983	2.39418	0.834426	2.00443	0.991265	2.39343							0.941789	2.27752						
0.991663	2.39323	0.836305	2.00446	0.993099	2.39248							0.943772	2.27718						
0.993498	2.39228	0.838183	2.00448	0.994935	2.39153							0.945756	2.27685						
0.995334	2.39133	0.840062	2.00451	0.996771	2.3906							0.94774	2.27652						
0.99717	2.39039	0.84194	2.00454	0.998608	2.38966							0.949725	2.2762						
0.999008	2.38946	0.843818	2.00456	1.00045	2.38873							0.95171	2.27587						
1.00085	2.38853	0.845696	2.00459									0.953696	2.27555						
		0.847574	2.00461									0.955683	2.27524						
		0.849452	2.00463									0.957671	2.27492						
		0.85133	2.00466									0.95966	2.27461						
		0.853207	2.00468									0.961649	2.2743						
		0.855084	2.0047									0.963638	2.274						
		0.856961	2.00472									0.965629	2.2737						
		0.858838	2.00474									0.96762	2.2734						
		0.860715	2.00476									0.969612	2.2731						
		0.862592	2.00479									0.971604	2.27281						
		0.864468	2.00481									0.973597	2.27252						
		0.866344	2.00483									0.975591	2.27223						
		0.868221	2.00484									0.977585	2.27194						
		0.870097	2.00486									0.97958	2.27166						
		0.871973	2.00488									0.981576	2.27138						
		0.873849	2.0049									0.983572	2.27111						
		0.875724	2.00492									0.985569	2.27083						
		0.8776	2.00494									0.987566	2.27056						
		0.879476	2.00495									0.989565	2.27029						
		0.881351	2.00497									0.991563	2.27002						
		0.883226	2.00499									0.993563	2.26976						
		0.885101	2.005									0.995563	2.2695						
		0.886976	2.00502									0.997563	2.26924						
		0.888851	2.00503									0.999564	2.26898						
		0.890726	2.00505									1.00157	2.26873						
		0.892601	2.00506																
		0.894475	2.00508																
		0.89635	2.00509																
		0.898224	2.00511																
		0.900098	2.00512																
		0.901972	2.00513																
		0.903846	2.00514																
		0.90572	2.00516																
		0.907594	2.00517																
		0.909468	2.00518																
		0.911341	2.00519																
		0.913215	2.00521																
		0.915088	2.00522																
		0.916962	2.00523																
		0.918835	2.00524																
		0.920708	2.00525																
		0.922581	2.00526																
		0.924454	2.00527																
		0.926327	2.00528																
		0.9282	2.00529																
		0.930073	2.0053																
		0.931946	2.00531																
		0.933818	2.00532																
		0.935691	2.00533																
		0.937563	2.00534																
		0.939436	2.00535																
		0.941308	2.00535																
		0.94318	2.00536																
		0.945052	2.00537																
		0.946924	2.00538																
		0.948796	2.00539																
		0.950668	2.00539																
		0.95254	2.0054																
		0.954412	2.00541																
		0.956284	2.00541																
		0.958156	2.00542																
		0.960027	2.00543																
		0.961899	2.00543																
		0.96377	2.00544																
		0.965642	2.00545																
		0.967513	2.00545																
		0.969384	2.00546																
		0.971256	2.00546																
		0.973127	2.00547																
		0.974998	2.00548																
		0.976869	2.00548																
		0.97874	2.00549																
		0.980611	2.00549																
		0.982482	2.0055																
		0.984353	2.0055																
		0.986224	2.00551																
		0.988095	2.00551																
		0.989966	2.00552																
		0.991836	2.00552																
		0.993707	2.00552																
		0.995578	2.00553																
		0.997448	2.00553																
		0.999319	2.00554																
		1.00119	2.00554																
