Sym0		Asym0		Sym1		Sym2		Sym3		Sym4		Asym1		Asym2		Asym3		Asym4	
453  Points		538  Points		453  Points		401  Points		365  Points		276  Points		478  Points		417  Points		366  Points		277  Points	
Freq (MHz)	Vph (m/ms)	Freq (MHz)	Vph (m/ms)	Freq (MHz)	Vph (m/ms)	Freq (MHz)	Vph (m/ms)	Freq (MHz)	Vph (m/ms)	Freq (MHz)	Vph (m/ms)	Freq (MHz)	Vph (m/ms)	Freq (MHz)	Vph (m/ms)	Freq (MHz)	Vph (m/ms)	Freq (MHz)	Vph (m/ms)
0.279508	1393.26	0.000334788	0.113404	0.279507	360.845	0.356752	3195.41	0.559017	2009.39	0.838526	2174.2	0.139755	1045.47	0.419265	684.508	0.69877	1537.44	0.713504	3768.69
0.279505	246.845	0.000578421	0.14893	0.279501	163.807	0.356769	341.949	0.559024	462.043	0.83853	636.52	0.139798	131.22	0.419275	271.516	0.698759	504.084	0.713522	636.494
0.279498	135.415	0.000887212	0.184239	0.279491	105.949	0.356814	180.662	0.55904	261.039	0.838538	372.839	0.139908	70.0569	0.419294	169.35	0.698738	301.454	0.713565	347.62
0.279485	93.2956	0.0012604	0.219305	0.279476	78.2917	0.356887	122.78	0.559064	181.911	0.838551	263.633	0.140085	47.8309	0.419322	123.055	0.698707	215.014	0.713632	239.12
0.279469	71.1589	0.00169687	0.254063	0.279457	62.0827	0.356988	93.0038	0.559097	139.6	0.838568	203.91	0.140329	36.3503	0.419359	96.6424	0.698665	167.094	0.713725	182.254
0.279449	57.5105	0.0021955	0.288478	0.279434	51.4321	0.357116	74.8653	0.559138	113.262	0.83859	166.25	0.140637	29.3474	0.419404	79.5686	0.698614	136.635	0.713841	147.251
0.279424	48.2532	0.00275497	0.322508	0.279407	43.899	0.357272	62.6594	0.559188	95.2885	0.838616	140.334	0.141011	24.6357	0.419459	67.6255	0.698554	115.565	0.713982	123.537
0.279395	41.5614	0.00337388	0.356119	0.279376	38.2893	0.357456	53.8864	0.559247	82.2414	0.838646	121.41	0.141448	21.2527	0.419522	58.803	0.698486	100.122	0.714145	106.411
0.279363	36.4981	0.00405069	0.389275	0.279341	33.9495	0.357666	47.2778	0.559314	72.3398	0.838681	106.985	0.141948	18.7087	0.419595	52.0197	0.69841	88.3163	0.71433	93.4634
0.279327	32.5334	0.00478391	0.421958	0.279304	30.4922	0.357903	42.1216	0.55939	64.5689	0.83872	95.625	0.142508	16.7284	0.419676	46.6422	0.698328	78.9985	0.714537	83.332
0.279288	29.3445	0.00557182	0.454134	0.279263	27.673	0.358168	37.9874	0.559475	58.3081	0.838764	86.4471	0.143129	15.1449	0.419766	42.2748	0.698239	71.4571	0.714764	75.1887
0.279246	26.724	0.00641261	0.485774	0.279219	25.33	0.358458	34.5992	0.559568	53.1563	0.838811	78.8778	0.143808	13.8512	0.419864	38.6575	0.698145	65.228	0.715012	68.5011
0.279201	24.5323	0.0073047	0.516872	0.279173	23.3521	0.358775	31.7725	0.55967	48.843	0.838864	72.5284	0.144544	12.7756	0.419972	35.6124	0.698047	59.9963	0.715279	62.9112
0.279154	22.6721	0.00824616	0.547401	0.279124	21.66	0.359117	29.3788	0.559781	45.1792	0.838921	67.126	0.145334	11.8682	0.420089	33.014	0.697945	55.5399	0.715564	58.1695
0.279105	21.0735	0.00923532	0.577356	0.279074	20.1959	0.359485	27.3261	0.5599	42.0284	0.838982	62.4735	0.146178	11.0931	0.420214	30.7708	0.697839	51.6986	0.715867	54.0969
0.279054	19.6849	0.0102703	0.606722	0.279022	18.9167	0.359879	25.5467	0.560027	39.2902	0.839047	58.425	0.147074	10.4241	0.420348	28.8148	0.697732	48.3531	0.716187	50.5612
0.279001	18.4674	0.0113495	0.635493	0.278968	17.7894	0.360297	23.9898	0.560164	36.8885	0.839117	54.8701	0.148019	9.8412	0.420491	27.0942	0.697623	45.4134	0.716523	47.463
0.278948	17.3914	0.0124709	0.663663	0.278914	16.7885	0.360739	22.6162	0.560309	34.765	0.839191	51.7238	0.149013	9.32935	0.420643	25.569	0.697513	42.8097	0.716875	44.726
0.278893	16.4334	0.0136329	0.691228	0.27886	15.8939	0.361206	21.3957	0.560462	32.8742	0.83927	48.9194	0.150053	8.87665	0.420804	24.2078	0.697402	40.4878	0.717242	42.2906
0.278839	15.5751	0.0148338	0.718191	0.278805	15.0895	0.361697	20.3042	0.560625	31.1798	0.839353	46.4042	0.151137	8.47374	0.420973	22.9855	0.697291	38.4041	0.717623	40.1096
0.278784	14.8018	0.0160719	0.74455	0.278751	14.3623	0.362211	19.3225	0.560796	29.6527	0.839441	44.1356	0.152116	8.15733	0.421152	21.8821	0.697182	36.5238	0.718018	38.1453
0.27873	14.1013	0.0173457	0.770311	0.278697	13.7018	0.362747	18.4349	0.560975	28.2695	0.839532	42.0792	0.152976	7.90986	0.421339	20.881	0.697073	34.8187	0.718427	36.367
0.278677	13.464	0.0186535	0.795476	0.278644	13.0992	0.363307	17.6286	0.561163	27.0108	0.839629	40.2064	0.153703	7.71905	0.421535	19.9687	0.696966	33.2652	0.718848	34.7494
0.278625	12.8816	0.0199939	0.820055	0.278593	12.5472	0.363888	16.8931	0.56136	25.8606	0.839729	38.4938	0.154289	7.57628	0.421741	19.1339	0.696861	31.8441	0.719282	33.2719
0.278574	12.3474	0.0213654	0.844052	0.278544	12.0398	0.364491	16.2196	0.561565	24.8053	0.839834	36.9217	0.154725	7.47556	0.421954	18.3673	0.696758	30.5392	0.719728	31.917
0.278526	11.8557	0.0227665	0.867476	0.278497	11.5718	0.365115	15.6005	0.561779	23.8339	0.839944	35.4735	0.155007	7.4129	0.422177	17.6607	0.696658	29.3368	0.720186	30.6701
0.27848	11.4016	0.024196	0.890335	0.278453	11.1387	0.365761	15.0298	0.562002	22.9367	0.840058	34.1352	0.155416	7.32519	0.422409	17.0075	0.696561	28.2253	0.720655	29.5188
0.278437	10.981	0.0256525	0.912641	0.278412	10.7369	0.366426	14.5019	0.562233	22.1056	0.840176	32.8946	0.155864	7.2329	0.422649	16.4019	0.696468	27.1949	0.721135	28.4526
0.278398	10.5903	0.0271346	0.934401	0.278375	10.3631	0.367112	14.0124	0.562473	21.3335	0.840299	31.7416	0.156481	7.11218	0.422898	15.8389	0.696378	26.2369	0.721625	27.4625
0.278362	10.2265	0.0286415	0.95563	0.278342	10.0145	0.367818	13.5572	0.562721	20.6145	0.840426	30.6671	0.157274	6.96698	0.423156	15.3142	0.696292	25.344	0.722127	26.5405
0.27833	9.88687	0.0301718	0.976339	0.278312	9.68871	0.368542	13.1329	0.562978	19.9432	0.840557	29.6634	0.15825	6.80166	0.423423	14.824	0.69621	24.5098	0.722638	25.6799
0.278302	9.5692	0.0317244	0.996535	0.278288	9.38351	0.369286	12.7365	0.563244	19.3151	0.840693	28.7237	0.159417	6.62081	0.423699	14.3651	0.696133	23.7288	0.723159	24.8749
0.27828	9.27141	0.0332984	1.01624	0.278269	9.09707	0.370047	12.3655	0.563518	18.7262	0.840833	27.8422	0.160787	6.42893	0.423984	13.9346	0.69606	22.996	0.72369	24.1201
0.278263	8.99172	0.0348926	1.03545	0.278255	8.82774	0.370827	12.0174	0.563801	18.173	0.840978	27.0136	0.162187	6.252	0.424277	13.5299	0.695992	22.3071	0.724231	23.4112
0.278251	8.72856	0.0365063	1.05419	0.278247	8.57406	0.371625	11.6903	0.564092	17.6522	0.841127	26.2333	0.163616	6.08843	0.42458	13.1489	0.695929	21.6583	0.724781	22.744
0.278246	8.48053	0.0381384	1.07246	0.278246	8.33472	0.372439	11.3823	0.564392	17.1613	0.84128	25.4972	0.165073	5.93681	0.424891	12.7895	0.695871	21.0463	0.72534	22.1149
0.278247	8.24639	0.0397882	1.09029	0.278249	8.13694	0.373271	11.0919	0.5647	16.6976	0.841438	24.8017	0.166556	5.79594	0.425211	12.45	0.695818	20.4679	0.725908	21.5209
0.278254	8.02502	0.0414547	1.10768	0.278257	7.97573	0.374119	10.8176	0.565017	16.2591	0.8416	24.1434	0.168065	5.66477	0.42554	12.1287	0.695771	19.9206	0.726484	20.9591
0.278269	7.81544	0.0431374	1.12464	0.278266	7.84727	0.374983	10.5581	0.565343	15.8437	0.841767	23.5196	0.169597	5.54237	0.425877	11.8244	0.695729	19.4018	0.72707	20.4269
0.278291	7.61675	0.0448353	1.14119	0.278275	7.74864	0.375863	10.3124	0.565677	15.4496	0.841938	22.9275	0.171152	5.42793	0.426224	11.5356	0.695692	18.9095	0.727664	19.9221
0.278321	7.42815	0.0465479	1.15733	0.278283	7.67772	0.376758	10.0793	0.56602	15.0754	0.842113	22.3648	0.17273	5.32073	0.426579	11.2612	0.695662	18.4417	0.728266	19.4427
0.278359	7.24891	0.0482743	1.17308	0.278289	7.63303	0.377668	9.85792	0.566372	14.7195	0.842293	21.8295	0.174328	5.22014	0.426944	11.0003	0.695637	17.9965	0.728877	18.9867
0.278405	7.07838	0.0500142	1.18846	0.278298	7.56971	0.378593	9.64745	0.566731	14.3806	0.842478	21.3194	0.175946	5.12559	0.427317	10.7518	0.695618	17.5725	0.729496	18.5525
0.278461	6.91595	0.0517667	1.20346	0.278308	7.50209	0.379533	9.4471	0.5671	14.0576	0.842666	20.833	0.177582	5.03657	0.427699	10.5149	0.695605	17.1681	0.730123	18.1387
0.278525	6.7611	0.0535314	1.2181	0.278324	7.4121	0.380486	9.25617	0.567477	13.7494	0.842859	20.3686	0.179237	4.95264	0.428089	10.2889	0.695598	16.782	0.730758	17.7438
0.278598	6.61331	0.0553077	1.23239	0.278347	7.30142	0.381453	9.07403	0.567863	13.455	0.843057	19.9248	0.18091	4.87338	0.428489	10.0729	0.695598	16.413	0.7314	17.3665
0.278682	6.47215	0.057095	1.24634	0.278378	7.17205	0.382434	8.9001	0.568257	13.1736	0.843259	19.5002	0.182598	4.79844	0.428897	9.86641	0.695603	16.0601	0.732051	17.0057
0.278775	6.33719	0.058893	1.25996	0.278422	7.02619	0.383428	8.73385	0.56866	12.9042	0.843465	19.0936	0.184303	4.72748	0.429315	9.66878	0.695615	15.7222	0.732709	16.6604
0.278878	6.20806	0.0607011	1.27327	0.27848	6.86622	0.384434	8.5748	0.569071	12.6461	0.843676	18.7039	0.186022	4.66021	0.429741	9.47947	0.695633	15.3983	0.733375	16.3296
0.278992	6.0844	0.0625189	1.28626	0.278547	6.71365	0.385453	8.4225	0.569491	12.3988	0.843891	18.33	0.187756	4.59636	0.430176	9.29797	0.695657	15.0877	0.734048	16.0124
0.279117	5.9659	0.0643459	1.29895	0.278624	6.568	0.386484	8.27653	0.569919	12.1614	0.84411	17.9711	0.189503	4.53568	0.43062	9.12383	0.695688	14.7895	0.734729	15.708
0.279253	5.85226	0.0661819	1.31135	0.27871	6.42884	0.387393	8.15421	0.570356	11.9335	0.844334	17.6262	0.191263	4.47795	0.431072	8.95661	0.695726	14.5031	0.735417	15.4157
0.2794	5.74321	0.0680263	1.32346	0.278806	6.29577	0.388174	8.05334	0.570801	11.7144	0.844563	17.2946	0.193036	4.42298	0.431534	8.79592	0.695769	14.2276	0.736113	15.1347
0.279558	5.63848	0.0698788	1.3353	0.278913	6.1684	0.388825	7.97218	0.571255	11.5038	0.844796	16.9755	0.19482	4.37056	0.432004	8.6414	0.69582	13.9627	0.736816	14.8644
0.279729	5.53785	0.0717391	1.34687	0.279031	6.04641	0.389343	7.90941	0.571717	11.3011	0.845033	16.6682	0.196616	4.32055	0.432483	8.49271	0.695877	13.7075	0.737525	14.6042
0.279911	5.4411	0.0736068	1.35818	0.279159	5.92948	0.389725	7.86402	0.572188	11.1058	0.845274	16.3721	0.198423	4.27277	0.432971	8.34953	0.69594	13.4617	0.738243	14.3536
0.280106	5.34803	0.0754817	1.36923	0.279298	5.81731	0.389971	7.83531	0.572668	10.9177	0.84552	16.0866	0.20024	4.22709	0.433404	8.22903	0.69601	13.2247	0.738967	14.112
0.280313	5.25845	0.0773635	1.38004	0.279449	5.70965	0.390325	7.79448	0.573155	10.7363	0.845771	15.8111	0.202067	4.18338	0.433778	8.1293	0.696087	12.9961	0.739698	13.8791
0.280533	5.17217	0.0792517	1.39061	0.279611	5.60625	0.390711	7.75068	0.573652	10.5613	0.846026	15.5451	0.203903	4.14151	0.43409	8.04884	0.696171	12.7755	0.740436	13.6542
0.280766	5.08905	0.0811462	1.40095	0.279785	5.50687	0.391238	7.69209	0.574157	10.3923	0.846285	15.2881	0.205748	4.10138	0.43434	7.98646	0.696261	12.5623	0.741181	13.4371
0.281012	5.00892	0.0830468	1.41107	0.279971	5.4113	0.391909	7.61953	0.57467	10.2291	0.846549	15.0398	0.207602	4.06288	0.434525	7.94127	0.696358	12.3564	0.741933	13.2273
0.281271	4.93165	0.0849531	1.42096	0.28017	5.31935	0.392725	7.53402	0.575192	10.0714	0.846817	14.7996	0.209465	4.02591	0.434644	7.91265	0.696462	12.1572	0.742691	13.0245
0.281545	4.85709	0.086865	1.43065	0.280381	5.23083	0.39369	7.4367	0.575722	9.91884	0.847089	14.5671	0.211335	3.9904	0.434816	7.87191	0.696573	11.9646	0.743457	12.8283
0.281831	4.78512	0.0887821	1.44012	0.280605	5.14557	0.394806	7.32881	0.576261	9.77128	0.847366	14.3421	0.213212	3.95625	0.435004	7.82815	0.69669	11.7781	0.744229	12.6384
0.282132	4.71564	0.0907044	1.4494	0.280842	5.06341	0.395933	7.22478	0.576808	9.62845	0.847648	14.1241	0.215097	3.9234	0.435261	7.76951	0.696814	11.5975	0.745008	12.4546
0.282447	4.64851	0.0926315	1.45848	0.281093	4.9842	0.39707	7.1244	0.577364	9.49013	0.847934	13.9129	0.216989	3.89176	0.43559	7.69674	0.696945	11.4226	0.745793	12.2765
0.282777	4.58365	0.0945633	1.46737	0.281356	4.90779	0.398216	7.02748	0.577928	9.35612	0.848224	13.7081	0.218887	3.86128	0.435991	7.61076	0.697083	11.253	0.746585	12.1039
0.283121	4.52096	0.0964997	1.47608	0.281634	4.83407	0.399372	6.93387	0.578501	9.22623	0.848518	13.5095	0.220791	3.8319	0.436469	7.51262	0.697228	11.0886	0.747384	11.9366
0.28348	4.46033	0.0984402	1.4846	0.281925	4.7629	0.400537	6.8434	0.579082	9.10027	0.848817	13.3167	0.222702	3.80355	0.437025	7.40346	0.697379	10.929	0.748189	11.7742
0.283854	4.40169	0.100385	1.49296	0.28223	4.69417	0.401711	6.75591	0.579671	8.97808	0.849121	13.1295	0.224618	3.77619	0.43759	7.29785	0.697538	10.7742	0.749	11.6167
0.284244	4.34495	0.102334	1.50114	0.28255	4.62777	0.402893	6.67127	0.580269	8.8595	0.849429	12.9478	0.22654	3.74976	0.438163	7.19561	0.697703	10.6239	0.749818	11.4637
0.284649	4.29004	0.104286	1.50915	0.282884	4.56361	0.404084	6.58933	0.580875	8.74436	0.849741	12.7711	0.228466	3.72422	0.438746	7.0966	0.697875	10.4778	0.750642	11.3151
0.285069	4.23689	0.106243	1.51701	0.283233	4.50158	0.405284	6.50999	0.58149	8.63254	0.850058	12.5995	0.230398	3.69953	0.439338	7.00066	0.698054	10.336	0.751473	11.1708
0.285506	4.18542	0.108202	1.52471	0.283597	4.44159	0.406492	6.43312	0.582113	8.52389	0.850379	12.4326	0.232335	3.67564	0.439938	6.90768	0.69824	10.198	0.752309	11.0304
0.285958	4.13557	0.110166	1.53226	0.283976	4.38356	0.407708	6.3586	0.582663	8.4317	0.850705	12.2702	0.234276	3.65251	0.440547	6.81751	0.698433	10.0639	0.753152	10.894
0.286427	4.08728	0.112132	1.53965	0.28437	4.32741	0.408932	6.28634	0.583137	8.35488	0.851035	12.1122	0.236222	3.63011	0.441165	6.73004	0.698633	9.93341	0.754002	10.7612
0.286913	4.04049	0.113848	1.54598	0.28478	4.27306	0.410163	6.21624	0.583532	8.29255	0.85137	11.9584	0.238171	3.60841	0.441792	6.64515	0.69884	9.80644	0.754857	10.6321
0.287349	4.00089	0.115313	1.55129	0.285205	4.22044	0.411402	6.1482	0.583847	8.244	0.851709	11.8086	0.240125	3.58737	0.442427	6.56274	0.699053	9.68285	0.755719	10.5063
0.287732	3.96798	0.116525	1.55563	0.285647	4.16949	0.412648	6.08214	0.58408	8.20872	0.852052	11.6627	0.242082	3.56696	0.443072	6.48271	0.699274	9.56249	0.756586	10.3839
0.288056	3.94133	0.117485	1.55902	0.286105	4.12014	0.413902	6.01798	0.584229	8.18632	0.8524	11.5205	0.244043	3.54716	0.443725	6.40496	0.699501	9.44526	0.75746	10.2646
0.288316	3.92062	0.118191	1.56149	0.286579	4.07233	0.415162	5.95563	0.584445	8.15436	0.852752	11.382	0.246007	3.52794	0.444388	6.32939	0.699735	9.33104	0.75834	10.1484
0.28851	3.90559	0.118642	1.56306	0.28707	4.026	0.41643	5.89502	0.58468	8.11995	0.853109	11.2469	0.247975	3.50926	0.445059	6.25594	0.699977	9.21971	0.759225	10.0351
0.288635	3.89605	0.119292	1.56531	0.287577	3.9811	0.417704	5.83609	0.585002	8.07368	0.85347	11.1151	0.249946	3.49112	0.445739	6.1845	0.700225	9.11116	0.760117	9.92471
0.288817	3.88247	0.119999	1.56774	0.288102	3.93758	0.418985	5.77876	0.585412	8.01602	0.853835	10.9866	0.251919	3.47349	0.446427	6.11501	0.70048	9.00531	0.761015	9.81701
0.289017	3.86785	0.120961	1.57102	0.288644	3.89539	0.420272	5.72297	0.585912	7.94755	0.854205	10.8611	0.253896	3.45634	0.447125	6.04739	0.700742	8.90205	0.761918	9.71194
0.289293	3.84823	0.122178	1.57512	0.289204	3.85448	0.421566	5.66866	0.586504	7.86892	0.85458	10.7387	0.255875	3.43965	0.447831	5.98157	0.70101	8.80129	0.762827	9.60941
0.289647	3.82384	0.123651	1.58001	0.289782	3.81481	0.422865	5.61578	0.587192	7.78088	0.854959	10.6191	0.257856	3.42341	0.448547	5.91748	0.701286	8.70295	0.763743	9.50933
0.290085	3.79494	0.125381	1.58567	0.290377	3.77633	0.424171	5.56428	0.587888	7.6951	0.855342	10.5023	0.25984	3.4076	0.449271	5.85507	0.701532	8.61916	0.764664	9.41162
0.290611	3.76187	0.127369	1.59205	0.290992	3.73901	0.425483	5.51409	0.588592	7.6115	0.85573	10.3882	0.261826	3.3922	0.450004	5.79427	0.701746	8.54908	0.76559	9.31619
0.291232	3.72499	0.129359	1.5983	0.291625	3.70282	0.4268	5.46518	0.589305	7.52999	0.856122	10.2768	0.263814	3.37719	0.450746	5.73502	0.701925	8.49206	0.766523	9.22297
0.291873	3.68921	0.131351	1.60444	0.292277	3.66771	0.428123	5.41749	0.590026	7.4505	0.856519	10.1678	0.265805	3.36256	0.451497	5.67727	0.702069	8.44755	0.767461	9.13189
0.292532	3.65451	0.133345	1.61047	0.292948	3.63365	0.429452	5.37098	0.590755	7.37297	0.85692	10.0613	0.267797	3.3483	0.452257	5.62098	0.702176	8.41515	0.768404	9.04286
0.293211	3.62084	0.135341	1.61639	0.293639	3.60061	0.430786	5.3256	0.591492	7.29732	0.857325	9.95713	0.269791	3.33438	0.453025	5.56607	0.702245	8.39455	0.769354	8.95584
0.293909	3.58819	0.137339	1.62221	0.29435	3.56856	0.432125	5.28133	0.592238	7.22349	0.857735	9.85525	0.271786	3.32081	0.453803	5.51252	0.702344	8.36512	0.770309	8.87075
0.294628	3.55651	0.139339	1.62791	0.295081	3.53747	0.43347	5.23812	0.592992	7.15142	0.85815	9.75558	0.273783	3.30755	0.454589	5.46028	0.702453	8.3334	0.771269	8.78753
0.295367	3.52578	0.14134	1.63352	0.295833	3.50731	0.434819	5.19593	0.593755	7.08105	0.858568	9.65805	0.275781	3.29461	0.455384	5.40929	0.702603	8.29066	0.772111	8.71648
0.296127	3.49597	0.143344	1.63902	0.296606	3.47805	0.436174	5.15472	0.594525	7.01232	0.858992	9.56259	0.277781	3.28197	0.456189	5.35953	0.702794	8.23729	0.772831	8.65698
0.296909	3.46706	0.145349	1.64443	0.297401	3.44968	0.437533	5.11447	0.595304	6.94519	0.859419	9.46913	0.279782	3.26962	0.457002	5.31095	0.70303	8.17374	0.77343	8.60849
0.297712	3.43902	0.147355	1.64974	0.298217	3.42217	0.438897	5.07514	0.596091	6.87959	0.859852	9.37763	0.281784	3.25755	0.457823	5.26351	0.70331	8.10054	0.773904	8.5706
0.298537	3.41183	0.149364	1.65496	0.299056	3.3955	0.440266	5.03671	0.596886	6.81548	0.860288	9.28802	0.283787	3.24574	0.458654	5.21718	0.703639	8.01828	0.774254	8.54299
0.299385	3.38547	0.151373	1.66009	0.299918	3.36964	0.441639	4.99913	0.59769	6.75282	0.860729	9.20023	0.285791	3.2342	0.459494	5.17192	0.703974	7.93783	0.774478	8.52543
0.300255	3.35992	0.153384	1.66513	0.300803	3.34457	0.443017	4.96239	0.598502	6.69155	0.861175	9.11423	0.287795	3.22291	0.460343	5.1277	0.704316	7.85912	0.774801	8.50034
0.301149	3.33515	0.155396	1.67008	0.301712	3.32028	0.444399	4.92646	0.599322	6.63164	0.861625	9.02995	0.289801	3.21185	0.4612	5.08448	0.704665	7.78211	0.775152	8.47326
0.302068	3.31116	0.15741	1.67495	0.302645	3.29675	0.445785	4.89131	0.60015	6.57303	0.862079	8.94735	0.291807	3.20103	0.462067	5.04224	0.705021	7.70674	0.775631	8.43677
0.30301	3.28791	0.159425	1.67974	0.303603	3.27396	0.447175	4.85691	0.600986	6.51571	0.862479	8.8767	0.293814	3.19044	0.462942	5.00095	0.705384	7.63297	0.776239	8.39114
0.303978	3.2654	0.161441	1.68444	0.304587	3.25189	0.44857	4.82325	0.60183	6.45961	0.862822	8.81742	0.295821	3.18006	0.463826	4.96057	0.705753	7.56074	0.776976	8.33674
0.304971	3.2436	0.163458	1.68907	0.305596	3.23053	0.449968	4.79029	0.602683	6.40471	0.863108	8.76905	0.297829	3.16989	0.464719	4.92109	0.70613	7.49001	0.777845	8.27398
0.30599	3.22251	0.165476	1.69362	0.306631	3.20986	0.45137	4.75803	0.603544	6.35098	0.863335	8.73122	0.299836	3.15993	0.465621	4.88247	0.706513	7.42074	0.778848	8.20334
0.307036	3.20211	0.167495	1.69809	0.307694	3.18987	0.452776	4.72643	0.604412	6.29837	0.863503	8.70362	0.301845	3.15016	0.466532	4.84469	0.706902	7.35288	0.779855	8.13413
0.308109	3.18238	0.169515	1.70249	0.308784	3.17055	0.454186	4.69548	0.605289	6.24686	0.863611	8.68606	0.303853	3.14058	0.467452	4.80773	0.707299	7.28639	0.780868	8.06631
0.30921	3.16331	0.171536	1.70682	0.309903	3.15188	0.455599	4.66515	0.606174	6.19641	0.863766	8.66096	0.305861	3.13119	0.468381	4.77156	0.707702	7.22123	0.781886	7.99983
0.310339	3.14488	0.173558	1.71107	0.311049	3.13385	0.457016	4.63544	0.607067	6.147	0.863935	8.63385	0.30787	3.12197	0.469319	4.73616	0.708112	7.15737	0.782909	7.93466
0.311498	3.12709	0.175581	1.71526	0.312226	3.11645	0.458436	4.60631	0.607969	6.09859	0.864166	8.59727	0.309878	3.11293	0.470266	4.70151	0.708529	7.09477	0.783937	7.87076
0.312685	3.10993	0.177605	1.71938	0.313432	3.09966	0.45986	4.57776	0.608878	6.05115	0.864459	8.5515	0.311886	3.10405	0.471221	4.66759	0.708952	7.03339	0.784971	7.8081
0.313903	3.09337	0.179629	1.72343	0.314668	3.08347	0.461287	4.54977	0.609795	6.00467	0.864817	8.49686	0.313894	3.09533	0.472186	4.63437	0.709382	6.9732	0.786009	7.74664
0.315151	3.07742	0.181654	1.72742	0.315935	3.06788	0.462717	4.52232	0.61072	5.95911	0.865239	8.43374	0.315902	3.08677	0.473159	4.60185	0.709819	6.91417	0.787053	7.68634
0.31643	3.06205	0.18368	1.73134	0.317233	3.05286	0.46415	4.49539	0.611654	5.91445	0.865728	8.36256	0.31791	3.07836	0.474142	4.56999	0.710263	6.85627	0.788101	7.62718
0.31774	3.04725	0.185706	1.73521	0.318563	3.03842	0.465587	4.46898	0.612595	5.87066	0.866221	8.29269	0.319917	3.0701	0.475133	4.53879	0.710713	6.79946	0.789155	7.56913
0.319082	3.03302	0.187733	1.73901	0.319925	3.02453	0.467026	4.44306	0.613544	5.82772	0.866718	8.2241	0.321923	3.06198	0.476134	4.50822	0.71117	6.74372	0.790213	7.51215
0.320456	3.01934	0.189761	1.74275	0.321319	3.01119	0.468468	4.41762	0.614501	5.78561	0.867221	8.15675	0.323929	3.05399	0.477143	4.47827	0.711633	6.68902	0.791277	7.45622
0.321862	3.0062	0.191789	1.74643	0.322745	2.99837	0.469914	4.39266	0.615466	5.74431	0.867727	8.09061	0.325935	3.04614	0.478162	4.44893	0.712103	6.63533	0.792345	7.40131
0.323301	2.9936	0.193817	1.75005	0.324204	2.98609	0.471361	4.36815	0.616439	5.70379	0.868238	8.02566	0.327939	3.03842	0.479189	4.42017	0.71258	6.58262	0.793418	7.34739
0.324773	2.9815	0.195846	1.75362	0.325696	2.9743	0.472812	4.34409	0.61742	5.66404	0.868754	7.96185	0.329944	3.03083	0.480225	4.39198	0.713063	6.53088	0.794497	7.29444
0.326278	2.96991	0.197876	1.75714	0.327221	2.96302	0.474266	4.32046	0.618409	5.62504	0.869273	7.89917	0.331947	3.02336	0.48127	4.36435	0.713553	6.48007	0.795579	7.24243
0.327815	2.95881	0.199906	1.7606	0.328779	2.95221	0.475722	4.29725	0.619406	5.58676	0.869798	7.83758	0.333949	3.016	0.482325	4.33727	0.714049	6.43017	0.796667	7.19134
0.329385	2.94819	0.201936	1.764	0.330369	2.94188	0.47718	4.27445	0.62041	5.54918	0.870327	7.77705	0.335951	3.00876	0.483388	4.31071	0.714552	6.38116	0.79776	7.14114
0.330988	2.93803	0.203967	1.76736	0.331991	2.932	0.478641	4.25205	0.621423	5.5123	0.87086	7.71757	0.337951	3.00163	0.48446	4.28468	0.715062	6.33302	0.798857	7.09181
0.332622	2.92833	0.205998	1.77066	0.333645	2.92256	0.480105	4.23004	0.622443	5.4761	0.871398	7.65909	0.339951	2.99461	0.485541	4.25914	0.715578	6.28572	0.799959	7.04334
0.334289	2.91906	0.208029	1.77392	0.335331	2.91355	0.481571	4.20841	0.623471	5.44054	0.87194	7.60161	0.34195	2.98769	0.486631	4.2341	0.716101	6.23925	0.801065	6.9957
0.335987	2.91021	0.210061	1.77712	0.337048	2.90496	0.483039	4.18715	0.624507	5.40563	0.872486	7.54509	0.343947	2.98088	0.487731	4.20954	0.71663	6.19359	0.802176	6.94886
0.337716	2.90176	0.212093	1.78028	0.338796	2.89676	0.484509	4.16624	0.62555	5.37135	0.873037	7.48951	0.345943	2.97417	0.488839	4.18545	0.717165	6.1487	0.803292	6.90281
0.339475	2.89371	0.214125	1.78339	0.340573	2.88894	0.485982	4.14569	0.626602	5.33767	0.873593	7.43485	0.347938	2.96755	0.489956	4.16181	0.717708	6.10459	0.804413	6.85754
0.341264	2.88604	0.216157	1.78645	0.34238	2.88149	0.487457	4.12549	0.627661	5.30459	0.874153	7.38109	0.349932	2.96102	0.491082	4.13862	0.718256	6.06122	0.805537	6.81302
0.343081	2.87873	0.21819	1.78947	0.344215	2.8744	0.488934	4.10561	0.628727	5.2721	0.874717	7.32821	0.351924	2.95459	0.492217	4.11587	0.718811	6.01858	0.806667	6.76923
0.344927	2.87177	0.220222	1.79245	0.346078	2.86764	0.490413	4.08607	0.629801	5.24016	0.875286	7.27618	0.353915	2.94824	0.493361	4.09355	0.719373	5.97666	0.807801	6.72615
0.3468	2.86513	0.222255	1.79538	0.347967	2.86121	0.491894	4.06684	0.630883	5.20879	0.87586	7.22499	0.355905	2.94198	0.494514	4.07164	0.719941	5.93543	0.808939	6.68378
0.348699	2.85882	0.224288	1.79827	0.349882	2.85508	0.493377	4.04792	0.631973	5.17795	0.876438	7.17461	0.357893	2.93581	0.495676	4.05014	0.720515	5.89489	0.810082	6.64209
0.350624	2.85281	0.226321	1.80111	0.351823	2.84925	0.494862	4.0293	0.63307	5.14765	0.87702	7.12504	0.35988	2.92971	0.496847	4.02903	0.721096	5.85501	0.811229	6.60107
0.352574	2.84709	0.228354	1.80392	0.353787	2.8437	0.496349	4.01098	0.634175	5.11786	0.877607	7.07624	0.361865	2.9237	0.498027	4.00832	0.721683	5.81578	0.81238	6.5607
0.354547	2.84165	0.230388	1.80668	0.355774	2.83842	0.497838	3.99295	0.635287	5.08857	0.878198	7.02821	0.363848	2.91776	0.499216	3.98798	0.722276	5.77719	0.813536	6.52097
0.356543	2.83646	0.232421	1.80941	0.357784	2.83339	0.499328	3.9752	0.636407	5.05978	0.878794	6.98092	0.36583	2.9119	0.500414	3.96802	0.722876	5.73921	0.814696	6.48186
0.358561	2.83153	0.234454	1.81209	0.359814	2.8286	0.500821	3.95772	0.637534	5.03148	0.879394	6.93437	0.36781	2.9061	0.501621	3.94842	0.723482	5.70185	0.815861	6.44336
0.360599	2.82683	0.236487	1.81474	0.361865	2.82404	0.502315	3.94052	0.638669	5.00364	0.879998	6.88853	0.369789	2.90038	0.502837	3.92918	0.724095	5.66508	0.817029	6.40546
0.362658	2.82235	0.238521	1.81735	0.363936	2.8197	0.503811	3.92357	0.639811	4.97626	0.880607	6.84339	0.371765	2.89473	0.504062	3.91028	0.724713	5.62889	0.818202	6.36814
0.364735	2.81808	0.240554	1.81992	0.366024	2.81556	0.505308	3.90689	0.640961	4.94934	0.881221	6.79893	0.37374	2.88915	0.505296	3.89173	0.725339	5.59327	0.819379	6.33139
0.366831	2.81402	0.242587	1.82246	0.368131	2.81161	0.506807	3.89045	0.642118	4.92286	0.881839	6.75514	0.375713	2.88363	0.506539	3.8735	0.72597	5.55821	0.820561	6.2952
0.368944	2.81014	0.24462	1.82496	0.370254	2.80784	0.508308	3.87427	0.643282	4.89681	0.882461	6.712	0.377684	2.87818	0.507791	3.85561	0.726608	5.52368	0.821746	6.25955
0.371073	2.80645	0.246653	1.82742	0.372393	2.80425	0.50981	3.85832	0.644454	4.87118	0.883088	6.6695	0.379653	2.87279	0.509052	3.83803	0.727251	5.4897	0.822935	6.22443
0.373218	2.80292	0.248686	1.82985	0.374547	2.80082	0.511314	3.8426	0.645633	4.84596	0.883719	6.62764	0.38162	2.86745	0.510321	3.82076	0.727902	5.45623	0.824129	6.18984
0.375378	2.79955	0.250719	1.83225	0.376716	2.79755	0.51282	3.82712	0.646819	4.82115	0.884355	6.58638	0.383585	2.86218	0.5116	3.8038	0.728558	5.42328	0.825326	6.15576
0.377552	2.79633	0.252752	1.83461	0.378898	2.79442	0.514326	3.81186	0.648013	4.79674	0.884995	6.54573	0.385548	2.85697	0.512888	3.78714	0.72922	5.39082	0.826528	6.12218
0.379739	2.79326	0.254784	1.83694	0.381093	2.79143	0.515835	3.79682	0.649214	4.77271	0.88564	6.50567	0.387508	2.85181	0.514184	3.77077	0.729889	5.35885	0.827733	6.08908
0.381939	2.79032	0.256817	1.83924	0.383301	2.78857	0.517345	3.782	0.650422	4.74906	0.886289	6.46618	0.389467	2.8467	0.515489	3.75469	0.730564	5.32737	0.828943	6.05647
0.384151	2.7875	0.258849	1.84151	0.38552	2.78583	0.518856	3.76739	0.651637	4.72579	0.886943	6.42726	0.391424	2.84165	0.516804	3.73889	0.731245	5.29635	0.830156	6.02433
0.386375	2.78481	0.260881	1.84374	0.38775	2.78321	0.520368	3.75298	0.652859	4.70287	0.887601	6.3889	0.393378	2.83666	0.518127	3.72336	0.731932	5.26579	0.831374	5.99264
0.388609	2.78223	0.262913	1.84595	0.389991	2.78069	0.521882	3.73878	0.654088	4.68032	0.888264	6.35107	0.39533	2.83171	0.519459	3.70811	0.732626	5.23569	0.832595	5.96141
0.390853	2.77976	0.264945	1.84813	0.392241	2.77828	0.523397	3.72477	0.655324	4.65811	0.888931	6.31378	0.39728	2.82681	0.5208	3.69312	0.733325	5.20602	0.83382	5.93062
0.393108	2.77739	0.266976	1.85027	0.394501	2.77597	0.524914	3.71096	0.656568	4.63624	0.889602	6.27701	0.399228	2.82196	0.522149	3.67839	0.734031	5.17679	0.835048	5.90026
0.395371	2.77511	0.269007	1.85239	0.39677	2.77375	0.526432	3.69733	0.657818	4.61471	0.890278	6.24076	0.401173	2.81716	0.523508	3.66391	0.734742	5.14798	0.836281	5.87032
0.397643	2.77292	0.271038	1.85447	0.399047	2.77162	0.527951	3.6839	0.659075	4.59351	0.890958	6.205	0.403116	2.8124	0.524875	3.64968	0.73546	5.11959	0.837517	5.8408
0.399923	2.77082	0.273069	1.85653	0.401332	2.76957	0.529472	3.67064	0.66034	4.57263	0.891643	6.16973	0.405057	2.80769	0.526252	3.6357	0.736184	5.09161	0.838757	5.81169
0.402211	2.7688	0.275099	1.85857	0.403624	2.76759	0.530993	3.65757	0.661611	4.55206	0.892333	6.13495	0.406995	2.80303	0.527636	3.62195	0.736914	5.06402	0.840001	5.78297
0.404507	2.76686	0.27713	1.86057	0.405924	2.76569	0.532516	3.64467	0.662889	4.5318	0.893026	6.10064	0.408931	2.7984	0.52903	3.60844	0.73765	5.03683	0.841248	5.75465
0.406809	2.76498	0.27916	1.86255	0.408231	2.76386	0.53404	3.63194	0.664173	4.51185	0.893724	6.0668	0.410865	2.79382	0.530432	3.59516	0.738392	5.01003	0.842499	5.7267
0.409118	2.76318	0.281189	1.8645	0.410544	2.7621	0.535566	3.61938	0.665465	4.49219	0.894427	6.03341	0.412796	2.78928	0.531844	3.5821	0.73914	4.9836	0.843754	5.69914
0.411433	2.76144	0.283218	1.86642	0.412862	2.7604	0.537092	3.60699	0.666763	4.47282	0.895134	6.00047	0.414725	2.78478	0.533263	3.56927	0.739893	4.95754	0.845012	5.67194
0.413754	2.75976	0.285247	1.86832	0.415187	2.75876	0.53862	3.59476	0.668068	4.45374	0.895846	5.96797	0.416651	2.78032	0.534692	3.55665	0.740653	4.93184	0.846274	5.64511
0.416081	2.75814	0.287276	1.8702	0.417517	2.75717	0.540149	3.58268	0.66938	4.43494	0.896562	5.93589	0.418575	2.7759	0.536129	3.54424	0.741419	4.9065	0.847539	5.61863
0.418413	2.75657	0.289304	1.87205	0.419852	2.75564	0.54168	3.57077	0.670698	4.41641	0.897282	5.90424	0.420496	2.77152	0.537575	3.53204	0.742191	4.88151	0.848807	5.5925
0.42075	2.75506	0.291332	1.87387	0.422192	2.75415	0.543211	3.559	0.672023	4.39815	0.898007	5.87301	0.422415	2.76717	0.539029	3.52005	0.742968	4.85686	0.850079	5.56671
0.423092	2.7536	0.29336	1.87567	0.424537	2.75272	0.544744	3.54739	0.673354	4.38015	0.898737	5.84218	0.424331	2.76286	0.540492	3.50826	0.743752	4.83255	0.851355	5.54125
0.425439	2.75218	0.295387	1.87745	0.426886	2.75133	0.546277	3.53592	0.674692	4.36242	0.89947	5.81175	0.426245	2.75859	0.541963	3.49666	0.744542	4.80857	0.852634	5.51613
0.427789	2.75081	0.297414	1.8792	0.429239	2.74998	0.547812	3.5246	0.676036	4.34494	0.900209	5.78172	0.428156	2.75435	0.543443	3.48526	0.745337	4.78491	0.853916	5.49132
0.430144	2.74947	0.29944	1.88094	0.431596	2.74867	0.549348	3.51343	0.677387	4.3277	0.900952	5.75207	0.430065	2.75014	0.544931	3.47404	0.746138	4.76158	0.855202	5.46683
0.432502	2.74818	0.301466	1.88264	0.433957	2.74741	0.550885	3.50239	0.678744	4.31071	0.901699	5.7228	0.431971	2.74597	0.546428	3.46302	0.746945	4.73855	0.856491	5.44266
0.434864	2.74693	0.303492	1.88433	0.436321	2.74618	0.552424	3.49149	0.680107	4.29396	0.90245	5.6939	0.433874	2.74184	0.547933	3.45217	0.747758	4.71584	0.857783	5.41879
0.43723	2.74571	0.305517	1.88599	0.438689	2.74498	0.553963	3.48072	0.681477	4.27745	0.903207	5.66537	0.435775	2.73773	0.549446	3.4415	0.748577	4.69342	0.859079	5.39522
0.439598	2.74453	0.307542	1.88764	0.441059	2.74382	0.555504	3.47009	0.682853	4.26117	0.903967	5.63719	0.437674	2.73366	0.550968	3.43101	0.749401	4.67131	0.860377	5.37194
0.44197	2.74338	0.309566	1.88926	0.443433	2.74269	0.557046	3.45958	0.684236	4.24511	0.904732	5.60937	0.43957	2.72961	0.552498	3.42069	0.750232	4.64948	0.861679	5.34895
0.444345	2.74226	0.31159	1.89086	0.445809	2.74158	0.558589	3.44921	0.685624	4.22928	0.905502	5.5819	0.441463	2.7256	0.554036	3.41054	0.751068	4.62794	0.862984	5.32625
0.446722	2.74117	0.313613	1.89244	0.448188	2.74051	0.560134	3.43896	0.687018	4.21367	0.906276	5.55477	0.443354	2.72162	0.555582	3.40056	0.75191	4.60668	0.864293	5.30383
0.449102	2.74011	0.315636	1.894	0.450569	2.73947	0.561679	3.42884	0.688419	4.19827	0.907054	5.52797	0.445243	2.71767	0.557137	3.39074	0.752758	4.5857	0.865604	5.28168
0.451484	2.73907	0.317659	1.89554	0.452953	2.73845	0.563226	3.41883	0.689826	4.18308	0.907837	5.5015	0.447129	2.71375	0.558699	3.38108	0.753611	4.56499	0.866919	5.2598
0.453869	2.73806	0.319681	1.89706	0.455339	2.73745	0.564774	3.40895	0.691238	4.16809	0.908624	5.47536	0.449012	2.70986	0.56027	3.37157	0.75447	4.54454	0.868236	5.23818
0.456255	2.73707	0.321703	1.89856	0.457727	2.73648	0.566323	3.39918	0.692657	4.15331	0.909416	5.44953	0.450893	2.70599	0.561848	3.36222	0.755335	4.52436	0.869557	5.21682
0.458644	2.73611	0.323724	1.90004	0.460116	2.73553	0.567873	3.38953	0.694081	4.13873	0.910212	5.42402	0.452771	2.70216	0.563435	3.35302	0.756205	4.50444	0.87088	5.19572
0.461034	2.73517	0.325744	1.9015	0.462508	2.7346	0.569425	3.38	0.695512	4.12435	0.911013	5.39882	0.454647	2.69835	0.565029	3.34397	0.757082	4.48477	0.872207	5.17487
0.463427	2.73425	0.327765	1.90294	0.464901	2.73369	0.570978	3.37058	0.696948	4.11016	0.911818	5.37392	0.456521	2.69457	0.566631	3.33506	0.757964	4.46535	0.873536	5.15427
0.46582	2.73335	0.329784	1.90436	0.467296	2.7328	0.572532	3.36126	0.69839	4.09615	0.912627	5.34932	0.458392	2.69081	0.568241	3.32629	0.758851	4.44617	0.874869	5.1339
0.468216	2.73246	0.331803	1.90577	0.469692	2.73193	0.574087	3.35206	0.699837	4.08234	0.913441	5.32501	0.46026	2.68708	0.569859	3.31767	0.759745	4.42724	0.876204	5.11378
0.470613	2.7316	0.333822	1.90716	0.47209	2.73107	0.575644	3.34296	0.701291	4.0687	0.91426	5.30099	0.462126	2.68338	0.571485	3.30918	0.760643	4.40854	0.877542	5.09389
0.473011	2.73075	0.33584	1.90853	0.474489	2.73024	0.577202	3.33397	0.70275	4.05525	0.915083	5.27725	0.46399	2.67971	0.573118	3.30083	0.761548	4.39008	0.878883	5.07423
0.47541	2.72992	0.337858	1.90988	0.476889	2.72941	0.578761	3.32509	0.704214	4.04197	0.91591	5.25379	0.465851	2.67606	0.574758	3.29261	0.762458	4.37184	0.880227	5.0548
0.47781	2.7291	0.339875	1.91122	0.47929	2.72861	0.580322	3.3163	0.705684	4.02886	0.916742	5.23061	0.46771	2.67244	0.576406	3.28452	0.763374	4.35384	0.881573	5.03559
0.480212	2.7283	0.341891	1.91254	0.481692	2.72781	0.581884	3.30762	0.70716	4.01592	0.917578	5.2077	0.469567	2.66884	0.578062	3.27656	0.764295	4.33605	0.882923	5.0166
0.482614	2.72751	0.343907	1.91384	0.484095	2.72703	0.583448	3.29903	0.708641	4.00315	0.918419	5.18505	0.471421	2.66526	0.579725	3.26872	0.765222	4.31848	0.884275	4.99783
0.485018	2.72673	0.345922	1.91513	0.486498	2.72626	0.585013	3.29055	0.710127	3.99054	0.919264	5.16267	0.473274	2.66171	0.581395	3.26101	0.766155	4.30113	0.88563	4.97926
0.487421	2.72597	0.347937	1.9164	0.488903	2.72551	0.586579	3.28216	0.711619	3.9781	0.920114	5.14054	0.475123	2.65819	0.583072	3.25342	0.767093	4.28399	0.886987	4.96091
0.489826	2.72522	0.349951	1.91765	0.491308	2.72476	0.588147	3.27386	0.713116	3.96581	0.920968	5.11867	0.476971	2.65469	0.584757	3.24594	0.768036	4.26706	0.888347	4.94276
0.492231	2.72448	0.351965	1.91889	0.493713	2.72403	0.589717	3.26566	0.714618	3.95368	0.921826	5.09705	0.478817	2.65121	0.586448	3.23858	0.768985	4.25033	0.88971	4.92481
0.494637	2.72375	0.353978	1.92011	0.496119	2.7233	0.591288	3.25756	0.716125	3.9417	0.922689	5.07567	0.48066	2.64776	0.588147	3.23134	0.76994	4.2338	0.891075	4.90706
0.497043	2.72303	0.355991	1.92132	0.498526	2.72259	0.59286	3.24954	0.717638	3.92987	0.923556	5.05453	0.482501	2.64433	0.589853	3.2242	0.7709	4.21747	0.892443	4.88951
0.49945	2.72232	0.358003	1.92251	0.500933	2.72188	0.594434	3.24161	0.719156	3.91819	0.924428	5.03364	0.48434	2.64092	0.591565	3.21718	0.771866	4.20134	0.893814	4.87215
0.501857	2.72161	0.360014	1.92368	0.503339	2.72119	0.59601	3.23378	0.720678	3.90666	0.925305	5.01298	0.486177	2.63754	0.593285	3.21027	0.772837	4.1854	0.895187	4.85497
0.504264	2.72092	0.362025	1.92485	0.505747	2.7205	0.597587	3.22603	0.722206	3.89527	0.926185	4.99255	0.488012	2.63418	0.595011	3.20346	0.773814	4.16965	0.896562	4.83799
0.506671	2.72023	0.364035	1.92599	0.508154	2.71981	0.599166	3.21836	0.723739	3.88402	0.927071	4.97235	0.489845	2.63084	0.596744	3.19675	0.774796	4.15409	0.89794	4.82118
0.509078	2.71955	0.366045	1.92713	0.510561	2.71914	0.600747	3.21079	0.725276	3.8729	0.92796	4.95237	0.491676	2.62753	0.598483	3.19015	0.775783	4.13871	0.89932	4.80456
0.511485	2.71888	0.368054	1.92825	0.512968	2.71847	0.60233	3.20329	0.726819	3.86193	0.928854	4.93262	0.493505	2.62424	0.600229	3.18364	0.776776	4.12351	0.900703	4.78812
0.513892	2.71821	0.370062	1.92935	0.515375	2.71781	0.603914	3.19588	0.728366	3.85108	0.929753	4.91308	0.495332	2.62097	0.601981	3.17723	0.777775	4.10849	0.902088	4.77184
0.516299	2.71755	0.37207	1.93044	0.517782	2.71715	0.6055	3.18856	0.729918	3.84037	0.930656	4.89376	0.497157	2.61772	0.60374	3.17092	0.778779	4.09365	0.903476	4.75575
0.518706	2.7169	0.374077	1.93152	0.520189	2.7165	0.607088	3.18131	0.731475	3.82979	0.931563	4.87465	0.498981	2.6145	0.605505	3.16471	0.779788	4.07898	0.904865	4.73982
0.521113	2.71625	0.376084	1.93258	0.522595	2.71585	0.608678	3.17414	0.733036	3.81933	0.932475	4.85575	0.500803	2.61129	0.607276	3.15859	0.780803	4.06448	0.906257	4.72405
0.523519	2.7156	0.37809	1.93363	0.525001	2.7152	0.61027	3.16706	0.734602	3.809	0.933392	4.83705	0.502623	2.60811	0.609054	3.15255	0.781823	4.05014	0.907652	4.70845
0.525924	2.71496	0.380095	1.93467	0.527406	2.71456	0.611864	3.16005	0.736172	3.79879	0.934312	4.81856	0.504441	2.60495	0.610837	3.14661	0.782848	4.03598	0.909048	4.69302
0.52833	2.71432	0.3821	1.93569	0.529811	2.71393	0.61346	3.15312	0.737747	3.7887	0.935238	4.80026	0.506258	2.60182	0.612627	3.14075	0.783879	4.02197	0.910447	4.67774
0.530734	2.71368	0.384104	1.9367	0.532215	2.71329	0.615058	3.14627	0.739327	3.77873	0.936167	4.78217	0.508073	2.5987	0.614422	3.13498	0.784915	4.00813	0.911848	4.66262
0.533138	2.71305	0.386107	1.9377	0.534619	2.71266	0.616658	3.13949	0.74091	3.76888	0.937101	4.76426	0.509886	2.59561	0.616223	3.1293	0.785957	3.99444	0.913252	4.64765
0.535541	2.71242	0.38811	1.93869	0.537022	2.71203	0.61826	3.13279	0.742499	3.75914	0.93804	4.74655	0.511698	2.59254	0.61803	3.12369	0.787004	3.98091	0.914657	4.63284
0.537944	2.71179	0.390112	1.93966	0.539424	2.71141	0.619865	3.12616	0.744091	3.74952	0.938983	4.72903	0.513509	2.58949	0.619843	3.11817	0.788056	3.96754	0.916065	4.61817
0.540346	2.71117	0.392114	1.94063	0.541825	2.71078	0.621472	3.11961	0.745688	3.74001	0.93993	4.71169	0.515318	2.58646	0.621661	3.11273	0.789114	3.95431	0.917474	4.60366
0.542746	2.71054	0.394115	1.94158	0.544225	2.71016	0.623081	3.11312	0.747289	3.7306	0.940882	4.69454	0.517125	2.58345	0.623485	3.10736	0.790177	3.94124	0.918886	4.58928
0.545146	2.70992	0.396115	1.94251	0.546624	2.70953	0.624693	3.10671	0.748894	3.72131	0.941839	4.67757	0.518932	2.58046	0.625314	3.10208	0.791245	3.92831	0.9203	4.57506
0.547545	2.70929	0.398114	1.94344	0.549022	2.70891	0.626307	3.10038	0.750503	3.71212	0.9428	4.66077	0.520737	2.5775	0.627148	3.09686	0.792319	3.91553	0.921716	4.56097
0.549943	2.70867	0.400113	1.94435	0.551419	2.70828	0.627923	3.09411	0.752116	3.70303	0.943765	4.64415	0.52254	2.57455	0.628988	3.09172	0.793398	3.90289	0.923133	4.54702
0.552339	2.70804	0.402111	1.94526	0.553815	2.70766	0.629542	3.08791	0.753733	3.69405	0.944735	4.62771	0.524343	2.57163	0.630833	3.08665	0.794482	3.8904	0.924553	4.53321
0.554734	2.70742	0.404109	1.94615	0.556209	2.70704	0.631164	3.08178	0.755355	3.68517	0.945709	4.61144	0.526144	2.56873	0.632682	3.08166	0.795571	3.87804	0.925975	4.51954
0.557128	2.7068	0.406106	1.94703	0.558602	2.70641	0.632789	3.07572	0.75698	3.67638	0.946688	4.59533	0.527945	2.56584	0.634537	3.07673	0.796666	3.86582	0.927399	4.50599
0.559521	2.70617	0.408102	1.9479	0.560994	2.70578	0.634416	3.06973	0.758609	3.6677	0.947671	4.57939	0.529744	2.56298	0.636397	3.07187	0.797766	3.85373	0.928824	4.49258
0.561911	2.70554	0.410098	1.94876	0.563384	2.70515	0.636046	3.06381	0.760241	3.65911	0.948658	4.56362	0.531542	2.56014	0.638262	3.06708	0.798872	3.84178	0.930252	4.4793
0.564301	2.70491	0.412093	1.94961	0.565772	2.70452	0.637679	3.05795	0.761878	3.65062	0.94965	4.54801	0.533339	2.55732	0.640131	3.06235	0.799982	3.82996	0.931681	4.46615
0.566688	2.70428	0.414087	1.95044	0.568159	2.70389	0.639315	3.05216	0.763518	3.64222	0.950647	4.53255	0.535136	2.55452	0.642005	3.05769	0.801098	3.81827	0.933112	4.45312
0.569074	2.70364	0.41608	1.95127	0.570543	2.70325	0.640955	3.04643	0.765162	3.63391	0.951648	4.51726	0.536931	2.55174	0.643884	3.05308	0.802219	3.80671	0.934545	4.44022
0.571458	2.70301	0.418073	1.95209	0.572926	2.70261	0.642597	3.04077	0.76681	3.62569	0.952653	4.50212	0.538725	2.54899	0.645767	3.04855	0.803346	3.79528	0.93598	4.42743
0.573841	2.70237	0.420065	1.95289	0.575307	2.70197	0.644242	3.03518	0.768461	3.61756	0.953663	4.48714	0.540519	2.54625	0.647654	3.04407	0.804477	3.78397	0.937416	4.41477
0.576221	2.70172	0.422057	1.95369	0.577686	2.70132	0.645891	3.02965	0.770115	3.60952	0.954677	4.4723	0.542312	2.54353	0.649546	3.03965	0.805614	3.77278	0.938854	4.40223
0.578599	2.70107	0.424048	1.95447	0.580063	2.70067	0.647543	3.02418	0.771773	3.60156	0.955696	4.45762	0.544104	2.54083	0.651442	3.03529	0.806756	3.76172	0.940294	4.3898
0.580975	2.70042	0.426038	1.95525	0.582438	2.70001	0.649199	3.01878	0.773435	3.59369	0.956719	4.44308	0.545896	2.53816	0.653342	3.03098	0.807904	3.75077	0.941736	4.37749
0.583349	2.69976	0.428027	1.95602	0.58481	2.69935	0.650858	3.01344	0.775099	3.5859	0.957747	4.42869	0.547686	2.5355	0.655246	3.02673	0.809056	3.73995	0.943179	4.3653
0.58572	2.6991	0.430016	1.95677	0.58718	2.69868	0.652521	3.00816	0.776767	3.57819	0.958779	4.41445	0.549477	2.53286	0.657155	3.02254	0.810214	3.72924	0.944624	4.35321
0.588089	2.69843	0.432004	1.95752	0.589547	2.69801	0.654187	3.00294	0.778439	3.57057	0.959815	4.40034	0.551266	2.53024	0.659067	3.0184	0.811377	3.71865	0.946071	4.34124
0.590455	2.69775	0.433991	1.95826	0.591912	2.69733	0.655858	2.99779	0.780114	3.56302	0.960856	4.38638	0.553056	2.52765	0.660983	3.01431	0.812546	3.70817	0.947519	4.32938
0.592819	2.69707	0.435978	1.95899	0.594274	2.69665	0.657532	2.9927	0.781791	3.55556	0.961902	4.37256	0.554844	2.52507	0.662902	3.01028	0.813719	3.6978	0.948969	4.31762
0.59518	2.69638	0.437964	1.95971	0.596633	2.69595	0.65921	2.98767	0.783472	3.54817	0.962952	4.35887	0.556633	2.52251	0.664826	3.00629	0.814898	3.68754	0.95042	4.30597
0.597538	2.69569	0.439949	1.96042	0.598989	2.69525	0.660893	2.9827	0.785156	3.54085	0.964006	4.34531	0.558421	2.51998	0.666753	3.00236	0.816082	3.6774	0.951873	4.29442
0.599893	2.69498	0.441934	1.96112	0.601342	2.69455	0.662579	2.97779	0.786843	3.53361	0.965065	4.3319	0.560208	2.51746	0.668683	2.99847	0.817271	3.66736	0.953327	4.28298
0.602245	2.69427	0.443918	1.96181	0.603692	2.69383	0.66427	2.97294	0.788533	3.52645	0.966128	4.31861	0.561996	2.51496	0.670617	2.99463	0.818465	3.65743	0.954783	4.27164
0.604594	2.69355	0.445901	1.9625	0.606039	2.69311	0.665966	2.96815	0.790226	3.51936	0.967196	4.30545	0.563783	2.51248	0.672554	2.99084	0.819665	3.6476	0.95624	4.2604
0.606939	2.69283	0.447884	1.96317	0.608383	2.69237	0.667666	2.96342	0.791922	3.51234	0.968268	4.29242	0.56557	2.51002	0.674495	2.98709	0.82087	3.63788	0.957699	4.24926
0.609281	2.69209	0.449865	1.96384	0.610723	2.69163	0.669371	2.95875	0.793621	3.50538	0.969345	4.27952	0.567356	2.50758	0.676438	2.98339	0.82208	3.62826	0.959159	4.23822
0.61162	2.69134	0.451847	1.9645	0.613059	2.69088	0.67108	2.95414	0.795323	3.4985	0.970426	4.26674	0.569143	2.50517	0.678385	2.97973	0.823295	3.61874	0.960621	4.22728
0.613955	2.69059	0.453827	1.96515	0.615391	2.69011	0.672795	2.94959	0.797027	3.49169	0.971512	4.25409	0.570929	2.50276	0.680334	2.97611	0.824515	3.60933	0.962084	4.21643
0.616286	2.68982	0.455807	1.96579	0.61772	2.68934	0.674514	2.9451	0.798734	3.48494	0.972602	4.24156	0.572716	2.50038	0.682287	2.97254	0.825741	3.60001	0.963548	4.20567
0.618613	2.68904	0.457786	1.96642	0.620045	2.68856	0.676239	2.94067	0.800444	3.47826	0.973697	4.22915	0.574502	2.49802	0.684243	2.96901	0.826972	3.59079	0.965014	4.19501
0.620936	2.68825	0.459764	1.96705	0.622365	2.68776	0.677969	2.9363	0.802156	3.47165	0.974796	4.21686	0.576288	2.49568	0.686201	2.96552	0.828208	3.58167	0.966481	4.18444
0.623255	2.68745	0.461741	1.96766	0.624681	2.68695	0.679705	2.93198	0.803871	3.4651	0.975899	4.20468	0.578075	2.49335	0.688162	2.96206	0.829449	3.57264	0.967949	4.17396
0.62557	2.68664	0.463718	1.96827	0.626993	2.68613	0.681446	2.92773	0.805588	3.45861	0.977007	4.19263	0.579861	2.49105	0.690125	2.95865	0.830695	3.56371	0.969419	4.16357
0.62788	2.68581	0.465695	1.96888	0.629301	2.6853	0.683192	2.92353	0.807308	3.45219	0.97812	4.18068	0.581648	2.48876	0.692091	2.95528	0.831947	3.55487	0.97089	4.15327
0.630185	2.68497	0.46767	1.96947	0.631603	2.68445	0.684945	2.91939	0.809031	3.44582	0.979237	4.16886	0.583435	2.4865	0.69406	2.95194	0.833204	3.54612	0.972362	4.14305
0.632486	2.68412	0.469645	1.97006	0.633901	2.68359	0.686704	2.91531	0.810756	3.43952	0.980358	4.15714	0.585221	2.48425	0.696031	2.94864	0.834466	3.53746	0.973835	4.13292
0.634782	2.68325	0.471619	1.97064	0.636194	2.68271	0.688469	2.91129	0.812483	3.43328	0.981484	4.14554	0.587009	2.48202	0.698004	2.94537	0.835733	3.5289	0.975309	4.12288
0.637073	2.68237	0.473592	1.97121	0.638482	2.68182	0.69024	2.90732	0.814212	3.42709	0.982614	4.13404	0.588796	2.47981	0.69998	2.94214	0.837005	3.52042	0.976785	4.11292
0.639359	2.68148	0.475565	1.97177	0.640764	2.68092	0.692017	2.90341	0.815944	3.42097	0.983749	4.12266	0.590584	2.47761	0.701957	2.93894	0.838283	3.51203	0.978262	4.10304
0.641639	2.68057	0.477537	1.97233	0.643041	2.68	0.693801	2.89956	0.817678	3.4149	0.984888	4.11138	0.592372	2.47544	0.703937	2.93578	0.839566	3.50373	0.97974	4.09324
0.643914	2.67964	0.479508	1.97288	0.645313	2.67906	0.695592	2.89577	0.819414	3.40889	0.986032	4.10021	0.59416	2.47328	0.705919	2.93265	0.840854	3.49551	0.981219	4.08353
0.646183	2.6787	0.481479	1.97342	0.647578	2.67811	0.69739	2.89204	0.821153	3.40293	0.987181	4.08914	0.595949	2.47114	0.707903	2.92955	0.842147	3.48738	0.982699	4.07389
0.648447	2.67774	0.483448	1.97396	0.649838	2.67714	0.699195	2.88836	0.822893	3.39702	0.988333	4.07818	0.597738	2.46902	0.709888	2.92648	0.843446	3.47934	0.984181	4.06433
0.650704	2.67677	0.485418	1.97449	0.652092	2.67616	0.701006	2.88475	0.824636	3.39118	0.98949	4.06731	0.599527	2.46692	0.711876	2.92345	0.844749	3.47137	0.985663	4.05486
0.652956	2.67577	0.487386	1.97501	0.65434	2.67515	0.702826	2.88119	0.82638	3.38538	0.990652	4.05655	0.601317	2.46484	0.713865	2.92044	0.846059	3.46349	0.987147	4.04545
0.655201	2.67476	0.489354	1.97552	0.656581	2.67413	0.704652	2.87768	0.828127	3.37963	0.991818	4.04589	0.603108	2.46277	0.715855	2.91747	0.847373	3.45569	0.988631	4.03612
0.65744	2.67373	0.491321	1.97603	0.658816	2.67309	0.706487	2.87424	0.829875	3.37394	0.992989	4.03533	0.604899	2.46072	0.717848	2.91452	0.848692	3.44797	0.990117	4.02687
0.659672	2.67268	0.493287	1.97653	0.661044	2.67203	0.708329	2.87085	0.831626	3.3683	0.994164	4.02487	0.60669	2.45869	0.719842	2.9116	0.850017	3.44033	0.991603	4.01769
0.661898	2.67162	0.495253	1.97703	0.663266	2.67095	0.710179	2.86752	0.833378	3.36271	0.995344	4.0145	0.608483	2.45668	0.721837	2.90871	0.851347	3.43277	0.99309	4.00859
0.664117	2.67053	0.497218	1.97752	0.665481	2.66985	0.712037	2.86425	0.835133	3.35716	0.996528	4.00423	0.610275	2.45468	0.723833	2.90585	0.852682	3.42528	0.994579	3.99956
0.666329	2.66942	0.499182	1.978	0.667689	2.66873	0.713903	2.86103	0.836888	3.35167	0.997716	3.99405	0.612069	2.4527	0.725831	2.90301	0.854023	3.41788	0.996068	3.99059
0.668534	2.6683	0.501146	1.97848	0.669889	2.66759	0.715778	2.85788	0.838646	3.34622	0.99891	3.98397	0.613863	2.45074	0.727831	2.9002	0.855368	3.41055	0.997559	3.9817
0.670732	2.66715	0.503108	1.97895	0.672082	2.66644	0.717661	2.85477	0.840406	3.34082	1.00011	3.97398	0.615657	2.4488	0.729831	2.89741	0.856719	3.40329	0.99905	3.97288
0.672923	2.66599	0.505071	1.97941	0.674268	2.66526	0.719553	2.85173	0.842167	3.33547			0.617453	2.44687	0.731832	2.89465	0.858075	3.39611	1.00054	3.96413
0.675106	2.6648	0.507032	1.97987	0.676447	2.66406	0.721453	2.84874	0.84393	3.33017			0.619249	2.44496	0.733835	2.89191	0.859437	3.389		
0.677281	2.66359	0.508993	1.98032	0.678618	2.66283	0.723362	2.84581	0.845694	3.3249			0.621046	2.44307	0.735838	2.8892	0.860804	3.38196		
0.679449	2.66236	0.510953	1.98077	0.680781	2.66159	0.72528	2.84294	0.84746	3.31969			0.622843	2.4412	0.737842	2.88651	0.862176	3.375		
0.681609	2.66111	0.512912	1.98121	0.682936	2.66033	0.727208	2.84012	0.849227	3.31451			0.624642	2.43934	0.739847	2.88384	0.863553	3.36811		
0.683761	2.65984	0.514871	1.98164	0.685083	2.65904	0.729144	2.83736	0.850996	3.30938			0.626441	2.43749	0.741853	2.8812	0.864936	3.36129		
0.685905	2.65854	0.516829	1.98207	0.687222	2.65773	0.731089	2.83465	0.852767	3.3043			0.628241	2.43567	0.74386	2.87858	0.866324	3.35454		
0.688042	2.65723	0.518786	1.98249	0.689354	2.6564	0.733044	2.832	0.854539	3.29925			0.630041	2.43386	0.745867	2.87597	0.867718	3.34785		
0.69017	2.65589	0.520743	1.98291	0.691477	2.65505	0.735008	2.8294	0.856312	3.29425			0.631843	2.43206	0.747875	2.87339	0.869116	3.34124		
0.69229	2.65453	0.522699	1.98332	0.693592	2.65368	0.736982	2.82686	0.858086	3.28928			0.633646	2.43029	0.749883	2.87083	0.87052	3.33469		
0.694402	2.65315	0.524654	1.98373	0.695699	2.65229	0.738965	2.82437	0.859862	3.28436			0.635449	2.42853	0.751892	2.86829	0.87193	3.32821		
0.696505	2.65175	0.526609	1.98413	0.697797	2.65087	0.740957	2.82194	0.86164	3.27948			0.637253	2.42678	0.753901	2.86577	0.873344	3.3218		
0.698601	2.65032	0.528563	1.98452	0.699888	2.64944	0.742959	2.81956	0.863418	3.27464			0.639059	2.42505	0.75591	2.86327	0.874764	3.31545		
0.700688	2.64888	0.530516	1.98491	0.70197	2.64798	0.744971	2.81723	0.865198	3.26983			0.640865	2.42334	0.75792	2.86078	0.87619	3.30917		
0.702767	2.64741	0.532468	1.9853	0.704043	2.6465	0.746992	2.81496	0.866979	3.26507			0.642672	2.42164	0.75993	2.85832	0.877621	3.30295		
0.704837	2.64593	0.53442	1.98568	0.706109	2.645	0.749022	2.81273	0.86876	3.26034			0.64448	2.41996	0.76194	2.85587	0.879057	3.2968		
0.7069	2.64442	0.536372	1.98605	0.708166	2.64348	0.751062	2.81056	0.870544	3.25564			0.64629	2.41829	0.76395	2.85344	0.880499	3.2907		
0.708954	2.64289	0.538322	1.98642	0.710215	2.64194	0.753112	2.80844	0.872328	3.25099			0.6481	2.41664	0.76596	2.85102	0.881946	3.28467		
0.711	2.64135	0.540272	1.98679	0.712256	2.64038	0.755171	2.80637	0.874113	3.24637			0.649911	2.415	0.76797	2.84863	0.883398	3.27871		
0.713038	2.63978	0.542221	1.98715	0.714289	2.6388	0.757239	2.80434	0.875899	3.24179			0.651723	2.41338	0.769979	2.84625	0.884856	3.2728		
0.715068	2.63819	0.54417	1.9875	0.716314	2.63721	0.759317	2.80237	0.877687	3.23724			0.653536	2.41177	0.771989	2.84388	0.886319	3.26695		
0.717089	2.63659	0.546118	1.98785	0.718331	2.63559	0.761404	2.80044	0.879475	3.23273			0.655351	2.41018	0.773999	2.84153	0.887788	3.26117		
0.719103	2.63497	0.548065	1.9882	0.72034	2.63396	0.7635	2.79856	0.881264	3.22825			0.657166	2.40861	0.776008	2.8392	0.889262	3.25544		
0.721109	2.63333	0.550012	1.98854	0.722341	2.63231	0.765605	2.79673	0.883054	3.2238			0.658983	2.40704	0.778017	2.83687	0.890741	3.24977		
0.723108	2.63167	0.551958	1.98887	0.724335	2.63064	0.767719	2.79494	0.884845	3.21939			0.6608	2.4055	0.780025	2.83457	0.892226	3.24416		
0.725098	2.63	0.553903	1.9892	0.726321	2.62896	0.769842	2.79319	0.886637	3.21501			0.662619	2.40396	0.782033	2.83228	0.893717	3.23861		
0.727082	2.62831	0.555847	1.98953	0.7283	2.62726	0.771974	2.79149	0.88843	3.21066			0.664439	2.40245	0.78404	2.83	0.895213	3.23312		
0.729058	2.62661	0.557791	1.98985	0.730271	2.62555	0.774115	2.78983	0.890223	3.20635			0.666259	2.40094	0.786047	2.82773	0.896714	3.22768		
0.731026	2.62489	0.559735	1.99017	0.732235	2.62382	0.776264	2.78821	0.892017	3.20207			0.668081	2.39945	0.788054	2.82548	0.898221	3.2223		
0.732988	2.62316	0.561677	1.99049	0.734193	2.62208	0.778421	2.78664	0.893812	3.19781			0.669905	2.39797	0.790059	2.82324	0.899734	3.21697		
0.734942	2.62141	0.563619	1.99079	0.736143	2.62033	0.780586	2.7851	0.895608	3.19359			0.671729	2.39651	0.792064	2.82101	0.901251	3.2117		
0.73689	2.61965	0.565561	1.9911	0.738087	2.61856	0.78276	2.7836	0.897404	3.1894			0.673554	2.39506	0.794068	2.81879	0.902775	3.20648		
0.738831	2.61788	0.567502	1.9914	0.740024	2.61679	0.784941	2.78214	0.899201	3.18524			0.675381	2.39363	0.796071	2.81659	0.904304	3.20132		
0.740766	2.6161	0.569442	1.9917	0.741954	2.615	0.78713	2.78072	0.900999	3.18111			0.677209	2.39221	0.798074	2.8144	0.905838	3.19621		
0.742694	2.61431	0.571381	1.99199	0.743879	2.6132	0.789327	2.77933	0.902797	3.17701			0.679038	2.3908	0.800075	2.81222	0.907378	3.19115		
0.744616	2.61251	0.57332	1.99228	0.745797	2.61139	0.791531	2.77798	0.904596	3.17294			0.680868	2.38941	0.802076	2.81004	0.908924	3.18615		
0.746532	2.61069	0.575259	1.99256	0.747709	2.60957	0.793742	2.77666	0.906395	3.16889			0.682699	2.38803	0.804075	2.80788	0.910475	3.18119		
0.748442	2.60887	0.577196	1.99284	0.749616	2.60775	0.79596	2.77537	0.908195	3.16487			0.684532	2.38666	0.806074	2.80573	0.912032	3.17629		
0.750346	2.60705	0.579133	1.99312	0.751517	2.60592	0.798186	2.77412	0.909995	3.16089			0.686366	2.3853	0.808071	2.80359	0.913594	3.17144		
0.752245	2.60521	0.58107	1.99339	0.753413	2.60408	0.800418	2.7729	0.911796	3.15693			0.688201	2.38396	0.810067	2.80146	0.915162	3.16665		
0.754139	2.60337	0.583005	1.99366	0.755303	2.60223	0.802656	2.77171	0.913598	3.15299			0.690037	2.38263	0.812062	2.79934	0.916735	3.1619		
0.756027	2.60152	0.584941	1.99392	0.757188	2.60038	0.804901	2.77054	0.915399	3.14908			0.691874	2.38132	0.814055	2.79723	0.918314	3.1572		
0.757911	2.59967	0.586875	1.99419	0.759069	2.59852	0.807152	2.76941	0.917202	3.1452			0.693713	2.38001	0.816048	2.79513	0.919899	3.15255		
0.759789	2.59781	0.588809	1.99444	0.760944	2.59666	0.809409	2.7683	0.919004	3.14135			0.695553	2.37872	0.818039	2.79303	0.921489	3.14794		
0.761663	2.59594	0.590743	1.9947	0.762815	2.5948	0.811672	2.76723	0.920807	3.13752			0.697394	2.37744	0.820028	2.79095	0.923085	3.14339		
0.763533	2.59408	0.592675	1.99495	0.764682	2.59293	0.813941	2.76617	0.92261	3.13371			0.699237	2.37618	0.822016	2.78887	0.924686	3.13888		
0.765398	2.59221	0.594608	1.99519	0.766544	2.59106	0.816215	2.76515	0.924414	3.12994			0.70108	2.37492	0.824003	2.7868	0.926293	3.13443		
0.767258	2.59034	0.596539	1.99544	0.768403	2.58918	0.818494	2.76414	0.926218	3.12618			0.702925	2.37368	0.825988	2.78474	0.927905	3.13001		
0.769115	2.58846	0.59847	1.99568	0.770257	2.58731	0.820779	2.76317	0.928023	3.12245			0.704771	2.37245	0.827971	2.78269	0.929523	3.12565		
0.770968	2.58659	0.600401	1.99591	0.772107	2.58543	0.823068	2.76221	0.929827	3.11875			0.706618	2.37123	0.829953	2.78064	0.931147	3.12133		
0.772817	2.58471	0.60233	1.99615	0.773954	2.58356	0.825363	2.76128	0.931632	3.11507			0.708467	2.37002	0.831934	2.7786	0.932776	3.11706		
0.774662	2.58284	0.60426	1.99638	0.775797	2.58168	0.827662	2.76036	0.933437	3.11141			0.710317	2.36883	0.833912	2.77657	0.934411	3.11283		
0.776504	2.58096	0.606188	1.9966	0.777637	2.57981	0.829966	2.75947	0.935243	3.10778			0.712168	2.36765	0.835889	2.77455	0.936052	3.10865		
0.778343	2.57909	0.608117	1.99682	0.779474	2.57793	0.832274	2.7586	0.937048	3.10417			0.71402	2.36647	0.837865	2.77253	0.937698	3.10451		
0.780179	2.57721	0.610044	1.99704	0.781308	2.57606	0.834586	2.75775	0.938854	3.10058			0.715874	2.36531	0.839838	2.77052	0.93935	3.10041		
0.782011	2.57534	0.611971	1.99726	0.783139	2.57419	0.836903	2.75692	0.94066	3.09701			0.717729	2.36416	0.84181	2.76851	0.941007	3.09636		
0.783841	2.57347	0.613898	1.99747	0.784966	2.57232	0.839223	2.7561	0.942466	3.09347			0.719585	2.36303	0.843779	2.76651	0.94267	3.09235		
0.785668	2.5716	0.615823	1.99768	0.786792	2.57045	0.841547	2.7553	0.944273	3.08995			0.721442	2.3619	0.845747	2.76452	0.944338	3.08838		
0.787492	2.56973	0.617749	1.99789	0.788614	2.56859	0.843875	2.75452	0.946079	3.08645			0.723301	2.36078	0.847713	2.76254	0.946012	3.08446		
0.789313	2.56787	0.619674	1.9981	0.790434	2.56673	0.846207	2.75376	0.947886	3.08298			0.725161	2.35968	0.849677	2.76055	0.947692	3.08058		
0.791133	2.56601	0.621598	1.9983	0.792252	2.56487	0.848542	2.75301	0.949693	3.07952			0.727022	2.35858	0.85164	2.75858	0.949377	3.07674		
0.79295	2.56416	0.623522	1.9985	0.794068	2.56302	0.85088	2.75228	0.9515	3.07609			0.728885	2.3575	0.8536	2.75661	0.951068	3.07294		
0.794764	2.5623	0.625445	1.99869	0.795881	2.56117	0.853221	2.75156	0.953307	3.07268			0.730748	2.35643	0.855558	2.75464	0.952765	3.06918		
0.796577	2.56046	0.627367	1.99888	0.797693	2.55932	0.855566	2.75085	0.955114	3.06928			0.732613	2.35536	0.857514	2.75268	0.954466	3.06546		
0.798388	2.55862	0.629289	1.99907	0.799502	2.55748	0.857913	2.75016	0.956922	3.06591			0.73448	2.35431	0.859468	2.75073	0.956174	3.06179		
0.800196	2.55678	0.631211	1.99926	0.80131	2.55565	0.860263	2.74949	0.958729	3.06256			0.736347	2.35327	0.86142	2.74878	0.957887	3.05815		
0.802004	2.55495	0.633132	1.99944	0.803116	2.55382	0.862616	2.74882	0.960537	3.05923			0.738216	2.35224	0.86337	2.74684	0.959605	3.05455		
0.803809	2.55312	0.635052	1.99963	0.80492	2.552	0.864972	2.74817	0.962344	3.05592			0.740086	2.35122	0.865317	2.7449	0.961329	3.05099		
0.805613	2.5513	0.636972	1.99981	0.806723	2.55018	0.86733	2.74753	0.964152	3.05263			0.741957	2.35021	0.867263	2.74296	0.963059	3.04747		
0.807415	2.54948	0.638892	1.99998	0.808525	2.54837	0.86969	2.7469	0.965959	3.04936			0.74383	2.3492	0.869206	2.74103	0.964794	3.04398		
0.809216	2.54768	0.640811	2.00015	0.810325	2.54656	0.872053	2.74628	0.967767	3.0461			0.745703	2.34821	0.871148	2.7391	0.966534	3.04054		
0.811016	2.54587	0.642729	2.00033	0.812124	2.54477	0.874418	2.74567	0.969575	3.04287			0.747578	2.34723	0.873086	2.73718	0.96828	3.03713		
0.812814	2.54408	0.644647	2.00049	0.813921	2.54298	0.876785	2.74507	0.971383	3.03966			0.749455	2.34626	0.875023	2.73527	0.970032	3.03375		
0.814611	2.54229	0.646565	2.00066	0.815718	2.54119	0.879154	2.74448	0.973191	3.03646			0.751332	2.34529	0.876958	2.73335	0.971788	3.03042		
0.816407	2.54051	0.648482	2.00082	0.817513	2.53941	0.881525	2.7439	0.974999	3.03328			0.753211	2.34434	0.87889	2.73144	0.97355	3.02712		
0.818202	2.53873	0.650398	2.00098	0.819308	2.53764	0.883898	2.74333	0.976807	3.03013			0.755091	2.3434	0.88082	2.72954	0.975318	3.02385		
0.819996	2.53697	0.652314	2.00114	0.821101	2.53588	0.886272	2.74277	0.978615	3.02699			0.756972	2.34246	0.882748	2.72764	0.977091	3.02062		
0.82179	2.53521	0.654229	2.0013	0.822894	2.53413	0.888648	2.74222	0.980424	3.02387			0.758855	2.34154	0.884674	2.72574	0.978869	3.01743		
0.823582	2.53345	0.656144	2.00145	0.824686	2.53238	0.891026	2.74167	0.982232	3.02076			0.760738	2.34062	0.886597	2.72385	0.980653	3.01427		
0.825374	2.53171	0.658059	2.0016	0.826477	2.53064	0.893405	2.74113	0.98404	3.01768			0.762623	2.33971	0.888518	2.72196	0.982441	3.01115		
0.827165	2.52997	0.659973	2.00175	0.828268	2.52891	0.895785	2.7406	0.985849	3.01461			0.764509	2.33881	0.890437	2.72007	0.984235	3.00806		
0.828955	2.52824	0.661886	2.0019	0.830058	2.52718	0.898167	2.74008	0.987657	3.01156			0.766397	2.33792	0.892354	2.71819	0.986035	3.005		
0.830745	2.52652	0.6638	2.00204	0.831847	2.52547	0.900551	2.73956	0.989466	3.00853			0.768285	2.33704	0.894268	2.71631	0.987839	3.00197		
0.832534	2.52481	0.665712	2.00219	0.833636	2.52376	0.902935	2.73905	0.991274	3.00551			0.770175	2.33617	0.89618	2.71444	0.989649	2.99898		
0.834323	2.52311	0.667624	2.00233	0.835425	2.52206	0.90532	2.73855	0.993083	3.00251			0.772066	2.33531	0.898089	2.71257	0.991464	2.99602		
0.836111	2.52141	0.669536	2.00246	0.837213	2.52037	0.907707	2.73805	0.994892	2.99953			0.773958	2.33445	0.899997	2.7107	0.993284	2.99309		
0.837899	2.51972	0.671447	2.0026	0.839001	2.51869	0.910094	2.73756	0.996701	2.99657			0.775852	2.3336	0.901902	2.70884	0.995109	2.9902		
0.839687	2.51804	0.673358	2.00273	0.840788	2.51701	0.912482	2.73707	0.99851	2.99362			0.777746	2.33277	0.903804	2.70698	0.996939	2.98733		
0.841475	2.51637	0.675268	2.00287	0.842576	2.51535	0.914871	2.73659	1.00032	2.99069			0.779642	2.33194	0.905705	2.70512	0.998774	2.9845		
0.843262	2.51471	0.677178	2.00299	0.844363	2.51369	0.917261	2.73611					0.781539	2.33111	0.907603	2.70327	1.00061	2.9817		
0.845049	2.51306	0.679088	2.00312	0.84615	2.51205	0.919652	2.73564					0.783437	2.3303	0.909499	2.70142				
0.846836	2.51142	0.680997	2.00325	0.847937	2.51041	0.922043	2.73517					0.785337	2.32949	0.911393	2.69957				
0.848623	2.50978	0.682905	2.00337	0.849723	2.50878	0.924435	2.73471					0.787237	2.32869	0.913284	2.69773				
0.850409	2.50815	0.684814	2.00349	0.85151	2.50715	0.926827	2.73425					0.789139	2.3279	0.915173	2.69589				
0.852196	2.50653	0.686721	2.00361	0.853297	2.50554	0.929219	2.7338					0.791042	2.32712	0.91706	2.69405				
0.853983	2.50493	0.688629	2.00373	0.855084	2.50394	0.931612	2.73334					0.792946	2.32635	0.918945	2.69222				
0.85577	2.50333	0.690536	2.00385	0.856871	2.50234	0.934006	2.73289					0.794851	2.32558	0.920827	2.69039				
0.857557	2.50173	0.692442	2.00396	0.858658	2.50076	0.936399	2.73245					0.796757	2.32482	0.922708	2.68857				
0.859344	2.50015	0.694348	2.00408	0.860445	2.49918	0.938793	2.73201					0.798665	2.32407	0.924586	2.68675				
0.861131	2.49858	0.696254	2.00419	0.862232	2.49761	0.941186	2.73157					0.800574	2.32332	0.926462	2.68493				
0.862918	2.49701	0.698159	2.0043	0.864019	2.49606	0.94358	2.73113					0.802483	2.32258	0.928335	2.68311				
0.864706	2.49546	0.700064	2.0044	0.865807	2.49451	0.945974	2.73069					0.804394	2.32185	0.930207	2.6813				
0.866493	2.49391	0.701968	2.00451	0.867595	2.49296	0.948368	2.73026					0.806306	2.32113	0.932077	2.6795				
0.868281	2.49238	0.703873	2.00461	0.869383	2.49143	0.950761	2.72983					0.808219	2.32042	0.933944	2.67769				
0.87007	2.49085	0.705776	2.00471	0.871172	2.48991	0.953155	2.7294					0.810134	2.31971	0.935809	2.67589				
0.871858	2.48933	0.70768	2.00482	0.87296	2.4884	0.955548	2.72897					0.812049	2.319	0.937673	2.6741				
0.873647	2.48782	0.709583	2.00491	0.874749	2.48689	0.957941	2.72855					0.813966	2.31831	0.939534	2.6723				
0.875436	2.48632	0.711485	2.00501	0.876539	2.4854	0.960333	2.72812					0.815883	2.31762	0.941393	2.67051				
0.877226	2.48482	0.713387	2.00511	0.878329	2.48391	0.962725	2.7277					0.817802	2.31694	0.94325	2.66873				
0.879016	2.48334	0.715289	2.0052	0.880119	2.48243	0.965117	2.72727					0.819722	2.31626	0.945105	2.66695				
0.880807	2.48187	0.717191	2.00529	0.88191	2.48096	0.967508	2.72685					0.821643	2.3156	0.946959	2.66517				
0.882598	2.4804	0.719092	2.00539	0.883701	2.4795	0.969898	2.72643					0.823565	2.31493	0.94881	2.6634				
0.884389	2.47894	0.720992	2.00548	0.885493	2.47805	0.972288	2.726					0.825488	2.31428	0.950659	2.66163				
0.886181	2.4775	0.722893	2.00556	0.887285	2.47661	0.974677	2.72558					0.827412	2.31363	0.952507	2.65986				
0.887973	2.47606	0.724793	2.00565	0.889078	2.47518	0.977065	2.72516					0.829337	2.31299	0.954353	2.6581				
0.889766	2.47463	0.726693	2.00574	0.890871	2.47375	0.979452	2.72474					0.831264	2.31235	0.956197	2.65634				
0.891559	2.47321	0.728592	2.00582	0.892664	2.47234	0.981838	2.72432					0.833191	2.31172	0.958039	2.65459				
0.893353	2.4718	0.730491	2.0059	0.894459	2.47093	0.984224	2.72389					0.835119	2.3111	0.959879	2.65284				
0.895148	2.47039	0.73239	2.00599	0.896253	2.46953	0.986608	2.72347					0.837049	2.31048	0.961717	2.65109				
0.896943	2.469	0.734288	2.00607	0.898049	2.46814	0.988991	2.72304					0.838979	2.30987	0.963554	2.64935				
0.898738	2.46761	0.736186	2.00615	0.899845	2.46676	0.991373	2.72262					0.840911	2.30926	0.965389	2.64762				
0.900535	2.46623	0.738083	2.00622	0.901641	2.46539	0.993753	2.72219					0.842843	2.30866	0.967223	2.64588				
0.902331	2.46487	0.739981	2.0063	0.903439	2.46403	0.996133	2.72176					0.844777	2.30807	0.969054	2.64416				
0.904129	2.46351	0.741878	2.00637	0.905237	2.46267	0.99851	2.72133					0.846711	2.30748	0.970885	2.64243				
0.905927	2.46216	0.743775	2.00645	0.907035	2.46133	1.00089	2.7209					0.848647	2.3069	0.972713	2.64071				
0.907726	2.46081	0.745671	2.00652	0.908834	2.45999							0.850583	2.30632	0.97454	2.639				
0.909525	2.45948	0.747567	2.00659	0.910634	2.45866							0.852521	2.30575	0.976366	2.63729				
0.911325	2.45815	0.749463	2.00666	0.912435	2.45734							0.854459	2.30518	0.97819	2.63558				
0.913126	2.45684	0.751358	2.00673	0.914236	2.45603							0.856399	2.30462	0.980012	2.63388				
0.914928	2.45553	0.753253	2.0068	0.916038	2.45473							0.858339	2.30407	0.981833	2.63218				
0.91673	2.45423	0.755148	2.00687	0.91784	2.45343							0.860281	2.30352	0.983653	2.63049				
0.918533	2.45294	0.757043	2.00693	0.919644	2.45214							0.862223	2.30297	0.985471	2.6288				
0.920336	2.45165	0.758937	2.007	0.921448	2.45087							0.864167	2.30244	0.987288	2.62712				
0.922141	2.45038	0.760831	2.00706	0.923253	2.4496							0.866111	2.3019	0.989104	2.62544				
0.923946	2.44911	0.762725	2.00712	0.925058	2.44833							0.868056	2.30137	0.990918	2.62377				
0.925751	2.44785	0.764618	2.00718	0.926864	2.44708							0.870003	2.30085	0.992731	2.6221				
0.927558	2.4466	0.766511	2.00724	0.928671	2.44584							0.87195	2.30033	0.994543	2.62044				
0.929365	2.44536	0.768404	2.0073	0.930479	2.4446							0.873898	2.29982	0.996353	2.61878				
0.931173	2.44413	0.770297	2.00736	0.932288	2.44337							0.875847	2.29931	0.998163	2.61713				
0.932982	2.4429	0.772189	2.00742	0.934097	2.44215							0.877797	2.29881	0.999971	2.61548				
0.934792	2.44168	0.774081	2.00748	0.935907	2.44093							0.879748	2.29831	1.00178	2.61384				
0.936602	2.44047	0.775973	2.00753	0.937718	2.43973							0.8817	2.29781						
0.938414	2.43927	0.777864	2.00759	0.93953	2.43853							0.883653	2.29732						
0.940226	2.43807	0.779756	2.00764	0.941342	2.43734							0.885606	2.29684						
0.942038	2.43689	0.781647	2.00769	0.943156	2.43616							0.887561	2.29636						
0.943852	2.43571	0.783537	2.00774	0.94497	2.43499							0.889516	2.29589						
0.945666	2.43454	0.785428	2.00779	0.946785	2.43382							0.891472	2.29541						
0.947482	2.43337	0.787318	2.00784	0.9486	2.43266							0.89343	2.29495						
0.949298	2.43222	0.789208	2.00789	0.950417	2.43151							0.895388	2.29449						
0.951115	2.43107	0.791098	2.00794	0.952234	2.43037							0.897346	2.29403						
0.952932	2.42993	0.792987	2.00799	0.954053	2.42923							0.899306	2.29358						
0.954751	2.4288	0.794877	2.00804	0.955872	2.4281							0.901267	2.29313						
0.95657	2.42767	0.796766	2.00808	0.957692	2.42698							0.903228	2.29268						
0.958391	2.42655	0.798655	2.00813	0.959512	2.42587							0.905191	2.29224						
0.960212	2.42544	0.800543	2.00817	0.961334	2.42476							0.907154	2.29181						
0.962033	2.42434	0.802432	2.00821	0.963156	2.42366							0.909118	2.29138						
0.963856	2.42324	0.80432	2.00826	0.96498	2.42257							0.911083	2.29095						
0.96568	2.42215	0.806208	2.0083	0.966804	2.42149							0.913048	2.29052						
0.967504	2.42107	0.808096	2.00834	0.968629	2.42041							0.915015	2.29011						
0.96933	2.42	0.809983	2.00838	0.970454	2.41934							0.916982	2.28969						
0.971156	2.41893	0.81187	2.00842	0.972281	2.41828							0.91895	2.28928						
0.972983	2.41787	0.813757	2.00846	0.974109	2.41722							0.920919	2.28887						
0.974811	2.41682	0.815644	2.0085	0.975937	2.41617							0.922888	2.28847						
0.976639	2.41577	0.817531	2.00854	0.977766	2.41513							0.924859	2.28807						
0.978469	2.41473	0.819418	2.00857	0.979597	2.41409							0.92683	2.28767						
0.980299	2.4137	0.821304	2.00861	0.981428	2.41307							0.928802	2.28728						
0.982131	2.41267	0.82319	2.00865	0.983259	2.41204							0.930774	2.28689						
0.983963	2.41165	0.825076	2.00868	0.985092	2.41103							0.932748	2.2865						
0.985796	2.41064	0.826962	2.00872	0.986926	2.41002							0.934722	2.28612						
0.98763	2.40964	0.828847	2.00875	0.98876	2.40902							0.936697	2.28574						
0.989465	2.40864	0.830732	2.00878	0.990596	2.40803							0.938673	2.28537						
0.9913	2.40765	0.832617	2.00882	0.992432	2.40704							0.940649	2.285						
0.993137	2.40666	0.834502	2.00885	0.994269	2.40606							0.942627	2.28463						
0.994974	2.40568	0.836387	2.00888	0.996107	2.40508							0.944605	2.28427						
0.996813	2.40471	0.838272	2.00891	0.997946	2.40411							0.946583	2.2839						
0.998652	2.40374	0.840156	2.00894	0.999785	2.40315							0.948563	2.28355						
1.00049	2.40278	0.842041	2.00897	1.00163	2.4022							0.950543	2.28319						
		0.843925	2.009									0.952524	2.28284						
		0.845809	2.00903									0.954505	2.28249						
		0.847692	2.00906									0.956488	2.28215						
		0.849576	2.00909									0.958471	2.28181						
		0.851459	2.00911									0.960454	2.28147						
		0.853343	2.00914									0.962439	2.28114						
		0.855226	2.00917									0.964424	2.2808						
		0.857109	2.00919									0.966409	2.28048						
		0.858992	2.00922									0.968396	2.28015						
		0.860874	2.00924									0.970383	2.27983						
		0.862757	2.00927									0.97237	2.27951						
		0.864639	2.00929									0.974359	2.27919						
		0.866521	2.00931									0.976348	2.27888						
		0.868404	2.00934									0.978337	2.27856						
		0.870286	2.00936									0.980328	2.27826						
		0.872167	2.00938									0.982319	2.27795						
		0.874049	2.0094									0.98431	2.27765						
		0.87593	2.00943									0.986302	2.27735						
		0.877812	2.00945									0.988295	2.27705						
		0.879693	2.00947									0.990288	2.27676						
		0.881574	2.00949									0.992282	2.27647						
		0.883455	2.00951									0.994277	2.27618						
		0.885336	2.00953									0.996272	2.27589						
		0.887217	2.00955									0.998268	2.27561						
		0.889098	2.00957									1.00026	2.27532						
		0.890978	2.00958																
		0.892859	2.0096																
		0.894739	2.00962																
		0.896619	2.00964																
		0.898499	2.00965																
		0.900379	2.00967																
		0.902259	2.00969																
		0.904138	2.0097																
		0.906018	2.00972																
		0.907898	2.00974																
		0.909777	2.00975																
		0.911656	2.00977																
		0.913535	2.00978																
		0.915415	2.0098																
		0.917294	2.00981																
		0.919172	2.00982																
		0.921051	2.00984																
		0.92293	2.00985																
		0.924809	2.00986																
		0.926687	2.00988																
		0.928566	2.00989																
		0.930444	2.0099																
		0.932322	2.00991																
		0.9342	2.00993																
		0.936078	2.00994																
		0.937956	2.00995																
		0.939834	2.00996																
		0.941712	2.00997																
		0.94359	2.00998																
		0.945468	2.00999																
		0.947345	2.01																
		0.949223	2.01001																
		0.9511	2.01002																
		0.952977	2.01003																
		0.954855	2.01004																
		0.956732	2.01005																
		0.958609	2.01006																
		0.960486	2.01007																
		0.962363	2.01008																
		0.96424	2.01009																
		0.966117	2.0101																
		0.967994	2.0101																
		0.969871	2.01011																
		0.971747	2.01012																
		0.973624	2.01013																
		0.9755	2.01014																
		0.977377	2.01014																
		0.979253	2.01015																
		0.98113	2.01016																
		0.983006	2.01017																
		0.984882	2.01017																
		0.986759	2.01018																
		0.988635	2.01019																
		0.990511	2.01019																
		0.992387	2.0102																
		0.994263	2.01021																
		0.996139	2.01021																
		0.998015	2.01022																
		0.999891	2.01022																
		1.00177	2.01023																
