Sym0		Asym0		Sym1		Sym2		Sym3		Sym4		Asym1		Asym2		Asym3		Asym4	
456  Points		540  Points		455  Points		404  Points		368  Points		278  Points		480  Points		419  Points		368  Points		279  Points	
Freq (MHz)	Vph (m/ms)	Freq (MHz)	Vph (m/ms)	Freq (MHz)	Vph (m/ms)	Freq (MHz)	Vph (m/ms)	Freq (MHz)	Vph (m/ms)	Freq (MHz)	Vph (m/ms)	Freq (MHz)	Vph (m/ms)	Freq (MHz)	Vph (m/ms)	Freq (MHz)	Vph (m/ms)	Freq (MHz)	Vph (m/ms)
0.279508	5063.22	0.000133689	0.0714656	0.279507	363.997	0.356611	3778.65	0.559017	1753.21	0.838526	2250.86	0.139755	1132.51	0.419265	699.518	0.69877	1579.93	0.713222	4318.68
0.279506	283.216	0.00029975	0.106963	0.279501	164.453	0.356628	347.566	0.559025	447.024	0.83853	642.931	0.139797	132.497	0.419275	273.846	0.698759	508.568	0.713239	650.265
0.279499	145.679	0.000531285	0.142281	0.27949	106.219	0.356672	182.183	0.55904	256.177	0.838538	375.03	0.139906	70.4178	0.419293	170.254	0.698737	303.052	0.713282	351.624
0.279487	98.0556	0.000827711	0.177401	0.279474	78.4387	0.356745	123.464	0.559065	179.536	0.83855	264.726	0.14008	47.9976	0.41932	123.531	0.698705	215.825	0.71335	240.978
0.27947	73.8951	0.0011882	0.212276	0.279455	62.1748	0.356845	93.3866	0.559097	138.198	0.838567	204.563	0.140321	36.4452	0.419357	96.9354	0.698662	167.583	0.713442	183.313
0.279449	59.2847	0.00161173	0.246852	0.27943	51.495	0.356972	75.107	0.559139	112.337	0.838588	166.684	0.140626	29.4082	0.419401	79.7669	0.698609	136.962	0.713559	147.93
0.279424	49.4961	0.00209732	0.28111	0.279402	43.9446	0.357127	62.8242	0.559188	94.6329	0.838614	140.643	0.140996	24.6774	0.419455	67.7684	0.698548	115.798	0.7137	124.007
0.279395	42.4801	0.00264357	0.31499	0.279369	38.3236	0.35731	54.0049	0.559246	81.7526	0.838644	121.641	0.141429	21.2826	0.419517	58.9108	0.698477	100.296	0.713864	106.754
0.279361	37.2047	0.00324917	0.348465	0.279333	33.9762	0.357519	47.3665	0.559313	71.9613	0.838678	107.164	0.141924	18.7309	0.419588	52.1038	0.698399	88.4515	0.71405	93.7233
0.279324	33.0935	0.00391261	0.381497	0.279293	30.5134	0.357755	42.19	0.559389	64.2672	0.838716	95.768	0.142479	16.7452	0.419667	46.7095	0.698314	79.1064	0.714258	83.535
0.279284	29.7993	0.00463236	0.414062	0.27925	27.6901	0.358018	38.0412	0.559472	58.0618	0.838759	86.5638	0.143094	15.1577	0.419756	42.3298	0.698223	71.5449	0.714487	75.3511
0.27924	27.1005	0.00540674	0.446126	0.279204	25.3441	0.358308	34.6425	0.559565	52.9515	0.838806	78.9748	0.143767	13.861	0.419852	38.7032	0.698126	65.3008	0.714735	68.6335
0.279193	24.8491	0.00623413	0.477674	0.279155	23.3637	0.358623	31.8078	0.559666	48.67	0.838857	72.6102	0.144496	12.783	0.419958	35.651	0.698025	60.0574	0.715003	63.0209
0.279143	22.9422	0.00711281	0.508686	0.279104	21.6697	0.358965	29.4079	0.559775	45.031	0.838913	67.196	0.14528	11.8737	0.420073	33.0469	0.697919	55.592	0.71529	58.2617
0.279091	21.3064	0.00804101	0.539144	0.27905	20.204	0.359331	27.3503	0.559893	41.9	0.838973	62.534	0.146117	11.0971	0.420196	30.7991	0.697811	51.7433	0.715594	54.1752
0.279037	19.8877	0.0090169	0.56903	0.278995	18.9235	0.359723	25.5671	0.560019	39.1778	0.839037	58.4778	0.147005	10.4268	0.420327	28.8393	0.6977	48.3919	0.715914	50.6284
0.278982	18.6456	0.0100388	0.598337	0.278938	17.7951	0.36014	24.0069	0.560154	36.7894	0.839106	54.9165	0.147943	9.84281	0.420468	27.1156	0.697588	45.4472	0.716252	47.5212
0.278925	17.549	0.0111049	0.627057	0.27888	16.7933	0.360581	22.6308	0.560297	34.6769	0.839178	51.7649	0.148928	9.33002	0.420617	25.5878	0.697474	42.8395	0.716604	44.7767
0.278867	16.5738	0.0122134	0.655182	0.278822	15.8978	0.361046	21.4082	0.560449	32.7952	0.839256	48.956	0.149959	8.87651	0.420775	24.2244	0.69736	40.5141	0.716972	42.335
0.278808	15.701	0.0133626	0.682713	0.278763	15.0927	0.361535	20.3149	0.560609	31.1086	0.839337	46.437	0.151034	8.47289	0.420941	23.0003	0.697246	38.4275	0.717354	40.1489
0.27875	14.9151	0.014551	0.709647	0.278705	14.3649	0.362047	19.3316	0.560778	29.5882	0.839423	44.1652	0.152006	8.15593	0.421117	21.8952	0.697133	36.5447	0.717749	38.1801
0.278691	14.2039	0.0157767	0.735984	0.278647	13.7038	0.362582	18.4427	0.560956	28.2108	0.839513	42.1059	0.152859	7.90802	0.421301	20.8927	0.697021	34.8373	0.718158	36.3979
0.278633	13.5572	0.0170383	0.761728	0.27859	13.1007	0.36314	17.6353	0.561142	26.957	0.839608	40.2307	0.153581	7.71688	0.421493	19.9792	0.69691	33.282	0.71858	34.7771
0.278576	12.9666	0.0183342	0.786885	0.278534	12.5483	0.363719	16.8988	0.561336	25.8111	0.839707	38.516	0.154162	7.57387	0.421695	19.1433	0.696802	31.8592	0.719014	33.2967
0.278521	12.4252	0.0196627	0.811455	0.27848	12.0405	0.36432	16.2244	0.561539	24.7597	0.83981	36.942	0.154595	7.47297	0.421905	18.3756	0.696696	30.5529	0.719461	31.9394
0.278467	11.927	0.0210225	0.835451	0.278428	11.5721	0.364942	15.6047	0.56175	23.7917	0.839917	35.4921	0.154875	7.41021	0.422124	17.6682	0.696593	29.3492	0.719918	30.6903
0.278416	11.4672	0.0224121	0.858875	0.278379	11.1387	0.365585	15.0333	0.56197	22.8974	0.840029	34.1522	0.15528	7.32235	0.422351	17.0142	0.696492	28.2365	0.720387	29.5371
0.278368	11.0415	0.0238304	0.881742	0.278332	10.7366	0.366249	14.5048	0.562198	22.069	0.840145	32.9103	0.155725	7.2299	0.422587	16.4079	0.696395	27.205	0.720867	28.4692
0.278322	10.6463	0.0252757	0.904057	0.278289	10.3625	0.366932	14.0148	0.562435	21.2993	0.840266	31.7561	0.156338	7.10898	0.422832	15.8442	0.696302	26.2461	0.721357	27.4776
0.27828	10.2784	0.0267471	0.92583	0.27825	10.0137	0.367635	13.5591	0.56268	20.5824	0.84039	30.6805	0.157124	6.96352	0.423086	15.3189	0.696213	25.3524	0.721858	26.5542
0.278242	9.93505	0.0282432	0.947075	0.278215	9.68758	0.368357	13.1344	0.562934	19.913	0.840519	29.6758	0.158093	6.79792	0.423348	14.8282	0.696128	24.5175	0.722369	25.6925
0.278208	9.614	0.029763	0.967801	0.278185	9.38215	0.369097	12.7376	0.563197	19.2866	0.840653	28.7353	0.159252	6.61675	0.423619	14.3688	0.696047	23.7358	0.72289	24.8863
0.278178	9.31314	0.0313053	0.98802	0.278159	9.09549	0.369856	12.3662	0.563467	18.6993	0.840791	27.8529	0.160611	6.42454	0.423899	13.9378	0.695971	23.0023	0.72342	24.1306
0.278154	9.03064	0.0328691	1.00774	0.278139	8.82594	0.370633	12.0178	0.563747	18.1474	0.840933	27.0236	0.162001	6.24731	0.424187	13.5327	0.695899	22.3129	0.723959	23.4207
0.278135	8.7649	0.0344534	1.02698	0.278125	8.57205	0.371428	11.6904	0.564034	17.628	0.841079	26.2426	0.16342	6.08345	0.424484	13.1513	0.695833	21.6636	0.724508	22.7527
0.278122	8.5145	0.0360573	1.04574	0.278116	8.33252	0.372239	11.3822	0.56433	17.1382	0.84123	25.5058	0.164866	5.93157	0.42479	12.7915	0.695771	21.0511	0.725066	22.1229
0.278115	8.27817	0.0376798	1.06405	0.278114	8.13459	0.373067	11.0915	0.564635	16.6756	0.841385	24.8097	0.166339	5.79045	0.425105	12.4517	0.695715	20.4723	0.725633	21.5282
0.278115	8.05479	0.0393201	1.08191	0.278117	7.97325	0.373912	10.817	0.564948	16.2381	0.841544	24.1509	0.167837	5.65904	0.425428	12.1301	0.695664	19.9245	0.726208	20.9657
0.278122	7.84333	0.0409775	1.09933	0.278121	7.84467	0.374773	10.5573	0.56527	15.8236	0.841708	23.5265	0.169358	5.53643	0.42576	11.8254	0.695619	19.4054	0.726792	20.433
0.278135	7.64291	0.042651	1.11632	0.278127	7.74596	0.375649	10.3114	0.5656	15.4304	0.841876	22.934	0.170903	5.42178	0.4261	11.5363	0.695579	18.9127	0.727385	19.9277
0.278157	7.45269	0.04434	1.1329	0.278133	7.67499	0.376541	10.0781	0.565939	15.0569	0.842048	22.3709	0.172469	5.31439	0.42645	11.2617	0.695545	18.4445	0.727986	19.4477
0.278186	7.27194	0.0460437	1.14908	0.278137	7.63025	0.377447	9.85659	0.566285	14.7017	0.842225	21.8351	0.174056	5.21362	0.426808	11.0005	0.695516	17.9991	0.728595	18.9913
0.278224	7.1	0.0477616	1.16486	0.278143	7.56688	0.378368	9.64596	0.566641	14.3635	0.842406	21.3247	0.175663	5.11889	0.427175	10.7518	0.695494	17.5747	0.729212	18.5567
0.27827	6.93627	0.0494929	1.18027	0.278151	7.49921	0.379303	9.44545	0.567005	14.0411	0.842591	20.8379	0.177289	5.02971	0.42755	10.5147	0.695477	17.1701	0.729837	18.1425
0.278325	6.78018	0.0512371	1.19531	0.278163	7.40914	0.380253	9.25438	0.567377	13.7335	0.842781	20.3732	0.178933	4.94562	0.427934	10.2884	0.695466	16.7838	0.73047	17.7472
0.278389	6.63123	0.0529935	1.20998	0.278181	7.29837	0.381216	9.0721	0.567758	13.4396	0.842975	19.929	0.180594	4.86622	0.428327	10.0722	0.695462	16.4146	0.73111	17.3696
0.278462	6.48897	0.0547618	1.22431	0.278207	7.16888	0.382192	8.89804	0.568147	13.1586	0.843173	19.5041	0.182271	4.79113	0.428729	9.86552	0.695464	16.0614	0.731759	17.0085
0.278546	6.35299	0.0565413	1.2383	0.278244	7.02289	0.383181	8.73167	0.568545	12.8897	0.843376	19.0972	0.183964	4.72004	0.429139	9.66769	0.695472	15.7233	0.732415	16.6629
0.278639	6.22288	0.0583314	1.25196	0.278294	6.86278	0.384183	8.5725	0.568951	12.6321	0.843583	18.7072	0.185672	4.65264	0.429558	9.47819	0.695486	15.3992	0.733078	16.3318
0.278743	6.09831	0.0601318	1.2653	0.278353	6.71007	0.385197	8.42009	0.569366	12.3851	0.843794	18.3332	0.187394	4.58866	0.429986	9.29651	0.695506	15.0884	0.733749	16.0144
0.278857	5.97894	0.0619421	1.27833	0.278422	6.56429	0.386224	8.27402	0.569788	12.1481	0.84401	17.974	0.18913	4.52786	0.430423	9.1222	0.695533	14.7901	0.734428	15.7097
0.278983	5.86447	0.0637618	1.29106	0.2785	6.425	0.387128	8.1516	0.57022	11.9205	0.84423	17.6289	0.190878	4.47002	0.430868	8.95481	0.695566	14.5034	0.735113	15.4171
0.279119	5.75463	0.0655904	1.3035	0.278588	6.29179	0.387906	8.05065	0.57066	11.7018	0.844454	17.2971	0.192639	4.41494	0.431322	8.79396	0.695606	14.2279	0.735806	15.1359
0.279267	5.64917	0.0674277	1.31565	0.278686	6.1643	0.388554	7.96944	0.571108	11.4914	0.844683	16.9777	0.194412	4.36242	0.431785	8.63929	0.695652	13.9627	0.736507	14.8654
0.279426	5.54783	0.0692731	1.32752	0.278795	6.04218	0.389069	7.90662	0.571565	11.289	0.844916	16.6702	0.196196	4.3123	0.432256	8.49044	0.695705	13.7074	0.737214	14.605
0.279597	5.4504	0.0711265	1.33913	0.278914	5.92513	0.38945	7.8612	0.57203	11.094	0.845153	16.3739	0.197991	4.26442	0.432736	8.34712	0.695765	13.4615	0.737928	14.3542
0.27978	5.35669	0.0729874	1.35048	0.279045	5.81285	0.389694	7.83246	0.572503	10.9061	0.845395	16.0882	0.199797	4.21865	0.433162	8.22649	0.69583	13.2244	0.738649	14.1125
0.279976	5.26648	0.0748556	1.36157	0.279186	5.70507	0.390046	7.7916	0.572985	10.7249	0.845641	15.8125	0.201612	4.17484	0.43353	8.12666	0.695903	12.9957	0.739378	13.8794
0.280184	5.17962	0.0767306	1.37242	0.279339	5.60155	0.39043	7.74777	0.573475	10.5501	0.845892	15.5464	0.203436	4.13289	0.433837	8.04611	0.695982	12.7749	0.740113	13.6543
0.280405	5.09593	0.0786124	1.38303	0.279504	5.50206	0.390955	7.68913	0.573974	10.3814	0.846146	15.2893	0.20527	4.09267	0.434083	7.98366	0.696068	12.5616	0.740855	13.4371
0.280639	5.01527	0.0805005	1.39341	0.279681	5.40638	0.391622	7.61652	0.574481	10.2183	0.846406	15.0407	0.207112	4.05409	0.434265	7.93842	0.696161	12.3555	0.741603	13.2271
0.280886	4.93747	0.0823948	1.40356	0.27987	5.31432	0.392434	7.53095	0.574997	10.0608	0.846669	14.8004	0.208962	4.01704	0.434382	7.90977	0.69626	12.1563	0.742359	13.0242
0.281146	4.86241	0.0842949	1.4135	0.280071	5.2257	0.393394	7.43355	0.57552	9.90842	0.846937	14.5678	0.21082	3.98145	0.434552	7.86899	0.696366	11.9635	0.743121	12.8279
0.28142	4.78997	0.0862007	1.42322	0.280285	5.14033	0.394506	7.32558	0.576053	9.76101	0.847209	14.3426	0.212685	3.94723	0.434736	7.82519	0.696478	11.777	0.74389	12.6379
0.281708	4.72002	0.0881118	1.43273	0.280512	5.05806	0.395627	7.22146	0.576593	9.61833	0.847485	14.1245	0.214558	3.9143	0.43499	7.76648	0.696598	11.5963	0.744665	12.4539
0.28201	4.65245	0.0900281	1.44204	0.280752	4.97875	0.396757	7.121	0.577142	9.48015	0.847766	13.9132	0.216438	3.88259	0.435313	7.69364	0.696724	11.4212	0.745447	12.2757
0.282326	4.58716	0.0919494	1.45116	0.281005	4.90224	0.397898	7.02401	0.577699	9.34626	0.848052	13.7082	0.218324	3.85205	0.435708	7.60756	0.696857	11.2516	0.746235	12.103
0.282657	4.52405	0.0938754	1.46009	0.281272	4.82842	0.399047	6.93032	0.578265	9.21649	0.848341	13.5095	0.220216	3.8226	0.436178	7.50931	0.696997	11.0871	0.74703	11.9355
0.283002	4.46302	0.0958061	1.46883	0.281552	4.75715	0.400206	6.83977	0.578839	9.09065	0.848635	13.3166	0.222114	3.79418	0.436725	7.40004	0.697143	10.9274	0.747832	11.7731
0.283362	4.40399	0.0977411	1.4774	0.281847	4.68832	0.401374	6.7522	0.579421	8.96856	0.848934	13.1293	0.224018	3.76676	0.437282	7.29431	0.697297	10.7725	0.748639	11.6154
0.283738	4.34688	0.0996804	1.48579	0.282155	4.62182	0.40255	6.66749	0.580012	8.85008	0.849236	12.9474	0.225927	3.74026	0.437846	7.19195	0.697457	10.6221	0.749454	11.4624
0.284128	4.29161	0.101624	1.494	0.282478	4.55755	0.403735	6.58548	0.580611	8.73504	0.849543	12.7707	0.227842	3.71466	0.43842	7.09283	0.697624	10.476	0.750274	11.3137
0.284534	4.2381	0.103571	1.50206	0.282816	4.49542	0.404928	6.50607	0.581218	8.6233	0.849855	12.5989	0.229761	3.68991	0.439002	6.99679	0.697798	10.334	0.751101	11.1692
0.284956	4.18628	0.105522	1.50995	0.283168	4.43534	0.406129	6.42913	0.581834	8.51474	0.85017	12.4319	0.231685	3.66596	0.439593	6.90369	0.697979	10.196	0.751933	11.0288
0.285393	4.13609	0.107477	1.51769	0.283535	4.37721	0.407338	6.35454	0.582377	8.42261	0.85049	12.2694	0.233614	3.64277	0.440193	6.81342	0.698166	10.0618	0.752772	10.8923
0.285847	4.08747	0.109435	1.52527	0.283917	4.32096	0.408555	6.28222	0.582846	8.34585	0.850815	12.1113	0.235547	3.62032	0.440802	6.72584	0.69836	9.93126	0.753618	10.7595
0.286316	4.04036	0.111396	1.5327	0.284315	4.26651	0.409779	6.21205	0.583236	8.28355	0.851144	11.9574	0.237484	3.59856	0.441419	6.64086	0.698562	9.80422	0.754469	10.6302
0.286739	4.0005	0.11336	1.53999	0.284728	4.2138	0.411011	6.14395	0.583547	8.23504	0.851477	11.8075	0.239425	3.57747	0.442045	6.55835	0.69877	9.68056	0.755326	10.5044
0.28711	3.96736	0.115075	1.54623	0.285157	4.16275	0.41225	6.07782	0.583777	8.19978	0.851815	11.6615	0.24137	3.55701	0.44268	6.47822	0.698984	9.56014	0.75619	10.3819
0.287423	3.94053	0.116538	1.55146	0.285602	4.1133	0.413496	6.01359	0.583925	8.1774	0.852157	11.5193	0.243318	3.53715	0.443324	6.40037	0.699206	9.44284	0.757059	10.2626
0.287676	3.91967	0.117749	1.55573	0.286063	4.06539	0.414749	5.95118	0.584138	8.14546	0.852503	11.3806	0.24527	3.51788	0.443976	6.32472	0.699435	9.32855	0.757935	10.1463
0.287864	3.90453	0.118708	1.55907	0.286541	4.01896	0.416009	5.89051	0.584371	8.11107	0.852854	11.2455	0.247225	3.49916	0.444637	6.25117	0.69967	9.21715	0.758816	10.0329
0.287986	3.89493	0.119413	1.56151	0.287035	3.97396	0.417276	5.83151	0.584689	8.06483	0.853209	11.1136	0.249183	3.48097	0.445307	6.17964	0.699912	9.10855	0.759703	9.92244
0.288162	3.88124	0.119865	1.56306	0.287546	3.93034	0.418549	5.77412	0.585094	8.0072	0.853568	10.985	0.251144	3.46328	0.445986	6.11006	0.700161	9.00263	0.760596	9.81468
0.288356	3.86653	0.120514	1.56528	0.288074	3.88804	0.419828	5.71827	0.585588	7.93877	0.853932	10.8594	0.253107	3.44609	0.446673	6.04235	0.700417	8.89931	0.761496	9.70954
0.288623	3.84676	0.12122	1.56768	0.288619	3.84703	0.421114	5.6639	0.586173	7.86019	0.8543	10.7369	0.255074	3.42935	0.447369	5.97644	0.70068	8.79849	0.7624	9.60695
0.288967	3.82219	0.122181	1.57091	0.289182	3.80725	0.422406	5.61096	0.586853	7.7722	0.854673	10.6173	0.257042	3.41307	0.448074	5.91227	0.700949	8.70009	0.763311	9.50681
0.289392	3.79309	0.123397	1.57495	0.289763	3.76867	0.423703	5.5594	0.587541	7.68647	0.85505	10.5004	0.259013	3.39721	0.448788	5.84978	0.70119	8.61625	0.764227	9.40904
0.289902	3.75977	0.124868	1.57978	0.290362	3.73125	0.425007	5.50915	0.588237	7.6029	0.855431	10.3863	0.260986	3.38177	0.449511	5.78889	0.701399	8.54613	0.765149	9.31356
0.290506	3.72262	0.126597	1.58536	0.29098	3.69494	0.426316	5.46018	0.588941	7.52143	0.855817	10.2747	0.262962	3.36672	0.450242	5.72957	0.701574	8.48907	0.766077	9.22029
0.291128	3.68657	0.128582	1.59165	0.291616	3.65972	0.42763	5.41243	0.589654	7.44198	0.856207	10.1657	0.264939	3.35205	0.450982	5.67174	0.701715	8.44454	0.76701	9.12915
0.291768	3.6516	0.130569	1.59783	0.292271	3.62555	0.42895	5.36586	0.590375	7.36448	0.856601	10.0591	0.266918	3.33774	0.451731	5.61536	0.70182	8.41211	0.767949	9.04007
0.292428	3.61767	0.132559	1.60389	0.292945	3.5924	0.430276	5.32043	0.591104	7.28886	0.857	9.95487	0.268899	3.32379	0.452489	5.56038	0.701887	8.3915	0.768893	8.953
0.293107	3.58475	0.134551	1.60984	0.293639	3.56023	0.431606	5.2761	0.591841	7.21506	0.857403	9.85292	0.270881	3.31017	0.453256	5.50676	0.701984	8.36206	0.769843	8.86786
0.293805	3.55281	0.136545	1.61569	0.294353	3.52902	0.432942	5.23283	0.592586	7.14302	0.857811	9.75318	0.272865	3.29688	0.454031	5.45444	0.702091	8.33031	0.770799	8.78458
0.294524	3.52182	0.138541	1.62143	0.295087	3.49875	0.434283	5.19058	0.59334	7.07267	0.858223	9.65558	0.27485	3.2839	0.454815	5.40338	0.702238	8.28755	0.771636	8.7135
0.295263	3.49176	0.140538	1.62706	0.295842	3.46937	0.435628	5.14932	0.594102	7.00397	0.858639	9.56006	0.276837	3.27122	0.455608	5.35354	0.702425	8.23414	0.772353	8.65396
0.296023	3.46259	0.142538	1.6326	0.296618	3.44088	0.436978	5.10901	0.594872	6.93685	0.85906	9.46654	0.278825	3.25883	0.45641	5.30489	0.702655	8.17055	0.772948	8.60544
0.296804	3.4343	0.144539	1.63804	0.297416	3.41324	0.438333	5.06963	0.59565	6.87127	0.859485	9.37497	0.280813	3.24672	0.457221	5.25738	0.70293	8.0973	0.77342	8.56753
0.297606	3.40686	0.146541	1.64339	0.298235	3.38643	0.439692	5.03114	0.596436	6.80718	0.859914	9.2853	0.282803	3.23488	0.45804	5.21097	0.703252	8.01499	0.773768	8.5399
0.298431	3.38025	0.148546	1.64864	0.299077	3.36043	0.441056	4.99351	0.597231	6.74453	0.860348	9.19745	0.284794	3.22329	0.458869	5.16564	0.703581	7.93448	0.77399	8.52233
0.299278	3.35444	0.150552	1.6538	0.299941	3.33523	0.442424	4.95671	0.598033	6.68328	0.860787	9.11139	0.286785	3.21196	0.459706	5.12135	0.703916	7.85572	0.774311	8.49723
0.300147	3.32942	0.152559	1.65887	0.300828	3.3108	0.443797	4.92072	0.598844	6.62338	0.861229	9.02705	0.288778	3.20088	0.460552	5.07807	0.704258	7.77866	0.774661	8.47013
0.30104	3.30517	0.154567	1.66385	0.30174	3.28712	0.445173	4.88552	0.599663	6.56478	0.861676	8.94439	0.29077	3.19002	0.461407	5.03576	0.704607	7.70324	0.775138	8.43361
0.301957	3.28166	0.156577	1.66875	0.302675	3.26418	0.446554	4.85107	0.60049	6.50746	0.86207	8.87368	0.292764	3.17939	0.46227	4.99441	0.704963	7.62942	0.775742	8.38796
0.302898	3.25889	0.158589	1.67357	0.303635	3.24196	0.447938	4.81735	0.601325	6.45138	0.862407	8.81436	0.294758	3.16898	0.463143	4.95397	0.705325	7.55714	0.776476	8.33353
0.303864	3.23684	0.160601	1.67831	0.30462	3.22044	0.449326	4.78434	0.602169	6.39649	0.862688	8.76596	0.296752	3.15878	0.464024	4.91442	0.705694	7.48636	0.77734	8.27073
0.304856	3.21549	0.162615	1.68296	0.305632	3.19962	0.450719	4.75202	0.60302	6.34275	0.862912	8.7281	0.298746	3.14878	0.464915	4.87574	0.70607	7.41703	0.778337	8.20005
0.305873	3.19482	0.164629	1.68754	0.306669	3.17947	0.452114	4.72037	0.603879	6.29015	0.863077	8.70048	0.300741	3.13898	0.465814	4.83789	0.706452	7.34912	0.779339	8.1308
0.306917	3.17483	0.166645	1.69204	0.307733	3.15998	0.453514	4.68936	0.604747	6.23864	0.863183	8.68291	0.302736	3.12937	0.466722	4.80087	0.706841	7.28259	0.780346	8.06293
0.307987	3.15549	0.168662	1.69647	0.308825	3.14113	0.454917	4.65899	0.605622	6.1882	0.863335	8.65778	0.304731	3.11995	0.467639	4.76464	0.707237	7.21738	0.781359	7.99641
0.309085	3.1368	0.17068	1.70083	0.309944	3.12293	0.456323	4.62922	0.606506	6.13878	0.863502	8.63065	0.306726	3.1107	0.468565	4.72918	0.707639	7.15347	0.782376	7.9312
0.310212	3.11874	0.172698	1.70511	0.311092	3.10534	0.457733	4.60004	0.607397	6.09037	0.863729	8.59405	0.308721	3.10162	0.469499	4.69447	0.708048	7.09083	0.783399	7.86727
0.311366	3.1013	0.174718	1.70933	0.312269	3.08837	0.459146	4.57144	0.608297	6.04294	0.864018	8.54825	0.310716	3.09271	0.470443	4.66048	0.708464	7.0294	0.784427	7.80456
0.31255	3.08447	0.176738	1.71348	0.313476	3.072	0.460562	4.54339	0.609204	5.99645	0.86437	8.49357	0.31271	3.08397	0.471395	4.62721	0.708886	6.96917	0.785459	7.74306
0.313764	3.06823	0.17876	1.71756	0.314713	3.05621	0.461981	4.51589	0.610119	5.95089	0.864785	8.43039	0.314704	3.07538	0.472357	4.59463	0.709315	6.91009	0.786497	7.68273
0.315008	3.05258	0.180782	1.72158	0.31598	3.041	0.463404	4.48891	0.611043	5.90622	0.865266	8.35915	0.316698	3.06694	0.473327	4.56272	0.709751	6.85214	0.78754	7.62353
0.316282	3.03751	0.182804	1.72553	0.317278	3.02636	0.464829	4.46244	0.611974	5.86243	0.865751	8.28923	0.318692	3.05865	0.474306	4.53146	0.710193	6.79528	0.788588	7.56544
0.317588	3.023	0.184828	1.72942	0.318608	3.01227	0.466257	4.43647	0.612914	5.81949	0.866241	8.22059	0.320685	3.0505	0.475294	4.50083	0.710642	6.7395	0.78964	7.50843
0.318925	3.00904	0.186852	1.73325	0.319969	2.99872	0.467688	4.41099	0.613861	5.77737	0.866735	8.15319	0.322677	3.04249	0.476291	4.47083	0.711097	6.68475	0.790698	7.45246
0.320293	2.99562	0.188876	1.73702	0.321362	2.98571	0.469122	4.38597	0.614816	5.73606	0.867233	8.087	0.324669	3.03461	0.477297	4.44143	0.711559	6.63101	0.79176	7.39751
0.321694	2.98273	0.190902	1.74073	0.322787	2.97322	0.470559	4.36141	0.615779	5.69554	0.867736	8.022	0.326661	3.02686	0.478312	4.41262	0.712027	6.57826	0.792827	7.34356
0.323127	2.97035	0.192927	1.74438	0.324245	2.96123	0.471998	4.3373	0.61675	5.65578	0.868244	7.95814	0.328651	3.01924	0.479336	4.38438	0.712502	6.52647	0.793899	7.29057
0.324592	2.95848	0.194954	1.74797	0.325735	2.94974	0.47344	4.31361	0.617728	5.61677	0.868755	7.8954	0.330641	3.01174	0.480368	4.35669	0.712984	6.47562	0.794976	7.23853
0.32609	2.94711	0.19698	1.75152	0.327257	2.93873	0.474885	4.29035	0.618715	5.57848	0.869271	7.83376	0.33263	3.00436	0.48141	4.32956	0.713472	6.42568	0.796058	7.1874
0.32762	2.93621	0.199008	1.755	0.328812	2.92819	0.476331	4.2675	0.619709	5.5409	0.869792	7.77319	0.334618	2.9971	0.482461	4.30295	0.713966	6.37662	0.797144	7.13717
0.329182	2.92578	0.201035	1.75844	0.330399	2.91811	0.477781	4.24505	0.620711	5.50401	0.870317	7.71365	0.336605	2.98994	0.48352	4.27686	0.714467	6.32844	0.798235	7.08781
0.330777	2.91581	0.203064	1.76182	0.332018	2.90848	0.479232	4.22299	0.621721	5.46779	0.870846	7.65513	0.338591	2.9829	0.484589	4.25128	0.714974	6.2811	0.79933	7.03931
0.332403	2.90627	0.205092	1.76515	0.333668	2.89927	0.480686	4.20131	0.622739	5.43223	0.87138	7.5976	0.340576	2.97596	0.485666	4.22618	0.715488	6.23458	0.800431	6.99163
0.334061	2.89717	0.207121	1.76843	0.33535	2.89048	0.482142	4.18	0.623764	5.39731	0.871918	7.54103	0.34256	2.96912	0.486752	4.20157	0.716009	6.18887	0.801535	6.94476
0.335749	2.88847	0.20915	1.77166	0.337062	2.8821	0.483601	4.15905	0.624797	5.36301	0.872461	7.4854	0.344542	2.96238	0.487848	4.17743	0.716535	6.14395	0.802645	6.89868
0.337469	2.88018	0.211179	1.77484	0.338804	2.8741	0.485061	4.13845	0.625838	5.32932	0.873007	7.4307	0.346524	2.95574	0.488952	4.15375	0.717069	6.09979	0.803759	6.85338
0.339218	2.87227	0.213209	1.77798	0.340576	2.86647	0.486524	4.11819	0.626887	5.29623	0.873559	7.37689	0.348504	2.94919	0.490065	4.13051	0.717608	6.05638	0.804877	6.80882
0.340996	2.86473	0.215239	1.78107	0.342376	2.8592	0.487989	4.09827	0.627943	5.26372	0.874114	7.32396	0.350483	2.94274	0.491187	4.10771	0.718154	6.0137	0.806	6.765
0.342803	2.85754	0.217269	1.78411	0.344204	2.85228	0.489455	4.07867	0.629006	5.23178	0.874675	7.27189	0.35246	2.93637	0.492318	4.08534	0.718706	5.97173	0.807127	6.7219
0.344638	2.8507	0.219299	1.78711	0.34606	2.84568	0.490924	4.05939	0.630078	5.20039	0.875239	7.22065	0.354436	2.93009	0.493458	4.06338	0.719265	5.93046	0.808259	6.67949
0.3465	2.84418	0.22133	1.79007	0.347942	2.83941	0.492394	4.04043	0.631157	5.16954	0.875808	7.17023	0.356411	2.9239	0.494607	4.04184	0.71983	5.88988	0.809395	6.63777
0.348388	2.83797	0.223361	1.79298	0.349849	2.83343	0.493867	4.02176	0.632243	5.13922	0.876382	7.12061	0.358384	2.91778	0.495765	4.02069	0.720401	5.84995	0.810535	6.59672
0.350301	2.83206	0.225391	1.79585	0.351781	2.82774	0.495341	4.00339	0.633337	5.10942	0.876959	7.07177	0.360356	2.91175	0.496932	3.99993	0.720979	5.81068	0.81168	6.55632
0.352239	2.82644	0.227422	1.79868	0.353737	2.82232	0.496817	3.98531	0.634439	5.08012	0.877541	7.02369	0.362326	2.90579	0.498108	3.97955	0.721563	5.77205	0.812829	6.51656
0.3542	2.82108	0.229453	1.80147	0.355715	2.81716	0.498294	3.96751	0.635548	5.05132	0.878128	6.97637	0.364294	2.89991	0.499293	3.95954	0.722153	5.73403	0.813982	6.47742
0.356183	2.81598	0.231484	1.80422	0.357715	2.81225	0.499774	3.94999	0.636664	5.023	0.878719	6.92977	0.366261	2.8941	0.500486	3.93989	0.72275	5.69663	0.815139	6.4389
0.358188	2.81113	0.233516	1.80693	0.359735	2.80757	0.501255	3.93273	0.637788	4.99515	0.879314	6.88388	0.368226	2.88836	0.501689	3.92061	0.723353	5.65982	0.816301	6.40096
0.360213	2.8065	0.235547	1.8096	0.361776	2.80311	0.502737	3.91574	0.63892	4.96776	0.879914	6.8387	0.370189	2.88269	0.5029	3.90167	0.723962	5.62359	0.817467	6.36361
0.362259	2.8021	0.237578	1.81223	0.363836	2.79887	0.504222	3.89901	0.640058	4.94082	0.880519	6.7942	0.37215	2.87709	0.504121	3.88307	0.724577	5.58792	0.818637	6.32683
0.364323	2.7979	0.239609	1.81483	0.365914	2.79482	0.505708	3.88253	0.641204	4.91432	0.881127	6.75036	0.37411	2.87155	0.50535	3.8648	0.725198	5.55282	0.819811	6.29061
0.366405	2.7939	0.24164	1.81739	0.368009	2.79096	0.507195	3.86629	0.642358	4.88826	0.88174	6.70719	0.376067	2.86608	0.506589	3.84686	0.725826	5.51826	0.820989	6.25493
0.368504	2.79008	0.243671	1.81991	0.370121	2.78728	0.508684	3.85029	0.643519	4.86261	0.882358	6.66465	0.378023	2.86068	0.507836	3.82924	0.72646	5.48423	0.822171	6.21979
0.37062	2.78644	0.245702	1.8224	0.372248	2.78377	0.510174	3.83453	0.644687	4.83739	0.88298	6.62274	0.379977	2.85533	0.509092	3.81193	0.7271	5.45072	0.823358	6.18517
0.37275	2.78297	0.247733	1.82485	0.374391	2.78042	0.511666	3.819	0.645862	4.81256	0.883606	6.58145	0.381928	2.85004	0.510357	3.79493	0.727746	5.41773	0.824548	6.15106
0.374896	2.77966	0.249764	1.82727	0.376547	2.77722	0.513159	3.8037	0.647044	4.78813	0.884237	6.54075	0.383878	2.84481	0.511631	3.77823	0.728399	5.38523	0.825742	6.11745
0.377056	2.77649	0.251795	1.82966	0.378717	2.77416	0.514654	3.78861	0.648234	4.76409	0.884872	6.50065	0.385826	2.83964	0.512914	3.76182	0.729057	5.35323	0.82694	6.08433
0.379229	2.77346	0.253826	1.83201	0.380899	2.77123	0.516149	3.77374	0.649431	4.74042	0.885511	6.46112	0.387771	2.83452	0.514205	3.7457	0.729722	5.3217	0.828142	6.05169
0.381414	2.77056	0.255856	1.83433	0.383094	2.76844	0.517647	3.75908	0.650635	4.71713	0.886155	6.42216	0.389715	2.82946	0.515506	3.72985	0.730392	5.29064	0.829348	6.01952
0.383611	2.76779	0.257887	1.83662	0.3853	2.76576	0.519145	3.74463	0.651846	4.6942	0.886804	6.38376	0.391656	2.82445	0.516815	3.71429	0.731069	5.26005	0.830558	5.98781
0.38582	2.76514	0.259917	1.83888	0.387517	2.76319	0.520645	3.73037	0.653064	4.67163	0.887456	6.3459	0.393595	2.81949	0.518133	3.69899	0.731752	5.2299	0.831772	5.95655
0.38804	2.7626	0.261947	1.84111	0.389744	2.76073	0.522146	3.71632	0.654289	4.64941	0.888113	6.30857	0.395532	2.81458	0.51946	3.68396	0.732441	5.2002	0.832989	5.92573
0.390269	2.76017	0.263977	1.8433	0.391981	2.75837	0.523649	3.70246	0.655521	4.62752	0.888775	6.27176	0.397467	2.80972	0.520796	3.66919	0.733136	5.17092	0.83421	5.89534
0.392508	2.75783	0.266007	1.84547	0.394227	2.75611	0.525152	3.68879	0.65676	4.60598	0.889441	6.23546	0.3994	2.80491	0.522141	3.65468	0.733837	5.14208	0.835435	5.86538
0.394757	2.75559	0.268036	1.84761	0.396482	2.75393	0.526657	3.67531	0.658006	4.58476	0.890112	6.19967	0.40133	2.80014	0.523494	3.64041	0.734544	5.11365	0.836663	5.83583
0.397013	2.75343	0.270066	1.84971	0.398745	2.75185	0.528163	3.66201	0.659259	4.56386	0.890786	6.16437	0.403258	2.79542	0.524856	3.62639	0.735257	5.08562	0.837896	5.80669
0.399279	2.75137	0.272095	1.8518	0.401016	2.74984	0.52967	3.64889	0.660519	4.54328	0.891466	6.12955	0.405183	2.79074	0.526227	3.6126	0.735976	5.058	0.839131	5.77795
0.401551	2.74938	0.274123	1.85385	0.403295	2.7479	0.531179	3.63595	0.661786	4.52301	0.892149	6.0952	0.407107	2.78611	0.527607	3.59905	0.736701	5.03077	0.840371	5.74959
0.403831	2.74746	0.276152	1.85587	0.40558	2.74604	0.532688	3.62317	0.663059	4.50303	0.892837	6.06132	0.409027	2.78152	0.528995	3.58573	0.737431	5.00393	0.841614	5.72163
0.406119	2.74562	0.27818	1.85787	0.407872	2.74425	0.534199	3.61057	0.664339	4.48336	0.89353	6.02789	0.410946	2.77697	0.530392	3.57264	0.738168	4.97746	0.842861	5.69404
0.408412	2.74384	0.280208	1.85984	0.410171	2.74252	0.535711	3.59813	0.665626	4.46398	0.894227	5.99491	0.412862	2.77247	0.531797	3.55977	0.738911	4.95136	0.844111	5.66681
0.410712	2.74213	0.282236	1.86179	0.412475	2.74086	0.537224	3.58585	0.666919	4.44488	0.894928	5.96237	0.414776	2.768	0.533211	3.54711	0.73966	4.92562	0.845364	5.63995
0.413018	2.74047	0.284263	1.86371	0.414785	2.73925	0.538738	3.57373	0.66822	4.42606	0.895634	5.93027	0.416687	2.76357	0.534634	3.53467	0.740414	4.90025	0.846621	5.61345
0.415329	2.73888	0.28629	1.8656	0.417101	2.7377	0.540253	3.56177	0.669526	4.40751	0.896344	5.89858	0.418596	2.75918	0.536065	3.52243	0.741175	4.87522	0.847882	5.58729
0.417646	2.73734	0.288317	1.86747	0.419421	2.73619	0.54177	3.54996	0.67084	4.38924	0.897059	5.86731	0.420503	2.75483	0.537505	3.5104	0.741941	4.85053	0.849146	5.56147
0.419967	2.73585	0.290343	1.86931	0.421746	2.73474	0.543287	3.5383	0.672159	4.37123	0.897778	5.83644	0.422407	2.75052	0.538954	3.49857	0.742713	4.82618	0.850413	5.53599
0.422294	2.73441	0.292369	1.87113	0.424076	2.73333	0.544806	3.52679	0.673486	4.35348	0.898501	5.80598	0.424308	2.74624	0.540411	3.48694	0.743491	4.80217	0.851684	5.51084
0.424624	2.73301	0.294395	1.87293	0.42641	2.73197	0.546325	3.51543	0.674818	4.33598	0.899229	5.77591	0.426207	2.74199	0.541876	3.4755	0.744275	4.77847	0.852958	5.48601
0.426959	2.73166	0.29642	1.8747	0.428748	2.73065	0.547846	3.50421	0.676158	4.31873	0.899961	5.74623	0.428104	2.73779	0.543349	3.46425	0.745065	4.7551	0.854235	5.4615
0.429299	2.73035	0.298445	1.87645	0.43109	2.72937	0.549368	3.49312	0.677503	4.30172	0.900698	5.71692	0.429998	2.73361	0.544831	3.45319	0.74586	4.73204	0.855516	5.4373
0.431641	2.72908	0.300469	1.87818	0.433436	2.72813	0.550891	3.48218	0.678855	4.28496	0.901439	5.68799	0.43189	2.72947	0.546322	3.44231	0.746661	4.70928	0.8568	5.4134
0.433988	2.72784	0.302494	1.87988	0.435785	2.72693	0.552415	3.47137	0.680213	4.26843	0.902184	5.65942	0.433779	2.72536	0.54782	3.43161	0.747468	4.68683	0.858087	5.38981
0.436338	2.72665	0.304517	1.88156	0.438137	2.72575	0.55394	3.46069	0.681577	4.25213	0.902934	5.63121	0.435666	2.72129	0.549327	3.42108	0.748281	4.66468	0.859377	5.3665
0.438691	2.72548	0.306541	1.88322	0.440493	2.72461	0.555467	3.45014	0.682948	4.23606	0.903689	5.60336	0.43755	2.71725	0.550843	3.41072	0.7491	4.64281	0.86067	5.34349
0.441047	2.72435	0.308564	1.88486	0.442851	2.72351	0.556994	3.43973	0.684324	4.22021	0.904447	5.57585	0.439432	2.71323	0.552366	3.40054	0.749924	4.62124	0.861967	5.32076
0.443406	2.72325	0.310586	1.88648	0.445212	2.72243	0.558523	3.42943	0.685707	4.20458	0.90521	5.54868	0.441311	2.70925	0.553897	3.39052	0.750754	4.59994	0.863266	5.29831
0.445768	2.72218	0.312608	1.88808	0.447576	2.72138	0.560052	3.41926	0.687096	4.18916	0.905978	5.52185	0.443188	2.7053	0.555437	3.38066	0.751589	4.57892	0.864569	5.27614
0.448132	2.72113	0.314629	1.88965	0.449942	2.72035	0.561583	3.40922	0.688491	4.17395	0.90675	5.49535	0.445063	2.70138	0.556984	3.37097	0.752431	4.55818	0.865875	5.25423
0.450499	2.72012	0.316651	1.89121	0.45231	2.71935	0.563115	3.39929	0.689892	4.15895	0.907526	5.46918	0.446935	2.69749	0.55854	3.36143	0.753278	4.5377	0.867183	5.23259
0.452867	2.71912	0.318671	1.89275	0.454681	2.71838	0.564648	3.38948	0.691298	4.14416	0.908307	5.44332	0.448805	2.69363	0.560103	3.35204	0.754131	4.51748	0.868495	5.21121
0.455238	2.71815	0.320691	1.89426	0.457054	2.71743	0.566182	3.37979	0.692711	4.12956	0.909092	5.41777	0.450672	2.68979	0.561675	3.34281	0.754989	4.49752	0.86981	5.19008
0.457612	2.71721	0.322711	1.89576	0.459428	2.7165	0.567718	3.37021	0.694129	4.11516	0.909882	5.39254	0.452537	2.68599	0.563254	3.33372	0.755853	4.47781	0.871127	5.16921
0.459987	2.71628	0.32473	1.89724	0.461804	2.71559	0.569255	3.36075	0.695554	4.10095	0.910676	5.36761	0.454399	2.68221	0.564841	3.32478	0.756722	4.45836	0.872448	5.14858
0.462363	2.71538	0.326749	1.8987	0.464182	2.7147	0.570792	3.35139	0.696984	4.08693	0.911475	5.34297	0.456259	2.67846	0.566436	3.31598	0.757598	4.43915	0.873771	5.12819
0.464741	2.71449	0.328767	1.90014	0.466562	2.71383	0.572331	3.34214	0.698419	4.0731	0.912277	5.31863	0.458117	2.67473	0.568038	3.30732	0.758479	4.42018	0.875097	5.10804
0.467121	2.71362	0.330785	1.90156	0.468943	2.71297	0.573872	3.33301	0.699861	4.05945	0.913085	5.29458	0.459972	2.67104	0.569649	3.2988	0.759365	4.40144	0.876426	5.08813
0.469503	2.71278	0.332802	1.90296	0.471325	2.71214	0.575413	3.32397	0.701308	4.04598	0.913897	5.27081	0.461825	2.66737	0.571266	3.29042	0.760257	4.38294	0.877758	5.06845
0.471885	2.71194	0.334819	1.90435	0.473709	2.71132	0.576956	3.31504	0.70276	4.03268	0.914713	5.24732	0.463676	2.66372	0.572891	3.28216	0.761155	4.36468	0.879093	5.04899
0.474269	2.71113	0.336835	1.90572	0.476093	2.71051	0.5785	3.30622	0.704218	4.01956	0.915533	5.22411	0.465525	2.6601	0.574524	3.27404	0.762058	4.34663	0.88043	5.02976
0.476654	2.71033	0.338851	1.90707	0.478479	2.70972	0.580046	3.29749	0.705681	4.0066	0.916358	5.20116	0.467371	2.65651	0.576164	3.26605	0.762966	4.32881	0.88177	5.01074
0.47904	2.70954	0.340866	1.9084	0.480866	2.70895	0.581593	3.28886	0.70715	3.99381	0.917188	5.17848	0.469215	2.65294	0.577811	3.25818	0.763881	4.31121	0.883113	4.99194
0.481427	2.70876	0.34288	1.90972	0.483254	2.70818	0.583141	3.28034	0.708625	3.98119	0.918022	5.15607	0.471057	2.6494	0.579466	3.25043	0.7648	4.29382	0.884458	4.97335
0.483815	2.708	0.344894	1.91102	0.485642	2.70743	0.58469	3.2719	0.710104	3.96873	0.91886	5.13391	0.472897	2.64588	0.581128	3.2428	0.765726	4.27664	0.885806	4.95498
0.486204	2.70726	0.346908	1.9123	0.488031	2.70669	0.586241	3.26357	0.711589	3.95643	0.919702	5.11201	0.474735	2.64239	0.582797	3.2353	0.766656	4.25968	0.887157	4.9368
0.488593	2.70652	0.348921	1.91357	0.490421	2.70596	0.587794	3.25533	0.713079	3.94428	0.92055	5.09036	0.47657	2.63892	0.584473	3.22791	0.767592	4.24291	0.88851	4.91883
0.490983	2.70579	0.350933	1.91482	0.492812	2.70525	0.589347	3.24718	0.714574	3.93228	0.921401	5.06895	0.478403	2.63548	0.586156	3.22063	0.768534	4.22635	0.889866	4.90106
0.493374	2.70508	0.352945	1.91606	0.495203	2.70454	0.590903	3.23912	0.716074	3.92044	0.922257	5.04779	0.480235	2.63206	0.587846	3.21346	0.769481	4.20999	0.891224	4.88348
0.495765	2.70437	0.354956	1.91728	0.497594	2.70384	0.59246	3.23115	0.71758	3.90874	0.923117	5.02686	0.482064	2.62866	0.589542	3.20641	0.770434	4.19383	0.892585	4.86609
0.498156	2.70368	0.356966	1.91849	0.499986	2.70315	0.594018	3.22327	0.71909	3.89719	0.923982	5.00617	0.483892	2.62529	0.591246	3.19946	0.771392	4.17785	0.893948	4.84889
0.500548	2.70299	0.358976	1.91967	0.502377	2.70247	0.595578	3.21548	0.720606	3.88578	0.924851	4.98571	0.485717	2.62194	0.592956	3.19262	0.772355	4.16207	0.895314	4.83188
0.50294	2.70231	0.360986	1.92085	0.50477	2.7018	0.597139	3.20777	0.722126	3.87452	0.925725	4.96548	0.487541	2.61861	0.594673	3.18588	0.773324	4.14647	0.896682	4.81506
0.505332	2.70164	0.362994	1.92201	0.507162	2.70113	0.598703	3.20015	0.723651	3.86339	0.926603	4.94548	0.489362	2.61531	0.596397	3.17925	0.774298	4.13106	0.898053	4.79841
0.507724	2.70098	0.365003	1.92316	0.509554	2.70047	0.600268	3.19262	0.725181	3.85239	0.927485	4.92569	0.491182	2.61203	0.598127	3.17271	0.775278	4.11583	0.899425	4.78194
0.510116	2.70032	0.36701	1.92429	0.511946	2.69982	0.601834	3.18517	0.726716	3.84153	0.928372	4.90613	0.493	2.60877	0.599863	3.16627	0.776263	4.10077	0.900801	4.76564
0.512509	2.69967	0.369017	1.9254	0.514339	2.69917	0.603402	3.1778	0.728255	3.8308	0.929263	4.88678	0.494817	2.60554	0.601606	3.15993	0.777254	4.08589	0.902178	4.74952
0.514901	2.69902	0.371024	1.92651	0.516731	2.69853	0.604973	3.17051	0.729799	3.8202	0.930159	4.86764	0.496631	2.60233	0.603355	3.15369	0.77825	4.07119	0.903558	4.73357
0.517293	2.69838	0.373029	1.9276	0.519122	2.6979	0.606545	3.1633	0.731348	3.80973	0.931059	4.84871	0.498444	2.59914	0.60511	3.14753	0.779251	4.05666	0.90494	4.71778
0.519685	2.69775	0.375034	1.92867	0.521514	2.69726	0.608118	3.15618	0.732902	3.79938	0.931964	4.82998	0.500256	2.59597	0.606871	3.14147	0.780257	4.04229	0.906324	4.70216
0.522076	2.69712	0.377039	1.92974	0.523905	2.69664	0.609694	3.14913	0.73446	3.78916	0.932873	4.81146	0.502065	2.59282	0.608639	3.1355	0.781269	4.02809	0.907711	4.6867
0.524467	2.69649	0.379043	1.93078	0.526296	2.69601	0.611272	3.14215	0.736022	3.77905	0.933786	4.79314	0.503873	2.5897	0.610412	3.12961	0.782287	4.01405	0.9091	4.67139
0.526858	2.69587	0.381046	1.93182	0.528686	2.69539	0.612852	3.13526	0.737589	3.76907	0.934704	4.77501	0.50568	2.5866	0.612191	3.12381	0.783309	4.00017	0.91049	4.65625
0.529248	2.69525	0.383048	1.93284	0.531076	2.69478	0.614433	3.12844	0.73916	3.7592	0.935626	4.75708	0.507485	2.58352	0.613976	3.11809	0.784337	3.98646	0.911883	4.64126
0.531638	2.69463	0.38505	1.93385	0.533465	2.69416	0.616017	3.12169	0.740735	3.74944	0.936553	4.73934	0.509289	2.58046	0.615767	3.11246	0.78537	3.97289	0.913278	4.62642
0.534027	2.69402	0.387052	1.93485	0.535853	2.69355	0.617603	3.11502	0.742315	3.7398	0.937484	4.72179	0.511091	2.57743	0.617563	3.10691	0.786409	3.95949	0.914676	4.61173
0.536415	2.69341	0.389052	1.93583	0.538241	2.69294	0.619191	3.10843	0.743899	3.73027	0.938419	4.70443	0.512892	2.57442	0.619365	3.10144	0.787453	3.94623	0.916075	4.59719
0.538802	2.6928	0.391052	1.93681	0.540628	2.69233	0.620782	3.1019	0.745487	3.72085	0.939359	4.68725	0.514692	2.57142	0.621173	3.09604	0.788502	3.93312	0.917476	4.5828
0.541189	2.69219	0.393051	1.93777	0.543014	2.69173	0.622374	3.09545	0.747079	3.71154	0.940304	4.67025	0.51649	2.56845	0.622985	3.09073	0.789556	3.92016	0.918879	4.56854
0.543575	2.69158	0.39505	1.93872	0.545399	2.69112	0.623969	3.08907	0.748676	3.70234	0.941252	4.65343	0.518288	2.56551	0.624803	3.08548	0.790616	3.90735	0.920285	4.55443
0.54596	2.69098	0.397048	1.93965	0.547783	2.69052	0.625567	3.08276	0.750276	3.69323	0.942206	4.63678	0.520084	2.56258	0.626627	3.08032	0.791681	3.89468	0.921692	4.54046
0.548343	2.69037	0.399045	1.94058	0.550166	2.68991	0.627167	3.07652	0.751881	3.68423	0.943163	4.62031	0.521879	2.55967	0.628455	3.07522	0.792751	3.88215	0.923101	4.52663
0.550726	2.68977	0.401042	1.94149	0.552548	2.6893	0.628769	3.07034	0.753489	3.67534	0.944125	4.60401	0.523673	2.55679	0.630289	3.07019	0.793826	3.86976	0.924512	4.51293
0.553108	2.68916	0.403038	1.94239	0.554929	2.6887	0.630374	3.06424	0.755101	3.66654	0.945092	4.58788	0.525466	2.55392	0.632127	3.06524	0.794907	3.85751	0.925925	4.49936
0.555488	2.68856	0.405033	1.94328	0.557308	2.68809	0.631982	3.0582	0.756717	3.65784	0.946063	4.57191	0.527257	2.55108	0.63397	3.06035	0.795993	3.84539	0.92734	4.48593
0.557867	2.68795	0.407028	1.94416	0.559686	2.68748	0.633592	3.05224	0.758337	3.64923	0.947038	4.55611	0.529048	2.54826	0.635819	3.05553	0.797084	3.83341	0.928756	4.47262
0.560244	2.68734	0.409022	1.94503	0.562062	2.68687	0.635205	3.04633	0.75996	3.64072	0.948018	4.54047	0.530838	2.54546	0.637672	3.05078	0.79818	3.82156	0.930175	4.45944
0.56262	2.68673	0.411015	1.94589	0.564437	2.68626	0.636821	3.0405	0.761587	3.6323	0.949002	4.525	0.532628	2.54268	0.639529	3.04608	0.799282	3.80984	0.931595	4.44639
0.564995	2.68612	0.413007	1.94673	0.56681	2.68565	0.63844	3.03473	0.763218	3.62398	0.94999	4.50967	0.534416	2.53992	0.641391	3.04146	0.800389	3.79825	0.933017	4.43346
0.567368	2.68551	0.414999	1.94757	0.569182	2.68503	0.640062	3.02902	0.764852	3.61574	0.950984	4.49451	0.536204	2.53718	0.643258	3.03689	0.801501	3.78678	0.934441	4.42066
0.569739	2.68489	0.41699	1.94839	0.571552	2.68441	0.641687	3.02338	0.76649	3.60759	0.951981	4.4795	0.537991	2.53446	0.645129	3.03239	0.802618	3.77544	0.935866	4.40797
0.572109	2.68427	0.418981	1.94921	0.57392	2.68379	0.643315	3.01781	0.768132	3.59953	0.952983	4.46464	0.539777	2.53176	0.647004	3.02794	0.80374	3.76422	0.937293	4.39541
0.574476	2.68365	0.42097	1.95001	0.576286	2.68317	0.644946	3.01229	0.769777	3.59156	0.953989	4.44993	0.541563	2.52909	0.648884	3.02355	0.804868	3.75313	0.938722	4.38296
0.576842	2.68302	0.42296	1.95081	0.57865	2.68254	0.64658	3.00684	0.771425	3.58367	0.955	4.43537	0.543348	2.52643	0.650767	3.01922	0.806001	3.74215	0.940152	4.37062
0.579205	2.68239	0.424948	1.95159	0.581012	2.6819	0.648218	3.00145	0.773076	3.57587	0.956015	4.42096	0.545132	2.52379	0.652655	3.01495	0.807139	3.73129	0.941584	4.3584
0.581567	2.68175	0.426935	1.95236	0.583371	2.68126	0.64986	2.99613	0.774731	3.56815	0.957035	4.40669	0.546916	2.52118	0.654547	3.01073	0.808282	3.72055	0.943018	4.3463
0.583926	2.68111	0.428922	1.95313	0.585729	2.68062	0.651505	2.99087	0.776389	3.5605	0.958059	4.39256	0.5487	2.51858	0.656443	3.00656	0.80943	3.70993	0.944453	4.3343
0.586283	2.68047	0.430909	1.95388	0.588084	2.67997	0.653153	2.98566	0.77805	3.55294	0.959088	4.37857	0.550483	2.51601	0.658342	3.00245	0.810584	3.69942	0.94589	4.32241
0.588637	2.67982	0.432894	1.95463	0.590437	2.67932	0.654805	2.98052	0.779715	3.54546	0.960121	4.36472	0.552265	2.51345	0.660245	2.99839	0.811743	3.68902	0.947329	4.31063
0.590989	2.67916	0.434879	1.95537	0.592787	2.67866	0.656462	2.97544	0.781382	3.53805	0.961158	4.35101	0.554048	2.51092	0.662152	2.99438	0.812907	3.67874	0.948768	4.29896
0.593339	2.6785	0.436863	1.95609	0.595134	2.67799	0.658122	2.97042	0.783053	3.53072	0.9622	4.33743	0.55583	2.5084	0.664063	2.99042	0.814076	3.66856	0.95021	4.28739
0.595685	2.67783	0.438846	1.95681	0.597479	2.67731	0.659786	2.96546	0.784727	3.52347	0.963246	4.32399	0.557612	2.50591	0.665977	2.98651	0.81525	3.65849	0.951653	4.27592
0.598029	2.67715	0.440829	1.95752	0.59982	2.67663	0.661454	2.96056	0.786403	3.51628	0.964297	4.31067	0.559393	2.50343	0.667894	2.98265	0.816429	3.64853	0.953097	4.26456
0.60037	2.67647	0.442811	1.95822	0.602159	2.67594	0.663126	2.95572	0.788083	3.50917	0.965352	4.29749	0.561175	2.50098	0.669815	2.97883	0.817614	3.63867	0.954542	4.2533
0.602708	2.67578	0.444792	1.95891	0.604495	2.67525	0.664803	2.95094	0.789765	3.50214	0.966412	4.28444	0.562956	2.49854	0.671739	2.97506	0.818804	3.62892	0.95599	4.24213
0.605043	2.67508	0.446773	1.95959	0.606827	2.67454	0.666484	2.94622	0.79145	3.49517	0.967476	4.27151	0.564737	2.49612	0.673666	2.97133	0.819999	3.61927	0.957438	4.23107
0.607375	2.67437	0.448752	1.96026	0.609156	2.67383	0.66817	2.94156	0.793138	3.48827	0.968544	4.25871	0.566519	2.49373	0.675596	2.96765	0.821199	3.60972	0.958888	4.2201
0.609703	2.67366	0.450731	1.96093	0.611482	2.6731	0.66986	2.93695	0.794829	3.48144	0.969617	4.24603	0.5683	2.49135	0.67753	2.96401	0.822404	3.60028	0.960339	4.20923
0.612028	2.67293	0.45271	1.96158	0.613804	2.67237	0.671555	2.9324	0.796522	3.47468	0.970694	4.23348	0.570081	2.48899	0.679466	2.96042	0.823614	3.59093	0.961791	4.19845
0.614349	2.67219	0.454687	1.96223	0.616122	2.67163	0.673255	2.92792	0.798218	3.46798	0.971776	4.22105	0.571862	2.48665	0.681405	2.95686	0.82483	3.58168	0.963245	4.18776
0.616667	2.67145	0.456664	1.96287	0.618437	2.67087	0.67496	2.92349	0.799917	3.46135	0.972863	4.20873	0.573644	2.48434	0.683347	2.95335	0.826051	3.57253	0.9647	4.17717
0.61898	2.67069	0.45864	1.9635	0.620748	2.67011	0.676671	2.91911	0.801618	3.45478	0.973953	4.19654	0.575425	2.48204	0.685292	2.94988	0.827277	3.56347	0.966156	4.16666
0.62129	2.66993	0.460616	1.96412	0.623054	2.66933	0.678386	2.9148	0.803321	3.44828	0.975048	4.18446	0.577207	2.47976	0.687239	2.94644	0.828508	3.55451	0.967614	4.15625
0.623596	2.66915	0.462591	1.96474	0.625357	2.66854	0.680107	2.91054	0.805028	3.44184	0.976148	4.17249	0.578989	2.47749	0.689189	2.94305	0.829744	3.54564	0.969073	4.14592
0.625897	2.66836	0.464564	1.96534	0.627655	2.66774	0.681834	2.90634	0.806736	3.43546	0.977252	4.16064	0.580771	2.47525	0.691141	2.93969	0.830985	3.53686	0.970533	4.13568
0.628194	2.66755	0.466538	1.96594	0.629948	2.66693	0.683566	2.9022	0.808447	3.42914	0.978361	4.1489	0.582553	2.47303	0.693096	2.93637	0.832232	3.52818	0.971994	4.12553
0.630487	2.66674	0.46851	1.96653	0.632237	2.66611	0.685304	2.89812	0.81016	3.42288	0.979474	4.13728	0.584336	2.47082	0.695053	2.93308	0.833484	3.51958	0.973456	4.11546
0.632775	2.66591	0.470482	1.96712	0.634522	2.66527	0.687048	2.89409	0.811876	3.41668	0.980591	4.12576	0.586119	2.46864	0.697012	2.92983	0.83474	3.51107	0.974919	4.10548
0.635058	2.66507	0.472453	1.96769	0.636801	2.66441	0.688798	2.89012	0.813594	3.41053	0.981713	4.11435	0.587902	2.46647	0.698974	2.92661	0.836002	3.50266	0.976384	4.09558
0.637336	2.66421	0.474423	1.96826	0.639075	2.66355	0.690554	2.8862	0.815314	3.40445	0.982839	4.10305	0.589686	2.46432	0.700937	2.92343	0.83727	3.49433	0.97785	4.08576
0.639609	2.66334	0.476393	1.96882	0.641344	2.66266	0.692317	2.88235	0.817036	3.39842	0.98397	4.09186	0.59147	2.46219	0.702903	2.92028	0.838542	3.48608	0.979316	4.07602
0.641877	2.66245	0.478362	1.96938	0.643608	2.66177	0.694087	2.87855	0.81876	3.39244	0.985106	4.08077	0.593254	2.46008	0.704871	2.91716	0.83982	3.47792	0.980784	4.06636
0.64414	2.66155	0.48033	1.96992	0.645867	2.66085	0.695862	2.8748	0.820487	3.38652	0.986245	4.06978	0.59504	2.45798	0.70684	2.91408	0.841102	3.46984	0.982253	4.05678
0.646397	2.66064	0.482297	1.97046	0.64812	2.65993	0.697645	2.87112	0.822215	3.38066	0.987389	4.0589	0.596825	2.45591	0.708812	2.91102	0.84239	3.46185	0.983723	4.04728
0.648648	2.65971	0.484264	1.97099	0.650367	2.65898	0.699435	2.86749	0.823945	3.37484	0.988538	4.04812	0.598611	2.45385	0.710785	2.908	0.843683	3.45394	0.985194	4.03785
0.650894	2.65876	0.48623	1.97152	0.652608	2.65802	0.701232	2.86392	0.825678	3.36908	0.989691	4.03743	0.600398	2.45181	0.71276	2.90501	0.844982	3.44611	0.986666	4.0285
0.653134	2.65779	0.488195	1.97204	0.654843	2.65704	0.703036	2.8604	0.827412	3.36337	0.990849	4.02685	0.602185	2.44979	0.714736	2.90204	0.846285	3.43836	0.988138	4.01922
0.655367	2.65681	0.49016	1.97255	0.657072	2.65604	0.704848	2.85694	0.829148	3.35771	0.992011	4.01636	0.603973	2.44778	0.716714	2.89911	0.847594	3.43069	0.989612	4.01002
0.657595	2.6558	0.492124	1.97306	0.659294	2.65503	0.706667	2.85354	0.830886	3.3521	0.993177	4.00598	0.605762	2.4458	0.718694	2.8962	0.848908	3.4231	0.991087	4.00089
0.659816	2.65479	0.494087	1.97355	0.66151	2.65399	0.708494	2.85019	0.832626	3.34654	0.994348	3.99568	0.607551	2.44383	0.720675	2.89332	0.850227	3.41559	0.992562	3.99183
0.66203	2.65375	0.496049	1.97405	0.66372	2.65294	0.710329	2.8469	0.834368	3.34103	0.995524	3.98549	0.609341	2.44188	0.722657	2.89046	0.851551	3.40815	0.994039	3.98285
0.664238	2.65269	0.498011	1.97453	0.665922	2.65187	0.712171	2.84367	0.836111	3.33557	0.996704	3.97538	0.611132	2.43994	0.72464	2.88764	0.852881	3.40079	0.995516	3.97393
0.666439	2.65161	0.499971	1.97501	0.668118	2.65078	0.714022	2.84049	0.837856	3.33015	0.997888	3.96537	0.612923	2.43803	0.726625	2.88483	0.854215	3.39351	0.996995	3.96509
0.668633	2.65052	0.501932	1.97548	0.670307	2.64967	0.715881	2.83737	0.839603	3.32478	0.999077	3.95545	0.614716	2.43613	0.728611	2.88206	0.855555	3.3863	0.998474	3.95631
0.67082	2.6494	0.503891	1.97595	0.672488	2.64854	0.717749	2.83431	0.841351	3.31946	1.00027	3.94562	0.616509	2.43424	0.730598	2.87931	0.856901	3.37916	0.999954	3.9476
0.673	2.64827	0.50585	1.97641	0.674663	2.64738	0.719625	2.8313	0.843101	3.31418			0.618302	2.43238	0.732586	2.87658	0.858251	3.3721	1.00143	3.93896
0.675173	2.64711	0.507808	1.97686	0.676829	2.64621	0.72151	2.82835	0.844853	3.30895			0.620097	2.43053	0.734574	2.87387	0.859607	3.3651		
0.677338	2.64593	0.509765	1.97731	0.678989	2.64502	0.723403	2.82545	0.846606	3.30376			0.621892	2.4287	0.736564	2.87119	0.860968	3.35818		
0.679495	2.64474	0.511722	1.97775	0.681141	2.64381	0.725306	2.82261	0.84836	3.29861			0.623689	2.42688	0.738555	2.86853	0.862334	3.35133		
0.681645	2.64352	0.513677	1.97819	0.683285	2.64257	0.727217	2.81982	0.850116	3.29351			0.625486	2.42508	0.740546	2.8659	0.863705	3.34455		
0.683787	2.64228	0.515632	1.97862	0.685421	2.64132	0.729137	2.81709	0.851873	3.28844			0.627284	2.4233	0.742538	2.86328	0.865082	3.33784		
0.685922	2.64102	0.517587	1.97904	0.687549	2.64004	0.731067	2.81442	0.853632	3.28342			0.629083	2.42154	0.74453	2.86069	0.866464	3.3312		
0.688048	2.63974	0.519541	1.97946	0.68967	2.63874	0.733006	2.8118	0.855392	3.27844			0.630883	2.41979	0.746524	2.85811	0.867851	3.32462		
0.690167	2.63843	0.521494	1.97987	0.691782	2.63742	0.734954	2.80923	0.857153	3.2735			0.632685	2.41805	0.748517	2.85556	0.869244	3.31812		
0.692278	2.63711	0.523446	1.98028	0.693887	2.63608	0.736911	2.80672	0.858915	3.2686			0.634487	2.41634	0.750511	2.85303	0.870642	3.31167		
0.69438	2.63577	0.525397	1.98068	0.695983	2.63472	0.738878	2.80426	0.860679	3.26374			0.63629	2.41464	0.752506	2.85051	0.872045	3.3053		
0.696474	2.6344	0.527348	1.98108	0.698071	2.63334	0.740854	2.80185	0.862444	3.25892			0.638094	2.41295	0.7545	2.84802	0.873453	3.29899		
0.698561	2.63301	0.529298	1.98147	0.700151	2.63193	0.74284	2.79949	0.86421	3.25414			0.639899	2.41128	0.756495	2.84554	0.874867	3.29274		
0.700639	2.6316	0.531248	1.98185	0.702223	2.63051	0.744835	2.79719	0.865977	3.24939			0.641705	2.40963	0.758491	2.84308	0.876286	3.28656		
0.702709	2.63017	0.533197	1.98223	0.704287	2.62907	0.74684	2.79494	0.867745	3.24469			0.643512	2.40799	0.760486	2.84064	0.877711	3.28043		
0.704771	2.62872	0.535145	1.98261	0.706342	2.6276	0.748854	2.79274	0.869515	3.24001			0.64532	2.40637	0.762481	2.83822	0.87914	3.27438		
0.706824	2.62725	0.537092	1.98298	0.70839	2.62611	0.750878	2.79059	0.871285	3.23538			0.647129	2.40476	0.764477	2.83581	0.880576	3.26838		
0.70887	2.62576	0.539039	1.98334	0.710429	2.62461	0.752911	2.78849	0.873056	3.23078			0.64894	2.40317	0.766472	2.83342	0.882016	3.26244		
0.710907	2.62425	0.540985	1.9837	0.71246	2.62308	0.754953	2.78644	0.874829	3.22621			0.650751	2.40159	0.768467	2.83104	0.883462	3.25657		
0.712937	2.62272	0.54293	1.98406	0.714484	2.62154	0.757005	2.78444	0.876602	3.22168			0.652564	2.40003	0.770462	2.82868	0.884913	3.25076		
0.714958	2.62118	0.544875	1.98441	0.716499	2.61998	0.759066	2.78249	0.878376	3.21719			0.654378	2.39848	0.772457	2.82634	0.88637	3.245		
0.716972	2.61961	0.546818	1.98475	0.718506	2.6184	0.761136	2.78058	0.880151	3.21273			0.656193	2.39694	0.774452	2.82401	0.887832	3.2393		
0.718977	2.61803	0.548762	1.98509	0.720506	2.6168	0.763216	2.77872	0.881927	3.2083			0.658009	2.39543	0.776446	2.8217	0.889299	3.23367		
0.720975	2.61642	0.550704	1.98543	0.722498	2.61519	0.765305	2.7769	0.883704	3.2039			0.659826	2.39392	0.77844	2.8194	0.890772	3.22808		
0.722965	2.61481	0.552646	1.98576	0.724483	2.61356	0.767402	2.77513	0.885481	3.19954			0.661645	2.39243	0.780434	2.81711	0.89225	3.22256		
0.724948	2.61317	0.554587	1.98609	0.72646	2.61191	0.769508	2.7734	0.887259	3.19521			0.663464	2.39096	0.782426	2.81484	0.893734	3.21709		
0.726923	2.61152	0.556528	1.98641	0.728429	2.61025	0.771624	2.77172	0.889038	3.19091			0.665285	2.3895	0.784419	2.81258	0.895223	3.21168		
0.728891	2.60986	0.558468	1.98672	0.730392	2.60857	0.773747	2.77008	0.890818	3.18664			0.667107	2.38805	0.786411	2.81033	0.896718	3.20633		
0.730852	2.60817	0.560407	1.98704	0.732347	2.60688	0.775879	2.76848	0.892598	3.1824			0.668931	2.38662	0.788402	2.8081	0.898218	3.20103		
0.732806	2.60648	0.562345	1.98735	0.734296	2.60518	0.77802	2.76692	0.894379	3.17819			0.670755	2.3852	0.790392	2.80588	0.899723	3.19578		
0.734753	2.60477	0.564283	1.98765	0.736237	2.60346	0.780169	2.76539	0.896161	3.17402			0.672581	2.38379	0.792382	2.80367	0.901234	3.19059		
0.736693	2.60305	0.56622	1.98795	0.738172	2.60173	0.782325	2.76391	0.897943	3.16987			0.674408	2.3824	0.794371	2.80147	0.90275	3.18545		
0.738626	2.60132	0.568157	1.98824	0.740101	2.59999	0.78449	2.76247	0.899726	3.16575			0.676236	2.38102	0.796359	2.79928	0.904272	3.18036		
0.740553	2.59958	0.570093	1.98853	0.742023	2.59824	0.786662	2.76106	0.901509	3.16166			0.678066	2.37966	0.798346	2.79711	0.9058	3.17533		
0.742474	2.59782	0.572028	1.98882	0.743939	2.59647	0.788842	2.75968	0.903293	3.1576			0.679896	2.37831	0.800332	2.79494	0.907332	3.17035		
0.744388	2.59606	0.573963	1.9891	0.745848	2.5947	0.79103	2.75835	0.905078	3.15357			0.681728	2.37697	0.802318	2.79279	0.908871	3.16542		
0.746297	2.59428	0.575896	1.98938	0.747752	2.59292	0.793224	2.75704	0.906863	3.14956			0.683561	2.37564	0.804302	2.79065	0.910415	3.16054		
0.748199	2.5925	0.57783	1.98966	0.749651	2.59113	0.795426	2.75577	0.908648	3.14558			0.685396	2.37433	0.806285	2.78851	0.911964	3.15571		
0.750096	2.59071	0.579762	1.98993	0.751544	2.58934	0.797635	2.75453	0.910434	3.14163			0.687232	2.37303	0.808267	2.78639	0.913519	3.15093		
0.751988	2.58891	0.581694	1.9902	0.753431	2.58753	0.79985	2.75332	0.91222	3.13771			0.689069	2.37174	0.810248	2.78427	0.915079	3.14621		
0.753874	2.58711	0.583626	1.99046	0.755313	2.58572	0.802072	2.75214	0.914007	3.13381			0.690907	2.37047	0.812227	2.78217	0.916645	3.14153		
0.755755	2.5853	0.585556	1.99072	0.75719	2.58391	0.8043	2.75099	0.915794	3.12994			0.692747	2.36921	0.814206	2.78007	0.918216	3.1369		
0.757631	2.58348	0.587487	1.99097	0.759063	2.58209	0.806535	2.74987	0.917581	3.12609			0.694588	2.36796	0.816183	2.77799	0.919793	3.13231		
0.759502	2.58166	0.589416	1.99122	0.76093	2.58026	0.808775	2.74878	0.919369	3.12227			0.69643	2.36672	0.818158	2.77591	0.921376	3.12778		
0.761369	2.57984	0.591345	1.99147	0.762793	2.57844	0.811021	2.74771	0.921157	3.11848			0.698274	2.3655	0.820133	2.77384	0.922964	3.12329		
0.763231	2.57801	0.593273	1.99172	0.764652	2.5766	0.813273	2.74667	0.922945	3.11471			0.700118	2.36428	0.822105	2.77178	0.924557	3.11885		
0.765089	2.57617	0.595201	1.99196	0.766507	2.57477	0.815531	2.74566	0.924734	3.11096			0.701965	2.36308	0.824077	2.76972	0.926156	3.11446		
0.766942	2.57434	0.597128	1.9922	0.768357	2.57293	0.817794	2.74467	0.926523	3.10724			0.703812	2.36189	0.826047	2.76768	0.927761	3.11011		
0.768792	2.5725	0.599054	1.99243	0.770204	2.5711	0.820062	2.7437	0.928312	3.10354			0.705661	2.36072	0.828015	2.76564	0.929371	3.1058		
0.770637	2.57066	0.60098	1.99266	0.772047	2.56926	0.822335	2.74276	0.930101	3.09987			0.707511	2.35955	0.829982	2.76361	0.930987	3.10155		
0.772479	2.56882	0.602905	1.99289	0.773886	2.56742	0.824613	2.74183	0.931891	3.09622			0.709362	2.3584	0.831947	2.76158	0.932608	3.09733		
0.774318	2.56698	0.60483	1.99311	0.775721	2.56558	0.826896	2.74093	0.93368	3.09259			0.711215	2.35726	0.83391	2.75957	0.934235	3.09317		
0.776153	2.56514	0.606754	1.99333	0.777554	2.56374	0.829183	2.74005	0.93547	3.08899			0.713069	2.35613	0.835872	2.75756	0.935867	3.08904		
0.777984	2.5633	0.608677	1.99355	0.779383	2.5619	0.831475	2.73919	0.93726	3.08541			0.714924	2.35501	0.837832	2.75555	0.937505	3.08496		
0.779813	2.56147	0.6106	1.99376	0.781209	2.56006	0.833771	2.73835	0.939051	3.08185			0.716781	2.3539	0.839791	2.75356	0.939149	3.08092		
0.781638	2.55963	0.612522	1.99397	0.783033	2.55823	0.836071	2.73753	0.940841	3.07831			0.718639	2.3528	0.841747	2.75156	0.940798	3.07693		
0.783461	2.55779	0.614444	1.99418	0.784853	2.55639	0.838376	2.73673	0.942632	3.0748			0.720498	2.35171	0.843702	2.74958	0.942452	3.07298		
0.785281	2.55596	0.616365	1.99438	0.786671	2.55456	0.840684	2.73594	0.944422	3.0713			0.722359	2.35064	0.845655	2.7476	0.944112	3.06906		
0.787098	2.55413	0.618286	1.99458	0.788486	2.55273	0.842995	2.73517	0.946213	3.06783			0.724221	2.34957	0.847606	2.74563	0.945778	3.06519		
0.788913	2.5523	0.620205	1.99478	0.790299	2.55091	0.845311	2.73442	0.948004	3.06438			0.726084	2.34852	0.849555	2.74366	0.947449	3.06137		
0.790725	2.55048	0.622125	1.99498	0.79211	2.54909	0.847629	2.73368	0.949795	3.06095			0.727948	2.34748	0.851502	2.7417	0.949125	3.05758		
0.792535	2.54866	0.624044	1.99517	0.793918	2.54727	0.849951	2.73295	0.951586	3.05754			0.729814	2.34644	0.853447	2.73975	0.950807	3.05383		
0.794343	2.54684	0.625962	1.99536	0.795725	2.54545	0.852277	2.73225	0.953377	3.05416			0.731681	2.34542	0.855391	2.7378	0.952495	3.05012		
0.796149	2.54503	0.62788	1.99554	0.797529	2.54365	0.854605	2.73155	0.955168	3.05079			0.73355	2.34441	0.857332	2.73585	0.954188	3.04646		
0.797953	2.54322	0.629797	1.99573	0.799332	2.54184	0.856936	2.73087	0.956959	3.04744			0.735419	2.34341	0.859271	2.73391	0.955886	3.04283		
0.799755	2.54142	0.631713	1.99591	0.801133	2.54004	0.85927	2.7302	0.95875	3.04411			0.73729	2.34241	0.861208	2.73198	0.95759	3.03924		
0.801556	2.53962	0.633629	1.99609	0.802932	2.53825	0.861607	2.72955	0.960542	3.04081			0.739163	2.34143	0.863143	2.73005	0.9593	3.03569		
0.803355	2.53783	0.635545	1.99626	0.804729	2.53646	0.863947	2.7289	0.962333	3.03752			0.741036	2.34046	0.865076	2.72812	0.961014	3.03217		
0.805152	2.53604	0.63746	1.99643	0.806526	2.53468	0.866289	2.72827	0.964124	3.03425			0.742911	2.3395	0.867008	2.7262	0.962735	3.0287		
0.806948	2.53426	0.639374	1.9966	0.80832	2.5329	0.868633	2.72765	0.965916	3.031			0.744788	2.33854	0.868936	2.72428	0.96446	3.02526		
0.808742	2.53249	0.641288	1.99677	0.810114	2.53113	0.87098	2.72704	0.967707	3.02777			0.746665	2.3376	0.870863	2.72237	0.966191	3.02186		
0.810535	2.53072	0.643202	1.99694	0.811906	2.52937	0.873329	2.72645	0.969498	3.02456			0.748544	2.33667	0.872788	2.72047	0.967928	3.01849		
0.812327	2.52896	0.645115	1.9971	0.813697	2.52761	0.87568	2.72586	0.97129	3.02136			0.750424	2.33574	0.87471	2.71856	0.96967	3.01516		
0.814118	2.5272	0.647027	1.99726	0.815487	2.52586	0.878034	2.72528	0.973081	3.01819			0.752305	2.33483	0.876631	2.71666	0.971417	3.01187		
0.815907	2.52545	0.648939	1.99742	0.817276	2.52412	0.880389	2.72471	0.974873	3.01503			0.754188	2.33392	0.878549	2.71477	0.973169	3.00861		
0.817696	2.52371	0.65085	1.99757	0.819064	2.52238	0.882746	2.72415	0.976664	3.01189			0.756072	2.33302	0.880465	2.71288	0.974927	3.00539		
0.819484	2.52198	0.652761	1.99772	0.820851	2.52065	0.885105	2.7236	0.978455	3.00877			0.757957	2.33214	0.882378	2.71099	0.97669	3.0022		
0.821271	2.52025	0.654671	1.99787	0.822637	2.51893	0.887465	2.72305	0.980247	3.00567			0.759844	2.33126	0.88429	2.70911	0.978458	2.99905		
0.823057	2.51853	0.656581	1.99802	0.824423	2.51722	0.889827	2.72252	0.982038	3.00259			0.761731	2.33039	0.886199	2.70723	0.980231	2.99593		
0.824843	2.51682	0.658491	1.99816	0.826208	2.51551	0.892191	2.72199	0.98383	2.99952			0.763621	2.32953	0.888106	2.70536	0.98201	2.99284		
0.826628	2.51511	0.6604	1.99831	0.827993	2.51382	0.894556	2.72147	0.985622	2.99647			0.765511	2.32868	0.890011	2.70349	0.983794	2.98979		
0.828412	2.51342	0.662308	1.99845	0.829777	2.51213	0.896922	2.72096	0.987413	2.99344			0.767402	2.32783	0.891914	2.70162	0.985583	2.98677		
0.830196	2.51173	0.664216	1.99859	0.83156	2.51044	0.89929	2.72045	0.989205	2.99042			0.769295	2.327	0.893814	2.69976	0.987377	2.98378		
0.831979	2.51005	0.666123	1.99872	0.833343	2.50877	0.901659	2.71995	0.990997	2.98742			0.771189	2.32617	0.895713	2.6979	0.989176	2.98083		
0.833762	2.50838	0.66803	1.99886	0.835125	2.50711	0.904029	2.71946	0.992788	2.98444			0.773084	2.32535	0.897609	2.69605	0.990981	2.9779		
0.835544	2.50671	0.669937	1.99899	0.836908	2.50545	0.9064	2.71897	0.99458	2.98148			0.774981	2.32454	0.899502	2.6942	0.99279	2.97501		
0.837327	2.50506	0.671843	1.99912	0.83869	2.5038	0.908772	2.71849	0.996372	2.97853			0.776879	2.32374	0.901394	2.69235	0.994604	2.97215		
0.839109	2.50341	0.673748	1.99925	0.840471	2.50216	0.911145	2.71801	0.998164	2.9756			0.778778	2.32295	0.903284	2.69051	0.996424	2.96932		
0.84089	2.50177	0.675653	1.99937	0.842253	2.50053	0.913519	2.71754	0.999956	2.97269			0.780678	2.32216	0.905171	2.68867	0.998248	2.96652		
0.842672	2.50014	0.677558	1.99949	0.844034	2.4989	0.915893	2.71707	1.00175	2.96979			0.782579	2.32138	0.907056	2.68683	1.00008	2.96375		
0.844453	2.49852	0.679462	1.99962	0.845816	2.49729	0.918269	2.71661					0.784482	2.32061	0.908939	2.685				
0.846234	2.49691	0.681366	1.99974	0.847597	2.49568	0.920645	2.71615					0.786386	2.31985	0.910819	2.68317				
0.848016	2.49531	0.683269	1.99985	0.849378	2.49408	0.923021	2.7157					0.788291	2.3191	0.912698	2.68134				
0.849797	2.49371	0.685172	1.99997	0.851159	2.4925	0.925399	2.71525					0.790197	2.31835	0.914574	2.67952				
0.851578	2.49212	0.687075	2.00008	0.852941	2.49092	0.927776	2.7148					0.792104	2.31761	0.916448	2.6777				
0.853359	2.49055	0.688977	2.00019	0.854722	2.48934	0.930154	2.71436					0.794013	2.31688	0.91832	2.67588				
0.855141	2.48898	0.690878	2.0003	0.856503	2.48778	0.932533	2.71393					0.795923	2.31616	0.92019	2.67407				
0.856922	2.48742	0.69278	2.00041	0.858285	2.48623	0.934911	2.71349					0.797834	2.31544	0.922057	2.67227				
0.858704	2.48587	0.69468	2.00052	0.860067	2.48468	0.93729	2.71306					0.799746	2.31473	0.923923	2.67046				
0.860486	2.48432	0.696581	2.00062	0.861849	2.48315	0.93967	2.71263					0.801659	2.31403	0.925787	2.66866				
0.862268	2.48279	0.698481	2.00073	0.863631	2.48162	0.942049	2.7122					0.803573	2.31333	0.927648	2.66687				
0.86405	2.48126	0.70038	2.00083	0.865413	2.4801	0.944428	2.71178					0.805489	2.31264	0.929507	2.66507				
0.865833	2.47975	0.702279	2.00093	0.867196	2.4786	0.946808	2.71136					0.807406	2.31196	0.931365	2.66328				
0.867615	2.47824	0.704178	2.00103	0.868979	2.4771	0.949187	2.71094					0.809324	2.31129	0.93322	2.6615				
0.869399	2.47674	0.706076	2.00112	0.870763	2.4756	0.951566	2.71052					0.811243	2.31062	0.935073	2.65972				
0.871182	2.47526	0.707974	2.00122	0.872547	2.47412	0.953945	2.7101					0.813163	2.30996	0.936925	2.65794				
0.872966	2.47378	0.709872	2.00131	0.874331	2.47265	0.956323	2.70969					0.815084	2.30931	0.938774	2.65616				
0.87475	2.4723	0.711769	2.0014	0.876116	2.47119	0.958702	2.70928					0.817007	2.30866	0.940622	2.65439				
0.876535	2.47084	0.713666	2.00149	0.877901	2.46973	0.96108	2.70886					0.81893	2.30802	0.942467	2.65263				
0.87832	2.46939	0.715562	2.00158	0.879686	2.46828	0.963458	2.70845					0.820855	2.30738	0.944311	2.65087				
0.880106	2.46795	0.717458	2.00167	0.881472	2.46685	0.965835	2.70804					0.822781	2.30676	0.946152	2.64911				
0.881892	2.46651	0.719354	2.00175	0.883259	2.46542	0.968211	2.70763					0.824708	2.30613	0.947992	2.64735				
0.883679	2.46508	0.721249	2.00184	0.885046	2.464	0.970587	2.70722					0.826636	2.30552	0.94983	2.6456				
0.885466	2.46367	0.723144	2.00192	0.886833	2.46259	0.972963	2.70682					0.828565	2.30491	0.951667	2.64386				
0.887254	2.46226	0.725039	2.002	0.888621	2.46118	0.975337	2.70641					0.830495	2.30431	0.953501	2.64211				
0.889042	2.46086	0.726933	2.00208	0.89041	2.45979	0.977711	2.706					0.832426	2.30371	0.955334	2.64038				
0.890831	2.45946	0.728827	2.00216	0.892199	2.45841	0.980084	2.70559					0.834358	2.30312	0.957165	2.63864				
0.89262	2.45808	0.730721	2.00224	0.893989	2.45703	0.982456	2.70518					0.836291	2.30253	0.958994	2.63691				
0.89441	2.45671	0.732614	2.00231	0.89578	2.45566	0.984827	2.70477					0.838226	2.30195	0.960822	2.63519				
0.896201	2.45534	0.734507	2.00239	0.897571	2.4543	0.987198	2.70436					0.840161	2.30138	0.962648	2.63346				
0.897992	2.45399	0.736399	2.00246	0.899362	2.45295	0.989567	2.70395					0.842098	2.30081	0.964472	2.63175				
0.899784	2.45264	0.738292	2.00253	0.901155	2.45161	0.991934	2.70354					0.844035	2.30025	0.966295	2.63003				
0.901576	2.4513	0.740184	2.0026	0.902948	2.45028	0.994301	2.70312					0.845974	2.2997	0.968116	2.62833				
0.903369	2.44997	0.742075	2.00267	0.904742	2.44896	0.996666	2.70271					0.847913	2.29914	0.969936	2.62662				
0.905163	2.44865	0.743966	2.00274	0.906536	2.44764	0.99903	2.70229					0.849854	2.2986	0.971754	2.62492				
0.906958	2.44733	0.745857	2.00281	0.908331	2.44633	1.00139	2.70187					0.851795	2.29806	0.973571	2.62323				
0.908753	2.44603	0.747748	2.00287	0.910127	2.44504							0.853738	2.29753	0.975386	2.62154				
0.910549	2.44473	0.749638	2.00294	0.911924	2.44375							0.855682	2.297	0.9772	2.61985				
0.912346	2.44344	0.751528	2.003	0.913721	2.44246							0.857626	2.29647	0.979012	2.61817				
0.914143	2.44216	0.753418	2.00307	0.915519	2.44119							0.859572	2.29595	0.980823	2.6165				
0.915942	2.44089	0.755307	2.00313	0.917318	2.43992							0.861518	2.29544	0.982633	2.61483				
0.917741	2.43963	0.757196	2.00319	0.919117	2.43867							0.863466	2.29493	0.984441	2.61316				
0.91954	2.43837	0.759085	2.00325	0.920917	2.43742							0.865414	2.29443	0.986248	2.6115				
0.921341	2.43713	0.760974	2.0033	0.922719	2.43618							0.867364	2.29393	0.988054	2.60984				
0.923142	2.43589	0.762862	2.00336	0.92452	2.43495							0.869314	2.29344	0.989859	2.60819				
0.924944	2.43466	0.76475	2.00342	0.926323	2.43372							0.871265	2.29295	0.991662	2.60654				
0.926747	2.43344	0.766638	2.00347	0.928127	2.43251							0.873218	2.29247	0.993464	2.6049				
0.928551	2.43222	0.768525	2.00353	0.929931	2.4313							0.875171	2.29199	0.995265	2.60326				
0.930355	2.43102	0.770412	2.00358	0.931736	2.4301							0.877125	2.29152	0.997065	2.60163				
0.93216	2.42982	0.772299	2.00363	0.933542	2.42891							0.87908	2.29105	0.998864	2.6				
0.933967	2.42863	0.774186	2.00368	0.935349	2.42772							0.881036	2.29058	1.00066	2.59838				
0.935774	2.42744	0.776072	2.00373	0.937156	2.42655							0.882993	2.29012						
0.937581	2.42627	0.777958	2.00378	0.938965	2.42538							0.884951	2.28967						
0.93939	2.4251	0.779844	2.00383	0.940774	2.42422							0.88691	2.28922						
0.941199	2.42394	0.78173	2.00388	0.942584	2.42306							0.888869	2.28877						
0.94301	2.42279	0.783615	2.00393	0.944395	2.42192							0.89083	2.28833						
0.944821	2.42165	0.7855	2.00397	0.946207	2.42078							0.892791	2.28789						
0.946633	2.42051	0.787385	2.00402	0.948019	2.41965							0.894754	2.28746						
0.948446	2.41939	0.78927	2.00406	0.949833	2.41853							0.896717	2.28703						
0.950259	2.41826	0.791154	2.00411	0.951647	2.41741							0.898681	2.28661						
0.952074	2.41715	0.793038	2.00415	0.953463	2.4163							0.900646	2.28619						
0.953889	2.41605	0.794922	2.00419	0.955279	2.4152							0.902611	2.28577						
0.955706	2.41495	0.796806	2.00423	0.957096	2.41411							0.904578	2.28536						
0.957523	2.41386	0.798689	2.00427	0.958913	2.41303							0.906545	2.28495						
0.959341	2.41277	0.800572	2.00431	0.960732	2.41195							0.908513	2.28455						
0.96116	2.4117	0.802455	2.00435	0.962552	2.41088							0.910483	2.28415						
0.96298	2.41063	0.804338	2.00439	0.964372	2.40981							0.912452	2.28375						
0.964801	2.40956	0.806221	2.00443	0.966194	2.40876							0.914423	2.28336						
0.966622	2.40851	0.808103	2.00446	0.968016	2.40771							0.916395	2.28297						
0.968445	2.40746	0.809985	2.0045	0.969839	2.40667							0.918367	2.28259						
0.970268	2.40642	0.811867	2.00454	0.971664	2.40563							0.92034	2.28221						
0.972093	2.40539	0.813749	2.00457	0.973489	2.4046							0.922314	2.28183						
0.973918	2.40436	0.81563	2.0046	0.975315	2.40358							0.924289	2.28146						
0.975744	2.40334	0.817512	2.00464	0.977141	2.40257							0.926264	2.28109						
0.977571	2.40233	0.819393	2.00467	0.978969	2.40156							0.928241	2.28072						
0.979399	2.40132	0.821274	2.0047	0.980798	2.40056							0.930218	2.28036						
0.981228	2.40032	0.823154	2.00473	0.982627	2.39956							0.932195	2.28						
0.983057	2.39933	0.825035	2.00477	0.984458	2.39858							0.934174	2.27964						
0.984888	2.39834	0.826915	2.0048	0.986289	2.3976							0.936153	2.27929						
0.98672	2.39737	0.828796	2.00483	0.988121	2.39662							0.938133	2.27894						
0.988552	2.39639	0.830676	2.00485	0.989954	2.39565							0.940114	2.2786						
0.990385	2.39543	0.832555	2.00488	0.991788	2.39469							0.942096	2.27825						
0.99222	2.39447	0.834435	2.00491	0.993623	2.39374							0.944078	2.27792						
0.994055	2.39352	0.836315	2.00494	0.995459	2.39279							0.946061	2.27758						
0.995891	2.39257	0.838194	2.00497	0.997296	2.39185							0.948045	2.27725						
0.997728	2.39163	0.840073	2.00499	0.999134	2.39091							0.950029	2.27692						
0.999566	2.3907	0.841952	2.00502	1.00097	2.38999							0.952014	2.27659						
1.0014	2.38977	0.843831	2.00504									0.954	2.27627						
		0.845709	2.00507									0.955987	2.27595						
		0.847588	2.00509									0.957974	2.27563						
		0.849466	2.00512									0.959962	2.27532						
		0.851345	2.00514									0.961951	2.27501						
		0.853223	2.00516									0.96394	2.2747						
		0.8551	2.00519									0.96593	2.2744						
		0.856978	2.00521									0.96792	2.2741						
		0.858856	2.00523									0.969912	2.2738						
		0.860733	2.00525									0.971904	2.2735						
		0.86261	2.00527									0.973896	2.27321						
		0.864488	2.00529									0.97589	2.27292						
		0.866365	2.00531									0.977884	2.27263						
		0.868242	2.00533									0.979878	2.27235						
		0.870118	2.00535									0.981873	2.27206						
		0.871995	2.00537									0.983869	2.27178						
		0.873871	2.00539									0.985866	2.27151						
		0.875748	2.00541									0.987863	2.27123						
		0.877624	2.00543									0.98986	2.27096						
		0.8795	2.00544									0.991859	2.27069						
		0.881376	2.00546									0.993858	2.27043						
		0.883252	2.00548									0.995857	2.27016						
		0.885128	2.0055									0.997857	2.2699						
		0.887003	2.00551									0.999858	2.26964						
		0.888879	2.00553									1.00186	2.26938						
		0.890754	2.00554																
		0.89263	2.00556																
		0.894505	2.00557																
		0.89638	2.00559																
		0.898255	2.0056																
		0.90013	2.00562																
		0.902004	2.00563																
		0.903879	2.00564																
		0.905754	2.00566																
		0.907628	2.00567																
		0.909502	2.00568																
		0.911377	2.00569																
		0.913251	2.0057																
		0.915125	2.00572																
		0.916999	2.00573																
		0.918873	2.00574																
		0.920746	2.00575																
		0.92262	2.00576																
		0.924494	2.00577																
		0.926367	2.00578																
		0.928241	2.00579																
		0.930114	2.0058																
		0.931987	2.00581																
		0.933861	2.00582																
		0.935734	2.00583																
		0.937607	2.00584																
		0.93948	2.00585																
		0.941353	2.00586																
		0.943226	2.00587																
		0.945098	2.00587																
		0.946971	2.00588																
		0.948844	2.00589																
		0.950716	2.0059																
		0.952589	2.00591																
		0.954461	2.00591																
		0.956333	2.00592																
		0.958206	2.00593																
		0.960078	2.00593																
		0.96195	2.00594																
		0.963822	2.00595																
		0.965694	2.00595																
		0.967566	2.00596																
		0.969438	2.00597																
		0.97131	2.00597																
		0.973182	2.00598																
		0.975054	2.00598																
		0.976925	2.00599																
		0.978797	2.00599																
		0.980669	2.006																
		0.98254	2.00601																
		0.984412	2.00601																
		0.986283	2.00602																
		0.988155	2.00602																
		0.990026	2.00603																
		0.991897	2.00603																
		0.993768	2.00603																
		0.99564	2.00604																
		0.997511	2.00604																
		0.999382	2.00605																
		1.00125	2.00605																
