Sym0		Asym0		Sym1		Sym2		Sym3		Sym4		Asym1		Asym2		Asym3		Asym4	
458  Points		540  Points		458  Points		408  Points		371  Points		281  Points		481  Points		423  Points		372  Points		280  Points	
Freq (MHz)	Vph (m/ms)	Freq (MHz)	Vph (m/ms)	Freq (MHz)	Vph (m/ms)	Freq (MHz)	Vph (m/ms)	Freq (MHz)	Vph (m/ms)	Freq (MHz)	Vph (m/ms)	Freq (MHz)	Vph (m/ms)	Freq (MHz)	Vph (m/ms)	Freq (MHz)	Vph (m/ms)	Freq (MHz)	Vph (m/ms)
0.279507	353.964	0.000334922	0.112525	0.279507	368.894	0.356433	5060.78	0.559017	1900.83	0.838526	2389.71	0.139755	1288.08	0.419264	723.656	0.69877	1649.84	0.712866	5444.67
0.2795	162.373	0.00057641	0.14749	0.2795	165.445	0.356449	355.693	0.559024	456.054	0.838529	653.78	0.139795	134.394	0.419274	277.469	0.698759	515.601	0.712882	670.87
0.279488	105.347	0.000882045	0.182247	0.279489	106.631	0.356493	184.346	0.559039	259.117	0.838537	378.695	0.139902	70.948	0.419292	171.647	0.698736	305.535	0.712925	357.478
0.279472	77.9617	0.00125101	0.216756	0.279472	78.6632	0.356564	124.433	0.559063	180.975	0.83855	266.547	0.140073	48.2415	0.419318	124.263	0.698703	217.081	0.712992	243.674
0.279451	61.8743	0.00168236	0.250979	0.279451	62.3154	0.356663	93.9277	0.559095	139.048	0.838566	205.648	0.14031	36.5841	0.419353	97.3848	0.698658	168.339	0.713085	184.847
0.279425	51.2883	0.00217488	0.28486	0.279426	51.591	0.35679	75.4487	0.559135	112.898	0.838586	167.404	0.140611	29.4969	0.419397	80.0705	0.698604	137.466	0.713203	148.913
0.279394	43.7935	0.00272736	0.318372	0.279395	44.0141	0.356944	63.0575	0.559184	95.0304	0.838611	141.155	0.140975	24.7383	0.419449	67.9871	0.698539	116.158	0.713344	124.687
0.27936	38.2082	0.00333849	0.351483	0.279361	38.3761	0.357125	54.173	0.55924	82.0487	0.83864	122.024	0.141402	21.3265	0.419509	59.0755	0.698466	100.565	0.713509	107.25
0.279321	33.885	0.00400673	0.384155	0.279322	34.017	0.357333	47.4925	0.559306	72.1904	0.838673	107.461	0.141891	18.7635	0.419578	52.2323	0.698385	88.6602	0.713696	94.0995
0.279278	30.4394	0.0047305	0.416356	0.27928	30.5459	0.357568	42.2873	0.559379	64.4495	0.838711	96.0046	0.142439	16.7699	0.419656	46.8124	0.698297	79.2727	0.713905	83.8293
0.279232	27.6287	0.00550829	0.44807	0.279234	27.7165	0.357829	38.1181	0.559461	58.2103	0.838752	86.7569	0.143046	15.1766	0.419742	42.4139	0.698202	71.6804	0.714135	75.5868
0.279182	25.2922	0.00633843	0.479274	0.279184	25.3658	0.358117	34.7044	0.559552	53.0746	0.838798	79.1353	0.143711	13.8755	0.419836	38.7731	0.698101	65.4132	0.714385	68.8261
0.27913	23.3191	0.0072191	0.509939	0.279132	23.3817	0.358431	31.8584	0.55965	48.7737	0.838848	72.7457	0.144431	12.7942	0.419939	35.71	0.697996	60.1519	0.714654	63.1807
0.279074	21.6309	0.00814866	0.540059	0.279076	21.6847	0.358771	29.4498	0.559757	45.1194	0.838902	67.3118	0.145206	11.8821	0.42005	33.0972	0.697886	55.6725	0.714942	58.3962
0.279017	20.1698	0.00912541	0.56962	0.279019	20.2167	0.359136	27.3853	0.559873	41.9763	0.83896	62.6341	0.146033	11.1033	0.42017	30.8425	0.697774	51.8126	0.715247	54.2896
0.278957	18.893	0.0101475	0.598608	0.278959	18.9342	0.359526	25.5966	0.559996	39.2442	0.839023	58.5652	0.14691	10.4311	0.420299	28.877	0.697659	48.452	0.715569	50.7267
0.278896	17.7677	0.0112133	0.627015	0.278898	17.8041	0.35994	24.032	0.560128	36.8476	0.83909	54.9934	0.147837	9.84555	0.420436	27.1485	0.697542	45.4998	0.715908	47.6064
0.278833	16.7684	0.012321	0.65484	0.278835	16.8008	0.360379	22.6522	0.560269	34.7283	0.839161	51.833	0.148811	9.33142	0.420581	25.6168	0.697424	42.8858	0.716261	44.8511
0.27877	15.8751	0.0134689	0.682078	0.278772	15.9042	0.360842	21.4265	0.560417	32.8409	0.839236	49.0168	0.149831	8.87675	0.420735	24.25	0.697306	40.5551	0.71663	42.4005
0.278705	15.0718	0.0146555	0.708728	0.278708	15.098	0.361329	20.3306	0.560574	31.1494	0.839316	46.4915	0.150894	8.47211	0.420897	23.023	0.697188	38.464	0.717012	40.2067
0.278641	14.3455	0.0158791	0.734792	0.278643	14.3693	0.361838	19.3452	0.56074	29.6249	0.839399	44.2143	0.151855	8.15436	0.421068	21.9155	0.69707	36.5773	0.717409	38.2316
0.278577	13.6858	0.017138	0.760268	0.27858	13.7074	0.362371	18.4544	0.560914	28.2438	0.839487	42.1504	0.152699	7.90584	0.421248	20.9108	0.696954	34.8666	0.717818	36.4439
0.278514	13.0838	0.0184308	0.785168	0.278516	13.1036	0.362925	17.6454	0.561096	26.9869	0.839579	40.2711	0.153413	7.71424	0.421436	19.9954	0.696839	33.3084	0.71824	34.8183
0.278452	12.5324	0.019756	0.809493	0.278454	12.5505	0.363502	16.9075	0.561286	25.8382	0.839676	38.5528	0.153988	7.57087	0.421632	19.1578	0.696726	31.8831	0.718674	33.3338
0.278391	12.0254	0.0211122	0.833251	0.278394	12.0421	0.3641	16.2319	0.561485	24.7844	0.839776	36.9757	0.154417	7.46973	0.421837	18.3887	0.696616	30.5745	0.71912	31.9728
0.278333	11.5577	0.0224978	0.856446	0.278335	11.5731	0.364719	15.6111	0.561692	23.8142	0.839881	35.523	0.154693	7.40681	0.42205	17.6799	0.696508	29.3688	0.719578	30.7206
0.278277	11.125	0.0239118	0.879094	0.278278	11.1393	0.365359	15.0388	0.561907	22.918	0.83999	34.1807	0.155095	7.31874	0.422272	17.0247	0.696403	28.2544	0.720046	29.5646
0.278223	10.7234	0.0253527	0.901199	0.278225	10.7367	0.366019	14.5095	0.562131	22.0878	0.840103	32.9366	0.155535	7.22606	0.422503	16.4173	0.696302	27.2213	0.720526	28.4943
0.278173	10.3498	0.0268193	0.922769	0.278174	10.3622	0.366699	14.0187	0.562363	21.3165	0.84022	31.7804	0.156141	7.10484	0.422742	15.8527	0.696204	26.261	0.721015	27.5004
0.278126	10.0014	0.0283105	0.943821	0.278127	10.0129	0.367398	13.5623	0.562604	20.5982	0.840342	30.703	0.156919	6.95903	0.422989	15.3265	0.69611	25.366	0.721515	26.5751
0.278083	9.67565	0.0298251	0.964362	0.278084	9.68647	0.368117	13.137	0.562852	19.9275	0.840468	29.6967	0.157878	6.79303	0.423245	14.835	0.696021	24.5299	0.722025	25.7115
0.278044	9.37054	0.0313621	0.984403	0.278046	9.38068	0.368853	12.7397	0.563109	19.3	0.840598	28.7547	0.159025	6.61142	0.423509	14.3748	0.695936	23.7471	0.722545	24.9038
0.278011	9.08416	0.0329203	1.00395	0.278012	9.09369	0.369608	12.3678	0.563375	18.7116	0.840732	27.871	0.160371	6.41874	0.423782	13.9431	0.695855	23.0128	0.723074	24.1466
0.277982	8.81487	0.034499	1.02303	0.277983	8.82384	0.370381	12.019	0.563649	18.1588	0.840871	27.0404	0.161747	6.24108	0.424064	13.5374	0.695779	22.3224	0.723612	23.4354
0.277959	8.56121	0.0360971	1.04164	0.27796	8.56966	0.371171	11.6912	0.563931	17.6384	0.841013	26.2583	0.163151	6.07682	0.424354	13.1554	0.695708	21.6723	0.724159	22.7662
0.277942	8.32187	0.0377137	1.0598	0.277942	8.32985	0.371979	11.3825	0.564221	17.1478	0.84116	25.5205	0.164583	5.92456	0.424652	12.7951	0.695642	21.0591	0.724715	22.1353
0.277931	8.0957	0.039348	1.07751	0.277932	8.13169	0.372802	11.0915	0.56452	16.6844	0.841311	24.8234	0.166042	5.7831	0.424959	12.4547	0.695581	20.4796	0.72528	21.5396
0.277927	7.88168	0.0409992	1.0948	0.277928	7.97016	0.373642	10.8167	0.564827	16.2462	0.841467	24.1637	0.167525	5.65137	0.425275	12.1327	0.695525	19.9312	0.725854	20.9762
0.277929	7.67886	0.0426665	1.11166	0.277927	7.84143	0.374498	10.5567	0.565142	15.831	0.841627	23.5385	0.169032	5.52844	0.425599	11.8275	0.695475	19.4115	0.726436	20.4426
0.277939	7.48643	0.0443493	1.12812	0.277928	7.7426	0.37537	10.3105	0.565466	15.4372	0.84179	22.9452	0.170561	5.41351	0.425932	11.538	0.69543	18.9183	0.727026	19.9365
0.277957	7.30361	0.0460467	1.14418	0.277929	7.67154	0.376256	10.077	0.565798	15.0631	0.841958	22.3814	0.172113	5.30585	0.426273	11.263	0.695391	18.4496	0.727625	19.4559
0.277982	7.12974	0.0477582	1.15986	0.277931	7.62676	0.377157	9.85519	0.566138	14.7073	0.842131	21.8449	0.173685	5.20482	0.426623	11.0014	0.695358	18.0037	0.728231	18.9988
0.278016	6.96419	0.049483	1.17516	0.277934	7.5633	0.378073	9.64432	0.566487	14.3686	0.842307	21.3339	0.175277	5.10985	0.426981	10.7523	0.695331	17.579	0.728846	18.5636
0.278059	6.8064	0.0512208	1.19009	0.277939	7.49555	0.379003	9.44359	0.566844	14.0457	0.842488	20.8466	0.176887	5.02044	0.427348	10.5149	0.695309	17.1739	0.729468	18.1488
0.27811	6.65587	0.0529708	1.20467	0.277946	7.40537	0.379946	9.25231	0.567209	13.7376	0.842673	20.3813	0.178516	4.93613	0.427723	10.2882	0.695294	16.7872	0.730098	17.7529
0.278171	6.51211	0.0547324	1.21891	0.277958	7.29446	0.380903	9.06984	0.567582	13.4433	0.842862	19.9366	0.180161	4.85652	0.428107	10.0718	0.695284	16.4176	0.730736	17.3748
0.278241	6.37471	0.0565053	1.23281	0.277977	7.16481	0.381874	8.8956	0.567964	13.1619	0.843056	19.5112	0.181823	4.78123	0.428499	9.86476	0.695281	16.0642	0.731381	17.0133
0.278321	6.24328	0.0582889	1.24639	0.278004	7.01864	0.382857	8.72905	0.568354	12.8926	0.843254	19.1038	0.183501	4.70995	0.4289	9.66665	0.695284	15.7257	0.732034	16.6672
0.278411	6.11744	0.0600827	1.25965	0.278044	6.85832	0.383853	8.56971	0.568753	12.6346	0.843456	18.7134	0.185193	4.64237	0.429309	9.47688	0.695292	15.4014	0.732695	16.3357
0.278511	5.99688	0.0618864	1.27261	0.278092	6.70541	0.38486	8.41713	0.569159	12.3873	0.843662	18.3389	0.186899	4.57822	0.429728	9.29494	0.695308	15.0903	0.733362	16.0179
0.278622	5.88129	0.0636995	1.28527	0.27815	6.55944	0.38588	8.2709	0.569574	12.1499	0.843872	17.9793	0.188619	4.51726	0.430154	9.12037	0.695329	14.7916	0.734037	15.7129
0.278744	5.77037	0.0655216	1.29764	0.278217	6.41996	0.386779	8.14836	0.569998	11.922	0.844087	17.6339	0.190352	4.45926	0.430589	8.95274	0.695357	14.5047	0.73472	15.4199
0.278877	5.66388	0.0673522	1.30973	0.278293	6.28658	0.387551	8.0473	0.570429	11.703	0.844306	17.3017	0.192098	4.40402	0.431033	8.79165	0.695391	14.2289	0.735409	15.1384
0.279021	5.56158	0.0691911	1.32154	0.27838	6.15891	0.388195	7.96599	0.570869	11.4923	0.844529	16.982	0.193855	4.35136	0.431485	8.63675	0.695432	13.9636	0.736105	14.8676
0.279177	5.46323	0.0710379	1.33309	0.278477	6.03662	0.388707	7.90311	0.571317	11.2896	0.844756	16.6742	0.195623	4.3011	0.431946	8.48769	0.695479	13.7081	0.736809	14.6069
0.279345	5.36863	0.0728923	1.34439	0.278584	5.91939	0.389085	7.85764	0.571774	11.0944	0.844988	16.3776	0.197402	4.25309	0.432415	8.34415	0.695533	13.4619	0.737519	14.3558
0.279525	5.27758	0.0747539	1.35543	0.278702	5.80695	0.389328	7.82887	0.572238	10.9062	0.845224	16.0916	0.199191	4.20718	0.432831	8.22334	0.695593	13.2246	0.738236	14.1138
0.279717	5.18991	0.0766226	1.36623	0.278831	5.69901	0.389678	7.78796	0.572711	10.7248	0.845464	15.8156	0.20099	4.16325	0.433191	8.12336	0.69566	12.9957	0.73896	13.8804
0.279922	5.10545	0.0784979	1.3768	0.278972	5.59533	0.390059	7.74409	0.573192	10.5497	0.845708	15.5492	0.202798	4.12117	0.433492	8.04269	0.695733	12.7747	0.739691	13.6552
0.280139	5.02404	0.0803796	1.38714	0.279124	5.49568	0.39058	7.68538	0.573682	10.3807	0.845957	15.2918	0.204615	4.08084	0.433733	7.98014	0.695813	12.5613	0.740429	13.4377
0.280369	4.94554	0.0822674	1.39725	0.279288	5.39985	0.391243	7.61269	0.57418	10.2175	0.84621	15.043	0.206441	4.04214	0.433911	7.93484	0.695899	12.355	0.741173	13.2275
0.280613	4.8698	0.0841611	1.40715	0.279463	5.30763	0.39205	7.52702	0.574686	10.0597	0.846467	14.8024	0.208275	4.00499	0.434025	7.90615	0.695992	12.1556	0.741924	13.0244
0.28087	4.7967	0.0860606	1.41683	0.279651	5.21886	0.393003	7.42952	0.5752	9.90713	0.846728	14.5696	0.210117	3.96929	0.434191	7.8653	0.696092	11.9627	0.742682	12.8279
0.28114	4.72612	0.0879654	1.42631	0.279852	5.13334	0.394107	7.32142	0.575722	9.75952	0.846994	14.3442	0.211966	3.93496	0.434371	7.82143	0.696198	11.776	0.743446	12.6377
0.281424	4.65794	0.0898754	1.4356	0.280065	5.05093	0.39522	7.21719	0.576253	9.61663	0.847264	14.1259	0.213822	3.90193	0.434619	7.76263	0.696311	11.5951	0.744217	12.4536
0.281722	4.59206	0.0917905	1.44469	0.280291	4.97147	0.396343	7.11661	0.576792	9.47825	0.847538	13.9144	0.215685	3.87013	0.434935	7.68968	0.696431	11.42	0.744994	12.2752
0.282035	4.52838	0.0937104	1.45359	0.28053	4.89482	0.397475	7.01951	0.577339	9.34419	0.847817	13.7092	0.217554	3.83948	0.435322	7.60347	0.696557	11.2501	0.745778	12.1023
0.282361	4.46681	0.0956349	1.46231	0.280782	4.82085	0.398616	6.92571	0.577895	9.21423	0.848099	13.5103	0.21943	3.80994	0.435781	7.50507	0.696691	11.0855	0.746568	11.9347
0.282702	4.40725	0.0975638	1.47085	0.281048	4.74944	0.399766	6.83505	0.578459	9.08821	0.848386	13.3172	0.221311	3.78143	0.436317	7.39562	0.69683	10.9257	0.747364	11.7721
0.283058	4.34962	0.0994971	1.47922	0.281328	4.68047	0.400925	6.74738	0.579031	8.96595	0.848678	13.1297	0.223198	3.75392	0.436861	7.28972	0.696977	10.7707	0.748167	11.6143
0.283429	4.29385	0.101434	1.48742	0.281621	4.61384	0.402093	6.66256	0.579611	8.8473	0.848973	12.9477	0.225091	3.72734	0.437414	7.18721	0.69713	10.6202	0.748976	11.4611
0.283816	4.23985	0.103376	1.49545	0.281929	4.54943	0.403269	6.58046	0.580199	8.7321	0.849273	12.7708	0.226989	3.70166	0.437975	7.08792	0.69729	10.4739	0.749791	11.3123
0.284217	4.18756	0.105321	1.50333	0.28225	4.48716	0.404453	6.50094	0.580796	8.6202	0.849577	12.5988	0.228891	3.67682	0.438545	6.99172	0.697457	10.3318	0.750612	11.1677
0.284634	4.13692	0.107269	1.51105	0.282587	4.42694	0.405645	6.4239	0.581401	8.51148	0.849885	12.4317	0.230799	3.65279	0.439123	6.89848	0.69763	10.1937	0.75144	11.0271
0.285067	4.08785	0.109222	1.51862	0.282938	4.36867	0.406845	6.34922	0.581934	8.41922	0.850198	12.269	0.23271	3.62952	0.439711	6.80805	0.69781	10.0594	0.752273	10.8905
0.285516	4.04031	0.111177	1.52604	0.283304	4.31229	0.408052	6.2768	0.582394	8.34234	0.850515	12.1108	0.234626	3.60699	0.440306	6.72033	0.697997	9.92875	0.753113	10.7575
0.28592	4.00007	0.113136	1.53331	0.283685	4.25771	0.409267	6.20653	0.582778	8.27996	0.850836	11.9567	0.236546	3.58516	0.440911	6.6352	0.698191	9.8016	0.753959	10.6282
0.286274	3.96662	0.115098	1.54045	0.284081	4.20486	0.410489	6.13834	0.583084	8.23138	0.851161	11.8067	0.23847	3.56399	0.441524	6.55256	0.698392	9.67783	0.75481	10.5022
0.286574	3.93953	0.11681	1.54656	0.284493	4.15367	0.411718	6.07212	0.58331	8.19607	0.851491	11.6606	0.240398	3.54346	0.442145	6.47229	0.698599	9.55731	0.755668	10.3796
0.286816	3.91848	0.118271	1.55169	0.28492	4.10408	0.412954	6.0078	0.583455	8.17365	0.851825	11.5182	0.242329	3.52354	0.442775	6.3943	0.698813	9.43991	0.756532	10.2602
0.286996	3.9032	0.119481	1.55588	0.285364	4.05604	0.414197	5.9453	0.583664	8.14166	0.852163	11.3794	0.244264	3.50419	0.443414	6.31852	0.699033	9.32553	0.757401	10.1438
0.287112	3.8935	0.120438	1.55915	0.285823	4.00947	0.415447	5.88454	0.583893	8.10722	0.852505	11.2441	0.246201	3.4854	0.444062	6.24483	0.699261	9.21403	0.758277	10.0303
0.287281	3.87969	0.121142	1.56154	0.286299	3.96433	0.416703	5.82545	0.584205	8.06091	0.852852	11.1121	0.248142	3.46714	0.444718	6.17318	0.699495	9.10533	0.759158	9.91975
0.287467	3.86483	0.121593	1.56306	0.286791	3.92057	0.417965	5.76797	0.584603	8.00321	0.853203	10.9833	0.250085	3.44939	0.445383	6.10347	0.699736	8.99933	0.760045	9.81189
0.287723	3.84488	0.122241	1.56524	0.2873	3.87814	0.419234	5.71204	0.585089	7.93467	0.853559	10.8577	0.252031	3.43213	0.446057	6.03564	0.699983	8.89592	0.760938	9.70667
0.288053	3.82007	0.122946	1.56759	0.287826	3.83698	0.420509	5.65759	0.585664	7.85597	0.853918	10.735	0.25398	3.41534	0.446739	5.96961	0.700238	8.79501	0.761836	9.60398
0.28846	3.79068	0.123906	1.57075	0.28837	3.79706	0.42179	5.60457	0.586332	7.76785	0.854282	10.6153	0.255931	3.39899	0.44743	5.90532	0.700499	8.69652	0.76274	9.50376
0.28895	3.75703	0.12512	1.57472	0.28893	3.75834	0.423076	5.55292	0.587008	7.68199	0.85465	10.4983	0.257885	3.38307	0.448129	5.84271	0.700732	8.6126	0.76365	9.4059
0.289529	3.7195	0.126589	1.57946	0.289509	3.72077	0.424368	5.50259	0.587692	7.5983	0.855023	10.384	0.259841	3.36757	0.448837	5.78171	0.700934	8.54242	0.764566	9.31034
0.290126	3.68309	0.128315	1.58493	0.290105	3.68432	0.425666	5.45353	0.588385	7.5167	0.8554	10.2724	0.261798	3.35246	0.449554	5.72227	0.701105	8.48531	0.765487	9.21698
0.290741	3.64775	0.130297	1.59111	0.29072	3.64895	0.426969	5.4057	0.589085	7.43713	0.855781	10.1633	0.263758	3.33773	0.45028	5.66433	0.701241	8.44074	0.766414	9.12577
0.291375	3.61347	0.132282	1.59717	0.291353	3.61463	0.428278	5.35905	0.589794	7.35951	0.856166	10.0566	0.265719	3.32337	0.451014	5.60784	0.701342	8.40828	0.767346	9.03662
0.292028	3.58019	0.134268	1.60312	0.292005	3.58132	0.429591	5.31354	0.590511	7.28378	0.856556	9.95222	0.267682	3.30936	0.451757	5.55275	0.701408	8.38765	0.768283	8.94946
0.2927	3.5479	0.136257	1.60897	0.292676	3.549	0.43091	5.26913	0.591236	7.20986	0.85695	9.85017	0.269647	3.29568	0.452509	5.49902	0.701502	8.35818	0.769227	8.86425
0.293391	3.51657	0.138248	1.61471	0.293367	3.51763	0.432233	5.22578	0.591969	7.1377	0.857348	9.75032	0.271613	3.28233	0.453269	5.44659	0.701606	8.3264	0.770175	8.7809
0.294102	3.48616	0.14024	1.62035	0.294077	3.48719	0.433562	5.18345	0.59271	7.06725	0.857751	9.65263	0.27358	3.2693	0.454038	5.39543	0.701748	8.2836	0.771006	8.70976
0.294833	3.45665	0.142235	1.62589	0.294807	3.45765	0.434895	5.14211	0.593459	6.99843	0.858158	9.557	0.275549	3.25657	0.454816	5.34549	0.70193	8.23015	0.771718	8.65016
0.295584	3.42801	0.144231	1.63133	0.295558	3.42898	0.436233	5.10173	0.594216	6.93121	0.858569	9.46339	0.277519	3.24413	0.455603	5.29673	0.702154	8.1665	0.772309	8.6016
0.296356	3.40023	0.146229	1.63668	0.29633	3.40117	0.437575	5.06227	0.594982	6.86553	0.858984	9.37173	0.279489	3.23196	0.456398	5.24912	0.702421	8.09318	0.772777	8.56366
0.29715	3.37327	0.148228	1.64194	0.297122	3.37419	0.438922	5.0237	0.595755	6.80133	0.859404	9.28195	0.281461	3.22007	0.457202	5.20262	0.702733	8.01079	0.773123	8.53601
0.297965	3.34713	0.150229	1.6471	0.297937	3.34801	0.440273	4.98599	0.596537	6.73858	0.859828	9.19402	0.283434	3.20844	0.458015	5.1572	0.703053	7.93021	0.773344	8.51843
0.298802	3.32176	0.152231	1.65218	0.298773	3.32262	0.441628	4.94912	0.597326	6.67722	0.860257	9.10786	0.285407	3.19706	0.458837	5.11281	0.703379	7.85137	0.773663	8.4933
0.299662	3.29717	0.154235	1.65717	0.299632	3.298	0.442987	4.91305	0.598124	6.61722	0.860689	9.02343	0.287381	3.18593	0.459667	5.06943	0.703711	7.77423	0.77401	8.46618
0.300544	3.27332	0.156241	1.66208	0.300514	3.27413	0.44435	4.87777	0.59893	6.55853	0.861126	8.94068	0.289356	3.17502	0.460506	5.02703	0.704051	7.69874	0.774483	8.42963
0.30145	3.25021	0.158247	1.66691	0.301419	3.25099	0.445718	4.84324	0.599743	6.50112	0.861511	8.86991	0.291331	3.16435	0.461354	4.98558	0.704397	7.62484	0.775083	8.38393
0.30238	3.22781	0.160255	1.67165	0.302348	3.22857	0.447089	4.80945	0.600565	6.44493	0.861841	8.81052	0.293307	3.15389	0.462211	4.94505	0.704749	7.55249	0.775811	8.32945
0.303334	3.20611	0.162264	1.67632	0.303301	3.20684	0.448463	4.77637	0.601395	6.38995	0.862116	8.76207	0.295283	3.14364	0.463076	4.90541	0.705108	7.48163	0.776669	8.2666
0.304313	3.18509	0.164274	1.6809	0.304279	3.1858	0.449842	4.74397	0.602233	6.33613	0.862334	8.72416	0.297259	3.1336	0.46395	4.86664	0.705474	7.41224	0.777659	8.19586
0.305317	3.16474	0.166286	1.68542	0.305283	3.16543	0.451224	4.71225	0.603079	6.28343	0.862496	8.69652	0.299236	3.12376	0.464833	4.82871	0.705846	7.34426	0.778653	8.12655
0.306348	3.14505	0.168298	1.68986	0.306312	3.14571	0.452609	4.68117	0.603932	6.23183	0.862599	8.67893	0.301212	3.1141	0.465725	4.7916	0.706225	7.27765	0.779653	8.05862
0.307404	3.12599	0.170312	1.69422	0.307368	3.12664	0.453998	4.65072	0.604794	6.1813	0.862748	8.65377	0.303189	3.10463	0.466626	4.75528	0.706611	7.21237	0.780658	7.99204
0.308488	3.10757	0.172326	1.69852	0.30845	3.10819	0.45539	4.62088	0.605664	6.1318	0.862911	8.62661	0.305166	3.09534	0.467535	4.71974	0.707003	7.1484	0.781668	7.92677
0.309599	3.08977	0.174341	1.70275	0.309561	3.09037	0.456785	4.59163	0.606541	6.0833	0.863133	8.58997	0.307142	3.08622	0.468453	4.68494	0.707401	7.08568	0.782683	7.86278
0.310739	3.07257	0.176358	1.70691	0.310699	3.07315	0.458184	4.56295	0.607427	6.03578	0.863416	8.54412	0.309118	3.07727	0.46938	4.65088	0.707807	7.02418	0.783703	7.80002
0.311906	3.05596	0.178375	1.711	0.311866	3.05652	0.459586	4.53483	0.60832	5.98921	0.863759	8.48938	0.311095	3.06849	0.470316	4.61752	0.708218	6.96388	0.784728	7.73846
0.313103	3.03994	0.180393	1.71503	0.313062	3.04048	0.46099	4.50726	0.609222	5.94357	0.864166	8.42613	0.31307	3.05985	0.471261	4.58486	0.708637	6.90474	0.785758	7.67807
0.31433	3.02449	0.182411	1.71899	0.314287	3.02501	0.462398	4.48021	0.610131	5.89882	0.864636	8.35481	0.315046	3.05138	0.472214	4.55287	0.709061	6.84672	0.786793	7.61882
0.315586	3.0096	0.184431	1.7229	0.315542	3.0101	0.463808	4.45367	0.611048	5.85495	0.86511	8.28481	0.317021	3.04304	0.473177	4.52153	0.709493	6.7898	0.787832	7.56068
0.316873	2.99525	0.186451	1.72674	0.316828	2.99574	0.465221	4.42763	0.611973	5.81193	0.865589	8.21609	0.318995	3.03486	0.474148	4.49083	0.70993	6.73395	0.788877	7.50361
0.318191	2.98145	0.188471	1.73052	0.318145	2.98192	0.466637	4.40207	0.612906	5.76974	0.866072	8.14862	0.320969	3.02681	0.475128	4.46075	0.710374	6.67914	0.789926	7.44759
0.319539	2.96818	0.190493	1.73425	0.319493	2.96863	0.468056	4.37698	0.613847	5.72835	0.86656	8.08235	0.322943	3.01889	0.476117	4.43127	0.710825	6.62533	0.79098	7.39259
0.32092	2.95542	0.192515	1.73791	0.320872	2.95585	0.469477	4.35235	0.614796	5.68775	0.867052	8.01727	0.324915	3.01111	0.477115	4.40238	0.711282	6.57252	0.792039	7.33859
0.322332	2.94317	0.194537	1.74152	0.322283	2.94358	0.470901	4.32816	0.615752	5.64791	0.867548	7.95334	0.326887	3.00345	0.478121	4.37407	0.711746	6.52066	0.793103	7.28555
0.323775	2.93142	0.19656	1.74508	0.323725	2.93181	0.472327	4.30441	0.616716	5.60883	0.868049	7.89053	0.328859	2.99591	0.479137	4.34631	0.712216	6.46975	0.794172	7.23346
0.325251	2.92014	0.198584	1.74858	0.3252	2.92052	0.473756	4.28108	0.617688	5.57046	0.868553	7.82882	0.330829	2.9885	0.480161	4.3191	0.712692	6.41974	0.795245	7.18228
0.326759	2.90934	0.200608	1.75203	0.326706	2.90971	0.475187	4.25816	0.618668	5.53281	0.869063	7.76817	0.332798	2.9812	0.481194	4.29242	0.713175	6.37062	0.796323	7.132
0.328298	2.899	0.202632	1.75543	0.328245	2.89935	0.47662	4.23564	0.619655	5.49585	0.869576	7.70856	0.334767	2.97401	0.482237	4.26626	0.713664	6.32237	0.797405	7.0826
0.329869	2.8891	0.204657	1.75877	0.329814	2.88944	0.478056	4.21351	0.62065	5.45956	0.870094	7.64997	0.336734	2.96693	0.483288	4.24061	0.71416	6.27497	0.798492	7.03404
0.331471	2.87964	0.206682	1.76207	0.331416	2.87996	0.479493	4.19176	0.621653	5.42393	0.870616	7.59237	0.338701	2.95996	0.484348	4.21544	0.714662	6.22839	0.799583	6.98632
0.333105	2.8706	0.208708	1.76531	0.333048	2.8709	0.480933	4.17038	0.622664	5.38894	0.871142	7.53573	0.340666	2.95309	0.485416	4.19076	0.71517	6.18262	0.800679	6.9394
0.334769	2.86196	0.210734	1.76851	0.334712	2.86225	0.482375	4.14936	0.623682	5.35458	0.871673	7.48004	0.34263	2.94632	0.486494	4.16655	0.715684	6.13763	0.80178	6.89328
0.336464	2.85372	0.21276	1.77167	0.336405	2.85399	0.483819	4.12869	0.624708	5.32082	0.872208	7.42527	0.344593	2.93965	0.487581	4.1428	0.716205	6.09341	0.802885	6.84793
0.338188	2.84585	0.214787	1.77477	0.338128	2.84611	0.485265	4.10837	0.625741	5.28766	0.872748	7.37139	0.346554	2.93307	0.488676	4.1195	0.716733	6.04994	0.803994	6.80333
0.339941	2.83835	0.216813	1.77783	0.339881	2.8386	0.486713	4.08838	0.626782	5.25509	0.873292	7.31839	0.348515	2.92658	0.489781	4.09663	0.717266	6.0072	0.805108	6.75946
0.341723	2.8312	0.21884	1.78085	0.341661	2.83144	0.488162	4.06871	0.627831	5.22308	0.87384	7.26625	0.350474	2.92018	0.490894	4.0742	0.717806	5.96518	0.806227	6.71631
0.343532	2.82439	0.220868	1.78382	0.343469	2.82462	0.489614	4.04936	0.628887	5.19163	0.874392	7.21495	0.352431	2.91387	0.492016	4.05218	0.718352	5.92385	0.807349	6.67386
0.345368	2.8179	0.222895	1.78675	0.345305	2.81812	0.491067	4.03033	0.629951	5.16072	0.874949	7.16447	0.354387	2.90765	0.493147	4.03056	0.718904	5.8832	0.808476	6.6321
0.34723	2.81172	0.224923	1.78964	0.347166	2.81193	0.492522	4.0116	0.631022	5.13033	0.87551	7.11478	0.356342	2.90151	0.494287	4.00935	0.719463	5.84322	0.809607	6.59101
0.349118	2.80583	0.22695	1.79248	0.349052	2.80603	0.493979	3.99316	0.632101	5.10047	0.876076	7.06588	0.358295	2.89544	0.495436	3.98853	0.720028	5.80389	0.810743	6.55056
0.351029	2.80023	0.228978	1.79529	0.350963	2.80042	0.495438	3.97501	0.633188	5.07111	0.876646	7.01774	0.360246	2.88946	0.496594	3.96808	0.720599	5.7652	0.811882	6.51076
0.352964	2.79489	0.231006	1.79805	0.352898	2.79507	0.496898	3.95714	0.634281	5.04225	0.87722	6.97035	0.362196	2.88355	0.49776	3.94801	0.721176	5.72712	0.813026	6.47158
0.354922	2.78981	0.233034	1.80078	0.354854	2.78998	0.498359	3.93955	0.635382	5.01386	0.877799	6.92369	0.364144	2.87771	0.498936	3.92831	0.721759	5.68966	0.814174	6.43301
0.356901	2.78497	0.235062	1.80347	0.356833	2.78514	0.499823	3.92223	0.636491	4.98595	0.878381	6.87774	0.366091	2.87195	0.50012	3.90896	0.722349	5.65279	0.815327	6.39504
0.358901	2.78037	0.237091	1.80612	0.358832	2.78052	0.501287	3.90518	0.637607	4.95851	0.878969	6.8325	0.368036	2.86626	0.501314	3.88996	0.722944	5.6165	0.816483	6.35765
0.36092	2.77598	0.239119	1.80873	0.360851	2.77612	0.502754	3.88838	0.63873	4.93151	0.87956	6.78794	0.369978	2.86063	0.502516	3.8713	0.723546	5.58078	0.817643	6.32083
0.362959	2.77179	0.241147	1.81131	0.362889	2.77193	0.504221	3.87183	0.639861	4.90496	0.880156	6.74404	0.37192	2.85507	0.503727	3.85297	0.724154	5.54562	0.818808	6.28456
0.365016	2.7678	0.243175	1.81385	0.364945	2.76794	0.50569	3.85553	0.640999	4.87883	0.880756	6.70081	0.373859	2.84958	0.504947	3.83497	0.724768	5.511	0.819976	6.24885
0.367089	2.764	0.245203	1.81635	0.367018	2.76413	0.507161	3.83946	0.642144	4.85313	0.881361	6.65821	0.375796	2.84415	0.506176	3.8173	0.725388	5.47691	0.821148	6.21366
0.369179	2.76037	0.247231	1.81882	0.369108	2.7605	0.508633	3.82364	0.643296	4.82785	0.88197	6.61624	0.377732	2.83878	0.507413	3.79993	0.726015	5.44335	0.822325	6.179
0.371285	2.75691	0.249259	1.82126	0.371213	2.75703	0.510106	3.80804	0.644456	4.80297	0.882583	6.57489	0.379665	2.83347	0.50866	3.78287	0.726647	5.4103	0.823505	6.14485
0.373406	2.75361	0.251287	1.82366	0.373333	2.75372	0.511581	3.79267	0.645623	4.77848	0.883201	6.53414	0.381597	2.82822	0.509915	3.76611	0.727285	5.37775	0.824689	6.1112
0.37554	2.75045	0.253315	1.82603	0.375467	2.75056	0.513056	3.77752	0.646797	4.75439	0.883823	6.49398	0.383526	2.82303	0.511179	3.74964	0.72793	5.34568	0.825878	6.07804
0.377688	2.74744	0.255343	1.82837	0.377614	2.74754	0.514534	3.76258	0.647978	4.73067	0.884449	6.4544	0.385454	2.81789	0.512452	3.73347	0.72858	5.3141	0.827069	6.04536
0.379849	2.74455	0.257371	1.83068	0.379775	2.74465	0.516012	3.74786	0.649166	4.70733	0.88508	6.41538	0.387379	2.81281	0.513734	3.71757	0.729237	5.28299	0.828265	6.01315
0.382022	2.7418	0.259398	1.83295	0.381947	2.74189	0.517491	3.73334	0.650361	4.68435	0.885715	6.37692	0.389302	2.80778	0.515024	3.70195	0.729899	5.25234	0.829465	5.9814
0.384206	2.73915	0.261426	1.83519	0.384131	2.73924	0.518972	3.71903	0.651564	4.66172	0.886355	6.339	0.391224	2.8028	0.516324	3.6866	0.730568	5.22214	0.830668	5.9501
0.386401	2.73663	0.263453	1.83741	0.386325	2.73671	0.520454	3.70491	0.652773	4.63945	0.886998	6.30161	0.393143	2.79787	0.517632	3.67152	0.731242	5.19238	0.831875	5.91925
0.388606	2.7342	0.26548	1.83959	0.38853	2.73428	0.521937	3.69099	0.653989	4.61752	0.887647	6.26475	0.395059	2.79299	0.518949	3.65669	0.731923	5.16305	0.833086	5.88882
0.390821	2.73188	0.267507	1.84175	0.390745	2.73195	0.523421	3.67725	0.655212	4.59592	0.888299	6.2284	0.396974	2.78816	0.520274	3.64212	0.732609	5.13415	0.8343	5.85882
0.393045	2.72965	0.269533	1.84387	0.392968	2.72972	0.524907	3.66371	0.656442	4.57465	0.888956	6.19255	0.398887	2.78338	0.521608	3.6278	0.733301	5.10566	0.835518	5.82923
0.395278	2.7275	0.27156	1.84597	0.395201	2.72758	0.526393	3.65034	0.657679	4.5537	0.889617	6.1572	0.400797	2.77865	0.522951	3.61372	0.733999	5.07759	0.83674	5.80005
0.397519	2.72545	0.273586	1.84804	0.397442	2.72552	0.52788	3.63716	0.658923	4.53307	0.890283	6.12232	0.402705	2.77396	0.524303	3.59989	0.734703	5.04991	0.837965	5.77128
0.399768	2.72347	0.275612	1.85008	0.39969	2.72353	0.529369	3.62415	0.660173	4.51275	0.890952	6.08792	0.40461	2.76931	0.525663	3.58629	0.735413	5.02262	0.839194	5.74289
0.402024	2.72157	0.277638	1.85209	0.401947	2.72163	0.530859	3.61131	0.661431	4.49273	0.891627	6.05399	0.406514	2.76471	0.527032	3.57291	0.736129	4.99573	0.840426	5.71488
0.404287	2.71973	0.279663	1.85408	0.40421	2.7198	0.532349	3.59865	0.662695	4.47301	0.892305	6.02051	0.408415	2.76015	0.52841	3.55977	0.736851	4.9692	0.841662	5.68725
0.406557	2.71797	0.281688	1.85604	0.406479	2.71803	0.533841	3.58615	0.663966	4.45358	0.892988	5.98748	0.410313	2.75563	0.529796	3.54685	0.737579	4.94305	0.842901	5.65999
0.408834	2.71627	0.283713	1.85798	0.408756	2.71632	0.535334	3.57381	0.665243	4.43444	0.893676	5.95489	0.41221	2.75115	0.531191	3.53414	0.738312	4.91726	0.844144	5.6331
0.411116	2.71463	0.285738	1.85989	0.411038	2.71468	0.536828	3.56163	0.666527	4.41557	0.894367	5.92273	0.414104	2.74671	0.532594	3.52164	0.739051	4.89183	0.84539	5.60656
0.413404	2.71304	0.287762	1.86178	0.413325	2.7131	0.538323	3.5496	0.667817	4.39698	0.895063	5.89099	0.415996	2.74231	0.534006	3.50936	0.739796	4.86675	0.84664	5.58036
0.415697	2.71151	0.289786	1.86364	0.415618	2.71157	0.539818	3.53773	0.669115	4.37866	0.895764	5.85967	0.417885	2.73795	0.535426	3.49728	0.740547	4.84201	0.847892	5.55451
0.417996	2.71004	0.29181	1.86547	0.417917	2.71009	0.541315	3.52601	0.670418	4.36061	0.896469	5.82875	0.419772	2.73363	0.536855	3.4854	0.741303	4.81761	0.849149	5.52899
0.420299	2.70861	0.293833	1.86729	0.42022	2.70866	0.542813	3.51444	0.671728	4.34281	0.897178	5.79824	0.421656	2.72934	0.538292	3.47372	0.742066	4.79354	0.850408	5.5038
0.422606	2.70722	0.295856	1.86907	0.422527	2.70727	0.544312	3.50301	0.673045	4.32527	0.897891	5.76812	0.423539	2.72509	0.539737	3.46223	0.742834	4.76979	0.851671	5.47894
0.424918	2.70589	0.297878	1.87084	0.424839	2.70593	0.545812	3.49173	0.674367	4.30797	0.898609	5.73839	0.425419	2.72087	0.541191	3.45093	0.743608	4.74637	0.852937	5.45439
0.427235	2.70459	0.2999	1.87258	0.427155	2.70463	0.547313	3.48059	0.675697	4.29093	0.899331	5.70903	0.427296	2.71669	0.542653	3.43982	0.744387	4.72325	0.854206	5.43015
0.429554	2.70333	0.301922	1.8743	0.429475	2.70337	0.548815	3.46958	0.677032	4.27412	0.900058	5.68005	0.429171	2.71254	0.544124	3.42889	0.745173	4.70045	0.855478	5.40622
0.431878	2.70211	0.303944	1.876	0.431798	2.70215	0.550318	3.45871	0.678374	4.25755	0.900789	5.65143	0.431044	2.70843	0.545602	3.41814	0.745963	4.67795	0.856754	5.38259
0.434205	2.70093	0.305965	1.87768	0.434125	2.70097	0.551822	3.44797	0.679722	4.24121	0.901524	5.62318	0.432914	2.70435	0.547089	3.40756	0.74676	4.65574	0.858032	5.35925
0.436536	2.69977	0.307985	1.87933	0.436456	2.69981	0.553327	3.43737	0.681076	4.22509	0.902264	5.59528	0.434782	2.7003	0.548584	3.39716	0.747562	4.63383	0.859314	5.33621
0.438869	2.69866	0.310005	1.88096	0.438789	2.69869	0.554833	3.42689	0.682436	4.2092	0.903008	5.56772	0.436648	2.69629	0.550087	3.38693	0.74837	4.6122	0.860599	5.31344
0.441205	2.69757	0.312025	1.88258	0.441125	2.6976	0.55634	3.41653	0.683802	4.19353	0.903756	5.54051	0.438511	2.6923	0.551599	3.37686	0.749184	4.59085	0.861887	5.29096
0.443545	2.69651	0.314044	1.88417	0.443464	2.69655	0.557848	3.40631	0.685174	4.17807	0.904509	5.51363	0.440372	2.68835	0.553118	3.36696	0.750003	4.56978	0.863178	5.26875
0.445886	2.69548	0.316063	1.88574	0.445806	2.69551	0.559357	3.3962	0.686553	4.16283	0.905266	5.48708	0.44223	2.68443	0.554645	3.35722	0.750828	4.54898	0.864471	5.24681
0.448231	2.69447	0.318081	1.88729	0.44815	2.69451	0.560867	3.38621	0.687937	4.14779	0.906028	5.46086	0.444086	2.68054	0.55618	3.34763	0.751659	4.52845	0.865768	5.22513
0.450577	2.69349	0.320099	1.88882	0.450497	2.69353	0.562379	3.37635	0.689327	4.13295	0.906794	5.43495	0.44594	2.67667	0.557723	3.3382	0.752495	4.50818	0.867068	5.20371
0.452926	2.69254	0.322117	1.89033	0.452845	2.69257	0.563891	3.36659	0.690723	4.11832	0.907564	5.40936	0.447792	2.67284	0.559274	3.32892	0.753336	4.48818	0.86837	5.18255
0.455277	2.69161	0.324134	1.89183	0.455196	2.69164	0.565404	3.35696	0.692125	4.10388	0.908339	5.38408	0.449641	2.66903	0.560833	3.31978	0.754184	4.46842	0.869676	5.16164
0.45763	2.69069	0.32615	1.8933	0.457549	2.69073	0.566919	3.34743	0.693532	4.08963	0.909118	5.3591	0.451488	2.66526	0.5624	3.3108	0.755036	4.44891	0.870984	5.14098
0.459984	2.6898	0.328166	1.89476	0.459903	2.68983	0.568435	3.33802	0.694945	4.07557	0.909901	5.33442	0.453333	2.66151	0.563974	3.30195	0.755895	4.42965	0.872295	5.12056
0.462341	2.68893	0.330182	1.89619	0.46226	2.68896	0.569951	3.32871	0.696364	4.0617	0.910689	5.31004	0.455175	2.65779	0.565555	3.29325	0.756758	4.41063	0.873609	5.10038
0.464698	2.68808	0.332197	1.89761	0.464618	2.68811	0.571469	3.31951	0.697789	4.04801	0.911481	5.28594	0.457015	2.65409	0.567145	3.28468	0.757628	4.39185	0.874926	5.08043
0.467058	2.68725	0.334211	1.89901	0.466977	2.68727	0.572988	3.31042	0.699219	4.0345	0.912277	5.26213	0.458853	2.65043	0.568742	3.27625	0.758503	4.3733	0.876245	5.06071
0.469419	2.68643	0.336225	1.90039	0.469338	2.68646	0.574509	3.30144	0.700655	4.02117	0.913078	5.23859	0.460689	2.64679	0.570346	3.26796	0.759383	4.35499	0.877567	5.04122
0.471781	2.68563	0.338238	1.90176	0.4717	2.68565	0.57603	3.29255	0.702096	4.00801	0.913883	5.21534	0.462523	2.64318	0.571958	3.25979	0.760269	4.33689	0.878892	5.02195
0.474144	2.68484	0.340251	1.90311	0.474063	2.68487	0.577553	3.28377	0.703542	3.99502	0.914693	5.19235	0.464355	2.63959	0.573577	3.25175	0.76116	4.31902	0.88022	5.0029
0.476508	2.68407	0.342263	1.90444	0.476427	2.68409	0.579077	3.27508	0.704994	3.98219	0.915507	5.16963	0.466184	2.63603	0.575203	3.24383	0.762057	4.30137	0.88155	4.98407
0.478874	2.68331	0.344275	1.90575	0.478793	2.68334	0.580602	3.2665	0.706452	3.96954	0.916325	5.14717	0.468012	2.63249	0.576836	3.23604	0.762959	4.28394	0.882882	4.96545
0.48124	2.68256	0.346286	1.90705	0.481159	2.68259	0.582129	3.25801	0.707914	3.95704	0.917148	5.12497	0.469837	2.62898	0.578477	3.22837	0.763867	4.26671	0.884218	4.94704
0.483608	2.68183	0.348297	1.90833	0.483526	2.68186	0.583656	3.24961	0.709382	3.9447	0.917975	5.10302	0.47166	2.6255	0.580125	3.22082	0.76478	4.2497	0.885555	4.92883
0.485976	2.68111	0.350307	1.90959	0.485894	2.68114	0.585186	3.24131	0.710855	3.93252	0.918807	5.08133	0.473482	2.62204	0.58178	3.21339	0.765699	4.23289	0.886896	4.91082
0.488344	2.6804	0.352317	1.91084	0.488263	2.68043	0.586716	3.2331	0.712333	3.92049	0.919643	5.05988	0.475301	2.6186	0.583441	3.20607	0.766623	4.21628	0.888238	4.89301
0.490714	2.6797	0.354325	1.91208	0.490632	2.67973	0.588248	3.22499	0.713816	3.90861	0.920483	5.03867	0.477119	2.61519	0.58511	3.19886	0.767552	4.19987	0.889584	4.8754
0.493083	2.67901	0.356334	1.9133	0.493002	2.67904	0.589781	3.21696	0.715304	3.89687	0.921327	5.0177	0.478934	2.6118	0.586785	3.19176	0.768487	4.18365	0.890931	4.85798
0.495454	2.67833	0.358341	1.9145	0.495372	2.67836	0.591316	3.20903	0.716798	3.88529	0.922176	4.99697	0.480748	2.60844	0.588467	3.18477	0.769427	4.16763	0.892281	4.84075
0.497824	2.67766	0.360349	1.91569	0.497743	2.67769	0.592852	3.20118	0.718296	3.87385	0.92303	4.97647	0.48256	2.6051	0.590156	3.17789	0.770372	4.1518	0.893634	4.82371
0.500196	2.677	0.362355	1.91686	0.500114	2.67702	0.59439	3.19342	0.719799	3.86254	0.923887	4.9562	0.48437	2.60179	0.591852	3.17111	0.771323	4.13616	0.894989	4.80685
0.502567	2.67635	0.364361	1.91802	0.502486	2.67637	0.595929	3.18574	0.721307	3.85138	0.92475	4.93616	0.486179	2.5985	0.593554	3.16443	0.772279	4.1207	0.896346	4.79017
0.504938	2.6757	0.366366	1.91916	0.504857	2.67572	0.59747	3.17815	0.72282	3.84035	0.925616	4.91633	0.487985	2.59523	0.595262	3.15785	0.773241	4.10542	0.897705	4.77366
0.50731	2.67506	0.368371	1.92029	0.507229	2.67508	0.599013	3.17064	0.724337	3.82946	0.926487	4.89672	0.48979	2.59199	0.596977	3.15137	0.774208	4.09032	0.899067	4.75733
0.509682	2.67443	0.370375	1.9214	0.5096	2.67445	0.600557	3.16321	0.725859	3.8187	0.927362	4.87733	0.491594	2.58877	0.598698	3.14499	0.77518	4.07539	0.900431	4.74118
0.512053	2.6738	0.372378	1.9225	0.511972	2.67382	0.602103	3.15587	0.727386	3.80806	0.928242	4.85815	0.493395	2.58557	0.600425	3.1387	0.776158	4.06064	0.901797	4.72519
0.514425	2.67318	0.374381	1.92359	0.514344	2.6732	0.60365	3.1486	0.728917	3.79756	0.929126	4.83918	0.495196	2.5824	0.602159	3.13251	0.77714	4.04606	0.903166	4.70937
0.516797	2.67257	0.376383	1.92466	0.516715	2.67259	0.605199	3.14142	0.730453	3.78718	0.930014	4.82042	0.496994	2.57925	0.603898	3.1264	0.778129	4.03165	0.904536	4.69371
0.519168	2.67195	0.378385	1.92572	0.519087	2.67198	0.606751	3.13431	0.731994	3.77692	0.930907	4.80186	0.498792	2.57612	0.605644	3.12039	0.779122	4.01741	0.905909	4.67822
0.521539	2.67135	0.380385	1.92677	0.521458	2.67137	0.608303	3.12728	0.733539	3.76678	0.931804	4.7835	0.500588	2.57301	0.607395	3.11446	0.780121	4.00332	0.907284	4.66288
0.52391	2.67075	0.382385	1.9278	0.523828	2.67077	0.609858	3.12033	0.735088	3.75676	0.932706	4.76533	0.502382	2.56993	0.609152	3.10862	0.781124	3.9894	0.908661	4.64771
0.52628	2.67015	0.384385	1.92882	0.526199	2.67017	0.611415	3.11345	0.736642	3.74686	0.933612	4.74736	0.504175	2.56687	0.610915	3.10286	0.782134	3.97564	0.91004	4.63268
0.52865	2.66955	0.386384	1.92983	0.528569	2.66957	0.612974	3.10665	0.7382	3.73708	0.934522	4.72958	0.505967	2.56383	0.612684	3.09719	0.783148	3.96203	0.911421	4.61781
0.531019	2.66896	0.388382	1.93083	0.530938	2.66898	0.614534	3.09992	0.739762	3.7274	0.935437	4.712	0.507758	2.56081	0.614458	3.0916	0.784168	3.94858	0.912804	4.60309
0.533388	2.66837	0.390379	1.93181	0.533307	2.66839	0.616097	3.09326	0.741328	3.71784	0.936356	4.69459	0.509547	2.55782	0.616238	3.08609	0.785193	3.93528	0.914189	4.58852
0.535756	2.66778	0.392376	1.93278	0.535675	2.6678	0.617662	3.08668	0.742898	3.70839	0.937279	4.67737	0.511335	2.55484	0.618023	3.08066	0.786223	3.92212	0.915576	4.57409
0.538124	2.6672	0.394372	1.93374	0.538042	2.66722	0.619229	3.08017	0.744473	3.69905	0.938207	4.66034	0.513122	2.55189	0.619814	3.0753	0.787258	3.90912	0.916965	4.5598
0.54049	2.66661	0.396368	1.93468	0.540409	2.66663	0.620798	3.07373	0.746052	3.68981	0.93914	4.64348	0.514908	2.54896	0.62161	3.07002	0.788299	3.89626	0.918356	4.54566
0.542856	2.66603	0.398363	1.93562	0.542775	2.66605	0.622369	3.06736	0.747634	3.68068	0.940076	4.62679	0.516693	2.54606	0.623411	3.06481	0.789345	3.88355	0.919749	4.53165
0.545221	2.66545	0.400357	1.93654	0.54514	2.66547	0.623943	3.06106	0.749221	3.67165	0.941017	4.61028	0.518477	2.54317	0.625217	3.05968	0.790396	3.87097	0.921144	4.51779
0.547585	2.66487	0.40235	1.93745	0.547504	2.66489	0.625519	3.05483	0.750811	3.66272	0.941963	4.59395	0.52026	2.54031	0.627029	3.05461	0.791452	3.85854	0.92254	4.50406
0.549948	2.66429	0.404343	1.93835	0.549867	2.66431	0.627097	3.04867	0.752405	3.65389	0.942912	4.57778	0.522042	2.53747	0.628845	3.04962	0.792513	3.84624	0.923938	4.49046
0.55231	2.66371	0.406335	1.93924	0.552229	2.66373	0.628678	3.04257	0.754003	3.64515	0.943867	4.56178	0.523823	2.53465	0.630666	3.04469	0.79358	3.83408	0.925339	4.47699
0.554671	2.66312	0.408326	1.94011	0.55459	2.66314	0.630262	3.03654	0.755605	3.63652	0.944825	4.54594	0.525604	2.53185	0.632492	3.03984	0.794651	3.82206	0.926741	4.46365
0.55703	2.66254	0.410317	1.94098	0.556949	2.66256	0.631848	3.03058	0.757211	3.62798	0.945788	4.53027	0.527383	2.52907	0.634323	3.03504	0.795728	3.81016	0.928144	4.45044
0.559388	2.66196	0.412306	1.94183	0.559307	2.66198	0.633436	3.02469	0.75882	3.61953	0.946756	4.51475	0.529162	2.52631	0.636158	3.03032	0.796811	3.7984	0.92955	4.43736
0.561745	2.66137	0.414295	1.94268	0.561664	2.6614	0.635028	3.01885	0.760433	3.61117	0.947728	4.4994	0.530941	2.52358	0.637998	3.02565	0.797898	3.78676	0.930957	4.42439
0.5641	2.66079	0.416284	1.94351	0.56402	2.66081	0.636622	3.01309	0.762049	3.60291	0.948704	4.4842	0.532718	2.52086	0.639842	3.02105	0.79899	3.77525	0.932365	4.41156
0.566454	2.6602	0.418272	1.94433	0.566373	2.66022	0.638219	3.00738	0.763669	3.59473	0.949684	4.46915	0.534495	2.51817	0.641691	3.01651	0.800088	3.76387	0.933776	4.39884
0.568806	2.65961	0.420259	1.94515	0.568726	2.65963	0.639819	3.00175	0.765292	3.58664	0.95067	4.45425	0.536271	2.5155	0.643544	3.01203	0.80119	3.75261	0.935188	4.38624
0.571157	2.65902	0.422245	1.94595	0.571076	2.65904	0.641422	2.99617	0.766918	3.57864	0.951659	4.43951	0.538047	2.51285	0.645401	3.0076	0.802298	3.74147	0.936602	4.37376
0.573506	2.65842	0.42423	1.94674	0.573425	2.65844	0.643029	2.99066	0.768548	3.57072	0.952653	4.42491	0.539823	2.51021	0.647262	3.00324	0.803411	3.73045	0.938017	4.36139
0.575853	2.65782	0.426215	1.94752	0.575772	2.65784	0.644638	2.98521	0.770182	3.56289	0.953651	4.41046	0.541598	2.5076	0.649127	2.99893	0.804529	3.71955	0.939434	4.34914
0.578198	2.65722	0.428199	1.94829	0.578117	2.65724	0.64625	2.97982	0.771818	3.55513	0.954654	4.39616	0.543373	2.50502	0.650997	2.99468	0.805653	3.70877	0.940852	4.337
0.580541	2.65661	0.430183	1.94905	0.58046	2.65663	0.647866	2.97449	0.773458	3.54746	0.955661	4.382	0.545147	2.50245	0.65287	2.99048	0.806781	3.69811	0.942272	4.32497
0.582882	2.656	0.432165	1.94981	0.582801	2.65602	0.649485	2.96922	0.775101	3.53987	0.956672	4.36797	0.546921	2.4999	0.654747	2.98633	0.807915	3.68755	0.943693	4.31305
0.58522	2.65538	0.434147	1.95055	0.58514	2.6554	0.651108	2.96401	0.776747	3.53236	0.957688	4.35409	0.548695	2.49737	0.656628	2.98223	0.809053	3.67711	0.945116	4.30123
0.587557	2.65476	0.436128	1.95128	0.587477	2.65478	0.652734	2.95887	0.778396	3.52492	0.958708	4.34034	0.550468	2.49486	0.658513	2.97819	0.810197	3.66678	0.94654	4.28953
0.589891	2.65414	0.438108	1.952	0.589811	2.65416	0.654364	2.95378	0.780048	3.51756	0.959733	4.32673	0.552242	2.49238	0.660401	2.9742	0.811346	3.65657	0.947966	4.27792
0.592223	2.6535	0.440088	1.95272	0.592143	2.65353	0.655998	2.94875	0.781703	3.51028	0.960762	4.31325	0.554015	2.48991	0.662292	2.97025	0.8125	3.64645	0.949393	4.26643
0.594552	2.65287	0.442067	1.95342	0.594472	2.65289	0.657635	2.94379	0.783361	3.50307	0.961795	4.29991	0.555788	2.48746	0.664187	2.96636	0.813659	3.63645	0.950822	4.25503
0.596879	2.65222	0.444045	1.95412	0.596799	2.65224	0.659276	2.93888	0.785022	3.49593	0.962833	4.28669	0.557561	2.48504	0.666086	2.96251	0.814823	3.62655	0.952251	4.24374
0.599202	2.65157	0.446022	1.95481	0.599123	2.65159	0.660922	2.93402	0.786685	3.48886	0.963876	4.27361	0.559335	2.48263	0.667987	2.95871	0.815992	3.61676	0.953683	4.23254
0.601523	2.65091	0.447999	1.95548	0.601444	2.65093	0.662571	2.92923	0.788352	3.48187	0.964922	4.26065	0.561108	2.48024	0.669892	2.95495	0.817167	3.60707	0.955115	4.22144
0.603841	2.65024	0.449975	1.95615	0.603762	2.65027	0.664225	2.9245	0.790021	3.47494	0.965974	4.24781	0.562881	2.47788	0.6718	2.95124	0.818346	3.59748	0.956549	4.21044
0.606156	2.64957	0.45195	1.95681	0.606077	2.64959	0.665883	2.91982	0.791693	3.46808	0.967029	4.2351	0.564654	2.47553	0.673711	2.94757	0.819531	3.58799	0.957984	4.19953
0.608468	2.64889	0.453924	1.95747	0.608389	2.64891	0.667545	2.9152	0.793367	3.46129	0.968089	4.22252	0.566428	2.4732	0.675625	2.94394	0.820721	3.5786	0.95942	4.18872
0.610777	2.6482	0.455898	1.95811	0.610698	2.64822	0.669213	2.91064	0.795045	3.45456	0.969154	4.21005	0.568201	2.4709	0.677542	2.94036	0.821916	3.56931	0.960858	4.178
0.613082	2.6475	0.457871	1.95874	0.613003	2.64752	0.670884	2.90613	0.796724	3.4479	0.970222	4.1977	0.569975	2.46861	0.679462	2.93681	0.823116	3.56012	0.962297	4.16738
0.615384	2.64679	0.459843	1.95937	0.615305	2.64681	0.672561	2.90168	0.798406	3.44131	0.971296	4.18547	0.571749	2.46634	0.681384	2.93331	0.824321	3.55102	0.963737	4.15684
0.617682	2.64607	0.461814	1.95999	0.617603	2.64609	0.674242	2.89729	0.800091	3.43478	0.972373	4.17336	0.573523	2.46409	0.683309	2.92985	0.825531	3.54202	0.965178	4.14639
0.619976	2.64534	0.463785	1.9606	0.619898	2.64536	0.675929	2.89296	0.801778	3.42831	0.973455	4.16137	0.575298	2.46186	0.685237	2.92642	0.826746	3.53311	0.96662	4.13604
0.622267	2.6446	0.465754	1.9612	0.622188	2.64462	0.67762	2.88868	0.803468	3.4219	0.974542	4.14949	0.577073	2.45965	0.687167	2.92303	0.827966	3.52429	0.968063	4.12576
0.624553	2.64385	0.467723	1.9618	0.624475	2.64387	0.679317	2.88445	0.80516	3.41555	0.975633	4.13772	0.578849	2.45746	0.6891	2.91968	0.829192	3.51557	0.969508	4.11558
0.626835	2.64308	0.469692	1.96238	0.626757	2.64311	0.681019	2.88029	0.806854	3.40926	0.976728	4.12606	0.580624	2.45528	0.691035	2.91637	0.830422	3.50693	0.970954	4.10548
0.629114	2.64231	0.471659	1.96296	0.629035	2.64234	0.682727	2.87618	0.80855	3.40303	0.977828	4.11451	0.582401	2.45313	0.692972	2.91309	0.831658	3.49839	0.9724	4.09546
0.631387	2.64152	0.473626	1.96353	0.631309	2.64155	0.684441	2.87212	0.810249	3.39686	0.978932	4.10307	0.584177	2.451	0.694911	2.90985	0.832899	3.48993	0.973848	4.08553
0.633656	2.64072	0.475592	1.9641	0.633579	2.64075	0.68616	2.86812	0.81195	3.39075	0.980041	4.09174	0.585955	2.44888	0.696853	2.90664	0.834145	3.48156	0.975297	4.07568
0.635921	2.63991	0.477557	1.96465	0.635843	2.63994	0.687885	2.86418	0.813653	3.38469	0.981154	4.08051	0.587733	2.44678	0.698797	2.90346	0.835396	3.47327	0.976747	4.0659
0.638181	2.63908	0.479521	1.9652	0.638103	2.63911	0.689616	2.86029	0.815358	3.37869	0.982272	4.06939	0.589511	2.4447	0.700742	2.90032	0.836652	3.46507	0.978198	4.05621
0.640435	2.63824	0.481485	1.96575	0.640358	2.63827	0.691354	2.85646	0.817065	3.37274	0.983394	4.05838	0.59129	2.44264	0.70269	2.89721	0.837913	3.45696	0.97965	4.0466
0.642685	2.63739	0.483448	1.96628	0.642608	2.63742	0.693098	2.85268	0.818774	3.36685	0.98452	4.04746	0.593069	2.4406	0.704639	2.89413	0.83918	3.44892	0.981102	4.03706
0.64493	2.63652	0.48541	1.96681	0.644853	2.63655	0.694848	2.84896	0.820485	3.36101	0.985651	4.03665	0.59485	2.43858	0.706591	2.89108	0.840451	3.44097	0.982556	4.0276
0.647169	2.63563	0.487372	1.96733	0.647092	2.63566	0.696605	2.8453	0.822198	3.35522	0.986786	4.02594	0.596631	2.43657	0.708544	2.88806	0.841728	3.4331	0.984011	4.01822
0.649402	2.63473	0.489332	1.96784	0.649326	2.63476	0.698369	2.84169	0.823913	3.34948	0.987926	4.01532	0.598412	2.43458	0.710498	2.88507	0.84301	3.42532	0.985466	4.00891
0.65163	2.63381	0.491292	1.96835	0.651554	2.63385	0.70014	2.83813	0.825629	3.3438	0.98907	4.00481	0.600195	2.43261	0.712455	2.88211	0.844296	3.41761	0.986923	3.99968
0.653852	2.63288	0.493251	1.96885	0.653776	2.63291	0.701918	2.83464	0.827348	3.33816	0.990218	3.99439	0.601978	2.43066	0.714413	2.87918	0.845589	3.40998	0.98838	3.99052
0.656069	2.63193	0.495209	1.96934	0.655993	2.63196	0.703703	2.83119	0.829068	3.33257	0.991372	3.98407	0.603762	2.42873	0.716372	2.87627	0.846886	3.40242	0.989838	3.98143
0.658279	2.63096	0.497167	1.96983	0.658203	2.631	0.705495	2.8278	0.83079	3.32704	0.992529	3.97384	0.605546	2.42681	0.718333	2.8734	0.848188	3.39495	0.991297	3.97241
0.660483	2.62998	0.499124	1.97031	0.660407	2.63001	0.707295	2.82447	0.832514	3.32154	0.993691	3.96371	0.607332	2.42491	0.720295	2.87055	0.849496	3.38755	0.992757	3.96346
0.66268	2.62898	0.50108	1.97078	0.662605	2.62901	0.709103	2.82119	0.834239	3.3161	0.994857	3.95367	0.609118	2.42303	0.722258	2.86772	0.850808	3.38022	0.994218	3.95458
0.664871	2.62795	0.503035	1.97125	0.664796	2.62799	0.710918	2.81797	0.835966	3.31071	0.996028	3.94372	0.610906	2.42117	0.724222	2.86493	0.852126	3.37298	0.99568	3.94577
0.667056	2.62691	0.50499	1.97171	0.666981	2.62695	0.712742	2.8148	0.837695	3.30535	0.997203	3.93386	0.612694	2.41932	0.726188	2.86215	0.853449	3.3658	0.997142	3.93703
0.669233	2.62586	0.506943	1.97216	0.669159	2.62589	0.714573	2.81169	0.839425	3.30005	0.998383	3.92409	0.614483	2.41749	0.728154	2.8594	0.854777	3.3587	0.998605	3.92836
0.671404	2.62478	0.508896	1.97261	0.671329	2.62481	0.716413	2.80863	0.841156	3.29479	0.999567	3.91441	0.616273	2.41568	0.730122	2.85668	0.856111	3.35166	1.00007	3.91975
0.673567	2.62368	0.510849	1.97305	0.673493	2.62372	0.718261	2.80563	0.842889	3.28957	1.00076	3.90482	0.618064	2.41389	0.732091	2.85398	0.857449	3.34471		
0.675724	2.62256	0.5128	1.97349	0.67565	2.6226	0.720117	2.80268	0.844624	3.2844			0.619856	2.41211	0.73406	2.8513	0.858793	3.33782		
0.677873	2.62142	0.514751	1.97392	0.6778	2.62146	0.721983	2.79979	0.84636	3.27927			0.621649	2.41035	0.73603	2.84864	0.860142	3.331		
0.680015	2.62027	0.516701	1.97434	0.679942	2.62031	0.723856	2.79695	0.848097	3.27418			0.623443	2.4086	0.738001	2.84601	0.861496	3.32425		
0.68215	2.61909	0.51865	1.97476	0.682076	2.61913	0.725739	2.79416	0.849835	3.26913			0.625238	2.40687	0.739973	2.84339	0.862855	3.31756		
0.684276	2.61789	0.520599	1.97517	0.684204	2.61793	0.72763	2.79143	0.851575	3.26413			0.627034	2.40516	0.741945	2.8408	0.86422	3.31095		
0.686396	2.61667	0.522546	1.97558	0.686323	2.61671	0.729531	2.78876	0.853316	3.25916			0.628831	2.40346	0.743918	2.83823	0.865589	3.3044		
0.688507	2.61543	0.524493	1.97598	0.688435	2.61547	0.731441	2.78613	0.855059	3.25424			0.630629	2.40178	0.745891	2.83568	0.866965	3.29792		
0.690611	2.61417	0.52644	1.97637	0.690539	2.61421	0.733359	2.78356	0.856802	3.24935			0.632429	2.40012	0.747865	2.83315	0.868345	3.29151		
0.692707	2.61289	0.528385	1.97676	0.692635	2.61293	0.735287	2.78105	0.858547	3.2445			0.634229	2.39847	0.749839	2.83064	0.86973	3.28516		
0.694794	2.61158	0.53033	1.97715	0.694723	2.61163	0.737225	2.77858	0.860293	3.23969			0.636031	2.39684	0.751814	2.82814	0.871121	3.27887		
0.696874	2.61026	0.532274	1.97752	0.696803	2.61031	0.739171	2.77617	0.86204	3.23492			0.637833	2.39522	0.753788	2.82567	0.872517	3.27265		
0.698946	2.60892	0.534217	1.9779	0.698875	2.60896	0.741127	2.77381	0.863787	3.23019			0.639637	2.39362	0.755763	2.82321	0.873918	3.26649		
0.70101	2.60755	0.53616	1.97827	0.70094	2.6076	0.743092	2.7715	0.865536	3.22549			0.641442	2.39204	0.757739	2.82077	0.875325	3.26039		
0.703066	2.60617	0.538101	1.97863	0.702996	2.60622	0.745067	2.76924	0.867286	3.22083			0.643249	2.39047	0.759714	2.81835	0.876737	3.25436		
0.705114	2.60476	0.540042	1.97899	0.705044	2.60481	0.747051	2.76704	0.869037	3.2162			0.645056	2.38892	0.761689	2.81595	0.878154	3.24838		
0.707154	2.60334	0.541983	1.97934	0.707084	2.60339	0.749045	2.76488	0.870789	3.21161			0.646865	2.38738	0.763664	2.81356	0.879576	3.24247		
0.709186	2.6019	0.543922	1.97969	0.709116	2.60195	0.751048	2.76277	0.872542	3.20705			0.648675	2.38585	0.765639	2.81118	0.881004	3.23662		
0.71121	2.60043	0.545861	1.98003	0.711141	2.60048	0.75306	2.76071	0.874296	3.20253			0.650486	2.38434	0.767614	2.80883	0.882437	3.23082		
0.713226	2.59895	0.5478	1.98037	0.713157	2.599	0.755082	2.7587	0.87605	3.19805			0.652298	2.38285	0.769589	2.80649	0.883875	3.22509		
0.715234	2.59745	0.549737	1.9807	0.715166	2.5975	0.757113	2.75674	0.877805	3.19359			0.654112	2.38137	0.771564	2.80416	0.885319	3.21941		
0.717235	2.59593	0.551674	1.98103	0.717166	2.59598	0.759154	2.75482	0.879561	3.18917			0.655927	2.3799	0.773538	2.80185	0.886768	3.21379		
0.719227	2.5944	0.55361	1.98135	0.719159	2.59445	0.761203	2.75295	0.881318	3.18478			0.657743	2.37845	0.775512	2.79955	0.888222	3.20823		
0.721212	2.59284	0.555545	1.98167	0.721145	2.5929	0.763262	2.75113	0.883076	3.18042			0.65956	2.37702	0.777486	2.79727	0.889682	3.20272		
0.72319	2.59127	0.55748	1.98198	0.723122	2.59133	0.765329	2.74935	0.884834	3.1761			0.661379	2.37559	0.779459	2.795	0.891147	3.19727		
0.72516	2.58969	0.559414	1.98229	0.725093	2.58974	0.767406	2.74761	0.886593	3.17181			0.663199	2.37419	0.781432	2.79274	0.892617	3.19188		
0.727123	2.58808	0.561347	1.9826	0.727056	2.58814	0.769491	2.74592	0.888352	3.16754			0.665021	2.37279	0.783404	2.79049	0.894093	3.18654		
0.729078	2.58647	0.563279	1.9829	0.729011	2.58652	0.771585	2.74426	0.890112	3.16331			0.666843	2.37141	0.785375	2.78826	0.895574	3.18125		
0.731027	2.58484	0.565211	1.98319	0.73096	2.58489	0.773687	2.74265	0.891873	3.15911			0.668667	2.37005	0.787346	2.78604	0.89706	3.17602		
0.732968	2.58319	0.567142	1.98348	0.732902	2.58325	0.775798	2.74108	0.893635	3.15493			0.670493	2.36869	0.789316	2.78384	0.898552	3.17085		
0.734903	2.58153	0.569072	1.98377	0.734837	2.58159	0.777918	2.73955	0.895396	3.15079			0.672319	2.36736	0.791285	2.78164	0.900049	3.16572		
0.736831	2.57986	0.571002	1.98405	0.736765	2.57992	0.780045	2.73806	0.897159	3.14668			0.674147	2.36603	0.793254	2.77946	0.901552	3.16065		
0.738752	2.57818	0.572931	1.98433	0.738687	2.57824	0.78218	2.73661	0.898922	3.14259			0.675977	2.36472	0.795222	2.77729	0.90306	3.15563		
0.740668	2.57648	0.57486	1.98461	0.740602	2.57654	0.784324	2.73519	0.900685	3.13853			0.677807	2.36342	0.797189	2.77513	0.904574	3.15066		
0.742576	2.57478	0.576787	1.98488	0.742511	2.57484	0.786475	2.73381	0.902449	3.1345			0.679639	2.36213	0.799155	2.77298	0.906093	3.14574		
0.744479	2.57306	0.578714	1.98515	0.744414	2.57312	0.788633	2.73246	0.904213	3.1305			0.681473	2.36086	0.801119	2.77084	0.907617	3.14088		
0.746376	2.57134	0.58064	1.98541	0.746311	2.5714	0.790799	2.73115	0.905978	3.12652			0.683308	2.3596	0.803083	2.76871	0.909147	3.13606		
0.748267	2.56961	0.582566	1.98567	0.748202	2.56967	0.792972	2.72987	0.907743	3.12257			0.685144	2.35835	0.805046	2.76659	0.910682	3.13129		
0.750153	2.56787	0.584491	1.98592	0.750088	2.56793	0.795153	2.72863	0.909508	3.11865			0.686981	2.35712	0.807008	2.76448	0.912223	3.12657		
0.752033	2.56612	0.586415	1.98617	0.751969	2.56618	0.79734	2.72741	0.911274	3.11476			0.68882	2.3559	0.808968	2.76238	0.913769	3.1219		
0.753908	2.56436	0.588339	1.98642	0.753844	2.56442	0.799533	2.72623	0.91304	3.11089			0.69066	2.35469	0.810928	2.76029	0.91532	3.11728		
0.755778	2.5626	0.590262	1.98666	0.755714	2.56266	0.801734	2.72507	0.914806	3.10704			0.692502	2.35349	0.812886	2.75821	0.916877	3.11271		
0.757643	2.56084	0.592184	1.9869	0.757579	2.5609	0.80394	2.72395	0.916573	3.10322			0.694345	2.35231	0.814843	2.75613	0.91844	3.10818		
0.759503	2.55906	0.594106	1.98714	0.759439	2.55913	0.806153	2.72285	0.91834	3.09943			0.69619	2.35113	0.816798	2.75407	0.920008	3.1037		
0.761358	2.55729	0.596027	1.98737	0.761295	2.55735	0.808372	2.72178	0.920107	3.09566			0.698035	2.34997	0.818753	2.75201	0.921581	3.09927		
0.763209	2.55551	0.597948	1.9876	0.763146	2.55557	0.810597	2.72073	0.921874	3.09191			0.699883	2.34882	0.820705	2.74996	0.92316	3.09488		
0.765056	2.55373	0.599867	1.98782	0.764993	2.55379	0.812827	2.71971	0.923642	3.08819			0.701731	2.34769	0.822657	2.74792	0.924744	3.09054		
0.766899	2.55194	0.601786	1.98804	0.766836	2.552	0.815063	2.71872	0.92541	3.08449			0.703581	2.34656	0.824607	2.74589	0.926334	3.08624		
0.768738	2.55015	0.603705	1.98826	0.768675	2.55021	0.817305	2.71775	0.927178	3.08082			0.705433	2.34545	0.826555	2.74387	0.92793	3.08199		
0.770573	2.54836	0.605623	1.98848	0.77051	2.54843	0.819551	2.7168	0.928946	3.07716			0.707285	2.34435	0.828502	2.74185	0.92953	3.07778		
0.772404	2.54657	0.60754	1.98869	0.772341	2.54664	0.821803	2.71588	0.930714	3.07354			0.709139	2.34326	0.830447	2.73984	0.931136	3.07362		
0.774232	2.54478	0.609457	1.9889	0.774169	2.54484	0.824059	2.71498	0.932482	3.06993			0.710995	2.34218	0.832391	2.73784	0.932748	3.0695		
0.776056	2.54299	0.611373	1.9891	0.775994	2.54305	0.82632	2.71409	0.934251	3.06635			0.712852	2.34111	0.834333	2.73584	0.934365	3.06542		
0.777878	2.5412	0.613288	1.9893	0.777815	2.54126	0.828586	2.71323	0.936019	3.06279			0.71471	2.34005	0.836273	2.73385	0.935988	3.06138		
0.779696	2.53941	0.615203	1.9895	0.779633	2.53947	0.830856	2.71239	0.937788	3.05925			0.71657	2.33901	0.838212	2.73187	0.937616	3.05739		
0.781511	2.53762	0.617117	1.9897	0.781449	2.53769	0.83313	2.71157	0.939557	3.05573			0.718431	2.33797	0.840149	2.72989	0.939249	3.05344		
0.783323	2.53584	0.619031	1.98989	0.783261	2.5359	0.835409	2.71077	0.941326	3.05223			0.720294	2.33695	0.842084	2.72792	0.940888	3.04953		
0.785133	2.53405	0.620944	1.99008	0.785071	2.53411	0.837691	2.70998	0.943095	3.04876			0.722157	2.33593	0.844018	2.72596	0.942533	3.04567		
0.78694	2.53227	0.622856	1.99026	0.786878	2.53233	0.839978	2.70921	0.944863	3.0453			0.724023	2.33493	0.845949	2.724	0.944182	3.04184		
0.788745	2.53049	0.624768	1.99045	0.788683	2.53055	0.842268	2.70846	0.946632	3.04187			0.725889	2.33394	0.847879	2.72205	0.945838	3.03805		
0.790548	2.52872	0.626679	1.99063	0.790486	2.52878	0.844562	2.70772	0.948401	3.03846			0.727757	2.33295	0.849807	2.7201	0.947498	3.03431		
0.792348	2.52694	0.62859	1.99081	0.792286	2.52701	0.846859	2.707	0.95017	3.03507			0.729627	2.33198	0.851733	2.71816	0.949164	3.0306		
0.794146	2.52518	0.6305	1.99098	0.794084	2.52524	0.849159	2.70629	0.951939	3.03169			0.731497	2.33102	0.853657	2.71622	0.950836	3.02693		
0.795942	2.52341	0.632409	1.99115	0.795881	2.52347	0.851463	2.7056	0.953708	3.02834			0.73337	2.33007	0.855579	2.71429	0.952513	3.0233		
0.797736	2.52165	0.634318	1.99132	0.797675	2.52171	0.85377	2.70492	0.955477	3.02501			0.735243	2.32912	0.8575	2.71237	0.954195	3.01971		
0.799529	2.5199	0.636227	1.99149	0.799467	2.51996	0.856079	2.70426	0.957246	3.0217			0.737118	2.32819	0.859418	2.71045	0.955882	3.01616		
0.80132	2.51815	0.638135	1.99165	0.801258	2.51821	0.858392	2.70361	0.959015	3.0184			0.738994	2.32727	0.861334	2.70853	0.957575	3.01264		
0.803109	2.5164	0.640042	1.99181	0.803048	2.51646	0.860707	2.70297	0.960784	3.01513			0.740872	2.32636	0.863249	2.70662	0.959274	3.00917		
0.804897	2.51466	0.641949	1.99197	0.804836	2.51472	0.863025	2.70234	0.962553	3.01187			0.742751	2.32545	0.865161	2.70472	0.960977	3.00573		
0.806683	2.51293	0.643855	1.99212	0.806622	2.51299	0.865346	2.70172	0.964322	3.00864			0.744631	2.32456	0.867071	2.70282	0.962686	3.00232		
0.808468	2.5112	0.64576	1.99228	0.808407	2.51126	0.867669	2.70112	0.966091	3.00542			0.746513	2.32368	0.868979	2.70092	0.9644	2.99896		
0.810252	2.50948	0.647666	1.99243	0.810191	2.50954	0.869994	2.70053	0.967859	3.00222			0.748396	2.3228	0.870886	2.69903	0.96612	2.99562		
0.812035	2.50776	0.64957	1.99258	0.811974	2.50782	0.872322	2.69994	0.969628	2.99904			0.75028	2.32194	0.87279	2.69714	0.967845	2.99233		
0.813817	2.50606	0.651474	1.99272	0.813756	2.50611	0.874652	2.69937	0.971397	2.99588			0.752166	2.32108	0.874692	2.69526	0.969575	2.98907		
0.815597	2.50435	0.653378	1.99286	0.815536	2.50441	0.876983	2.69881	0.973165	2.99273			0.754053	2.32023	0.876592	2.69338	0.97131	2.98584		
0.817377	2.50266	0.655281	1.99301	0.817316	2.50272	0.879317	2.69825	0.974934	2.98961			0.755941	2.31939	0.87849	2.69151	0.97305	2.98265		
0.819156	2.50097	0.657183	1.99314	0.819095	2.50103	0.881653	2.69771	0.976702	2.9865			0.757831	2.31856	0.880385	2.68964	0.974796	2.97949		
0.820934	2.49929	0.659085	1.99328	0.820873	2.49935	0.88399	2.69717	0.978471	2.98341			0.759722	2.31774	0.882279	2.68777	0.976547	2.97636		
0.822712	2.49762	0.660987	1.99341	0.822651	2.49768	0.88633	2.69664	0.98024	2.98033			0.761614	2.31693	0.88417	2.68591	0.978303	2.97327		
0.824488	2.49595	0.662888	1.99355	0.824427	2.49601	0.88867	2.69612	0.982008	2.97727			0.763508	2.31612	0.88606	2.68405	0.980064	2.97021		
0.826265	2.49429	0.664788	1.99367	0.826204	2.49435	0.891013	2.69561	0.983776	2.97423			0.765403	2.31533	0.887947	2.6822	0.98183	2.96719		
0.82804	2.49264	0.666688	1.9938	0.827979	2.4927	0.893357	2.6951	0.985545	2.97121			0.767299	2.31454	0.889832	2.68035	0.983601	2.96419		
0.829816	2.491	0.668588	1.99393	0.829755	2.49106	0.895702	2.6946	0.987313	2.96821			0.769197	2.31376	0.891715	2.67851	0.985377	2.96123		
0.83159	2.48937	0.670487	1.99405	0.83153	2.48942	0.898048	2.69411	0.989082	2.96522			0.771096	2.31299	0.893596	2.67667	0.987159	2.9583		
0.833365	2.48774	0.672385	1.99417	0.833304	2.4878	0.900396	2.69362	0.99085	2.96224			0.772996	2.31223	0.895475	2.67483	0.988945	2.9554		
0.835139	2.48612	0.674283	1.99429	0.835078	2.48618	0.902745	2.69314	0.992618	2.95929			0.774897	2.31148	0.897352	2.673	0.990736	2.95254		
0.836913	2.48451	0.676181	1.99441	0.836852	2.48457	0.905095	2.69267	0.994387	2.95635			0.7768	2.31073	0.899226	2.67117	0.992532	2.9497		
0.838687	2.48291	0.678078	1.99452	0.838626	2.48297	0.907446	2.6922	0.996155	2.95342			0.778704	2.30999	0.901099	2.66934	0.994333	2.94689		
0.84046	2.48132	0.679975	1.99463	0.840399	2.48137	0.909799	2.69174	0.997924	2.95052			0.780609	2.30926	0.902969	2.66752	0.996139	2.94411		
0.842234	2.47973	0.681871	1.99474	0.842173	2.47979	0.912152	2.69128	0.999692	2.94763			0.782516	2.30854	0.904837	2.6657	0.99795	2.94137		
0.844007	2.47816	0.683767	1.99485	0.843946	2.47821	0.914505	2.69083	1.00146	2.94475			0.784423	2.30782	0.906703	2.66389	0.999765	2.93865		
0.84578	2.47659	0.685662	1.99496	0.84572	2.47664	0.91686	2.69039					0.786332	2.30711	0.908567	2.66208	1.00159	2.93596		
0.847554	2.47503	0.687557	1.99506	0.847493	2.47508	0.919215	2.68994					0.788243	2.30641	0.910429	2.66027				
0.849327	2.47348	0.689451	1.99517	0.849266	2.47353	0.921571	2.6895					0.790154	2.30572	0.912289	2.65847				
0.851101	2.47193	0.691345	1.99527	0.85104	2.47199	0.923928	2.68907					0.792067	2.30504	0.914147	2.65667				
0.852874	2.4704	0.693239	1.99537	0.852813	2.47045	0.926285	2.68864					0.793981	2.30436	0.916003	2.65487				
0.854648	2.46888	0.695132	1.99547	0.854587	2.46893	0.928643	2.68821					0.795896	2.30369	0.917856	2.65308				
0.856422	2.46736	0.697025	1.99556	0.856361	2.46741	0.931001	2.68779					0.797812	2.30302	0.919708	2.65129				
0.858196	2.46585	0.698917	1.99566	0.858135	2.4659	0.933359	2.68737					0.79973	2.30237	0.921558	2.64951				
0.859971	2.46435	0.700809	1.99575	0.85991	2.4644	0.935718	2.68695					0.801648	2.30172	0.923406	2.64773				
0.861745	2.46286	0.7027	1.99584	0.861684	2.46291	0.938077	2.68654					0.803568	2.30107	0.925251	2.64595				
0.86352	2.46138	0.704591	1.99593	0.863459	2.46143	0.940436	2.68613					0.805489	2.30044	0.927095	2.64418				
0.865296	2.45991	0.706482	1.99602	0.865235	2.45996	0.942795	2.68572					0.807412	2.29981	0.928937	2.64241				
0.867071	2.45845	0.708372	1.9961	0.86701	2.4585	0.945154	2.68531					0.809335	2.29918	0.930777	2.64065				
0.868847	2.45699	0.710262	1.99619	0.868786	2.45704	0.947514	2.68491					0.81126	2.29857	0.932615	2.63889				
0.870624	2.45555	0.712152	1.99627	0.870563	2.45559	0.949873	2.68451					0.813186	2.29796	0.934451	2.63713				
0.872401	2.45411	0.714041	1.99635	0.87234	2.45416	0.952232	2.68411					0.815113	2.29736	0.936285	2.63538				
0.874178	2.45268	0.715929	1.99643	0.874117	2.45273	0.954591	2.68371					0.817041	2.29676	0.938118	2.63363				
0.875956	2.45126	0.717818	1.99651	0.875895	2.45131	0.95695	2.68331					0.81897	2.29617	0.939948	2.63188				
0.877735	2.44985	0.719706	1.99659	0.877674	2.4499	0.959308	2.68292					0.8209	2.29558	0.941777	2.63014				
0.879514	2.44845	0.721593	1.99666	0.879452	2.4485	0.961667	2.68252					0.822832	2.29501	0.943604	2.62841				
0.881293	2.44705	0.723481	1.99674	0.881232	2.4471	0.964024	2.68213					0.824765	2.29443	0.945429	2.62667				
0.883073	2.44567	0.725367	1.99681	0.883012	2.44572	0.966382	2.68174					0.826698	2.29387	0.947253	2.62494				
0.884854	2.44429	0.727254	1.99688	0.884793	2.44434	0.968739	2.68134					0.828633	2.29331	0.949075	2.62322				
0.886635	2.44293	0.72914	1.99695	0.886574	2.44297	0.971095	2.68095					0.830569	2.29275	0.950895	2.6215				
0.888417	2.44157	0.731026	1.99702	0.888356	2.44162	0.973451	2.68056					0.832506	2.29221	0.952713	2.61978				
0.890199	2.44022	0.732911	1.99709	0.890138	2.44027	0.975806	2.68017					0.834444	2.29166	0.95453	2.61807				
0.891982	2.43888	0.734796	1.99716	0.891921	2.43892	0.97816	2.67978					0.836384	2.29113	0.956345	2.61637				
0.893766	2.43755	0.736681	1.99722	0.893705	2.43759	0.980514	2.67939					0.838324	2.2906	0.958159	2.61466				
0.895551	2.43622	0.738566	1.99729	0.895489	2.43627	0.982866	2.679					0.840265	2.29007	0.959971	2.61296				
0.897336	2.43491	0.74045	1.99735	0.897274	2.43495	0.985218	2.6786					0.842208	2.28955	0.961781	2.61127				
0.899122	2.4336	0.742334	1.99741	0.89906	2.43365	0.987569	2.67821					0.844151	2.28904	0.963591	2.60958				
0.900908	2.4323	0.744217	1.99747	0.900847	2.43235	0.989919	2.67782					0.846096	2.28853	0.965398	2.6079				
0.902695	2.43101	0.7461	1.99753	0.902634	2.43106	0.992268	2.67742					0.848041	2.28802	0.967204	2.60621				
0.904483	2.42973	0.747983	1.99759	0.904422	2.42978	0.994615	2.67703					0.849988	2.28753	0.969009	2.60454				
0.906272	2.42846	0.749866	1.99764	0.906211	2.4285	0.996962	2.67663					0.851935	2.28703	0.970812	2.60287				
0.908062	2.4272	0.751748	1.9977	0.908	2.42724	0.999307	2.67623					0.853884	2.28654	0.972614	2.6012				
0.909852	2.42594	0.75363	1.99776	0.909791	2.42598	1.00165	2.67583					0.855834	2.28606	0.974414	2.59954				
0.911643	2.42469	0.755512	1.99781	0.911582	2.42473							0.857785	2.28558	0.976214	2.59788				
0.913435	2.42345	0.757393	1.99786	0.913374	2.42349							0.859736	2.28511	0.978012	2.59623				
0.915228	2.42222	0.759274	1.99791	0.915166	2.42226							0.861689	2.28464	0.979808	2.59458				
0.917021	2.421	0.761155	1.99796	0.91696	2.42104							0.863642	2.28418	0.981604	2.59294				
0.918816	2.41978	0.763035	1.99801	0.918754	2.41982							0.865597	2.28372	0.983398	2.5913				
0.920611	2.41858	0.764916	1.99806	0.920549	2.41862							0.867553	2.28327	0.985191	2.58967				
0.922407	2.41738	0.766796	1.99811	0.922345	2.41742							0.869509	2.28282	0.986983	2.58804				
0.924204	2.41619	0.768675	1.99816	0.924142	2.41623							0.871467	2.28238	0.988774	2.58642				
0.926002	2.415	0.770555	1.9982	0.92594	2.41505							0.873425	2.28194	0.990563	2.5848				
0.9278	2.41383	0.772434	1.99825	0.927739	2.41387							0.875385	2.28151	0.992352	2.58319				
0.9296	2.41266	0.774313	1.99829	0.929538	2.4127							0.877345	2.28108	0.994139	2.58158				
0.9314	2.4115	0.776191	1.99834	0.931338	2.41154							0.879306	2.28065	0.995926	2.57997				
0.933201	2.41035	0.77807	1.99838	0.933139	2.41039							0.881269	2.28023	0.997711	2.57838				
0.935003	2.40921	0.779948	1.99842	0.934941	2.40925							0.883232	2.27981	0.999496	2.57678				
0.936806	2.40808	0.781826	1.99846	0.936744	2.40811							0.885196	2.2794	1.00128	2.5752				
0.93861	2.40695	0.783703	1.9985	0.938548	2.40699							0.887161	2.27899						
0.940415	2.40583	0.785581	1.99854	0.940353	2.40587							0.889127	2.27859						
0.942221	2.40472	0.787458	1.99858	0.942159	2.40475							0.891094	2.27819						
0.944027	2.40361	0.789335	1.99862	0.943965	2.40365							0.893061	2.2778						
0.945835	2.40251	0.791211	1.99865	0.945773	2.40255							0.89503	2.2774						
0.947643	2.40142	0.793088	1.99869	0.947581	2.40146							0.896999	2.27702						
0.949452	2.40034	0.794964	1.99872	0.94939	2.40038							0.898969	2.27663						
0.951263	2.39927	0.79684	1.99876	0.9512	2.3993							0.900941	2.27626						
0.953074	2.3982	0.798716	1.99879	0.953012	2.39824							0.902913	2.27588						
0.954886	2.39714	0.800591	1.99883	0.954824	2.39718							0.904885	2.27551						
0.956699	2.39609	0.802467	1.99886	0.956637	2.39612							0.906859	2.27514						
0.958513	2.39504	0.804342	1.99889	0.958451	2.39508							0.908834	2.27478						
0.960328	2.394	0.806217	1.99892	0.960265	2.39404							0.910809	2.27442						
0.962144	2.39297	0.808091	1.99895	0.962081	2.39301							0.912785	2.27406						
0.96396	2.39195	0.809966	1.99898	0.963898	2.39198							0.914762	2.27371						
0.965778	2.39093	0.81184	1.99901	0.965716	2.39096							0.91674	2.27336						
0.967597	2.38992	0.813714	1.99904	0.967534	2.38995							0.918719	2.27302						
0.969416	2.38892	0.815588	1.99907	0.969354	2.38895							0.920698	2.27268						
0.971237	2.38792	0.817462	1.9991	0.971175	2.38795							0.922678	2.27234						
0.973059	2.38693	0.819335	1.99912	0.972996	2.38697							0.924659	2.272						
0.974881	2.38595	0.821209	1.99915	0.974819	2.38598							0.926641	2.27167						
0.976704	2.38497	0.823082	1.99917	0.976642	2.38501							0.928623	2.27134						
0.978529	2.384	0.824955	1.9992	0.978466	2.38404							0.930607	2.27102						
0.980354	2.38304	0.826828	1.99922	0.980292	2.38308							0.932591	2.2707						
0.982181	2.38209	0.8287	1.99925	0.982118	2.38212							0.934576	2.27038						
0.984008	2.38114	0.830573	1.99927	0.983945	2.38117							0.936561	2.27007						
0.985836	2.3802	0.832445	1.99929	0.985773	2.38023							0.938548	2.26976						
0.987665	2.37926	0.834317	1.99932	0.987602	2.37929							0.940535	2.26945						
0.989495	2.37833	0.836189	1.99934	0.989433	2.37836							0.942523	2.26914						
0.991326	2.37741	0.838061	1.99936	0.991264	2.37744							0.944511	2.26884						
0.993159	2.37649	0.839933	1.99938	0.993096	2.37652							0.9465	2.26854						
0.994992	2.37558	0.841804	1.9994	0.994929	2.37561							0.94849	2.26825						
0.996825	2.37468	0.843676	1.99942	0.996763	2.37471							0.950481	2.26795						
0.99866	2.37378	0.845547	1.99944	0.998597	2.37381							0.952472	2.26766						
1.0005	2.37289	0.847418	1.99946	1.00043	2.37292							0.954464	2.26738						
		0.849289	1.99948									0.956457	2.26709						
		0.851159	1.9995									0.958451	2.26681						
		0.85303	1.99952									0.960445	2.26654						
		0.854901	1.99953									0.96244	2.26626						
		0.856771	1.99955									0.964435	2.26599						
		0.858641	1.99957									0.966431	2.26572						
		0.860511	1.99958									0.968428	2.26545						
		0.862381	1.9996									0.970426	2.26519						
		0.864251	1.99962									0.972424	2.26493						
		0.86612	1.99963									0.974423	2.26467						
		0.86799	1.99965									0.976422	2.26441						
		0.869859	1.99966									0.978422	2.26416						
		0.871729	1.99968									0.980423	2.26391						
		0.873598	1.99969									0.982424	2.26366						
		0.875467	1.9997									0.984426	2.26341						
		0.877336	1.99972									0.986429	2.26317						
		0.879205	1.99973									0.988432	2.26293						
		0.881073	1.99974									0.990436	2.26269						
		0.882942	1.99975									0.99244	2.26245						
		0.88481	1.99977									0.994445	2.26222						
		0.886679	1.99978									0.996451	2.26198						
		0.888547	1.99979									0.998457	2.26175						
		0.890415	1.9998									1.00046	2.26153						
		0.892283	1.99981																
		0.894151	1.99982																
		0.896019	1.99983																
		0.897887	1.99984																
		0.899755	1.99985																
		0.901622	1.99986																
		0.90349	1.99987																
		0.905357	1.99988																
		0.907224	1.99989																
		0.909092	1.9999																
		0.910959	1.99991																
		0.912826	1.99991																
		0.914693	1.99992																
		0.91656	1.99993																
		0.918427	1.99994																
		0.920293	1.99995																
		0.92216	1.99995																
		0.924027	1.99996																
		0.925893	1.99997																
		0.92776	1.99997																
		0.929626	1.99998																
		0.931492	1.99999																
		0.933358	1.99999																
		0.935225	2																
		0.937091	2																
		0.938957	2.00001																
		0.940823	2.00002																
		0.942689	2.00002																
		0.944554	2.00003																
		0.94642	2.00003																
		0.948286	2.00004																
		0.950152	2.00004																
		0.952017	2.00004																
		0.953883	2.00005																
		0.955748	2.00005																
		0.957614	2.00006																
		0.959479	2.00006																
		0.961345	2.00007																
		0.96321	2.00007																
		0.965075	2.00007																
		0.96694	2.00008																
		0.968805	2.00008																
		0.97067	2.00008																
		0.972536	2.00009																
		0.974401	2.00009																
		0.976266	2.00009																
		0.97813	2.0001																
		0.979995	2.0001																
		0.98186	2.0001																
		0.983725	2.0001																
		0.98559	2.00011																
		0.987454	2.00011																
		0.989319	2.00011																
		0.991184	2.00011																
		0.993048	2.00012																
		0.994913	2.00012																
		0.996778	2.00012																
		0.998642	2.00012																
		1.00051	2.00012																
