Sym0		Asym0		Sym1		Sym2		Sym3		Sym4		Asym1		Asym2		Asym3		Asym4	
457  Points		542  Points		457  Points		406  Points		370  Points		280  Points		481  Points		421  Points		371  Points		280  Points	
Freq (MHz)	Vph (m/ms)	Freq (MHz)	Vph (m/ms)	Freq (MHz)	Vph (m/ms)	Freq (MHz)	Vph (m/ms)	Freq (MHz)	Vph (m/ms)	Freq (MHz)	Vph (m/ms)	Freq (MHz)	Vph (m/ms)	Freq (MHz)	Vph (m/ms)	Freq (MHz)	Vph (m/ms)	Freq (MHz)	Vph (m/ms)
0.279506	325.292	1.95816e-005	0.0272952	0.279507	367.03	0.356492	4512.77	0.559017	1841.87	0.838526	2332.91	0.139755	1225.99	0.419264	714.326	0.69877	1622.52	0.712984	4974.6
0.279499	156.063	0.000103315	0.0626495	0.2795	165.069	0.356508	352.737	0.559024	452.578	0.83853	649.454	0.139796	133.688	0.419274	276.087	0.698759	512.901	0.713001	663.245
0.279488	102.653	0.000252768	0.0979419	0.279489	106.475	0.356552	183.564	0.55904	257.991	0.838538	377.24	0.139903	70.7516	0.419292	171.117	0.698737	304.585	0.713044	355.329
0.279471	76.4767	0.000467467	0.133087	0.279473	78.5782	0.356624	124.083	0.559064	180.425	0.83855	265.825	0.140076	48.1513	0.419319	123.985	0.698703	216.601	0.713112	242.686
0.27945	60.9351	0.000746875	0.168057	0.279452	62.2622	0.356724	93.7322	0.559096	138.724	0.838566	205.218	0.140314	36.5327	0.419355	97.2142	0.69866	168.05	0.713204	184.286
0.279424	50.6413	0.00109019	0.202794	0.279427	51.5547	0.356851	75.3251	0.559136	112.684	0.838587	167.119	0.140616	29.4641	0.419398	79.9553	0.698606	137.274	0.713322	148.553
0.279394	43.3209	0.0014965	0.237255	0.279398	43.9878	0.357005	62.9731	0.559185	94.8789	0.838612	140.953	0.140983	24.7158	0.419451	67.9041	0.698542	116.021	0.713463	124.438
0.27936	37.848	0.00196465	0.271388	0.279364	38.3562	0.357186	54.1121	0.559243	81.9359	0.838641	121.873	0.141412	21.3102	0.419512	59.013	0.69847	100.463	0.713627	107.068
0.279322	33.6014	0.00249356	0.305173	0.279326	34.0015	0.357395	47.4467	0.559308	72.1031	0.838675	107.344	0.141902	18.7514	0.419582	52.1835	0.69839	88.5806	0.713814	93.9615
0.27928	30.2104	0.00308176	0.338556	0.279284	30.5336	0.357631	42.2519	0.559383	64.38	0.838712	95.9111	0.142453	16.7607	0.41966	46.7734	0.698302	79.2092	0.714023	83.7212
0.279234	27.44	0.00372793	0.371517	0.279239	27.7065	0.357893	38.0901	0.559465	58.1537	0.838754	86.6806	0.143063	15.1696	0.419747	42.382	0.698209	71.6286	0.714253	75.5002
0.279186	25.134	0.00443055	0.404024	0.279191	25.3575	0.358181	34.6818	0.559556	53.0277	0.838801	79.0719	0.143731	13.8701	0.419842	38.7466	0.698109	65.3702	0.714502	68.7552
0.279134	23.1847	0.00518792	0.436043	0.27914	23.3749	0.358496	31.8398	0.559656	48.7342	0.838851	72.6922	0.144454	12.79	0.419946	35.6876	0.698005	60.1158	0.714771	63.1219
0.27908	21.5152	0.00599845	0.467553	0.279086	21.679	0.358836	29.4344	0.559763	45.0857	0.838906	67.266	0.145232	11.8789	0.420058	33.0781	0.697897	55.6417	0.715058	58.3466
0.279024	20.0694	0.0068604	0.498534	0.27903	20.2118	0.359201	27.3725	0.55988	41.9472	0.838965	62.5945	0.146063	11.1009	0.420179	30.826	0.697786	51.7861	0.715363	54.2474
0.278965	18.805	0.00777211	0.528973	0.278972	18.9301	0.359592	25.5857	0.560004	39.2189	0.839028	58.5306	0.146944	10.4294	0.420309	28.8627	0.697673	48.429	0.715685	50.6904
0.278906	17.6899	0.00873177	0.55885	0.278912	17.8006	0.360007	24.0227	0.560137	36.8254	0.839095	54.963	0.147874	9.84444	0.420447	27.136	0.697558	45.4797	0.716023	47.5748
0.278845	16.6992	0.00973764	0.588156	0.278851	16.7979	0.360447	22.6443	0.560279	34.7087	0.839167	51.806	0.148853	9.33081	0.420594	25.6058	0.697441	42.8681	0.716376	44.8235
0.278783	15.8132	0.010788	0.616884	0.278789	15.9017	0.360911	21.4197	0.560429	32.8235	0.839243	48.9928	0.149876	8.87656	0.420749	24.2403	0.697324	40.5393	0.716744	42.3762
0.278721	15.0161	0.0118812	0.645028	0.278727	15.0959	0.361398	20.3247	0.560587	31.1338	0.839323	46.4699	0.150944	8.47229	0.420913	23.0144	0.697208	38.4499	0.717127	40.1852
0.278658	14.2952	0.0130153	0.672581	0.278665	14.3675	0.361909	19.3401	0.560754	29.6109	0.839408	44.1949	0.151909	8.15482	0.421085	21.9078	0.697091	36.5648	0.717523	38.2124
0.278597	13.6401	0.0141888	0.699542	0.278603	13.706	0.362442	18.45	0.560929	28.2312	0.839496	42.1328	0.152756	7.90653	0.421266	20.9039	0.696977	34.8553	0.717932	36.4268
0.278536	13.0422	0.0154	0.725913	0.278542	13.1024	0.362998	17.6416	0.561112	26.9755	0.839589	40.2551	0.153473	7.71509	0.421456	19.9892	0.696863	33.2982	0.718354	34.8029
0.278476	12.4943	0.0166473	0.751695	0.278482	12.5496	0.363575	16.9042	0.561304	25.8279	0.839687	38.5382	0.15405	7.57185	0.421654	19.1522	0.696752	31.8739	0.718789	33.32
0.278418	11.9905	0.0179292	0.776895	0.278424	12.0414	0.364174	16.229	0.561504	24.7749	0.839788	36.9623	0.15448	7.4708	0.421861	18.3836	0.696643	30.5661	0.719235	31.9603
0.278362	11.5256	0.0192441	0.801513	0.278367	11.5726	0.364795	15.6086	0.561713	23.8055	0.839894	35.5108	0.154758	7.40794	0.422076	17.6754	0.696537	29.3612	0.719692	30.7092
0.278308	11.0953	0.0205906	0.825558	0.278313	11.1389	0.365436	15.0366	0.56193	22.9101	0.840004	34.1694	0.15516	7.31995	0.4223	17.0207	0.696433	28.2474	0.720161	29.5543
0.278257	10.696	0.0219673	0.849037	0.278262	10.7365	0.366097	14.5076	0.562155	22.0806	0.840118	32.9262	0.155602	7.22734	0.422532	16.4137	0.696334	27.215	0.720641	28.4848
0.27821	10.3244	0.0233727	0.871957	0.278214	10.3622	0.366778	14.0171	0.562389	21.3099	0.840236	31.7707	0.156211	7.10624	0.422774	15.8494	0.696237	26.2551	0.721131	27.4918
0.278166	9.97783	0.0248056	0.89433	0.27817	10.0131	0.367479	13.561	0.562631	20.5921	0.840359	30.694	0.156992	6.96055	0.423023	15.3235	0.696145	25.3606	0.721631	26.5672
0.278126	9.65377	0.0262648	0.916165	0.27813	9.68676	0.368198	13.1359	0.562881	19.9219	0.840486	29.6884	0.157954	6.7947	0.423281	14.8323	0.696057	24.525	0.722141	25.7043
0.278091	9.35017	0.0277491	0.937472	0.278094	9.38111	0.368937	12.7388	0.56314	19.2948	0.840617	28.7469	0.159105	6.61325	0.423548	14.3724	0.695973	23.7426	0.722661	24.8971
0.27806	9.06517	0.0292573	0.95826	0.278063	9.09423	0.369693	12.3671	0.563408	18.7068	0.840753	27.8638	0.160456	6.42074	0.423823	13.941	0.695894	23.0086	0.72319	24.1405
0.278035	8.79714	0.0307882	0.978542	0.278038	8.8245	0.370467	12.0184	0.563683	18.1544	0.840893	27.0337	0.161837	6.24323	0.424107	13.5355	0.69582	22.3187	0.723729	23.4298
0.278016	8.54463	0.0323409	0.99833	0.278017	8.57042	0.371259	11.6908	0.563967	17.6344	0.841037	26.252	0.163246	6.07912	0.4244	13.1537	0.69575	21.6689	0.724277	22.761
0.278002	8.30636	0.0339144	1.01763	0.278003	8.33072	0.372068	11.3823	0.56426	17.1441	0.841185	25.5146	0.164684	5.927	0.424701	12.7936	0.695686	21.0559	0.724834	22.1305
0.277995	8.08118	0.0355077	1.03647	0.277996	8.13263	0.372893	11.0914	0.564561	16.681	0.841337	24.8179	0.166147	5.78566	0.425011	12.4534	0.695626	20.4767	0.725399	21.5352
0.277994	7.86807	0.0371198	1.05484	0.277994	7.97117	0.373735	10.8167	0.56487	16.243	0.841494	24.1585	0.167635	5.65404	0.425329	12.1316	0.695573	19.9285	0.725974	20.9722
0.278001	7.6661	0.03875	1.07276	0.277995	7.8425	0.374592	10.5568	0.565187	15.8281	0.841655	23.5337	0.169147	5.53123	0.425656	11.8266	0.695524	19.409	0.726557	20.4389
0.278015	7.47445	0.0403974	1.09025	0.277997	7.74372	0.375465	10.3107	0.565513	15.4345	0.841821	22.9407	0.170682	5.4164	0.425991	11.5373	0.695481	18.916	0.727148	19.9331
0.278037	7.29237	0.0420613	1.10731	0.278001	7.67269	0.376354	10.0773	0.565848	15.0606	0.84199	22.3771	0.172239	5.30884	0.426335	11.2624	0.695444	18.4475	0.727747	19.4527
0.278066	7.11918	0.0437407	1.12395	0.278003	7.62792	0.377257	9.85558	0.56619	14.7051	0.842164	21.841	0.173816	5.2079	0.426688	11.001	0.695412	18.0018	0.728354	18.9958
0.278105	6.95428	0.0454353	1.1402	0.278007	7.5645	0.378174	9.6448	0.566541	14.3666	0.842342	21.3302	0.175413	5.11302	0.427049	10.752	0.695386	17.5772	0.72897	18.5609
0.278151	6.79709	0.047144	1.15605	0.278013	7.49677	0.379106	9.44415	0.566901	14.0439	0.842524	20.8431	0.177029	5.02369	0.427419	10.5147	0.695367	17.1723	0.729593	18.1463
0.278207	6.64712	0.0488665	1.17152	0.278022	7.40664	0.380052	9.25295	0.567268	13.7359	0.842711	20.378	0.178663	4.93946	0.427798	10.2882	0.695353	16.7857	0.730224	17.7506
0.278273	6.5039	0.050602	1.18662	0.278036	7.29578	0.381011	9.07055	0.567644	13.4418	0.842902	19.9335	0.180314	4.85992	0.428185	10.0718	0.695345	16.4163	0.730863	17.3727
0.278347	6.367	0.0523499	1.20136	0.278057	7.16618	0.381983	8.89637	0.568029	13.1606	0.843097	19.5083	0.181981	4.78471	0.42858	9.86491	0.695343	16.063	0.73151	17.0113
0.278432	6.23603	0.0541097	1.21576	0.278088	7.02008	0.382969	8.72989	0.568422	12.8914	0.843297	19.1011	0.183664	4.71349	0.428985	9.66691	0.695348	15.7246	0.732164	16.6655
0.278527	6.11064	0.055881	1.22981	0.278131	6.85984	0.383966	8.57061	0.568823	12.6335	0.8435	18.7109	0.185362	4.64598	0.429397	9.47723	0.695359	15.4004	0.732825	16.3341
0.278632	5.9905	0.0576631	1.24353	0.278184	6.707	0.384977	8.41809	0.569232	12.3863	0.843709	18.3365	0.187074	4.58189	0.429819	9.29539	0.695376	15.0894	0.733494	16.0164
0.278748	5.87531	0.0594558	1.25694	0.278245	6.5611	0.385999	8.27192	0.56965	12.1491	0.843921	17.9771	0.1888	4.52099	0.430249	9.12091	0.695399	14.7909	0.73417	15.7115
0.278875	5.76478	0.0612583	1.27003	0.278316	6.42169	0.386899	8.14943	0.570076	11.9213	0.844137	17.6318	0.190538	4.46305	0.430688	8.95338	0.695429	14.5041	0.734854	15.4187
0.279013	5.65865	0.0630704	1.28282	0.278397	6.28836	0.387674	8.04841	0.570511	11.7024	0.844358	17.2997	0.192289	4.40786	0.431135	8.79238	0.695465	14.2284	0.735544	15.1373
0.279163	5.55668	0.0648916	1.29531	0.278487	6.16076	0.388319	7.96714	0.570953	11.4918	0.844583	16.9802	0.194052	4.35525	0.431591	8.63756	0.695508	13.9631	0.736242	14.8666
0.279324	5.45866	0.0667216	1.30752	0.278588	6.03853	0.388832	7.90428	0.571405	11.2892	0.844813	16.6725	0.195826	4.30504	0.432055	8.48858	0.695557	13.7077	0.736947	14.6061
0.279497	5.36437	0.0685599	1.31946	0.2787	5.92137	0.389211	7.85882	0.571864	11.0941	0.845046	16.376	0.19761	4.25708	0.432529	8.34511	0.695613	13.4616	0.737659	14.3551
0.279682	5.27363	0.0704063	1.33112	0.278822	5.80898	0.389454	7.83006	0.572332	10.906	0.845284	16.0901	0.199405	4.21122	0.432948	8.22437	0.695675	13.2244	0.738377	14.1132
0.27988	5.18625	0.0722603	1.34253	0.278956	5.7011	0.389805	7.78917	0.572808	10.7247	0.845527	15.8143	0.20121	4.16733	0.433311	8.12445	0.695744	12.9955	0.739103	13.8799
0.280091	5.10206	0.0741218	1.35368	0.279101	5.59748	0.390188	7.74532	0.573292	10.5497	0.845773	15.5479	0.203024	4.1253	0.433614	8.04382	0.695819	12.7746	0.739835	13.6547
0.280314	5.02091	0.0759902	1.36459	0.279257	5.49789	0.39071	7.68664	0.573785	10.3808	0.846024	15.2907	0.204847	4.085	0.433856	7.98131	0.695901	12.5612	0.740575	13.4373
0.28055	4.94266	0.0778655	1.37525	0.279426	5.40211	0.391374	7.61398	0.574286	10.2177	0.846279	15.042	0.206678	4.04635	0.434036	7.93603	0.695989	12.3551	0.74132	13.2272
0.280799	4.86716	0.0797471	1.38568	0.279606	5.30995	0.392183	7.52834	0.574796	10.06	0.846538	14.8015	0.208518	4.00923	0.434151	7.90735	0.696085	12.1557	0.742073	13.0241
0.281062	4.79429	0.0816351	1.39589	0.279799	5.22123	0.393139	7.43087	0.575313	9.90747	0.846802	14.5688	0.210365	3.97357	0.434318	7.86653	0.696187	11.9628	0.742832	12.8277
0.281339	4.72393	0.0835291	1.40588	0.280004	5.13577	0.394245	7.32282	0.575839	9.75994	0.84707	14.3435	0.21222	3.93928	0.4345	7.82268	0.696295	11.7762	0.743598	12.6376
0.281629	4.65597	0.0854287	1.41565	0.280222	5.05341	0.395361	7.21863	0.576373	9.61712	0.847342	14.1252	0.214082	3.90629	0.43475	7.76392	0.69641	11.5954	0.744371	12.4535
0.281934	4.5903	0.0873339	1.42522	0.280453	4.974	0.396486	7.1181	0.576916	9.47882	0.847619	13.9137	0.215951	3.87452	0.435069	7.69101	0.696532	11.4203	0.745149	12.2752
0.282253	4.52682	0.0892444	1.43458	0.280697	4.8974	0.397621	7.02104	0.577467	9.34482	0.8479	13.7087	0.217826	3.84391	0.435458	7.60485	0.696661	11.2505	0.745935	12.1024
0.282586	4.46544	0.0911598	1.44375	0.280954	4.82349	0.398766	6.92728	0.578026	9.21493	0.848185	13.5098	0.219708	3.8144	0.435922	7.5065	0.696797	11.0859	0.746726	11.9349
0.282934	4.40607	0.0930802	1.45273	0.281225	4.75213	0.399919	6.83666	0.578593	9.08898	0.848474	13.3168	0.221595	3.78593	0.436461	7.39712	0.696939	10.9262	0.747525	11.7723
0.283296	4.34862	0.0950053	1.46152	0.28151	4.68321	0.401081	6.74903	0.579169	8.96678	0.848768	13.1294	0.223488	3.75844	0.43701	7.29128	0.697088	10.7712	0.748329	11.6146
0.283674	4.29303	0.0969349	1.47014	0.281809	4.61662	0.402252	6.66425	0.579753	8.84819	0.849066	12.9474	0.225387	3.7319	0.437566	7.18882	0.697243	10.6207	0.74914	11.4614
0.284067	4.2392	0.0988688	1.47857	0.282122	4.55227	0.403431	6.58218	0.580345	8.73305	0.849368	12.7706	0.22729	3.70624	0.438132	7.0896	0.697406	10.4745	0.749957	11.3126
0.284476	4.18708	0.100807	1.48684	0.282449	4.49005	0.404618	6.5027	0.580945	8.62121	0.849675	12.5987	0.229199	3.68143	0.438706	6.99345	0.697575	10.3325	0.75078	11.1681
0.2849	4.1366	0.102749	1.49494	0.282791	4.42987	0.405813	6.42569	0.581554	8.51255	0.849986	12.4316	0.231112	3.65743	0.439289	6.90026	0.697751	10.1944	0.751609	11.0276
0.28534	4.08769	0.104695	1.50288	0.283148	4.37166	0.407016	6.35105	0.582091	8.42034	0.850301	12.269	0.23303	3.63419	0.439881	6.80989	0.697934	10.0601	0.752445	10.891
0.285796	4.0403	0.106644	1.51066	0.283519	4.31532	0.408227	6.27866	0.582554	8.3435	0.850621	12.1108	0.234952	3.61169	0.440481	6.72223	0.698123	9.92953	0.753287	10.7581
0.286207	4.00019	0.108597	1.51829	0.283906	4.26079	0.409445	6.20843	0.58294	8.28115	0.850945	11.9568	0.236878	3.58988	0.44109	6.63715	0.69832	9.80243	0.754134	10.6288
0.286567	3.96685	0.110554	1.52576	0.284308	4.20798	0.410671	6.14027	0.583247	8.23259	0.851273	11.8068	0.238808	3.56874	0.441708	6.55455	0.698523	9.67869	0.754988	10.5029
0.286872	3.93986	0.112513	1.5331	0.284726	4.15685	0.411903	6.07409	0.583475	8.1973	0.851605	11.6608	0.240741	3.54824	0.442334	6.47433	0.698733	9.55821	0.755848	10.3803
0.287117	3.91887	0.114476	1.54029	0.28516	4.10731	0.413143	6.0098	0.583621	8.1749	0.851942	11.5184	0.242679	3.52834	0.442969	6.3964	0.698949	9.44085	0.756713	10.2609
0.2873	3.90364	0.116189	1.54644	0.28561	4.05931	0.41439	5.94733	0.583832	8.14293	0.852283	11.3797	0.244619	3.50902	0.443613	6.32066	0.699173	9.3265	0.757585	10.1446
0.287418	3.89398	0.117651	1.55161	0.286075	4.01279	0.415643	5.8866	0.584062	8.10851	0.852628	11.2444	0.246563	3.49025	0.444265	6.24703	0.699403	9.21504	0.758463	10.0312
0.28759	3.88021	0.118861	1.55583	0.286558	3.9677	0.416903	5.82755	0.584376	8.06222	0.852978	11.1125	0.24851	3.47202	0.444926	6.17542	0.69964	9.10638	0.759346	9.9206
0.287778	3.8654	0.119819	1.55912	0.287057	3.92399	0.418169	5.7701	0.584777	8.00455	0.853332	10.9838	0.250459	3.45429	0.445596	6.10576	0.699884	9.00041	0.760235	9.81278
0.288038	3.84552	0.120524	1.56153	0.287572	3.8816	0.419442	5.7142	0.585265	7.93605	0.85369	10.8582	0.252412	3.43705	0.446274	6.03797	0.700134	8.89703	0.76113	9.70759
0.288373	3.82079	0.120975	1.56306	0.288105	3.8405	0.42072	5.65978	0.585844	7.85739	0.854053	10.7356	0.254366	3.42028	0.446961	5.97198	0.700392	8.79615	0.762031	9.60494
0.288786	3.7915	0.121623	1.56525	0.288655	3.80063	0.422005	5.60679	0.586516	7.76932	0.85442	10.6159	0.256324	3.40395	0.447657	5.90774	0.700656	8.6977	0.762937	9.50475
0.289284	3.75797	0.122329	1.56762	0.289223	3.76196	0.423295	5.55516	0.587196	7.6835	0.854791	10.4989	0.258283	3.38806	0.448362	5.84517	0.700891	8.61381	0.763849	9.40692
0.289871	3.72057	0.123289	1.57081	0.289809	3.72444	0.424591	5.50487	0.587885	7.59986	0.855167	10.3847	0.260245	3.37257	0.449075	5.78421	0.701096	8.54365	0.764767	9.31139
0.290477	3.68429	0.124503	1.5748	0.290413	3.68804	0.425893	5.45584	0.588581	7.51831	0.855547	10.2731	0.262209	3.35749	0.449797	5.72481	0.701268	8.48656	0.765691	9.21806
0.291101	3.64908	0.125974	1.57957	0.291035	3.65273	0.4272	5.40804	0.589286	7.43878	0.855931	10.164	0.264175	3.34278	0.450528	5.66691	0.701406	8.442	0.76662	9.12687
0.291744	3.61492	0.1277	1.58508	0.291676	3.61846	0.428513	5.36142	0.589999	7.36121	0.85632	10.0574	0.266143	3.32844	0.451267	5.61046	0.701509	8.40955	0.767554	9.03775
0.292406	3.58177	0.129683	1.5913	0.292336	3.5852	0.42983	5.31594	0.59072	7.28551	0.856713	9.95305	0.268112	3.31444	0.452016	5.55541	0.701575	8.38893	0.768494	8.95063
0.293087	3.54961	0.131669	1.5974	0.293015	3.55294	0.431153	5.27155	0.591449	7.21164	0.85711	9.85104	0.270083	3.30079	0.452773	5.50172	0.70167	8.35947	0.76944	8.86544
0.293788	3.51839	0.133657	1.60339	0.293714	3.52162	0.432481	5.22823	0.592187	7.13952	0.857511	9.75123	0.272055	3.28746	0.453538	5.44933	0.701775	8.32771	0.770391	8.78212
0.294509	3.48811	0.135647	1.60928	0.294432	3.49124	0.433814	5.18593	0.592932	7.06911	0.857917	9.65357	0.274029	3.27445	0.454313	5.3982	0.701919	8.28492	0.771224	8.711
0.29525	3.45872	0.137638	1.61505	0.295171	3.46176	0.435151	5.14462	0.593686	7.00033	0.858328	9.55798	0.276004	3.26173	0.455096	5.3483	0.702103	8.23149	0.771938	8.65142
0.296012	3.4302	0.139632	1.62073	0.295931	3.43315	0.436494	5.10427	0.594448	6.93315	0.858742	9.46441	0.27798	3.24931	0.455888	5.29958	0.702329	8.16786	0.77253	8.60288
0.296795	3.40254	0.141628	1.62631	0.296711	3.4054	0.43784	5.06483	0.595218	6.8675	0.859161	9.37278	0.279957	3.23717	0.456689	5.25201	0.702599	8.09457	0.773	8.56495
0.297599	3.3757	0.143625	1.63178	0.297514	3.37848	0.439191	5.02629	0.595996	6.80335	0.859584	9.28304	0.281935	3.22529	0.457498	5.20554	0.702914	8.0122	0.773346	8.53731
0.298425	3.34968	0.145624	1.63716	0.298337	3.35237	0.440547	4.98861	0.596782	6.74063	0.860012	9.19514	0.283914	3.21368	0.458316	5.16015	0.703237	7.93165	0.773568	8.51973
0.299274	3.32443	0.147625	1.64245	0.299184	3.32705	0.441907	4.95177	0.597576	6.67931	0.860444	9.10902	0.285894	3.20232	0.459144	5.1158	0.703566	7.85284	0.773887	8.49461
0.300145	3.29996	0.149627	1.64765	0.300053	3.30249	0.44327	4.91573	0.598378	6.61935	0.86088	9.02463	0.287874	3.1912	0.459979	5.07245	0.703902	7.77573	0.774235	8.4675
0.30104	3.27623	0.15163	1.65276	0.300945	3.27869	0.444638	4.88047	0.599189	6.56069	0.861321	8.94191	0.289856	3.18031	0.460824	5.03009	0.704245	7.70026	0.77471	8.43096
0.301958	3.25324	0.153636	1.65778	0.30186	3.25562	0.44601	4.84597	0.600007	6.50331	0.861708	8.87116	0.291837	3.16965	0.461678	4.98867	0.704594	7.62639	0.775311	8.38528
0.3029	3.23096	0.155642	1.66271	0.3028	3.23327	0.447386	4.81221	0.600834	6.44716	0.862041	8.8118	0.293819	3.15921	0.46254	4.94817	0.70495	7.55406	0.776041	8.33082
0.303867	3.20938	0.15765	1.66756	0.303765	3.21161	0.448766	4.77915	0.601668	6.39221	0.862318	8.76336	0.295802	3.14898	0.463411	4.90857	0.705313	7.48324	0.776902	8.26799
0.30486	3.18849	0.159659	1.67233	0.304754	3.19065	0.450149	4.74678	0.602511	6.33842	0.862538	8.72547	0.297784	3.13895	0.464291	4.86983	0.705682	7.41387	0.777894	8.19727
0.305878	3.16826	0.161669	1.67702	0.30577	3.17035	0.451536	4.71509	0.603361	6.28576	0.862701	8.69784	0.299767	3.12913	0.465179	4.83193	0.706058	7.34591	0.778891	8.12798
0.306922	3.1487	0.163681	1.68164	0.306811	3.15072	0.452926	4.68403	0.60422	6.2342	0.862805	8.68025	0.30175	3.11949	0.466077	4.79485	0.706441	7.27933	0.779893	8.06007
0.307993	3.12977	0.165693	1.68617	0.30788	3.13172	0.45432	4.65361	0.605087	6.18369	0.862956	8.65511	0.303734	3.11003	0.466983	4.75856	0.70683	7.21408	0.780901	7.99352
0.309092	3.11147	0.167707	1.69063	0.308976	3.11336	0.455717	4.62379	0.605961	6.13422	0.86312	8.62796	0.305717	3.10076	0.467899	4.72305	0.707225	7.15013	0.781914	7.92827
0.310219	3.0938	0.169721	1.69502	0.310099	3.09562	0.457117	4.59457	0.606844	6.08576	0.863344	8.59134	0.3077	3.09165	0.468823	4.68828	0.707628	7.08744	0.782931	7.86429
0.311373	3.07673	0.171737	1.69934	0.311251	3.07849	0.458521	4.56592	0.607734	6.03827	0.863628	8.5455	0.309682	3.08272	0.469755	4.65425	0.708037	7.02597	0.783954	7.80156
0.312557	3.06025	0.173754	1.70359	0.312432	3.06195	0.459928	4.53783	0.608633	5.99173	0.863975	8.49078	0.311665	3.07395	0.470697	4.62092	0.708452	6.96569	0.784982	7.74002
0.313771	3.04436	0.175771	1.70777	0.313642	3.046	0.461338	4.51027	0.609539	5.94612	0.864384	8.42756	0.313647	3.06533	0.471648	4.58829	0.708874	6.90657	0.786014	7.67965
0.315014	3.02904	0.177789	1.71188	0.314882	3.03062	0.46275	4.48325	0.610453	5.9014	0.864858	8.35627	0.315629	3.05687	0.472607	4.55632	0.709303	6.84858	0.787052	7.62042
0.316288	3.01428	0.179808	1.71593	0.316152	3.01581	0.464166	4.45674	0.611375	5.85755	0.865337	8.2863	0.317611	3.04855	0.473576	4.52501	0.709738	6.79168	0.788095	7.5623
0.317592	3.00008	0.181828	1.71991	0.317454	3.00154	0.465585	4.43072	0.612305	5.81456	0.865819	8.21761	0.319592	3.04037	0.474553	4.49434	0.710179	6.73586	0.789142	7.50525
0.318928	2.98641	0.183849	1.72383	0.318786	2.98782	0.467006	4.40519	0.613243	5.7724	0.866306	8.15016	0.321573	3.03234	0.475539	4.46429	0.710627	6.68107	0.790194	7.44925
0.320295	2.97327	0.18587	1.72769	0.32015	2.97462	0.46843	4.38013	0.614189	5.73104	0.866798	8.08393	0.323552	3.02444	0.476534	4.43484	0.711082	6.62729	0.791251	7.39427
0.321693	2.96065	0.187892	1.73149	0.321545	2.96195	0.469857	4.35552	0.615143	5.69047	0.867294	8.01887	0.325532	3.01667	0.477537	4.40598	0.711543	6.5745	0.792313	7.34028
0.323124	2.94853	0.189914	1.73523	0.322972	2.94978	0.471286	4.33136	0.616104	5.65066	0.867794	7.95497	0.32751	3.00902	0.47855	4.37769	0.712011	6.52267	0.79338	7.28726
0.324587	2.93691	0.191938	1.73891	0.324432	2.93811	0.472718	4.30763	0.617074	5.6116	0.868298	7.89219	0.329488	3.0015	0.479572	4.34996	0.712485	6.47177	0.794451	7.23519
0.326082	2.92577	0.193961	1.74254	0.325923	2.92692	0.474152	4.28433	0.618051	5.57326	0.868807	7.8305	0.331465	2.99409	0.480602	4.32277	0.712965	6.42179	0.795527	7.18403
0.327608	2.9151	0.195985	1.74611	0.327447	2.9162	0.475588	4.26143	0.619036	5.53563	0.86932	7.76988	0.333441	2.98681	0.481642	4.29612	0.713452	6.37269	0.796608	7.13377
0.329167	2.90489	0.19801	1.74962	0.329002	2.90594	0.477027	4.23894	0.620028	5.4987	0.869838	7.7103	0.335416	2.97963	0.48269	4.26999	0.713946	6.32447	0.797694	7.08438
0.330758	2.89512	0.200035	1.75309	0.33059	2.89613	0.478469	4.21683	0.621029	5.46244	0.870359	7.65173	0.33739	2.97256	0.483747	4.24436	0.714445	6.27709	0.798784	7.03584
0.33238	2.88579	0.202061	1.7565	0.332208	2.88675	0.479912	4.19511	0.622037	5.42683	0.870886	7.59416	0.339363	2.9656	0.484813	4.21922	0.714951	6.23053	0.799878	6.98814
0.334033	2.87687	0.204087	1.75986	0.333858	2.87778	0.481358	4.17375	0.623052	5.39186	0.871416	7.53754	0.341335	2.95874	0.485888	4.19456	0.715464	6.18478	0.800977	6.94124
0.335717	2.86835	0.206113	1.76316	0.335539	2.86923	0.482805	4.15276	0.624076	5.35752	0.871951	7.48188	0.343305	2.95199	0.486972	4.17038	0.715983	6.13982	0.802081	6.89513
0.337431	2.86023	0.20814	1.76642	0.33725	2.86106	0.484255	4.13211	0.625107	5.32379	0.872491	7.42713	0.345275	2.94532	0.488065	4.14665	0.716508	6.09562	0.803189	6.8498
0.339174	2.85248	0.210167	1.76963	0.33899	2.85328	0.485707	4.11181	0.626146	5.29066	0.873034	7.37328	0.347243	2.93876	0.489167	4.12337	0.71704	6.05217	0.804302	6.80521
0.340947	2.84509	0.212195	1.7728	0.340759	2.84585	0.487161	4.09185	0.627192	5.25811	0.873582	7.3203	0.34921	2.93228	0.490277	4.10053	0.717578	6.00945	0.805419	6.76136
0.342747	2.83805	0.214222	1.77591	0.342557	2.83878	0.488616	4.0722	0.628246	5.22612	0.874135	7.26819	0.351175	2.9259	0.491397	4.07811	0.718122	5.96745	0.80654	6.71823
0.344575	2.83135	0.21625	1.77898	0.344382	2.83203	0.490074	4.05288	0.629308	5.19469	0.874691	7.21691	0.353139	2.9196	0.492525	4.05612	0.718672	5.92614	0.807666	6.6758
0.34643	2.82496	0.218278	1.78201	0.346234	2.82561	0.491533	4.03387	0.630377	5.16381	0.875252	7.16645	0.355102	2.91338	0.493663	4.03453	0.719229	5.88552	0.808796	6.63405
0.34831	2.81888	0.220307	1.78499	0.348112	2.8195	0.492994	4.01516	0.631454	5.13345	0.875818	7.11679	0.357063	2.90725	0.494809	4.01334	0.719792	5.84556	0.809931	6.59297
0.350215	2.81308	0.222335	1.78793	0.350014	2.81368	0.494457	3.99675	0.632538	5.1036	0.876388	7.06791	0.359023	2.9012	0.495964	3.99254	0.720362	5.80625	0.811069	6.55255
0.352145	2.80757	0.224364	1.79083	0.351941	2.80813	0.495922	3.97862	0.633629	5.07427	0.876962	7.01979	0.360981	2.89522	0.497128	3.97212	0.720937	5.76758	0.812212	6.51276
0.354097	2.80232	0.226393	1.79368	0.353891	2.80286	0.497388	3.96078	0.634729	5.04542	0.877541	6.97242	0.362937	2.88932	0.498301	3.95207	0.721519	5.72952	0.813359	6.47359
0.356071	2.79732	0.228422	1.7965	0.355863	2.79783	0.498856	3.94322	0.635835	5.01706	0.878124	6.92579	0.364892	2.88349	0.499483	3.93238	0.722107	5.69208	0.814511	6.43504
0.358067	2.79256	0.230451	1.79927	0.357857	2.79305	0.500326	3.92592	0.636949	4.98918	0.878711	6.87986	0.366845	2.87774	0.500674	3.91306	0.722701	5.65523	0.815666	6.39708
0.360083	2.78802	0.23248	1.802	0.359871	2.78849	0.501797	3.90888	0.63807	4.96175	0.879303	6.83464	0.368796	2.87206	0.501874	3.89408	0.723302	5.61896	0.816826	6.3597
0.362119	2.7837	0.234509	1.8047	0.361904	2.78414	0.503269	3.89211	0.639199	4.93477	0.879899	6.7901	0.370746	2.86644	0.503083	3.87544	0.723908	5.58327	0.81799	6.3229
0.364173	2.77958	0.236538	1.80736	0.363957	2.78001	0.504744	3.87558	0.640335	4.90824	0.880499	6.74623	0.372693	2.86089	0.5043	3.85714	0.724521	5.54812	0.819158	6.28665
0.366245	2.77566	0.238568	1.80998	0.366027	2.77606	0.506219	3.8593	0.641479	4.88214	0.881104	6.70301	0.374639	2.8554	0.505527	3.83916	0.72514	5.51353	0.820329	6.25095
0.368333	2.77192	0.240597	1.81256	0.368114	2.7723	0.507696	3.84327	0.642629	4.85646	0.881713	6.66044	0.376583	2.84998	0.506762	3.8215	0.725765	5.47946	0.821505	6.21578
0.370438	2.76834	0.242626	1.81511	0.370217	2.76871	0.509174	3.82746	0.643787	4.83119	0.882326	6.61849	0.378525	2.84462	0.508006	3.80415	0.726396	5.44592	0.822685	6.18113
0.372558	2.76494	0.244655	1.81762	0.372335	2.76529	0.510654	3.81189	0.644952	4.80633	0.882944	6.57716	0.380465	2.83932	0.509259	3.78711	0.727033	5.41289	0.823869	6.147
0.374693	2.76168	0.246684	1.8201	0.374468	2.76202	0.512135	3.79654	0.646125	4.78187	0.883567	6.53643	0.382403	2.83408	0.510521	3.77038	0.727677	5.38035	0.825057	6.11336
0.376841	2.75857	0.248714	1.82254	0.376615	2.75889	0.513618	3.78141	0.647304	4.75779	0.884193	6.49629	0.384339	2.82889	0.511792	3.75393	0.728326	5.34831	0.826248	6.08022
0.379002	2.7556	0.250743	1.82495	0.378775	2.75591	0.515101	3.7665	0.648491	4.73409	0.884824	6.45673	0.386273	2.82376	0.513071	3.73777	0.728981	5.31675	0.827444	6.04755
0.381176	2.75276	0.252772	1.82733	0.380948	2.75305	0.516586	3.7518	0.649685	4.71077	0.88546	6.41773	0.388204	2.81868	0.51436	3.7219	0.729643	5.28566	0.828643	6.01536
0.383362	2.75004	0.2548	1.82967	0.383132	2.75032	0.518073	3.7373	0.650885	4.6878	0.886099	6.37929	0.390134	2.81366	0.515657	3.70629	0.73031	5.25503	0.829846	5.98362
0.385558	2.74743	0.256829	1.83198	0.385328	2.7477	0.51956	3.72301	0.652093	4.6652	0.886744	6.34139	0.392062	2.80869	0.516963	3.69096	0.730984	5.22484	0.831053	5.95233
0.387766	2.74494	0.258858	1.83426	0.387534	2.7452	0.521049	3.70892	0.653308	4.64294	0.887392	6.30403	0.393987	2.80377	0.518277	3.6759	0.731664	5.1951	0.832264	5.92149
0.389983	2.74255	0.260886	1.83651	0.38975	2.74279	0.522539	3.69502	0.65453	4.62103	0.888045	6.26719	0.39591	2.7989	0.519601	3.66109	0.732349	5.1658	0.833478	5.89108
0.39221	2.74025	0.262914	1.83873	0.391976	2.74049	0.52403	3.68131	0.655759	4.59945	0.888702	6.23085	0.397831	2.79408	0.520933	3.64654	0.733041	5.13692	0.834697	5.86109
0.394446	2.73805	0.264942	1.84091	0.394211	2.73828	0.525522	3.66778	0.656995	4.5782	0.889364	6.19503	0.39975	2.7893	0.522274	3.63224	0.733738	5.10845	0.835918	5.83152
0.39669	2.73594	0.26697	1.84307	0.396454	2.73615	0.527015	3.65444	0.658237	4.55727	0.89003	6.15969	0.401666	2.78457	0.523624	3.61818	0.734441	5.08039	0.837144	5.80235
0.398942	2.7339	0.268998	1.8452	0.398706	2.73411	0.52851	3.64128	0.659486	4.53666	0.8907	6.12484	0.403581	2.77988	0.524982	3.60437	0.735151	5.05274	0.838373	5.77359
0.401202	2.73195	0.271025	1.8473	0.400965	2.73215	0.530005	3.62829	0.660743	4.51635	0.891375	6.09046	0.405492	2.77524	0.52635	3.59078	0.735866	5.02547	0.839605	5.74521
0.40347	2.73007	0.273053	1.84938	0.403232	2.73026	0.531502	3.61548	0.662006	4.49635	0.892054	6.05654	0.407402	2.77065	0.527725	3.57743	0.736587	4.99859	0.840841	5.71722
0.405744	2.72825	0.27508	1.85142	0.405505	2.72844	0.533	3.60284	0.663275	4.47665	0.892738	6.02308	0.409309	2.76609	0.52911	3.5643	0.737314	4.97209	0.842081	5.68961
0.408025	2.72651	0.277106	1.85344	0.407785	2.72669	0.534499	3.59036	0.664552	4.45723	0.893425	5.99007	0.411214	2.76157	0.530503	3.5514	0.738047	4.94596	0.843324	5.66236
0.410311	2.72483	0.279133	1.85543	0.410071	2.725	0.535999	3.57804	0.665835	4.4381	0.894118	5.9575	0.413117	2.7571	0.531904	3.53871	0.738786	4.92019	0.844571	5.63548
0.412604	2.7232	0.281159	1.8574	0.412363	2.72337	0.5375	3.56588	0.667125	4.41926	0.894814	5.92535	0.415017	2.75267	0.533314	3.52623	0.739531	4.89477	0.84582	5.60895
0.414902	2.72163	0.283185	1.85934	0.414661	2.7218	0.539002	3.55388	0.668421	4.40068	0.895515	5.89363	0.416915	2.74827	0.534733	3.51396	0.740281	4.86971	0.847074	5.58277
0.417206	2.72012	0.28521	1.86125	0.416964	2.72027	0.540505	3.54203	0.669724	4.38238	0.896221	5.86233	0.41881	2.74391	0.53616	3.5019	0.741037	4.84499	0.848331	5.55693
0.419514	2.71865	0.287236	1.86314	0.419271	2.7188	0.542009	3.53033	0.671033	4.36434	0.896931	5.83144	0.420703	2.73959	0.537596	3.49004	0.741799	4.82061	0.849591	5.53142
0.421827	2.71724	0.289261	1.865	0.421584	2.71738	0.543514	3.51878	0.672349	4.34656	0.897645	5.80094	0.422594	2.73531	0.53904	3.47838	0.742567	4.79656	0.850854	5.50625
0.424144	2.71587	0.291285	1.86684	0.423901	2.71601	0.54502	3.50738	0.673671	4.32903	0.898364	5.77084	0.424482	2.73106	0.540492	3.46691	0.743341	4.77283	0.852121	5.4814
0.426466	2.71454	0.293309	1.86866	0.426222	2.71467	0.546528	3.49612	0.674999	4.31175	0.899086	5.74112	0.426368	2.72685	0.541953	3.45562	0.74412	4.74942	0.853391	5.45686
0.428792	2.71325	0.295333	1.87045	0.428548	2.71338	0.548036	3.48499	0.676334	4.29472	0.899814	5.71178	0.428251	2.72267	0.543422	3.44453	0.744905	4.72633	0.854664	5.43264
0.431121	2.712	0.297357	1.87222	0.430877	2.71213	0.549545	3.47401	0.677676	4.27793	0.900545	5.68282	0.430132	2.71853	0.5449	3.43362	0.745696	4.70354	0.85594	5.40872
0.433454	2.71079	0.29938	1.87396	0.433209	2.71091	0.551056	3.46316	0.679023	4.26137	0.901282	5.65422	0.432011	2.71442	0.546385	3.42288	0.746493	4.68106	0.85722	5.3851
0.43579	2.70961	0.301403	1.87569	0.435545	2.70973	0.552567	3.45244	0.680377	4.24504	0.902022	5.62598	0.433887	2.71034	0.547879	3.41233	0.747295	4.65887	0.858503	5.36178
0.43813	2.70847	0.303425	1.87739	0.437884	2.70859	0.55408	3.44186	0.681737	4.22895	0.902767	5.5981	0.435761	2.70629	0.549382	3.40194	0.748103	4.63697	0.859788	5.33874
0.440472	2.70736	0.305447	1.87906	0.440227	2.70747	0.555593	3.4314	0.683103	4.21307	0.903516	5.57056	0.437632	2.70228	0.550892	3.39172	0.748917	4.61536	0.861077	5.31599
0.442818	2.70627	0.307469	1.88072	0.442572	2.70639	0.557108	3.42107	0.684475	4.19741	0.90427	5.54336	0.439501	2.69829	0.55241	3.38167	0.749736	4.59404	0.862369	5.29352
0.445166	2.70522	0.30949	1.88236	0.44492	2.70533	0.558624	3.41086	0.685853	4.18197	0.905028	5.5165	0.441368	2.69434	0.553937	3.37179	0.750561	4.57298	0.863664	5.27132
0.447517	2.70419	0.31151	1.88397	0.44727	2.7043	0.56014	3.40078	0.687237	4.16674	0.90579	5.48997	0.443232	2.69042	0.555471	3.36206	0.751392	4.5522	0.864962	5.24939
0.44987	2.70319	0.313531	1.88556	0.449623	2.7033	0.561658	3.39081	0.688627	4.15171	0.906557	5.46377	0.445094	2.68653	0.557013	3.35249	0.752229	4.53169	0.866263	5.22773
0.452225	2.70222	0.315551	1.88714	0.451978	2.70232	0.563177	3.38097	0.690023	4.13689	0.907328	5.43788	0.446953	2.68267	0.558564	3.34307	0.75307	4.51144	0.867567	5.20632
0.454582	2.70127	0.31757	1.88869	0.454335	2.70137	0.564697	3.37124	0.691425	4.12227	0.908104	5.4123	0.44881	2.67883	0.560122	3.33381	0.753918	4.49145	0.868874	5.18517
0.456942	2.70034	0.319589	1.89022	0.456694	2.70043	0.566219	3.36162	0.692832	4.10784	0.908884	5.38704	0.450665	2.67503	0.561688	3.32469	0.754771	4.47171	0.870184	5.16428
0.459303	2.69943	0.321607	1.89174	0.459055	2.69952	0.567741	3.35211	0.694246	4.09361	0.909668	5.36208	0.452518	2.67125	0.563261	3.31572	0.75563	4.45222	0.871496	5.14363
0.461666	2.69854	0.323625	1.89323	0.461418	2.69863	0.569264	3.34272	0.695665	4.07957	0.910457	5.33741	0.454368	2.6675	0.564843	3.30689	0.756494	4.43298	0.872812	5.12322
0.464031	2.69767	0.325643	1.89471	0.463783	2.69776	0.570789	3.33344	0.69709	4.06571	0.91125	5.31304	0.456216	2.66378	0.566432	3.29821	0.757364	4.41398	0.87413	5.10305
0.466397	2.69682	0.32766	1.89616	0.466149	2.69691	0.572315	3.32426	0.69852	4.05203	0.912047	5.28896	0.458062	2.66009	0.568029	3.28966	0.758239	4.39522	0.875451	5.08311
0.468765	2.69599	0.329676	1.8976	0.468516	2.69607	0.573842	3.31519	0.699956	4.03854	0.912849	5.26517	0.459905	2.65642	0.569633	3.28124	0.75912	4.37668	0.876775	5.06341
0.471134	2.69517	0.331692	1.89902	0.470885	2.69525	0.57537	3.30622	0.701398	4.02522	0.913655	5.24165	0.461746	2.65278	0.571244	3.27296	0.760007	4.35838	0.878102	5.04393
0.473504	2.69437	0.333707	1.90042	0.473255	2.69445	0.5769	3.29736	0.702845	4.01207	0.914466	5.21841	0.463585	2.64916	0.572863	3.26481	0.760899	4.34031	0.879431	5.02467
0.475875	2.69358	0.335722	1.9018	0.475626	2.69366	0.57843	3.28859	0.704297	3.99909	0.915281	5.19543	0.465422	2.64557	0.57449	3.25679	0.761796	4.32246	0.880763	5.00564
0.478248	2.69281	0.337737	1.90317	0.477999	2.69289	0.579962	3.27993	0.705755	3.98628	0.9161	5.17273	0.467257	2.64201	0.576124	3.24889	0.762699	4.30482	0.882097	4.98682
0.480621	2.69205	0.339751	1.90452	0.480372	2.69213	0.581496	3.27137	0.707219	3.97364	0.916924	5.15029	0.469089	2.63847	0.577765	3.24111	0.763608	4.2874	0.883434	4.96821
0.482995	2.6913	0.341764	1.90585	0.482746	2.69138	0.58303	3.2629	0.708687	3.96115	0.917752	5.1281	0.47092	2.63496	0.579413	3.23346	0.764522	4.2702	0.884774	4.94981
0.485371	2.69057	0.343777	1.90717	0.485121	2.69065	0.584566	3.25452	0.710161	3.94882	0.918585	5.10617	0.472749	2.63147	0.581068	3.22592	0.765441	4.2532	0.886116	4.93161
0.487746	2.68985	0.345789	1.90847	0.487497	2.68992	0.586104	3.24624	0.71164	3.93665	0.919422	5.08449	0.474575	2.62801	0.58273	3.2185	0.766366	4.2364	0.887461	4.91362
0.490123	2.68914	0.3478	1.90975	0.489874	2.68921	0.587642	3.23806	0.713124	3.92464	0.920263	5.06306	0.476399	2.62457	0.584399	3.2112	0.767296	4.21981	0.888809	4.89582
0.4925	2.68844	0.349811	1.91101	0.492251	2.68851	0.589183	3.22996	0.714613	3.91277	0.921109	5.04187	0.478222	2.62116	0.586075	3.204	0.768231	4.20342	0.890158	4.87822
0.494877	2.68775	0.351822	1.91227	0.494628	2.68782	0.590724	3.22196	0.716108	3.90105	0.921959	5.02091	0.480042	2.61777	0.587758	3.19692	0.769173	4.18722	0.891511	4.86081
0.497255	2.68706	0.353832	1.9135	0.497006	2.68713	0.592267	3.21404	0.717607	3.88948	0.922814	5.0002	0.481861	2.6144	0.589448	3.18995	0.770119	4.17122	0.892865	4.84359
0.499634	2.68639	0.355841	1.91472	0.499384	2.68646	0.593812	3.20621	0.719111	3.87805	0.923673	4.97971	0.483678	2.61106	0.591144	3.18308	0.771071	4.15541	0.894223	4.82656
0.502012	2.68572	0.35785	1.91592	0.501763	2.68579	0.595358	3.19847	0.72062	3.86676	0.924536	4.95945	0.485493	2.60774	0.592847	3.17631	0.772028	4.13978	0.895582	4.80971
0.504391	2.68507	0.359858	1.91711	0.504142	2.68514	0.596906	3.19081	0.722134	3.8556	0.925404	4.93942	0.487306	2.60445	0.594557	3.16965	0.772991	4.12434	0.896944	4.79304
0.50677	2.68442	0.361866	1.91828	0.50652	2.68448	0.598455	3.18324	0.723653	3.84459	0.926276	4.91961	0.489117	2.60118	0.596273	3.16309	0.773959	4.10907	0.898308	4.77655
0.509149	2.68377	0.363873	1.91944	0.5089	2.68384	0.600006	3.17575	0.725177	3.83371	0.927152	4.90002	0.490927	2.59793	0.597995	3.15662	0.774932	4.09399	0.899675	4.76024
0.511528	2.68314	0.365879	1.92059	0.511278	2.6832	0.601559	3.16835	0.726705	3.82296	0.928033	4.88064	0.492735	2.59471	0.599724	3.15025	0.775911	4.07908	0.901043	4.74409
0.513907	2.68251	0.367885	1.92172	0.513657	2.68257	0.603113	3.16102	0.728238	3.81234	0.928919	4.86148	0.494542	2.5915	0.601459	3.14398	0.776895	4.06435	0.902414	4.72812
0.516286	2.68188	0.36989	1.92283	0.516036	2.68194	0.604669	3.15378	0.729775	3.80184	0.929808	4.84252	0.496346	2.58832	0.6032	3.1378	0.777884	4.04978	0.903788	4.71231
0.518664	2.68126	0.371894	1.92393	0.518415	2.68132	0.606227	3.14661	0.731318	3.79147	0.930703	4.82377	0.49815	2.58517	0.604947	3.13171	0.778878	4.03539	0.905163	4.69666
0.521043	2.68064	0.373898	1.92502	0.520793	2.68071	0.607787	3.13952	0.732864	3.78123	0.931601	4.80523	0.499951	2.58203	0.6067	3.12571	0.779878	4.02116	0.906541	4.68118
0.523421	2.68003	0.375901	1.9261	0.523171	2.6801	0.609349	3.13252	0.734415	3.7711	0.932504	4.78688	0.501752	2.57892	0.60846	3.1198	0.780884	4.00709	0.90792	4.66586
0.525798	2.67942	0.377904	1.92716	0.525549	2.67949	0.610912	3.12558	0.735971	3.76109	0.933411	4.76873	0.503551	2.57583	0.610225	3.11397	0.781894	3.99319	0.909302	4.65069
0.528176	2.67882	0.379906	1.9282	0.527926	2.67888	0.612478	3.11873	0.73753	3.7512	0.934323	4.75077	0.505348	2.57277	0.611995	3.10823	0.78291	3.97944	0.910686	4.63568
0.530552	2.67822	0.381907	1.92924	0.530303	2.67828	0.614045	3.11194	0.739094	3.74143	0.935239	4.73301	0.507144	2.56972	0.613772	3.10257	0.783931	3.96585	0.912072	4.62082
0.532928	2.67762	0.383907	1.93026	0.532679	2.67768	0.615615	3.10524	0.740663	3.73177	0.93616	4.71543	0.508939	2.5667	0.615554	3.09699	0.784957	3.95241	0.91346	4.60611
0.535304	2.67702	0.385907	1.93127	0.535055	2.67708	0.617186	3.0986	0.742235	3.72222	0.937084	4.69804	0.510733	2.5637	0.617342	3.0915	0.785989	3.93912	0.91485	4.59155
0.537679	2.67643	0.387907	1.93226	0.53743	2.67649	0.61876	3.09204	0.743812	3.71278	0.938014	4.68084	0.512525	2.56072	0.619135	3.08608	0.787026	3.92599	0.916242	4.57713
0.540053	2.67584	0.389905	1.93325	0.539804	2.6759	0.620336	3.08555	0.745393	3.70345	0.938947	4.66381	0.514316	2.55776	0.620933	3.08073	0.788068	3.913	0.917636	4.56286
0.542426	2.67524	0.391903	1.93422	0.542177	2.67531	0.621915	3.07913	0.746978	3.69422	0.939886	4.64697	0.516106	2.55483	0.622737	3.07547	0.789115	3.90016	0.919032	4.54873
0.544798	2.67465	0.3939	1.93518	0.544549	2.67472	0.623495	3.07278	0.748567	3.6851	0.940828	4.6303	0.517895	2.55191	0.624546	3.07027	0.790168	3.88746	0.92043	4.53473
0.547169	2.67406	0.395897	1.93612	0.546921	2.67413	0.625078	3.0665	0.750159	3.67608	0.941775	4.6138	0.519683	2.54902	0.62636	3.06515	0.791225	3.8749	0.92183	4.52088
0.54954	2.67347	0.397893	1.93706	0.549291	2.67354	0.626663	3.06029	0.751756	3.66716	0.942726	4.59748	0.52147	2.54615	0.628179	3.0601	0.792288	3.86248	0.923232	4.50716
0.551909	2.67288	0.399888	1.93798	0.55166	2.67295	0.628251	3.05415	0.753357	3.65834	0.943682	4.58132	0.523256	2.5433	0.630003	3.05512	0.793357	3.8502	0.924635	4.49357
0.554277	2.6723	0.401883	1.93889	0.554029	2.67236	0.629841	3.04808	0.754961	3.64962	0.944642	4.56534	0.525041	2.54047	0.631832	3.05021	0.79443	3.83806	0.92604	4.48012
0.556644	2.6717	0.403876	1.93979	0.556395	2.67177	0.631434	3.04207	0.756569	3.64099	0.945607	4.54951	0.526825	2.53766	0.633666	3.04536	0.795509	3.82605	0.927448	4.46679
0.559009	2.67111	0.40587	1.94068	0.558761	2.67118	0.63303	3.03613	0.758181	3.63246	0.946576	4.53385	0.528609	2.53488	0.635504	3.04059	0.796592	3.81417	0.928856	4.45359
0.561373	2.67052	0.407862	1.94156	0.561125	2.67058	0.634628	3.03025	0.759796	3.62403	0.947549	4.51835	0.530391	2.53211	0.637347	3.03587	0.797681	3.80242	0.930267	4.44052
0.563736	2.66993	0.409854	1.94243	0.563488	2.66999	0.636229	3.02444	0.761415	3.61568	0.948527	4.50301	0.532173	2.52937	0.639195	3.03122	0.798776	3.7908	0.931679	4.42757
0.566097	2.66933	0.411845	1.94328	0.565849	2.66939	0.637833	3.0187	0.763038	3.60743	0.949509	4.48782	0.533954	2.52665	0.641047	3.02663	0.799875	3.77931	0.933093	4.41474
0.568456	2.66873	0.413835	1.94413	0.568209	2.66879	0.63944	3.01302	0.764664	3.59926	0.950495	4.47279	0.535735	2.52395	0.642904	3.0221	0.800979	3.76794	0.934509	4.40203
0.570814	2.66813	0.415825	1.94496	0.570567	2.66819	0.64105	3.0074	0.766294	3.59118	0.951486	4.4579	0.537515	2.52126	0.644764	3.01763	0.802089	3.75669	0.935926	4.38945
0.57317	2.66752	0.417814	1.94578	0.572923	2.66759	0.642663	3.00185	0.767927	3.58319	0.952482	4.44317	0.539294	2.5186	0.646629	3.01322	0.803204	3.74557	0.937345	4.37698
0.575524	2.66692	0.419802	1.9466	0.575277	2.66698	0.644279	2.99635	0.769563	3.57528	0.953482	4.42859	0.541073	2.51596	0.648499	3.00887	0.804324	3.73457	0.938766	4.36462
0.577876	2.6663	0.42179	1.9474	0.57763	2.66637	0.645899	2.99093	0.771203	3.56746	0.954486	4.41415	0.542852	2.51335	0.650372	3.00457	0.805449	3.72368	0.940188	4.35238
0.580226	2.66569	0.423776	1.94819	0.57998	2.66575	0.647521	2.98556	0.772846	3.55972	0.955494	4.39986	0.54463	2.51075	0.652249	3.00033	0.806579	3.71292	0.941612	4.34025
0.582574	2.66507	0.425762	1.94897	0.582328	2.66513	0.649147	2.98025	0.774492	3.55205	0.956508	4.38571	0.546408	2.50817	0.65413	2.99614	0.807715	3.70226	0.943037	4.32823
0.58492	2.66444	0.427748	1.94975	0.584674	2.66451	0.650777	2.97501	0.776142	3.54447	0.957525	4.3717	0.548185	2.50561	0.656015	2.99201	0.808855	3.69173	0.944464	4.31632
0.587264	2.66381	0.429732	1.95051	0.587018	2.66388	0.65241	2.96983	0.777794	3.53697	0.958547	4.35782	0.549962	2.50308	0.657904	2.98793	0.810001	3.6813	0.945892	4.30452
0.589605	2.66318	0.431716	1.95126	0.58936	2.66325	0.654046	2.9647	0.77945	3.52954	0.959573	4.34409	0.551739	2.50056	0.659797	2.9839	0.811152	3.67099	0.947322	4.29283
0.591944	2.66254	0.433699	1.95201	0.591699	2.66261	0.655687	2.95964	0.781108	3.5222	0.960604	4.33049	0.553515	2.49806	0.661693	2.97991	0.812308	3.66078	0.948753	4.28124
0.59428	2.66189	0.435682	1.95274	0.594035	2.66196	0.657331	2.95463	0.78277	3.51492	0.961639	4.31703	0.555292	2.49559	0.663592	2.97598	0.813469	3.65069	0.950186	4.26975
0.596613	2.66124	0.437663	1.95347	0.596369	2.66131	0.658979	2.94969	0.784434	3.50772	0.962679	4.30369	0.557068	2.49313	0.665495	2.9721	0.814635	3.6407	0.95162	4.25837
0.598944	2.66058	0.439644	1.95418	0.5987	2.66065	0.660632	2.94481	0.786102	3.50059	0.963723	4.29049	0.558844	2.49069	0.667401	2.96826	0.815807	3.63082	0.953056	4.24708
0.601272	2.65991	0.441625	1.95489	0.601028	2.65998	0.662288	2.93998	0.787772	3.49354	0.964771	4.27741	0.56062	2.48828	0.669311	2.96447	0.816983	3.62104	0.954492	4.2359
0.603597	2.65923	0.443604	1.95558	0.603353	2.6593	0.663949	2.93521	0.789445	3.48655	0.965824	4.26447	0.562396	2.48588	0.671224	2.96072	0.818165	3.61136	0.95593	4.22481
0.605919	2.65855	0.445583	1.95627	0.605675	2.65862	0.665614	2.9305	0.791121	3.47963	0.966881	4.25164	0.564172	2.4835	0.673139	2.95702	0.819352	3.60179	0.95737	4.21382
0.608237	2.65786	0.447561	1.95695	0.607994	2.65793	0.667283	2.92585	0.792799	3.47278	0.967943	4.23895	0.565949	2.48115	0.675058	2.95336	0.820544	3.59231	0.958811	4.20293
0.610553	2.65716	0.449538	1.95762	0.61031	2.65723	0.668957	2.92125	0.79448	3.466	0.969009	4.22637	0.567725	2.47881	0.67698	2.94975	0.821741	3.58294	0.960253	4.19213
0.612865	2.65645	0.451515	1.95828	0.612622	2.65652	0.670636	2.91672	0.796164	3.45929	0.97008	4.21392	0.569501	2.47649	0.678905	2.94617	0.822943	3.57366	0.961696	4.18142
0.615173	2.65573	0.45349	1.95894	0.614931	2.6558	0.672319	2.91224	0.797851	3.45264	0.971155	4.20158	0.571278	2.47419	0.680832	2.94264	0.82415	3.56449	0.96314	4.17081
0.617478	2.655	0.455465	1.95958	0.617236	2.65508	0.674007	2.90782	0.799539	3.44605	0.972234	4.18936	0.573055	2.47191	0.682763	2.93915	0.825363	3.5554	0.964586	4.16028
0.619779	2.65426	0.45744	1.96022	0.619538	2.65434	0.675701	2.90345	0.801231	3.43953	0.973318	4.17726	0.574832	2.46965	0.684695	2.93569	0.82658	3.54641	0.966033	4.14985
0.622076	2.65351	0.459413	1.96085	0.621835	2.65359	0.677399	2.89914	0.802925	3.43307	0.974406	4.16528	0.576609	2.46741	0.686631	2.93228	0.827803	3.53752	0.967481	4.1395
0.624369	2.65275	0.461386	1.96147	0.624128	2.65283	0.679103	2.89489	0.804621	3.42667	0.975499	4.15341	0.578387	2.46519	0.688569	2.9289	0.82903	3.52872	0.96893	4.12924
0.626657	2.65197	0.463358	1.96208	0.626418	2.65205	0.680812	2.8907	0.806319	3.42034	0.976596	4.14165	0.580165	2.46299	0.690509	2.92556	0.830263	3.52	0.970381	4.11907
0.628942	2.65119	0.465329	1.96268	0.628703	2.65127	0.682527	2.88656	0.80802	3.41406	0.977698	4.13	0.581943	2.4608	0.692452	2.92226	0.831501	3.51138	0.971832	4.10898
0.631222	2.65039	0.4673	1.96328	0.630983	2.65047	0.684248	2.88248	0.809724	3.40784	0.978804	4.11847	0.583722	2.45864	0.694397	2.91899	0.832745	3.50285	0.973285	4.09897
0.633498	2.64958	0.46927	1.96387	0.633259	2.64966	0.685974	2.87845	0.811429	3.40168	0.979914	4.10704	0.585501	2.45649	0.696344	2.91575	0.833993	3.49441	0.974739	4.08905
0.635768	2.64875	0.471239	1.96445	0.63553	2.64884	0.687706	2.87448	0.813136	3.39557	0.981029	4.09572	0.58728	2.45436	0.698294	2.91255	0.835246	3.48605	0.976193	4.07921
0.638034	2.64792	0.473207	1.96502	0.637797	2.64801	0.689445	2.87057	0.814846	3.38952	0.982149	4.0845	0.589061	2.45225	0.700245	2.90939	0.836505	3.47778	0.977649	4.06945
0.640295	2.64707	0.475175	1.96559	0.640058	2.64715	0.691189	2.86671	0.816558	3.38353	0.983272	4.07339	0.590841	2.45016	0.702199	2.90625	0.837769	3.46959	0.979106	4.05977
0.642551	2.6462	0.477141	1.96615	0.642315	2.64629	0.69294	2.86291	0.818272	3.37759	0.9844	4.06239	0.592622	2.44809	0.704154	2.90315	0.839037	3.46149	0.980564	4.05017
0.644802	2.64532	0.479107	1.9667	0.644566	2.64541	0.694698	2.85917	0.819988	3.37171	0.985533	4.05149	0.594404	2.44604	0.706111	2.90008	0.840311	3.45347	0.982023	4.04064
0.647047	2.64442	0.481073	1.96724	0.646812	2.64451	0.696462	2.85548	0.821706	3.36588	0.98667	4.04068	0.596187	2.444	0.70807	2.89704	0.841591	3.44554	0.983482	4.0312
0.649286	2.64351	0.483037	1.96778	0.649052	2.6436	0.698233	2.85185	0.823425	3.3601	0.987812	4.02998	0.59797	2.44199	0.710031	2.89403	0.842875	3.43768	0.984943	4.02182
0.65152	2.64258	0.485001	1.96831	0.651286	2.64268	0.700011	2.84827	0.825147	3.35437	0.988958	4.01938	0.599753	2.43999	0.711994	2.89105	0.844164	3.42991	0.986405	4.01253
0.653748	2.64163	0.486964	1.96883	0.653515	2.64173	0.701796	2.84475	0.826871	3.3487	0.990108	4.00888	0.601538	2.438	0.713958	2.8881	0.845459	3.42221	0.987867	4.0033
0.65597	2.64067	0.488926	1.96934	0.655737	2.64077	0.703588	2.84128	0.828596	3.34307	0.991263	3.99847	0.603323	2.43604	0.715923	2.88518	0.846759	3.4146	0.989331	3.99415
0.658186	2.63969	0.490888	1.96985	0.657954	2.63979	0.705388	2.83787	0.830323	3.33749	0.992423	3.98816	0.605109	2.4341	0.71789	2.88228	0.848063	3.40706	0.990795	3.98508
0.660395	2.63869	0.492849	1.97035	0.660164	2.63879	0.707195	2.83452	0.832052	3.33196	0.993586	3.97794	0.606896	2.43217	0.719858	2.87941	0.849374	3.3996	0.992261	3.97607
0.662598	2.63767	0.494809	1.97085	0.662368	2.63778	0.70901	2.83122	0.833783	3.32648	0.994755	3.96782	0.608683	2.43026	0.721828	2.87657	0.850689	3.39221	0.993727	3.96713
0.664795	2.63664	0.496768	1.97134	0.664565	2.63675	0.710833	2.82798	0.835515	3.32105	0.995927	3.95778	0.610471	2.42836	0.723799	2.87376	0.852009	3.3849	0.995194	3.95827
0.666985	2.63558	0.498726	1.97182	0.666755	2.6357	0.712664	2.82479	0.837249	3.31566	0.997105	3.94785	0.61226	2.42649	0.725771	2.87096	0.853335	3.37766	0.996661	3.94947
0.669168	2.63451	0.500684	1.97229	0.668939	2.63462	0.714503	2.82166	0.838985	3.31032	0.998286	3.938	0.61405	2.42463	0.727744	2.8682	0.854666	3.3705	0.99813	3.94074
0.671344	2.63342	0.502641	1.97276	0.671116	2.63353	0.71635	2.81859	0.840722	3.30503	0.999472	3.92824	0.615841	2.42279	0.729718	2.86546	0.856002	3.36341	0.999599	3.93208
0.673513	2.63231	0.504598	1.97322	0.673286	2.63242	0.718205	2.81557	0.84246	3.29977	1.00066	3.91857	0.617633	2.42096	0.731693	2.86274	0.857343	3.3564	1.00107	3.92348
0.675674	2.63117	0.506553	1.97368	0.675448	2.63129	0.720069	2.8126	0.8442	3.29457			0.619426	2.41915	0.733669	2.86005	0.858689	3.34945		
0.677829	2.63002	0.508508	1.97413	0.677603	2.63014	0.721942	2.80969	0.845942	3.2894			0.621219	2.41736	0.735646	2.85737	0.860041	3.34257		
0.679976	2.62885	0.510462	1.97457	0.679751	2.62897	0.723823	2.80683	0.847685	3.28428			0.623014	2.41559	0.737624	2.85472	0.861398	3.33577		
0.682115	2.62765	0.512415	1.97501	0.681891	2.62778	0.725714	2.80403	0.849429	3.2792			0.624809	2.41383	0.739602	2.8521	0.86276	3.32903		
0.684247	2.62644	0.514368	1.97544	0.684024	2.62657	0.727613	2.80129	0.851175	3.27417			0.626606	2.41209	0.741581	2.84949	0.864127	3.32236		
0.686371	2.6252	0.51632	1.97587	0.686148	2.62533	0.729521	2.79859	0.852921	3.26917			0.628403	2.41036	0.743561	2.84691	0.8655	3.31576		
0.688487	2.62395	0.518271	1.97629	0.688266	2.62408	0.731438	2.79596	0.85467	3.26421			0.630202	2.40865	0.745541	2.84434	0.866878	3.30923		
0.690596	2.62267	0.520221	1.9767	0.690375	2.62281	0.733365	2.79337	0.856419	3.2593			0.632002	2.40696	0.747522	2.8418	0.868261	3.30276		
0.692696	2.62137	0.522171	1.97711	0.692476	2.62151	0.7353	2.79084	0.85817	3.25442			0.633802	2.40528	0.749503	2.83927	0.869649	3.29636		
0.694789	2.62005	0.52412	1.97752	0.69457	2.62019	0.737245	2.78836	0.859922	3.24958			0.635604	2.40362	0.751484	2.83677	0.871043	3.29003		
0.696873	2.61871	0.526068	1.97791	0.696655	2.61885	0.7392	2.78594	0.861674	3.24478			0.637407	2.40198	0.753466	2.83428	0.872441	3.28375		
0.69895	2.61735	0.528015	1.97831	0.698732	2.6175	0.741163	2.78356	0.863428	3.24002			0.639211	2.40035	0.755448	2.83181	0.873846	3.27754		
0.701018	2.61597	0.529962	1.97869	0.700802	2.61612	0.743137	2.78124	0.865184	3.23529			0.641016	2.39873	0.75743	2.82936	0.875255	3.2714		
0.703078	2.61457	0.531908	1.97907	0.702863	2.61472	0.745119	2.77897	0.86694	3.2306			0.642822	2.39714	0.759413	2.82692	0.87667	3.26532		
0.705131	2.61315	0.533853	1.97945	0.704916	2.6133	0.747111	2.77675	0.868697	3.22595			0.64463	2.39555	0.761395	2.82451	0.87809	3.25929		
0.707175	2.61171	0.535798	1.97982	0.706961	2.61186	0.749113	2.77458	0.870455	3.22134			0.646438	2.39399	0.763377	2.82211	0.879515	3.25333		
0.709211	2.61024	0.537741	1.98019	0.708998	2.6104	0.751124	2.77247	0.872214	3.21675			0.648248	2.39243	0.76536	2.81972	0.880946	3.24743		
0.711239	2.60876	0.539684	1.98055	0.711027	2.60892	0.753144	2.7704	0.873974	3.21221			0.650059	2.3909	0.767342	2.81736	0.882382	3.24159		
0.71326	2.60726	0.541627	1.9809	0.713048	2.60742	0.755174	2.76837	0.875735	3.20769			0.651871	2.38937	0.769324	2.815	0.883823	3.23581		
0.715272	2.60574	0.543569	1.98125	0.715061	2.6059	0.757213	2.7664	0.877497	3.20322			0.653685	2.38786	0.771306	2.81267	0.88527	3.23009		
0.717276	2.60421	0.545509	1.9816	0.717067	2.60437	0.759261	2.76447	0.879259	3.19877			0.655499	2.38637	0.773287	2.81035	0.886722	3.22443		
0.719273	2.60265	0.54745	1.98194	0.719064	2.60282	0.761319	2.76259	0.881022	3.19436			0.657315	2.38489	0.775269	2.80804	0.888179	3.21882		
0.721262	2.60108	0.549389	1.98227	0.721054	2.60125	0.763385	2.76076	0.882786	3.18998			0.659132	2.38343	0.77725	2.80574	0.889642	3.21327		
0.723244	2.59949	0.551328	1.9826	0.723036	2.59966	0.765461	2.75897	0.884551	3.18563			0.660951	2.38198	0.77923	2.80346	0.89111	3.20778		
0.725218	2.59789	0.553266	1.98293	0.725011	2.59806	0.767546	2.75722	0.886317	3.18131			0.66277	2.38054	0.78121	2.8012	0.892583	3.20235		
0.727185	2.59627	0.555204	1.98325	0.726979	2.59644	0.769639	2.75552	0.888083	3.17703			0.664591	2.37912	0.783189	2.79895	0.894062	3.19697		
0.729144	2.59463	0.55714	1.98357	0.728939	2.59481	0.771741	2.75386	0.88985	3.17278			0.666413	2.37771	0.785168	2.79671	0.895547	3.19164		
0.731096	2.59298	0.559076	1.98388	0.730892	2.59316	0.773852	2.75224	0.891618	3.16855			0.668236	2.37632	0.787147	2.79448	0.897036	3.18637		
0.733042	2.59132	0.561012	1.98419	0.732838	2.5915	0.775971	2.75066	0.893386	3.16436			0.670061	2.37494	0.789124	2.79226	0.898531	3.18115		
0.73498	2.58965	0.562946	1.98449	0.734777	2.58982	0.778098	2.74912	0.895154	3.16019			0.671887	2.37357	0.791101	2.79006	0.900032	3.17599		
0.736912	2.58796	0.56488	1.98479	0.73671	2.58813	0.780234	2.74763	0.896924	3.15606			0.673714	2.37222	0.793077	2.78787	0.901538	3.17088		
0.738837	2.58625	0.566814	1.98508	0.738636	2.58643	0.782377	2.74616	0.898694	3.15195			0.675543	2.37088	0.795052	2.78569	0.903049	3.16582		
0.740756	2.58454	0.568746	1.98537	0.740555	2.58472	0.784528	2.74474	0.900464	3.14788			0.677373	2.36956	0.797027	2.78352	0.904566	3.16081		
0.742669	2.58282	0.570678	1.98566	0.742468	2.583	0.786687	2.74335	0.902235	3.14383			0.679204	2.36824	0.799	2.78136	0.906088	3.15586		
0.744575	2.58109	0.572609	1.98594	0.744375	2.58127	0.788854	2.742	0.904006	3.13981			0.681037	2.36694	0.800972	2.77921	0.907616	3.15095		
0.746476	2.57934	0.57454	1.98622	0.746277	2.57953	0.791028	2.74068	0.905778	3.13581			0.68287	2.36566	0.802944	2.77708	0.909149	3.1461		
0.748371	2.57759	0.57647	1.98649	0.748172	2.57778	0.793209	2.73939	0.90755	3.13185			0.684706	2.36438	0.804914	2.77495	0.910688	3.1413		
0.75026	2.57583	0.578399	1.98676	0.750062	2.57602	0.795398	2.73814	0.909322	3.12791			0.686542	2.36312	0.806883	2.77283	0.912232	3.13654		
0.752144	2.57407	0.580328	1.98703	0.751946	2.57425	0.797593	2.73692	0.911095	3.12399			0.68838	2.36187	0.808851	2.77072	0.913781	3.13184		
0.754022	2.5723	0.582256	1.98729	0.753825	2.57248	0.799795	2.73573	0.912868	3.1201			0.690219	2.36064	0.810818	2.76862	0.915336	3.12718		
0.755896	2.57052	0.584183	1.98755	0.755699	2.5707	0.802003	2.73457	0.914642	3.11624			0.69206	2.35941	0.812784	2.76653	0.916897	3.12257		
0.757764	2.56873	0.586109	1.9878	0.757568	2.56892	0.804218	2.73343	0.916416	3.11241			0.693902	2.3582	0.814748	2.76445	0.918463	3.11801		
0.759628	2.56694	0.588035	1.98805	0.759433	2.56713	0.806439	2.73233	0.91819	3.1086			0.695745	2.35701	0.816711	2.76238	0.920034	3.1135		
0.761487	2.56515	0.589961	1.9883	0.761292	2.56534	0.808666	2.73125	0.919964	3.10481			0.69759	2.35582	0.818673	2.76032	0.921611	3.10903		
0.763342	2.56335	0.591885	1.98854	0.763147	2.56354	0.810899	2.7302	0.921739	3.10105			0.699436	2.35464	0.820634	2.75826	0.923194	3.10461		
0.765192	2.56155	0.593809	1.98878	0.764998	2.56174	0.813137	2.72918	0.923514	3.09731			0.701283	2.35348	0.822592	2.75622	0.924781	3.10024		
0.767038	2.55975	0.595733	1.98901	0.766845	2.55994	0.815381	2.72818	0.925289	3.0936			0.703132	2.35233	0.82455	2.75418	0.926375	3.09591		
0.768881	2.55794	0.597656	1.98924	0.768688	2.55813	0.81763	2.7272	0.927065	3.08991			0.704982	2.35119	0.826506	2.75215	0.927974	3.09163		
0.770719	2.55614	0.599578	1.98947	0.770527	2.55633	0.819885	2.72625	0.92884	3.08624			0.706833	2.35006	0.82846	2.75012	0.929578	3.08739		
0.772554	2.55433	0.601499	1.9897	0.772362	2.55452	0.822144	2.72532	0.930616	3.0826			0.708686	2.34895	0.830413	2.7481	0.931188	3.0832		
0.774385	2.55252	0.60342	1.98992	0.774194	2.55271	0.824409	2.72441	0.932392	3.07898			0.71054	2.34784	0.832364	2.74609	0.932803	3.07905		
0.776213	2.55071	0.605341	1.99014	0.776022	2.5509	0.826678	2.72353	0.934168	3.07538			0.712396	2.34675	0.834314	2.74409	0.934424	3.07494		
0.778038	2.54891	0.60726	1.99035	0.777847	2.54909	0.828952	2.72266	0.935944	3.07181			0.714252	2.34567	0.836262	2.7421	0.936051	3.07088		
0.77986	2.5471	0.609179	1.99056	0.779669	2.54729	0.83123	2.72181	0.93772	3.06826			0.716111	2.3446	0.838208	2.74011	0.937683	3.06686		
0.781678	2.54529	0.611098	1.99077	0.781488	2.54548	0.833512	2.72099	0.939497	3.06473			0.71797	2.34353	0.840152	2.73812	0.93932	3.06288		
0.783494	2.54349	0.613016	1.99097	0.783304	2.54368	0.835799	2.72018	0.941273	3.06122			0.719831	2.34249	0.842095	2.73615	0.940963	3.05894		
0.785307	2.54169	0.614933	1.99118	0.785117	2.54188	0.838089	2.71939	0.94305	3.05773			0.721694	2.34145	0.844036	2.73418	0.942611	3.05505		
0.787118	2.53989	0.61685	1.99138	0.786928	2.54008	0.840383	2.71861	0.944826	3.05426			0.723557	2.34042	0.845975	2.73221	0.944265	3.05119		
0.788926	2.53809	0.618766	1.99157	0.788737	2.53828	0.842681	2.71785	0.946603	3.05082			0.725422	2.3394	0.847912	2.73025	0.945924	3.04738		
0.790732	2.5363	0.620681	1.99176	0.790543	2.53649	0.844983	2.71711	0.94838	3.04739			0.727289	2.33839	0.849847	2.7283	0.947589	3.04361		
0.792535	2.53451	0.622596	1.99195	0.792346	2.5347	0.847288	2.71639	0.950156	3.04399			0.729156	2.3374	0.851781	2.72635	0.949259	3.03987		
0.794337	2.53273	0.62451	1.99214	0.794148	2.53291	0.849596	2.71567	0.951933	3.04061			0.731026	2.33641	0.853712	2.72441	0.950934	3.03618		
0.796137	2.53095	0.626424	1.99232	0.795948	2.53113	0.851908	2.71498	0.95371	3.03724			0.732896	2.33543	0.855642	2.72247	0.952615	3.03253		
0.797934	2.52917	0.628337	1.9925	0.797746	2.52935	0.854222	2.7143	0.955487	3.0339			0.734768	2.33447	0.857569	2.72054	0.954301	3.02891		
0.79973	2.5274	0.63025	1.99268	0.799542	2.52758	0.85654	2.71363	0.957264	3.03058			0.736641	2.33351	0.859495	2.71861	0.955993	3.02534		
0.801524	2.52563	0.632162	1.99286	0.801336	2.52582	0.85886	2.71297	0.95904	3.02727			0.738515	2.33257	0.861419	2.71669	0.95769	3.0218		
0.803317	2.52387	0.634074	1.99303	0.803129	2.52405	0.861184	2.71233	0.960817	3.02399			0.740391	2.33163	0.86334	2.71477	0.959393	3.0183		
0.805108	2.52211	0.635985	1.9932	0.80492	2.5223	0.863509	2.71169	0.962594	3.02072			0.742269	2.3307	0.86526	2.71286	0.961101	3.01483		
0.806897	2.52036	0.637895	1.99336	0.80671	2.52055	0.865838	2.71107	0.964371	3.01747			0.744147	2.32979	0.867177	2.71096	0.962814	3.01141		
0.808686	2.51862	0.639805	1.99353	0.808498	2.5188	0.868169	2.71046	0.966148	3.01425			0.746027	2.32888	0.869093	2.70905	0.964533	3.00801		
0.810473	2.51688	0.641714	1.99369	0.810285	2.51706	0.870502	2.70987	0.967924	3.01104			0.747908	2.32798	0.871006	2.70715	0.966257	3.00466		
0.812259	2.51515	0.643623	1.99385	0.812071	2.51533	0.872837	2.70928	0.969701	3.00785			0.74979	2.32709	0.872917	2.70526	0.967986	3.00134		
0.814043	2.51343	0.645531	1.994	0.813856	2.51361	0.875175	2.7087	0.971478	3.00467			0.751674	2.32621	0.874826	2.70337	0.96972	2.99806		
0.815827	2.51171	0.647439	1.99416	0.81564	2.51189	0.877514	2.70813	0.973255	3.00152			0.753559	2.32534	0.876733	2.70149	0.97146	2.99481		
0.81761	2.51	0.649346	1.99431	0.817423	2.51018	0.879856	2.70757	0.975031	2.99838			0.755446	2.32448	0.878638	2.69961	0.973205	2.9916		
0.819392	2.5083	0.651253	1.99446	0.819205	2.50847	0.882199	2.70702	0.976808	2.99527			0.757334	2.32362	0.880541	2.69773	0.974955	2.98842		
0.821173	2.5066	0.653159	1.9946	0.820987	2.50678	0.884544	2.70648	0.978585	2.99217			0.759223	2.32278	0.882442	2.69586	0.976711	2.98528		
0.822954	2.50491	0.655065	1.99475	0.822767	2.50509	0.886891	2.70595	0.980361	2.98908			0.761113	2.32195	0.88434	2.69399	0.978471	2.98216		
0.824734	2.50323	0.65697	1.99489	0.824547	2.5034	0.889239	2.70542	0.982138	2.98602			0.763005	2.32112	0.886237	2.69213	0.980237	2.97909		
0.826513	2.50155	0.658874	1.99503	0.826327	2.50173	0.891589	2.7049	0.983914	2.98297			0.764898	2.3203	0.888131	2.69027	0.982008	2.97604		
0.828292	2.49989	0.660779	1.99517	0.828105	2.50006	0.893941	2.70439	0.985691	2.97994			0.766792	2.31949	0.890023	2.68841	0.983784	2.97303		
0.83007	2.49823	0.662682	1.9953	0.829884	2.4984	0.896294	2.70389	0.987468	2.97692			0.768687	2.31869	0.891913	2.68656	0.985565	2.97005		
0.831848	2.49658	0.664585	1.99543	0.831661	2.49675	0.898648	2.70339	0.989244	2.97393			0.770584	2.3179	0.8938	2.68471	0.987351	2.9671		
0.833625	2.49494	0.666488	1.99556	0.833439	2.49511	0.901003	2.7029	0.991021	2.97095			0.772482	2.31711	0.895686	2.68287	0.989142	2.96418		
0.835402	2.49331	0.66839	1.99569	0.835216	2.49348	0.90336	2.70242	0.992797	2.96798			0.774381	2.31634	0.897569	2.68102	0.990939	2.9613		
0.837179	2.49168	0.670292	1.99582	0.836993	2.49185	0.905717	2.70194	0.994574	2.96504			0.776282	2.31557	0.899451	2.67919	0.99274	2.95844		
0.838956	2.49006	0.672193	1.99594	0.83877	2.49023	0.908076	2.70147	0.996351	2.9621			0.778184	2.31481	0.90133	2.67735	0.994546	2.95562		
0.840732	2.48845	0.674094	1.99606	0.840546	2.48862	0.910435	2.701	0.998128	2.95919			0.780087	2.31406	0.903207	2.67553	0.996357	2.95283		
0.842509	2.48685	0.675994	1.99618	0.842322	2.48702	0.912796	2.70054	0.999904	2.95629			0.781991	2.31331	0.905081	2.6737	0.998172	2.95006		
0.844285	2.48526	0.677894	1.9963	0.844099	2.48543	0.915157	2.70008	1.00168	2.95341			0.783897	2.31257	0.906954	2.67188	0.999993	2.94733		
0.846061	2.48368	0.679793	1.99642	0.845875	2.48384	0.917519	2.69963					0.785804	2.31185	0.908825	2.67006	1.00182	2.94462		
0.847837	2.4821	0.681692	1.99653	0.847651	2.48227	0.919882	2.69919					0.787712	2.31112	0.910693	2.66825				
0.849613	2.48054	0.683591	1.99664	0.849427	2.4807	0.922245	2.69874					0.789621	2.31041	0.91256	2.66644				
0.85139	2.47898	0.685489	1.99675	0.851203	2.47914	0.924609	2.6983					0.791531	2.3097	0.914424	2.66463				
0.853166	2.47743	0.687386	1.99686	0.85298	2.47759	0.926974	2.69787					0.793443	2.309	0.916286	2.66283				
0.854942	2.47589	0.689284	1.99697	0.854756	2.47605	0.929339	2.69744					0.795356	2.30831	0.918146	2.66103				
0.856719	2.47436	0.69118	1.99707	0.856533	2.47452	0.931704	2.69701					0.79727	2.30763	0.920004	2.65923				
0.858496	2.47284	0.693077	1.99718	0.85831	2.473	0.93407	2.69658					0.799185	2.30695	0.92186	2.65744				
0.860273	2.47132	0.694972	1.99728	0.860087	2.47148	0.936435	2.69616					0.801102	2.30628	0.923714	2.65565				
0.86205	2.46982	0.696868	1.99738	0.861864	2.46998	0.938802	2.69574					0.80302	2.30562	0.925566	2.65387				
0.863828	2.46832	0.698763	1.99747	0.863642	2.46848	0.941168	2.69533					0.804938	2.30496	0.927416	2.65209				
0.865606	2.46684	0.700658	1.99757	0.865419	2.46699	0.943534	2.69491					0.806858	2.30431	0.929264	2.65031				
0.867384	2.46536	0.702552	1.99766	0.867198	2.46551	0.945901	2.6945					0.80878	2.30367	0.93111	2.64854				
0.869163	2.46389	0.704446	1.99776	0.868976	2.46404	0.948267	2.69409					0.810702	2.30303	0.932954	2.64677				
0.870942	2.46243	0.706339	1.99785	0.870755	2.46258	0.950633	2.69368					0.812625	2.3024	0.934796	2.645				
0.872721	2.46098	0.708232	1.99794	0.872535	2.46113	0.953	2.69328					0.81455	2.30178	0.936636	2.64324				
0.874501	2.45953	0.710125	1.99802	0.874315	2.45969	0.955365	2.69288					0.816476	2.30116	0.938474	2.64148				
0.876282	2.4581	0.712017	1.99811	0.876095	2.45825	0.957731	2.69247					0.818403	2.30055	0.940311	2.63973				
0.878062	2.45668	0.713909	1.99819	0.877876	2.45682	0.960097	2.69207					0.820331	2.29995	0.942146	2.63798				
0.879844	2.45526	0.7158	1.99828	0.879657	2.45541	0.962462	2.69167					0.82226	2.29935	0.943978	2.63623				
0.881626	2.45385	0.717691	1.99836	0.881439	2.454	0.964826	2.69127					0.82419	2.29876	0.945809	2.63449				
0.883408	2.45245	0.719582	1.99844	0.883221	2.4526	0.967191	2.69087					0.826122	2.29817	0.947639	2.63276				
0.885191	2.45106	0.721473	1.99852	0.885004	2.45121	0.969554	2.69047					0.828054	2.29759	0.949466	2.63102				
0.886975	2.44968	0.723363	1.99859	0.886788	2.44983	0.971917	2.69008					0.829988	2.29702	0.951292	2.62929				
0.888759	2.44831	0.725252	1.99867	0.888572	2.44845	0.97428	2.68968					0.831922	2.29645	0.953116	2.62757				
0.890544	2.44695	0.727141	1.99875	0.890356	2.44709	0.976641	2.68928					0.833858	2.29589	0.954938	2.62585				
0.892329	2.44559	0.72903	1.99882	0.892142	2.44573	0.979002	2.68889					0.835795	2.29534	0.956759	2.62413				
0.894115	2.44425	0.730919	1.99889	0.893928	2.44439	0.981362	2.68849					0.837733	2.29479	0.958578	2.62242				
0.895902	2.44291	0.732807	1.99896	0.895714	2.44305	0.983722	2.68809					0.839672	2.29424	0.960395	2.62071				
0.897689	2.44158	0.734695	1.99903	0.897502	2.44172	0.98608	2.68769					0.841612	2.29371	0.962211	2.61901				
0.899477	2.44026	0.736583	1.9991	0.89929	2.4404	0.988437	2.68729					0.843553	2.29317	0.964026	2.61731				
0.901266	2.43895	0.73847	1.99917	0.901078	2.43908	0.990793	2.68689					0.845495	2.29265	0.965839	2.61562				
0.903055	2.43764	0.740357	1.99923	0.902868	2.43778	0.993148	2.68649					0.847438	2.29212	0.96765	2.61393				
0.904846	2.43635	0.742244	1.9993	0.904658	2.43648	0.995502	2.68609					0.849383	2.29161	0.96946	2.61224				
0.906637	2.43506	0.74413	1.99936	0.906449	2.4352	0.997855	2.68568					0.851328	2.2911	0.971268	2.61056				
0.908428	2.43378	0.746016	1.99942	0.90824	2.43392	1.00021	2.68528					0.853274	2.29059	0.973075	2.60888				
0.910221	2.43251	0.747901	1.99948	0.910033	2.43265							0.855221	2.29009	0.974881	2.60721				
0.912014	2.43125	0.749787	1.99954	0.911826	2.43138							0.857169	2.2896	0.976685	2.60554				
0.913808	2.43	0.751672	1.9996	0.91362	2.43013							0.859119	2.28911	0.978488	2.60388				
0.915603	2.42875	0.753557	1.99966	0.915414	2.42888							0.861069	2.28862	0.98029	2.60223				
0.917398	2.42752	0.755441	1.99971	0.91721	2.42765							0.86302	2.28814	0.98209	2.60057				
0.919194	2.42629	0.757325	1.99977	0.919006	2.42642							0.864972	2.28767	0.98389	2.59893				
0.920992	2.42507	0.759209	1.99982	0.920803	2.4252							0.866925	2.28719	0.985688	2.59728				
0.92279	2.42386	0.761093	1.99988	0.922601	2.42398							0.86888	2.28673	0.987484	2.59564				
0.924588	2.42265	0.762976	1.99993	0.9244	2.42278							0.870835	2.28627	0.98928	2.59401				
0.926388	2.42146	0.764859	1.99998	0.926199	2.42158							0.872791	2.28581	0.991074	2.59238				
0.928188	2.42027	0.766742	2.00003	0.928	2.42039							0.874748	2.28536	0.992868	2.59076				
0.92999	2.41909	0.768624	2.00008	0.929801	2.41921							0.876706	2.28492	0.99466	2.58914				
0.931792	2.41792	0.770506	2.00013	0.931603	2.41804							0.878664	2.28447	0.996451	2.58753				
0.933595	2.41675	0.772388	2.00018	0.933406	2.41687							0.880624	2.28404	0.998242	2.58592				
0.935399	2.4156	0.77427	2.00022	0.93521	2.41572							0.882585	2.2836	1.00003	2.58432				
0.937204	2.41445	0.776151	2.00027	0.937014	2.41457							0.884547	2.28317						
0.939009	2.41331	0.778032	2.00032	0.93882	2.41343							0.886509	2.28275						
0.940816	2.41217	0.779913	2.00036	0.940626	2.41229							0.888472	2.28233						
0.942623	2.41105	0.781794	2.0004	0.942433	2.41117							0.890437	2.28192						
0.944431	2.40993	0.783674	2.00045	0.944242	2.41005							0.892402	2.2815						
0.94624	2.40882	0.785554	2.00049	0.946051	2.40894							0.894368	2.2811						
0.948051	2.40772	0.787434	2.00053	0.947861	2.40783							0.896335	2.28069						
0.949862	2.40662	0.789314	2.00057	0.949672	2.40674							0.898303	2.2803						
0.951673	2.40553	0.791193	2.00061	0.951483	2.40565							0.900272	2.2799						
0.953486	2.40445	0.793072	2.00065	0.953296	2.40457							0.902241	2.27951						
0.9553	2.40338	0.794951	2.00068	0.95511	2.40349							0.904211	2.27912						
0.957114	2.40231	0.79683	2.00072	0.956924	2.40243							0.906183	2.27874						
0.95893	2.40126	0.798709	2.00076	0.95874	2.40137							0.908155	2.27836						
0.960746	2.4002	0.800587	2.00079	0.960556	2.40031							0.910128	2.27799						
0.962564	2.39916	0.802465	2.00083	0.962373	2.39927							0.912101	2.27762						
0.964382	2.39812	0.804343	2.00086	0.964191	2.39823							0.914076	2.27725						
0.966201	2.39709	0.806221	2.00089	0.96601	2.3972							0.916051	2.27688						
0.968021	2.39607	0.808098	2.00093	0.967831	2.39618							0.918028	2.27652						
0.969843	2.39506	0.809975	2.00096	0.969652	2.39516							0.920004	2.27617						
0.971665	2.39405	0.811852	2.00099	0.971473	2.39415							0.921982	2.27581						
0.973487	2.39304	0.813729	2.00102	0.973296	2.39315							0.923961	2.27547						
0.975311	2.39205	0.815606	2.00105	0.97512	2.39215							0.92594	2.27512						
0.977136	2.39106	0.817482	2.00108	0.976945	2.39116							0.92792	2.27478						
0.978962	2.39008	0.819358	2.00111	0.97877	2.39018							0.929901	2.27444						
0.980789	2.3891	0.821235	2.00114	0.980597	2.38921							0.931883	2.2741						
0.982616	2.38814	0.82311	2.00117	0.982424	2.38824							0.933865	2.27377						
0.984445	2.38718	0.824986	2.00119	0.984253	2.38728							0.935848	2.27344						
0.986274	2.38622	0.826862	2.00122	0.986082	2.38632							0.937832	2.27312						
0.988105	2.38527	0.828737	2.00125	0.987913	2.38537							0.939817	2.2728						
0.989936	2.38433	0.830612	2.00127	0.989744	2.38443							0.941802	2.27248						
0.991768	2.3834	0.832487	2.0013	0.991576	2.38349							0.943789	2.27216						
0.993602	2.38247	0.834362	2.00132	0.993409	2.38256							0.945775	2.27185						
0.995436	2.38154	0.836237	2.00135	0.995243	2.38164							0.947763	2.27154						
0.997271	2.38063	0.838111	2.00137	0.997078	2.38072							0.949751	2.27123						
0.999107	2.37972	0.839986	2.00139	0.998914	2.37981							0.95174	2.27093						
1.00094	2.37882	0.84186	2.00141	1.00075	2.37891							0.95373	2.27063						
		0.843734	2.00144									0.95572	2.27033						
		0.845608	2.00146									0.957711	2.27004						
		0.847481	2.00148									0.959703	2.26975						
		0.849355	2.0015									0.961696	2.26946						
		0.851228	2.00152									0.963689	2.26917						
		0.853101	2.00154									0.965683	2.26889						
		0.854975	2.00156									0.967677	2.26861						
		0.856848	2.00158									0.969672	2.26833						
		0.85872	2.0016									0.971668	2.26806						
		0.860593	2.00162									0.973665	2.26779						
		0.862466	2.00163									0.975662	2.26752						
		0.864338	2.00165									0.977659	2.26725						
		0.86621	2.00167									0.979658	2.26699						
		0.868083	2.00168									0.981657	2.26673						
		0.869954	2.0017									0.983656	2.26647						
		0.871826	2.00172									0.985657	2.26621						
		0.873698	2.00173									0.987657	2.26596						
		0.87557	2.00175									0.989659	2.26571						
		0.877441	2.00176									0.991661	2.26546						
		0.879313	2.00178									0.993664	2.26521						
		0.881184	2.00179									0.995667	2.26497						
		0.883055	2.0018									0.997671	2.26473						
		0.884926	2.00182									0.999675	2.26449						
		0.886797	2.00183									1.00168	2.26425						
		0.888668	2.00184																
		0.890539	2.00186																
		0.89241	2.00187																
		0.89428	2.00188																
		0.896151	2.00189																
		0.898021	2.00191																
		0.899891	2.00192																
		0.901761	2.00193																
		0.903631	2.00194																
		0.905501	2.00195																
		0.907371	2.00196																
		0.909241	2.00197																
		0.911111	2.00198																
		0.91298	2.00199																
		0.91485	2.002																
		0.916719	2.00201																
		0.918589	2.00202																
		0.920458	2.00202																
		0.922327	2.00203																
		0.924196	2.00204																
		0.926065	2.00205																
		0.927934	2.00206																
		0.929803	2.00206																
		0.931672	2.00207																
		0.933541	2.00208																
		0.935409	2.00209																
		0.937278	2.00209																
		0.939146	2.0021																
		0.941015	2.00211																
		0.942883	2.00211																
		0.944751	2.00212																
		0.94662	2.00213																
		0.948488	2.00213																
		0.950356	2.00214																
		0.952224	2.00214																
		0.954092	2.00215																
		0.95596	2.00215																
		0.957828	2.00216																
		0.959696	2.00216																
		0.961563	2.00217																
		0.963431	2.00217																
		0.965299	2.00218																
		0.967167	2.00218																
		0.969034	2.00219																
		0.970902	2.00219																
		0.972769	2.0022																
		0.974636	2.0022																
		0.976504	2.0022																
		0.978371	2.00221																
		0.980238	2.00221																
		0.982106	2.00222																
		0.983973	2.00222																
		0.98584	2.00222																
		0.987707	2.00223																
		0.989574	2.00223																
		0.991441	2.00223																
		0.993308	2.00224																
		0.995175	2.00224																
		0.997042	2.00224																
		0.998909	2.00224																
		1.00078	2.00225																
