Sym0		Asym0		Sym1		Sym2		Sym3		Sym4		Asym1		Asym2		Asym3		Asym4	
458  Points		542  Points		458  Points		407  Points		370  Points		280  Points		481  Points		422  Points		371  Points		280  Points	
Freq (MHz)	Vph (m/ms)	Freq (MHz)	Vph (m/ms)	Freq (MHz)	Vph (m/ms)	Freq (MHz)	Vph (m/ms)	Freq (MHz)	Vph (m/ms)	Freq (MHz)	Vph (m/ms)	Freq (MHz)	Vph (m/ms)	Freq (MHz)	Vph (m/ms)	Freq (MHz)	Vph (m/ms)	Freq (MHz)	Vph (m/ms)
0.279507	337.961	3.07479e-005	0.0341687	0.279507	367.864	0.356464	4749.46	0.559017	1867.81	0.838526	2357.59	0.139755	1253.44	0.419264	718.477	0.69877	1634.64	0.712928	5178.92
0.2795	158.921	0.000127219	0.0694588	0.2795	165.238	0.35648	354.091	0.559024	454.127	0.83853	651.353	0.139796	134.008	0.419274	276.704	0.698759	514.106	0.712945	666.706
0.279488	103.882	0.000289247	0.104676	0.279489	106.545	0.356524	183.923	0.55904	258.494	0.838538	377.88	0.139902	70.8407	0.419292	171.354	0.698737	305.01	0.712987	356.307
0.279472	77.1568	0.000516333	0.139739	0.279473	78.6163	0.356596	124.243	0.559063	180.671	0.83855	266.142	0.140075	48.1922	0.419319	124.109	0.698703	216.816	0.713055	243.136
0.27945	61.3661	0.000807886	0.174615	0.279452	62.286	0.356695	93.8218	0.559095	138.869	0.838566	205.408	0.140312	36.556	0.419354	97.2906	0.698659	168.179	0.713148	184.541
0.279424	50.9386	0.00116307	0.209247	0.279427	51.571	0.356822	75.3817	0.559136	112.78	0.838587	167.244	0.140614	29.479	0.419398	80.0069	0.698605	137.36	0.713265	148.717
0.279394	43.5383	0.00158096	0.243598	0.279397	43.9996	0.356976	63.0118	0.559184	94.9466	0.838612	141.042	0.140979	24.726	0.41945	67.9412	0.698541	116.082	0.713407	124.551
0.27936	38.0138	0.0020604	0.277617	0.279362	38.3651	0.357157	54.14	0.559242	81.9863	0.838641	121.939	0.141407	21.3176	0.419511	59.041	0.698468	100.509	0.713571	107.15
0.279321	33.732	0.00260029	0.311283	0.279324	34.0085	0.357366	47.4676	0.559307	72.1421	0.838674	107.395	0.141897	18.7569	0.41958	52.2054	0.698388	88.6162	0.713758	94.0242
0.279279	30.3159	0.0031991	0.34454	0.279282	30.5391	0.357601	42.2681	0.559381	64.4111	0.838712	95.9523	0.142447	16.7649	0.419658	46.7909	0.6983	79.2376	0.713967	83.7703
0.279233	27.527	0.00385545	0.377362	0.279237	27.711	0.357863	38.1029	0.559463	58.179	0.838753	86.7142	0.143056	15.1728	0.419744	42.3963	0.698205	71.6518	0.714197	75.5395
0.279184	25.2069	0.00456791	0.409732	0.279188	25.3612	0.358151	34.6921	0.559554	53.0487	0.838799	79.0998	0.143722	13.8726	0.419839	38.7585	0.698105	65.3894	0.714447	68.7874
0.279132	23.2467	0.00533473	0.441609	0.279136	23.3779	0.358465	31.8483	0.559653	48.7518	0.83885	72.7157	0.144444	12.7919	0.419943	35.6976	0.698001	60.132	0.714716	63.1486
0.279077	21.5686	0.00615432	0.472976	0.279081	21.6815	0.358805	29.4414	0.559761	45.1008	0.838904	67.2862	0.14522	11.8804	0.420055	33.0867	0.697892	55.6555	0.715003	58.3691
0.27902	20.1157	0.00702498	0.503813	0.279025	20.214	0.35917	27.3783	0.559876	41.9602	0.838963	62.612	0.146049	11.102	0.420175	30.8334	0.69778	51.7979	0.715308	54.2665
0.278962	18.8456	0.00794496	0.534104	0.278966	18.9319	0.35956	25.5906	0.560001	39.2302	0.839026	58.5458	0.146928	10.4301	0.420304	28.8691	0.697666	48.4393	0.71563	50.7068
0.278901	17.7258	0.00891255	0.563836	0.278905	17.8022	0.359976	24.0269	0.560133	36.8353	0.839093	54.9764	0.147857	9.84493	0.420442	27.1416	0.69755	45.4887	0.715968	47.5891
0.278839	16.7312	0.00992595	0.592994	0.278844	16.7992	0.360415	22.6479	0.560274	34.7175	0.839164	51.8179	0.148833	9.33107	0.420588	25.6107	0.697433	42.876	0.716322	44.836
0.278777	15.8418	0.0109835	0.621575	0.278781	15.9028	0.360878	21.4228	0.560423	32.8313	0.83924	49.0033	0.149855	8.87663	0.420743	24.2446	0.697316	40.5464	0.71669	42.3872
0.278713	15.0418	0.0120834	0.649573	0.278718	15.0968	0.361365	20.3274	0.560581	31.1408	0.83932	46.4794	0.150921	8.47219	0.420906	23.0182	0.697198	38.4562	0.717072	40.1949
0.27865	14.3184	0.0132239	0.676976	0.278655	14.3683	0.361875	19.3424	0.560747	29.6172	0.839404	44.2034	0.151884	8.15459	0.421078	21.9112	0.697081	36.5704	0.717469	38.221
0.278588	13.6612	0.0144035	0.703796	0.278592	13.7066	0.362408	18.452	0.560922	28.2368	0.839492	42.1405	0.15273	7.90619	0.421258	20.907	0.696966	34.8604	0.717878	36.4345
0.278526	13.0614	0.0156204	0.730023	0.27853	13.1029	0.362963	17.6433	0.561104	26.9806	0.839585	40.2621	0.153445	7.71468	0.421447	19.9919	0.696852	33.3027	0.7183	34.8099
0.278465	12.5119	0.0168732	0.755665	0.278469	12.55	0.363541	16.9057	0.561296	25.8325	0.839681	38.5446	0.154021	7.57138	0.421644	19.1547	0.69674	31.878	0.718734	33.3262
0.278405	12.0066	0.0181601	0.780725	0.27841	12.0417	0.364139	16.2303	0.561495	24.7792	0.839783	36.9682	0.154451	7.47029	0.42185	18.3859	0.69663	30.5698	0.719181	31.9659
0.278348	11.5404	0.0194798	0.805207	0.278352	11.5728	0.364759	15.6097	0.561703	23.8094	0.839888	35.5162	0.154728	7.4074	0.422064	17.6774	0.696523	29.3646	0.719638	30.7143
0.278293	11.109	0.0208308	0.829119	0.278297	11.1391	0.3654	15.0376	0.561919	22.9136	0.839997	34.1744	0.15513	7.31937	0.422287	17.0225	0.696419	28.2505	0.720107	29.5589
0.278241	10.7087	0.0222116	0.852467	0.278245	10.7366	0.36606	14.5085	0.562144	22.0838	0.840111	32.9308	0.155571	7.22674	0.422519	16.4153	0.696319	27.2178	0.720586	28.4891
0.278192	10.3362	0.023621	0.875263	0.278196	10.3622	0.366741	14.0178	0.562377	21.3129	0.840229	31.7749	0.156179	7.10558	0.422759	15.8509	0.696222	26.2577	0.721076	27.4956
0.278147	9.9887	0.0250576	0.89751	0.27815	10.013	0.367441	13.5616	0.562618	20.5948	0.840351	30.698	0.156958	6.95984	0.423007	15.3249	0.696129	25.363	0.721576	26.5707
0.278106	9.66387	0.0265203	0.919225	0.278109	9.6866	0.36816	13.1364	0.562868	19.9244	0.840478	29.692	0.157919	6.79391	0.423264	14.8335	0.69604	24.5272	0.722086	25.7075
0.278069	9.35958	0.0280078	0.940412	0.278072	9.38089	0.368897	12.7392	0.563126	19.2971	0.840608	28.7503	0.159068	6.61239	0.42353	14.3735	0.695956	23.7446	0.722606	24.9001
0.278037	9.07394	0.0295189	0.961086	0.278039	9.09396	0.369653	12.3674	0.563393	18.709	0.840743	27.8669	0.160417	6.41981	0.423804	13.942	0.695876	23.0105	0.723135	24.1432
0.27801	8.80533	0.0310527	0.981256	0.278012	8.82417	0.370427	12.0187	0.563667	18.1563	0.840882	27.0366	0.161795	6.24223	0.424087	13.5364	0.6958	22.3203	0.723674	23.4323
0.277989	8.55229	0.032608	1.00093	0.277991	8.57005	0.371218	11.6909	0.56395	17.6362	0.841026	26.2547	0.163202	6.07804	0.424379	13.1545	0.69573	21.6704	0.724221	22.7633
0.277974	8.31352	0.0341838	1.02013	0.277975	8.3303	0.372026	11.3824	0.564242	17.1457	0.841173	25.5172	0.164637	5.92586	0.424678	12.7943	0.695665	21.0573	0.724778	22.1327
0.277965	8.08789	0.0357793	1.03886	0.277966	8.13218	0.37285	11.0914	0.564542	16.6825	0.841325	24.8203	0.166098	5.78446	0.424987	12.454	0.695605	20.4779	0.725343	21.5372
0.277963	7.87436	0.0373936	1.05713	0.277963	7.97069	0.373691	10.8167	0.56485	16.2444	0.841482	24.1608	0.167584	5.65279	0.425304	12.132	0.69555	19.9297	0.725917	20.974
0.277968	7.672	0.0390257	1.07496	0.277963	7.84199	0.374548	10.5568	0.565166	15.8294	0.841642	23.5358	0.169094	5.52993	0.42563	11.827	0.695501	19.4101	0.7265	20.4406
0.27798	7.47998	0.0406748	1.09235	0.277965	7.74319	0.37542	10.3106	0.565491	15.4357	0.841807	22.9427	0.170626	5.41506	0.425964	11.5376	0.695457	18.917	0.72709	19.9346
0.277999	7.29756	0.0423403	1.10932	0.277968	7.67214	0.376308	10.0771	0.565825	15.0617	0.841976	22.379	0.172181	5.30745	0.426306	11.2627	0.695419	18.4484	0.727689	19.4541
0.278027	7.12406	0.0440213	1.12588	0.27797	7.62737	0.37721	9.85537	0.566166	14.7061	0.842149	21.8427	0.173755	5.20647	0.426658	11.0011	0.695387	18.0026	0.728296	18.9971
0.278063	6.95885	0.0457171	1.14204	0.277973	7.56393	0.378127	9.64456	0.566516	14.3675	0.842326	21.3318	0.17535	5.11155	0.427018	10.7521	0.69536	17.5779	0.728911	18.5621
0.278108	6.80139	0.0474272	1.15781	0.277978	7.49619	0.379058	9.44387	0.566874	14.0447	0.842508	20.8446	0.176963	5.02218	0.427386	10.5147	0.69534	17.173	0.729534	18.1474
0.278162	6.65116	0.0491507	1.1732	0.277987	7.40604	0.380002	9.25264	0.567241	13.7367	0.842694	20.3794	0.178595	4.93791	0.427763	10.2882	0.695325	16.7863	0.730165	17.7516
0.278225	6.50769	0.0508873	1.18823	0.278	7.29515	0.380961	9.0702	0.567616	13.4425	0.842884	19.9348	0.180243	4.85834	0.428149	10.0718	0.695316	16.4169	0.730803	17.3736
0.278298	6.37056	0.0526361	1.2029	0.27802	7.16553	0.381932	8.896	0.567999	13.1611	0.843078	19.5095	0.181908	4.7831	0.428543	9.86482	0.695314	16.0635	0.731449	17.0122
0.27838	6.23938	0.0543969	1.21722	0.278049	7.0194	0.382916	8.72948	0.56839	12.8919	0.843277	19.1023	0.183589	4.71185	0.428945	9.66676	0.695318	15.7251	0.732103	16.6662
0.278473	6.11378	0.0561689	1.2312	0.278091	6.85912	0.383913	8.57018	0.56879	12.634	0.84348	18.712	0.185284	4.6443	0.429357	9.47705	0.695328	15.4008	0.732764	16.3348
0.278576	5.99345	0.0579517	1.24486	0.278141	6.70625	0.384922	8.41763	0.569198	12.3867	0.843687	18.3375	0.186993	4.58019	0.429777	9.29516	0.695344	15.0898	0.733432	16.017
0.27869	5.87807	0.0597449	1.25819	0.278201	6.56032	0.385943	8.27143	0.569615	12.1494	0.843898	17.9781	0.188716	4.51926	0.430205	9.12064	0.695366	14.7912	0.734108	15.7121
0.278814	5.76736	0.0615479	1.27122	0.27827	6.42088	0.386843	8.14892	0.57004	11.9216	0.844114	17.6327	0.190452	4.46129	0.430642	8.95306	0.695395	14.5043	0.734791	15.4192
0.27895	5.66106	0.0633605	1.28395	0.278348	6.28752	0.387617	8.04788	0.570473	11.7026	0.844334	17.3006	0.1922	4.40608	0.431088	8.79202	0.695431	14.2286	0.735481	15.1378
0.279097	5.55894	0.0651821	1.29639	0.278437	6.15989	0.388261	7.96659	0.570914	11.492	0.844558	16.981	0.193961	4.35344	0.431542	8.63716	0.695472	13.9633	0.736178	14.867
0.279256	5.46077	0.0670124	1.30854	0.278536	6.03764	0.388774	7.90372	0.571364	11.2894	0.844787	16.6732	0.195732	4.30321	0.432005	8.48814	0.695521	13.7078	0.736882	14.6064
0.279426	5.36633	0.068851	1.32042	0.278646	5.92044	0.389152	7.85826	0.571822	11.0942	0.845019	16.3767	0.197514	4.25523	0.432476	8.34465	0.695575	13.4617	0.737593	14.3554
0.279609	5.27545	0.0706976	1.33204	0.278766	5.80803	0.389395	7.82949	0.572289	10.9061	0.845256	16.0907	0.199306	4.20935	0.432894	8.22388	0.695636	13.2244	0.738311	14.1135
0.279804	5.18794	0.0725518	1.34339	0.278898	5.70012	0.389746	7.7886	0.572763	10.7247	0.845498	15.8148	0.201108	4.16544	0.433255	8.12392	0.695704	12.9955	0.739036	13.8801
0.280012	5.10362	0.0744133	1.35449	0.279041	5.59647	0.390128	7.74473	0.573246	10.5497	0.845743	15.5485	0.202919	4.12338	0.433558	8.04328	0.695779	12.7746	0.739768	13.6549
0.280232	5.02235	0.0762818	1.36535	0.279195	5.49685	0.390649	7.68604	0.573737	10.3808	0.845993	15.2911	0.20474	4.08307	0.433799	7.98075	0.69586	12.5612	0.740506	13.4374
0.280466	4.94398	0.0781571	1.37597	0.279362	5.40105	0.391313	7.61337	0.574237	10.2176	0.846247	15.0424	0.206568	4.0444	0.433978	7.93547	0.695947	12.355	0.741251	13.2273
0.280713	4.86838	0.0800388	1.38636	0.27954	5.30887	0.392121	7.52772	0.574745	10.0598	0.846505	14.8019	0.208405	4.00726	0.434093	7.90678	0.696041	12.1556	0.742003	13.0242
0.280973	4.7954	0.0819268	1.39652	0.27973	5.22012	0.393075	7.43023	0.575261	9.90729	0.846768	14.5691	0.21025	3.97158	0.434259	7.86594	0.696142	11.9627	0.742762	12.8277
0.281246	4.72494	0.0838206	1.40646	0.279933	5.13464	0.39418	7.32216	0.575785	9.75972	0.847035	14.3438	0.212102	3.93728	0.434441	7.82209	0.69625	11.776	0.743527	12.6376
0.281534	4.65688	0.0857201	1.4162	0.280149	5.05225	0.395295	7.21795	0.576318	9.61687	0.847306	14.1255	0.213962	3.90427	0.434689	7.76331	0.696364	11.5953	0.744298	12.4535
0.281835	4.59111	0.0876252	1.42573	0.280378	4.97282	0.396419	7.1174	0.576859	9.47854	0.847582	13.914	0.215828	3.87248	0.435007	7.69037	0.696485	11.4201	0.745077	12.2752
0.282151	4.52754	0.0895354	1.43505	0.280619	4.8962	0.397553	7.02032	0.577408	9.3445	0.847861	13.7089	0.2177	3.84186	0.435395	7.6042	0.696613	11.2503	0.745861	12.1023
0.282481	4.46607	0.0914507	1.44418	0.280874	4.82226	0.398696	6.92654	0.577965	9.21459	0.848145	13.51	0.219579	3.81233	0.435857	7.50583	0.696747	11.0857	0.746652	11.9347
0.282826	4.40661	0.0933709	1.45313	0.281143	4.75088	0.399848	6.8359	0.578531	9.0886	0.848434	13.3169	0.221464	3.78384	0.436394	7.39641	0.696888	10.926	0.747449	11.7722
0.283186	4.34908	0.0952957	1.46189	0.281425	4.68193	0.401008	6.74825	0.579105	8.96638	0.848726	13.1295	0.223354	3.75635	0.436941	7.29055	0.697036	10.771	0.748253	11.6144
0.28356	4.2934	0.097225	1.47046	0.281722	4.61532	0.402178	6.66345	0.579687	8.84776	0.849023	12.9475	0.22525	3.72978	0.437496	7.18806	0.697191	10.6204	0.749063	11.4612
0.28395	4.2395	0.0991585	1.47887	0.282032	4.55095	0.403355	6.58137	0.580277	8.73259	0.849324	12.7706	0.227151	3.70412	0.438059	7.08881	0.697352	10.4742	0.749879	11.3124
0.284356	4.1873	0.101096	1.48711	0.282357	4.4887	0.404541	6.50188	0.580876	8.62073	0.84963	12.5987	0.229056	3.67929	0.438632	6.99264	0.69752	10.3322	0.750701	11.1679
0.284776	4.13674	0.103038	1.49518	0.282696	4.42851	0.405735	6.42485	0.581483	8.51204	0.849939	12.4316	0.230967	3.65528	0.439213	6.89942	0.697695	10.1941	0.75153	11.0274
0.285213	4.08776	0.104983	1.50308	0.28305	4.37027	0.406936	6.35019	0.582018	8.4198	0.850253	12.269	0.232882	3.63203	0.439802	6.80903	0.697876	10.0598	0.752364	10.8907
0.285666	4.0403	0.106933	1.51084	0.283419	4.31391	0.408145	6.27779	0.58248	8.34295	0.850572	12.1107	0.234801	3.60951	0.4404	6.72134	0.698065	9.92915	0.753205	10.7578
0.286074	4.00013	0.108885	1.51844	0.283803	4.25935	0.409362	6.20754	0.582865	8.28058	0.850894	11.9567	0.236724	3.58769	0.441007	6.63624	0.69826	9.80202	0.754052	10.6285
0.286431	3.96674	0.110841	1.52589	0.284203	4.20653	0.410586	6.13937	0.583172	8.23201	0.851221	11.8067	0.238652	3.56654	0.441622	6.55362	0.698462	9.67827	0.754905	10.5026
0.286733	3.9397	0.112801	1.5332	0.284618	4.15537	0.411817	6.07317	0.583398	8.19671	0.851552	11.6606	0.240582	3.54602	0.442247	6.47338	0.69867	9.55777	0.755764	10.38
0.286977	3.91868	0.114763	1.54036	0.285049	4.10581	0.413055	6.00886	0.583544	8.1743	0.851888	11.5183	0.242517	3.52611	0.442879	6.39542	0.698886	9.4404	0.756628	10.2605
0.287159	3.90343	0.116476	1.5465	0.285495	4.05779	0.4143	5.94638	0.583754	8.14233	0.852227	11.3795	0.244455	3.50678	0.443521	6.31966	0.699108	9.32603	0.757499	10.1442
0.287276	3.89375	0.117937	1.55165	0.285958	4.01125	0.415552	5.88564	0.583983	8.1079	0.852571	11.2442	0.246395	3.488	0.444171	6.246	0.699337	9.21456	0.758376	10.0308
0.287446	3.87996	0.119147	1.55585	0.286438	3.96614	0.41681	5.82657	0.584297	8.0616	0.85292	11.1123	0.248339	3.46976	0.44483	6.17437	0.699572	9.10588	0.759258	9.92019
0.287634	3.86513	0.120104	1.55914	0.286933	3.9224	0.418074	5.76911	0.584696	8.00391	0.853272	10.9836	0.250286	3.45202	0.445497	6.10469	0.699815	8.99989	0.760146	9.81234
0.287892	3.84521	0.120809	1.56154	0.287446	3.87999	0.419345	5.71319	0.585184	7.9354	0.853629	10.8579	0.252236	3.43477	0.446173	6.03688	0.700064	8.89649	0.76104	9.70714
0.288224	3.82045	0.12126	1.56306	0.287976	3.83886	0.420622	5.65876	0.585761	7.85672	0.853991	10.7353	0.254188	3.41799	0.446858	5.97088	0.70032	8.79561	0.76194	9.60448
0.288635	3.79111	0.121908	1.56524	0.288523	3.79897	0.421905	5.60575	0.586431	7.76863	0.854356	10.6156	0.256142	3.40165	0.447552	5.90661	0.700582	8.69714	0.762845	9.50427
0.289129	3.75753	0.122614	1.5676	0.289087	3.76028	0.423193	5.55412	0.587109	7.68279	0.854726	10.4986	0.258099	3.38575	0.448254	5.84402	0.700817	8.61323	0.763756	9.40643
0.289713	3.72007	0.123573	1.57078	0.28967	3.72274	0.424488	5.5038	0.587796	7.59912	0.8551	10.3844	0.260058	3.37026	0.448965	5.78304	0.701021	8.54307	0.764673	9.31088
0.290314	3.68373	0.124788	1.57476	0.29027	3.68631	0.425787	5.45476	0.58849	7.51755	0.855479	10.2727	0.262019	3.35516	0.449685	5.72362	0.701192	8.48597	0.765595	9.21754
0.290934	3.64846	0.126258	1.57952	0.290889	3.65097	0.427093	5.40695	0.589193	7.43801	0.855862	10.1636	0.263982	3.34044	0.450413	5.66571	0.701329	8.4414	0.766523	9.12634
0.291573	3.61424	0.127984	1.58501	0.291526	3.61668	0.428403	5.36031	0.589904	7.36041	0.856249	10.057	0.265946	3.32609	0.45115	5.60924	0.701431	8.40895	0.767457	9.03721
0.29223	3.58104	0.129966	1.59121	0.292182	3.5834	0.429719	5.31482	0.590623	7.2847	0.85664	9.95264	0.267913	3.31209	0.451896	5.55417	0.701497	8.38832	0.768396	8.95007
0.292907	3.54881	0.131952	1.59729	0.292858	3.55111	0.43104	5.27042	0.59135	7.2108	0.857036	9.85061	0.269881	3.29842	0.45265	5.50046	0.701592	8.35886	0.76934	8.86487
0.293604	3.51754	0.133939	1.60327	0.293553	3.51977	0.432366	5.22709	0.592086	7.13867	0.857436	9.75079	0.27185	3.28509	0.453414	5.44805	0.701696	8.32709	0.77029	8.78154
0.29432	3.4872	0.135928	1.60913	0.294267	3.48936	0.433697	5.18478	0.592829	7.06823	0.85784	9.65311	0.273821	3.27206	0.454186	5.39691	0.701839	8.2843	0.771122	8.7104
0.295056	3.45775	0.137919	1.61489	0.295002	3.45985	0.435032	5.14345	0.593581	6.99944	0.858249	9.55751	0.275793	3.25934	0.454966	5.34699	0.702022	8.23085	0.771835	8.65082
0.295813	3.42918	0.139913	1.62055	0.295758	3.43122	0.436372	5.10308	0.594341	6.93224	0.858662	9.46392	0.277766	3.24691	0.455756	5.29826	0.702247	8.16721	0.772427	8.60227
0.296591	3.40146	0.141908	1.62611	0.296534	3.40344	0.437717	5.06364	0.595108	6.86658	0.859079	9.37227	0.27974	3.23476	0.456554	5.25067	0.702516	8.09391	0.772896	8.56433
0.29739	3.37457	0.143904	1.63157	0.297332	3.37649	0.439066	5.02508	0.595884	6.8024	0.859501	9.28252	0.281716	3.22287	0.457361	5.20418	0.70283	8.01153	0.773242	8.53669
0.298212	3.34849	0.145903	1.63694	0.298152	3.35034	0.440419	4.98739	0.596668	6.73967	0.859927	9.1946	0.283692	3.21125	0.458177	5.15877	0.703151	7.93096	0.773463	8.51911
0.299055	3.32319	0.147903	1.64221	0.298993	3.32499	0.441777	4.95053	0.597461	6.67833	0.860357	9.10847	0.285669	3.19988	0.459001	5.11441	0.703479	7.85214	0.773782	8.49398
0.299921	3.29866	0.149904	1.6474	0.299857	3.30041	0.443139	4.91448	0.598261	6.61835	0.860792	9.02406	0.287646	3.18876	0.459835	5.07105	0.703813	7.77502	0.77413	8.46687
0.30081	3.27488	0.151908	1.65249	0.300745	3.27657	0.444505	4.87922	0.599069	6.55968	0.861231	8.94132	0.289624	3.17786	0.460677	5.02867	0.704154	7.69954	0.774604	8.43033
0.301722	3.25183	0.153912	1.6575	0.301656	3.25347	0.445874	4.8447	0.599885	6.50229	0.861617	8.87056	0.291603	3.16719	0.461528	4.98723	0.704502	7.62566	0.775205	8.38464
0.302659	3.2295	0.155918	1.66242	0.30259	3.23108	0.447248	4.81093	0.600709	6.44612	0.861948	8.81119	0.293582	3.15675	0.462387	4.94672	0.704857	7.55332	0.775934	8.33017
0.30362	3.20786	0.157925	1.66726	0.30355	3.2094	0.448625	4.77786	0.601542	6.39116	0.862224	8.76274	0.295561	3.14651	0.463256	4.9071	0.705218	7.48248	0.776793	8.26733
0.304606	3.18691	0.159934	1.67202	0.304534	3.1884	0.450006	4.74548	0.602382	6.33735	0.862444	8.72485	0.297541	3.13647	0.464133	4.86834	0.705585	7.4131	0.777784	8.1966
0.305618	3.16662	0.161944	1.6767	0.305544	3.16807	0.451391	4.71376	0.60323	6.28467	0.862606	8.69721	0.299521	3.12664	0.465019	4.83043	0.705959	7.34513	0.77878	8.1273
0.306656	3.147	0.163955	1.6813	0.30658	3.14839	0.452779	4.6827	0.604087	6.23309	0.86271	8.67962	0.301501	3.11699	0.465914	4.79334	0.70634	7.27854	0.779781	8.05938
0.30772	3.12801	0.165966	1.68582	0.307642	3.12936	0.45417	4.65226	0.604951	6.18258	0.86286	8.65447	0.303481	3.10753	0.466818	4.75704	0.706728	7.21328	0.780787	7.99282
0.308812	3.10966	0.16798	1.69027	0.308732	3.11096	0.455565	4.62244	0.605823	6.13309	0.863023	8.62732	0.305461	3.09825	0.46773	4.72151	0.707122	7.14931	0.781799	7.92756
0.309931	3.09192	0.169994	1.69465	0.309849	3.09318	0.456963	4.5932	0.606704	6.08461	0.863246	8.59069	0.307441	3.08914	0.468652	4.68673	0.707522	7.08661	0.782815	7.86358
0.311079	3.07479	0.172009	1.69896	0.310995	3.07601	0.458365	4.56454	0.607592	6.03711	0.86353	8.54484	0.309421	3.0802	0.469582	4.65268	0.70793	7.02513	0.783837	7.80083
0.312255	3.05826	0.174025	1.7032	0.312169	3.05943	0.459769	4.53643	0.608488	5.99056	0.863875	8.49011	0.311401	3.07142	0.470521	4.61934	0.708343	6.96484	0.784863	7.73928
0.313461	3.0423	0.176042	1.70737	0.313373	3.04344	0.461176	4.50887	0.609392	5.94493	0.864283	8.42688	0.31338	3.06279	0.471469	4.58669	0.708764	6.90571	0.785895	7.67891
0.314696	3.02692	0.178059	1.71147	0.314606	3.02802	0.462587	4.48183	0.610304	5.9002	0.864755	8.35558	0.315359	3.05432	0.472425	4.55472	0.70919	6.84771	0.786931	7.61967
0.315962	3.01211	0.180078	1.71551	0.31587	3.01316	0.464	4.45531	0.611224	5.85634	0.865232	8.2856	0.317338	3.046	0.473391	4.52339	0.709624	6.7908	0.787972	7.56153
0.317258	2.99784	0.182097	1.71949	0.317164	2.99885	0.465416	4.42928	0.612152	5.81333	0.865713	8.21689	0.319316	3.03782	0.474365	4.49271	0.710064	6.73496	0.789018	7.50448
0.318585	2.98411	0.184117	1.7234	0.318489	2.98508	0.466835	4.40374	0.613087	5.77116	0.866198	8.14943	0.321293	3.02978	0.475349	4.46264	0.71051	6.68016	0.790069	7.44847
0.319944	2.97091	0.186138	1.72725	0.319845	2.97184	0.468256	4.37866	0.614031	5.72979	0.866688	8.08318	0.32327	3.02187	0.476341	4.43318	0.710963	6.62637	0.791125	7.39348
0.321334	2.95822	0.188159	1.73104	0.321233	2.95912	0.469681	4.35405	0.614982	5.6892	0.867182	8.01812	0.325246	3.01409	0.477342	4.40431	0.711422	6.57357	0.792186	7.33948
0.322756	2.94604	0.190181	1.73478	0.322653	2.94691	0.471107	4.32988	0.615941	5.64938	0.86768	7.9542	0.327222	3.00644	0.478352	4.37601	0.711888	6.52173	0.793251	7.28646
0.32421	2.93436	0.192204	1.73845	0.324104	2.93519	0.472536	4.30614	0.616908	5.61031	0.868183	7.89141	0.329196	2.99891	0.47937	4.34827	0.71236	6.47082	0.794321	7.23437
0.325696	2.92316	0.194227	1.74207	0.325588	2.92395	0.473968	4.28282	0.617883	5.57196	0.86869	7.82971	0.33117	2.9915	0.480398	4.32107	0.712838	6.42083	0.795396	7.18321
0.327214	2.91243	0.196251	1.74563	0.327103	2.91319	0.475402	4.25991	0.618865	5.53432	0.869201	7.76908	0.333143	2.98421	0.481435	4.2944	0.713323	6.37173	0.796475	7.13294
0.328764	2.90216	0.198275	1.74914	0.328651	2.90288	0.476838	4.23741	0.619855	5.49737	0.869716	7.70948	0.335115	2.97703	0.48248	4.26826	0.713815	6.32349	0.797559	7.08354
0.330345	2.89233	0.200299	1.7526	0.33023	2.89302	0.478277	4.21529	0.620853	5.4611	0.870236	7.6509	0.337086	2.96995	0.483534	4.24262	0.714313	6.2761	0.798648	7.035
0.331958	2.88293	0.202325	1.756	0.331841	2.8836	0.479718	4.19355	0.621859	5.42548	0.870761	7.59332	0.339056	2.96299	0.484598	4.21747	0.714817	6.22953	0.799741	6.98728
0.333602	2.87396	0.20435	1.75935	0.333483	2.87459	0.48116	4.17219	0.622872	5.3905	0.87129	7.53669	0.341025	2.95612	0.48567	4.1928	0.715327	6.18377	0.800839	6.94038
0.335277	2.86539	0.206376	1.76266	0.335155	2.86599	0.482606	4.15118	0.623894	5.35615	0.871822	7.48101	0.342993	2.94936	0.486751	4.1686	0.715844	6.1388	0.801941	6.89426
0.336982	2.85721	0.208402	1.76591	0.336858	2.85778	0.484053	4.13053	0.624922	5.32241	0.87236	7.42625	0.344959	2.94269	0.487841	4.14486	0.716367	6.09459	0.803047	6.84892
0.338717	2.8494	0.210429	1.76912	0.338591	2.84996	0.485502	4.11021	0.625958	5.28927	0.872902	7.37239	0.346924	2.93612	0.488939	4.12157	0.716897	6.05113	0.804159	6.80433
0.34048	2.84197	0.212455	1.77227	0.340352	2.84249	0.486953	4.09023	0.627002	5.2567	0.873448	7.31941	0.348888	2.92964	0.490047	4.09872	0.717433	6.0084	0.805274	6.76047
0.342272	2.83488	0.214483	1.77539	0.342142	2.83538	0.488406	4.07058	0.628054	5.22471	0.873998	7.26728	0.35085	2.92325	0.491164	4.0763	0.717975	5.96639	0.806394	6.71733
0.344091	2.82812	0.21651	1.77845	0.343959	2.8286	0.48986	4.05125	0.629113	5.19327	0.874553	7.21599	0.352811	2.91695	0.492289	4.05429	0.718524	5.92507	0.807518	6.67489
0.345937	2.82169	0.218538	1.78147	0.345803	2.82214	0.491317	4.03223	0.63018	5.16237	0.875112	7.16552	0.354771	2.91073	0.493424	4.03269	0.719078	5.88444	0.808647	6.63314
0.347809	2.81556	0.220565	1.78445	0.347673	2.81599	0.492775	4.0135	0.631254	5.132	0.875676	7.11585	0.356729	2.90459	0.494567	4.01149	0.719639	5.84447	0.80978	6.59205
0.349706	2.80972	0.222593	1.78739	0.349569	2.81013	0.494235	3.99508	0.632336	5.10215	0.876243	7.06696	0.358686	2.89853	0.49572	3.99067	0.720206	5.80515	0.810917	6.55162
0.351627	2.80417	0.224622	1.79028	0.351488	2.80456	0.495697	3.97695	0.633425	5.0728	0.876816	7.01883	0.360641	2.89255	0.496881	3.97024	0.72078	5.76647	0.812059	6.51182
0.353572	2.79888	0.22665	1.79313	0.353431	2.79925	0.497161	3.95909	0.634521	5.04395	0.877392	6.97145	0.362594	2.88665	0.498051	3.95019	0.72136	5.7284	0.813204	6.47265
0.355539	2.79384	0.228678	1.79594	0.355396	2.79419	0.498626	3.94152	0.635625	5.01558	0.877973	6.9248	0.364546	2.88082	0.49923	3.93049	0.721945	5.69095	0.814354	6.43409
0.357527	2.78904	0.230707	1.79871	0.357382	2.78938	0.500092	3.92421	0.636737	4.98768	0.878558	6.87887	0.366496	2.87506	0.500418	3.91116	0.722537	5.65409	0.815508	6.39612
0.359535	2.78447	0.232736	1.80144	0.35939	2.7848	0.50156	3.90716	0.637856	4.96024	0.879148	6.83364	0.368444	2.86937	0.501614	3.89217	0.723136	5.61782	0.816666	6.35874
0.361563	2.78012	0.234764	1.80413	0.361416	2.78043	0.50303	3.89038	0.638982	4.93326	0.879742	6.78909	0.37039	2.86375	0.50282	3.87352	0.72374	5.58211	0.817828	6.32193
0.36361	2.77597	0.236793	1.80678	0.363462	2.77627	0.504501	3.87384	0.640116	4.90671	0.88034	6.74521	0.372335	2.85819	0.504035	3.8552	0.724351	5.54696	0.818995	6.28567
0.365675	2.77202	0.238822	1.8094	0.365526	2.7723	0.505974	3.85755	0.641256	4.8806	0.880943	6.70198	0.374278	2.85271	0.505258	3.83722	0.724967	5.51235	0.820165	6.24996
0.367757	2.76825	0.240851	1.81198	0.367606	2.76851	0.507448	3.8415	0.642405	4.85491	0.88155	6.6594	0.376219	2.84728	0.50649	3.81955	0.72559	5.47827	0.821339	6.21479
0.369855	2.76465	0.242879	1.81453	0.369703	2.76491	0.508923	3.82569	0.64356	4.82964	0.882161	6.61744	0.378158	2.84191	0.507731	3.80219	0.726219	5.44472	0.822518	6.18014
0.371968	2.76122	0.244908	1.81703	0.371815	2.76146	0.5104	3.8101	0.644723	4.80477	0.882777	6.5761	0.380095	2.83661	0.508981	3.78515	0.726854	5.41168	0.8237	6.14599
0.374096	2.75794	0.246937	1.81951	0.373942	2.75817	0.511878	3.79474	0.645892	4.7803	0.883397	6.53536	0.38203	2.83136	0.51024	3.7684	0.727495	5.37914	0.824886	6.11235
0.376238	2.75481	0.248965	1.82195	0.376083	2.75503	0.513357	3.77961	0.647069	4.75621	0.884022	6.49521	0.383962	2.82617	0.511508	3.75194	0.728142	5.34709	0.826076	6.0792
0.378394	2.75182	0.250994	1.82435	0.378238	2.75203	0.514838	3.76468	0.648253	4.7325	0.884651	6.45564	0.385893	2.82104	0.512784	3.73578	0.728795	5.31552	0.82727	6.04653
0.380561	2.74896	0.253022	1.82673	0.380405	2.74916	0.51632	3.74997	0.649445	4.70917	0.885284	6.41663	0.387822	2.81596	0.51407	3.71989	0.729454	5.28441	0.828467	6.01433
0.382741	2.74622	0.255051	1.82907	0.382583	2.74641	0.517803	3.73547	0.650643	4.6862	0.885921	6.37818	0.389749	2.81094	0.515364	3.70428	0.73012	5.25377	0.829669	5.98258
0.384932	2.7436	0.257079	1.83138	0.384773	2.74378	0.519287	3.72116	0.651848	4.66358	0.886563	6.34028	0.391674	2.80596	0.516667	3.68894	0.730791	5.22358	0.830874	5.95129
0.387133	2.74109	0.259107	1.83366	0.386974	2.74127	0.520773	3.70706	0.65306	4.64132	0.88721	6.3029	0.393596	2.80104	0.517978	3.67387	0.731468	5.19383	0.832083	5.92044
0.389345	2.73868	0.261135	1.8359	0.389185	2.73885	0.52226	3.69315	0.65428	4.6194	0.88786	6.26605	0.395516	2.79616	0.519299	3.65905	0.732151	5.16452	0.833296	5.89002
0.391567	2.73637	0.263163	1.83812	0.391406	2.73654	0.523748	3.67943	0.655506	4.59781	0.888515	6.22971	0.397434	2.79134	0.520628	3.64449	0.73284	5.13563	0.834512	5.86003
0.393797	2.73416	0.26519	1.8403	0.393636	2.73432	0.525237	3.66589	0.656739	4.57655	0.889175	6.19387	0.39935	2.78656	0.521966	3.63018	0.733535	5.10715	0.835732	5.83045
0.396036	2.73203	0.267218	1.84246	0.395874	2.73218	0.526727	3.65254	0.657979	4.55561	0.889839	6.15853	0.401264	2.78183	0.523313	3.61612	0.734236	5.07909	0.836956	5.80128
0.398283	2.72999	0.269245	1.84459	0.398121	2.73013	0.528218	3.63937	0.659226	4.53499	0.890507	6.12366	0.403175	2.77714	0.524668	3.60229	0.734943	5.05142	0.838183	5.77251
0.400538	2.72802	0.271272	1.84669	0.400375	2.72816	0.52971	3.62637	0.660479	4.51468	0.891179	6.08928	0.405084	2.7725	0.526032	3.5887	0.735656	5.02415	0.839414	5.74413
0.4028	2.72613	0.273299	1.84876	0.402637	2.72626	0.531204	3.61355	0.661739	4.49467	0.891856	6.05535	0.406991	2.7679	0.527404	3.57534	0.736375	4.99726	0.840648	5.71613
0.405069	2.72431	0.275325	1.8508	0.404905	2.72444	0.532698	3.60089	0.663007	4.47496	0.892537	6.02188	0.408895	2.76334	0.528786	3.5622	0.737099	4.97075	0.841886	5.68851
0.407345	2.72255	0.277351	1.85282	0.407181	2.72268	0.534194	3.5884	0.66428	4.45554	0.893223	5.98886	0.410797	2.75882	0.530175	3.54929	0.73783	4.9446	0.843127	5.66126
0.409627	2.72086	0.279377	1.85481	0.409462	2.72098	0.53569	3.57607	0.665561	4.4364	0.893913	5.95628	0.412697	2.75434	0.531574	3.53659	0.738566	4.91883	0.844372	5.63437
0.411915	2.71923	0.281403	1.85677	0.41175	2.71935	0.537188	3.56391	0.666848	4.41755	0.894607	5.92413	0.414594	2.74991	0.532981	3.5241	0.739308	4.89341	0.84562	5.60783
0.414208	2.71766	0.283429	1.85871	0.414043	2.71777	0.538687	3.55189	0.668141	4.39896	0.895306	5.8924	0.416489	2.74551	0.534396	3.51183	0.740056	4.86833	0.846872	5.58164
0.416507	2.71613	0.285454	1.86062	0.416341	2.71624	0.540186	3.54004	0.669442	4.38065	0.896009	5.86109	0.418382	2.74115	0.53582	3.49976	0.74081	4.84361	0.848127	5.5558
0.418811	2.71466	0.287479	1.86251	0.418644	2.71477	0.541687	3.52833	0.670748	4.36261	0.896717	5.83019	0.420272	2.73683	0.537253	3.48789	0.741569	4.81921	0.849385	5.53029
0.421119	2.71324	0.289503	1.86437	0.420953	2.71334	0.543189	3.51677	0.672061	4.34482	0.897429	5.79968	0.42216	2.73254	0.538693	3.47622	0.742335	4.79515	0.850647	5.50511
0.423432	2.71187	0.291527	1.86621	0.423265	2.71196	0.544692	3.50535	0.673381	4.32728	0.898145	5.76957	0.424045	2.72829	0.540143	3.46474	0.743106	4.77142	0.851912	5.48025
0.425749	2.71053	0.293551	1.86802	0.425582	2.71063	0.546196	3.49408	0.674707	4.31	0.898865	5.73985	0.425928	2.72408	0.5416	3.45345	0.743883	4.748	0.85318	5.45571
0.428071	2.70924	0.295574	1.86981	0.427903	2.70933	0.547701	3.48295	0.676039	4.29296	0.89959	5.7105	0.427809	2.7199	0.543066	3.44235	0.744665	4.7249	0.854451	5.43148
0.430396	2.70799	0.297597	1.87158	0.430228	2.70808	0.549207	3.47195	0.677378	4.27616	0.90032	5.68153	0.429687	2.71576	0.54454	3.43142	0.745453	4.7021	0.855725	5.40755
0.432724	2.70677	0.29962	1.87333	0.432556	2.70686	0.550714	3.4611	0.678722	4.2596	0.901053	5.65292	0.431563	2.71164	0.546023	3.42068	0.746247	4.67961	0.857003	5.38393
0.435057	2.70559	0.301642	1.87505	0.434888	2.70567	0.552222	3.45037	0.680073	4.24326	0.901791	5.62468	0.433437	2.70757	0.547513	3.41012	0.747047	4.65742	0.858284	5.3606
0.437392	2.70444	0.303664	1.87675	0.437223	2.70453	0.553731	3.43977	0.68143	4.22716	0.902534	5.59678	0.435308	2.70352	0.549012	3.39973	0.747852	4.63551	0.859568	5.33756
0.43973	2.70333	0.305686	1.87842	0.439561	2.70341	0.555241	3.42931	0.682794	4.21127	0.903281	5.56924	0.437176	2.6995	0.550519	3.3895	0.748664	4.61389	0.860855	5.3148
0.442071	2.70224	0.307707	1.88008	0.441902	2.70232	0.556752	3.41897	0.684163	4.19561	0.904032	5.54203	0.439043	2.69552	0.552034	3.37944	0.74948	4.59256	0.862145	5.29232
0.444415	2.70119	0.309728	1.88171	0.444246	2.70126	0.558264	3.40875	0.685539	4.18016	0.904788	5.51517	0.440907	2.69157	0.553557	3.36955	0.750303	4.5715	0.863438	5.27012
0.446762	2.70016	0.311748	1.88333	0.446592	2.70023	0.559777	3.39865	0.68692	4.16492	0.905548	5.48863	0.442768	2.68765	0.555088	3.35981	0.751131	4.55071	0.864734	5.24819
0.449111	2.69916	0.313768	1.88492	0.448941	2.69923	0.561292	3.38868	0.688307	4.14989	0.906312	5.46241	0.444628	2.68375	0.556628	3.35024	0.751964	4.53019	0.866033	5.22652
0.451462	2.69818	0.315787	1.88649	0.451292	2.69825	0.562807	3.37882	0.689701	4.13506	0.907081	5.43652	0.446484	2.67989	0.558175	3.34081	0.752803	4.50993	0.867335	5.20511
0.453816	2.69723	0.317806	1.88804	0.453646	2.69729	0.564323	3.36908	0.6911	4.12044	0.907854	5.41094	0.448339	2.67606	0.559729	3.33154	0.753648	4.48993	0.86864	5.18395
0.456171	2.6963	0.319824	1.88958	0.456001	2.69636	0.565841	3.35946	0.692505	4.106	0.908631	5.38566	0.450191	2.67225	0.561292	3.32242	0.754499	4.47018	0.869948	5.16305
0.458528	2.69539	0.321842	1.89109	0.458358	2.69545	0.56736	3.34994	0.693915	4.09176	0.909413	5.36069	0.452041	2.66848	0.562862	3.31344	0.755355	4.45069	0.871258	5.14239
0.460887	2.6945	0.32386	1.89258	0.460717	2.69456	0.56888	3.34054	0.695332	4.07771	0.910199	5.33602	0.453889	2.66473	0.56444	3.3046	0.756216	4.43143	0.872572	5.12198
0.463248	2.69363	0.325877	1.89406	0.463078	2.69369	0.570401	3.33125	0.696754	4.06385	0.91099	5.31165	0.455734	2.66101	0.566026	3.29591	0.757083	4.41242	0.873888	5.1018
0.465611	2.69278	0.327893	1.89551	0.46544	2.69284	0.571923	3.32206	0.698182	4.05017	0.911785	5.28756	0.457577	2.65731	0.567619	3.28735	0.757956	4.39365	0.875207	5.08186
0.467975	2.69194	0.329909	1.89695	0.467804	2.692	0.573446	3.31298	0.699615	4.03667	0.912584	5.26375	0.459418	2.65365	0.56922	3.27893	0.758834	4.37511	0.876529	5.06215
0.47034	2.69112	0.331925	1.89837	0.470169	2.69118	0.574971	3.304	0.701054	4.02334	0.913388	5.24023	0.461257	2.65001	0.570828	3.27064	0.759718	4.35681	0.877853	5.04267
0.472706	2.69032	0.33394	1.89977	0.472535	2.69038	0.576497	3.29513	0.702498	4.01019	0.914196	5.21698	0.463094	2.64639	0.572444	3.26248	0.760607	4.33872	0.87918	5.02341
0.475074	2.68954	0.335954	1.90115	0.474903	2.68959	0.578024	3.28636	0.703948	3.9972	0.915009	5.194	0.464928	2.6428	0.574067	3.25445	0.761501	4.32086	0.88051	5.00436
0.477443	2.68876	0.337968	1.90252	0.477272	2.68882	0.579552	3.27768	0.705403	3.98439	0.915826	5.17129	0.46676	2.63924	0.575697	3.24655	0.762401	4.30322	0.881843	4.98554
0.479812	2.68801	0.339981	1.90387	0.479641	2.68806	0.581081	3.26911	0.706863	3.97173	0.916647	5.14884	0.468591	2.6357	0.577335	3.23876	0.763307	4.28579	0.883178	4.96692
0.482183	2.68726	0.341994	1.9052	0.482012	2.68731	0.582612	3.26063	0.708329	3.95924	0.917473	5.12664	0.470419	2.63219	0.578979	3.2311	0.764218	4.26858	0.884516	4.94852
0.484555	2.68653	0.344007	1.90651	0.484383	2.68658	0.584145	3.25225	0.7098	3.94691	0.918303	5.10471	0.472245	2.62871	0.580631	3.22356	0.765135	4.25157	0.885856	4.93031
0.486927	2.68581	0.346018	1.90781	0.486755	2.68586	0.585678	3.24396	0.711276	3.93473	0.919137	5.08302	0.474069	2.62525	0.58229	3.21613	0.766056	4.23477	0.887198	4.91232
0.4893	2.68509	0.348029	1.90909	0.489128	2.68515	0.587213	3.23576	0.712758	3.92271	0.919976	5.06158	0.475891	2.62181	0.583956	3.20882	0.766984	4.21817	0.888544	4.89451
0.491673	2.68439	0.35004	1.91036	0.491502	2.68445	0.588749	3.22766	0.714244	3.91084	0.920819	5.04038	0.477711	2.6184	0.585628	3.20162	0.767916	4.20177	0.889891	4.87691
0.494047	2.6837	0.35205	1.91161	0.493876	2.68375	0.590287	3.21964	0.715736	3.89911	0.921667	5.01942	0.47953	2.61501	0.587308	3.19453	0.768855	4.18557	0.891242	4.8595
0.496422	2.68302	0.35406	1.91284	0.49625	2.68307	0.591826	3.21171	0.717232	3.88753	0.922519	4.9987	0.481346	2.61164	0.588994	3.18755	0.769798	4.16955	0.892594	4.84227
0.498796	2.68235	0.356068	1.91406	0.498625	2.6824	0.593367	3.20388	0.718734	3.8761	0.923375	4.97821	0.483161	2.60831	0.590687	3.18067	0.770747	4.15373	0.893949	4.82523
0.501171	2.68169	0.358077	1.91526	0.501	2.68174	0.594909	3.19613	0.72024	3.8648	0.924236	4.95794	0.484973	2.60499	0.592386	3.1739	0.771701	4.1381	0.895306	4.80838
0.503547	2.68103	0.360084	1.91645	0.503375	2.68108	0.596453	3.18846	0.721751	3.85365	0.925101	4.9379	0.486784	2.6017	0.594092	3.16723	0.772661	4.12265	0.896666	4.7917
0.505922	2.68038	0.362091	1.91763	0.505751	2.68043	0.597999	3.18088	0.723267	3.84262	0.92597	4.91809	0.488594	2.59843	0.595805	3.16066	0.773626	4.10738	0.898028	4.77521
0.508298	2.67974	0.364098	1.91878	0.508126	2.67979	0.599546	3.17338	0.724788	3.83174	0.926844	4.89849	0.490401	2.59518	0.597524	3.15419	0.774596	4.09229	0.899392	4.75889
0.510674	2.67911	0.366104	1.91993	0.510502	2.67915	0.601094	3.16597	0.726313	3.82098	0.927723	4.87911	0.492207	2.59196	0.599249	3.14781	0.775572	4.07737	0.900759	4.74274
0.513049	2.67848	0.368109	1.92106	0.512878	2.67852	0.602645	3.15863	0.727843	3.81035	0.928605	4.85993	0.494011	2.58876	0.60098	3.14153	0.776553	4.06263	0.902128	4.72676
0.515425	2.67785	0.370114	1.92217	0.515253	2.6779	0.604197	3.15138	0.729378	3.79985	0.929492	4.84097	0.495814	2.58558	0.602718	3.13535	0.777539	4.04806	0.903499	4.71094
0.5178	2.67724	0.372117	1.92327	0.517629	2.67728	0.605751	3.1442	0.730917	3.78948	0.930384	4.82221	0.497615	2.58243	0.604461	3.12925	0.778531	4.03365	0.904872	4.69529
0.520175	2.67662	0.374121	1.92436	0.520004	2.67667	0.607307	3.13711	0.732461	3.77923	0.93128	4.80366	0.499415	2.5793	0.606211	3.12324	0.779528	4.01942	0.906247	4.6798
0.52255	2.67601	0.376123	1.92544	0.522378	2.67606	0.608864	3.13009	0.734009	3.7691	0.93218	4.78531	0.501213	2.57619	0.607967	3.11732	0.78053	4.00534	0.907625	4.66448
0.524924	2.67541	0.378125	1.9265	0.524753	2.67545	0.610424	3.12315	0.735562	3.75909	0.933084	4.76715	0.50301	2.5731	0.609728	3.11149	0.781537	3.99143	0.909004	4.6493
0.527298	2.67481	0.380127	1.92754	0.527127	2.67485	0.611985	3.11628	0.737119	3.74919	0.933994	4.74919	0.504805	2.57004	0.611495	3.10574	0.78255	3.97767	0.910386	4.63429
0.529672	2.67421	0.382128	1.92858	0.529501	2.67425	0.613548	3.10949	0.73868	3.73941	0.934907	4.73142	0.5066	2.56699	0.613268	3.10008	0.783568	3.96408	0.91177	4.61942
0.532045	2.67361	0.384128	1.9296	0.531874	2.67365	0.615114	3.10277	0.740245	3.72974	0.935825	4.71384	0.508392	2.56397	0.615046	3.09449	0.784591	3.95063	0.913156	4.60471
0.534417	2.67302	0.386127	1.93061	0.534246	2.67306	0.616681	3.09613	0.741815	3.72019	0.936747	4.69644	0.510184	2.56098	0.61683	3.08899	0.78562	3.93734	0.914543	4.59014
0.536789	2.67243	0.388126	1.9316	0.536618	2.67247	0.618251	3.08956	0.743389	3.71074	0.937674	4.67923	0.511975	2.558	0.61862	3.08356	0.786654	3.9242	0.915933	4.57572
0.53916	2.67184	0.390124	1.93258	0.538989	2.67188	0.619823	3.08306	0.744967	3.70141	0.938605	4.6622	0.513764	2.55505	0.620415	3.07821	0.787693	3.9112	0.917325	4.56144
0.54153	2.67125	0.392121	1.93355	0.541359	2.67129	0.621397	3.07663	0.746549	3.69217	0.93954	4.64535	0.515552	2.55211	0.622215	3.07294	0.788737	3.89835	0.918718	4.5473
0.543899	2.67066	0.394118	1.93451	0.543729	2.67071	0.622973	3.07027	0.748135	3.68305	0.94048	4.62867	0.517339	2.5492	0.62402	3.06774	0.789786	3.88564	0.920114	4.5333
0.546268	2.67008	0.396114	1.93546	0.546097	2.67012	0.624552	3.06398	0.749725	3.67402	0.941424	4.61217	0.519125	2.54631	0.625831	3.06261	0.790841	3.87308	0.921511	4.51944
0.548635	2.66949	0.39811	1.93639	0.548464	2.66953	0.626133	3.05776	0.751318	3.6651	0.942373	4.59584	0.52091	2.54345	0.627646	3.05756	0.791901	3.86065	0.92291	4.50572
0.551002	2.66891	0.400104	1.93732	0.550831	2.66895	0.627716	3.05161	0.752916	3.65627	0.943326	4.57968	0.522694	2.5406	0.629467	3.05257	0.792966	3.84837	0.924312	4.49212
0.553367	2.66832	0.402098	1.93823	0.553196	2.66836	0.629302	3.04552	0.754517	3.64755	0.944283	4.56368	0.524478	2.53778	0.631292	3.04765	0.794036	3.83621	0.925715	4.47866
0.555731	2.66774	0.404092	1.93913	0.55556	2.66778	0.630891	3.03951	0.756123	3.63892	0.945245	4.54785	0.52626	2.53497	0.633122	3.0428	0.795111	3.8242	0.927119	4.46533
0.558093	2.66715	0.406084	1.94002	0.557923	2.66719	0.632482	3.03356	0.757732	3.63038	0.946211	4.53219	0.528042	2.53219	0.634957	3.03802	0.796192	3.81231	0.928526	4.45213
0.560455	2.66656	0.408076	1.94089	0.560284	2.6666	0.634076	3.02767	0.759344	3.62194	0.947182	4.51668	0.529823	2.52943	0.636796	3.0333	0.797278	3.80055	0.929934	4.43905
0.562815	2.66597	0.410067	1.94176	0.562644	2.66601	0.635672	3.02185	0.76096	3.61359	0.948157	4.50133	0.531603	2.52669	0.63864	3.02864	0.798369	3.78893	0.931344	4.42609
0.565173	2.66538	0.412058	1.94261	0.565003	2.66542	0.637272	3.0161	0.76258	3.60533	0.949136	4.48614	0.533383	2.52397	0.640489	3.02404	0.799465	3.77743	0.932755	4.41326
0.56753	2.66478	0.414048	1.94346	0.56736	2.66483	0.638874	3.01041	0.764203	3.59716	0.95012	4.4711	0.535162	2.52127	0.642342	3.01951	0.800566	3.76605	0.934169	4.40055
0.569885	2.66419	0.416037	1.94429	0.569715	2.66423	0.64048	3.00478	0.76583	3.58908	0.951108	4.45621	0.53694	2.5186	0.644199	3.01503	0.801673	3.7548	0.935584	4.38796
0.572238	2.66359	0.418025	1.94511	0.572069	2.66363	0.642088	2.99921	0.76746	3.58108	0.952101	4.44147	0.538718	2.51594	0.64606	3.01062	0.802784	3.74367	0.937	4.37548
0.57459	2.66299	0.420013	1.94593	0.57442	2.66303	0.643699	2.99371	0.769093	3.57317	0.953098	4.42688	0.540495	2.5133	0.647926	3.00626	0.803901	3.73266	0.938418	4.36312
0.57694	2.66238	0.422	1.94673	0.57677	2.66242	0.645314	2.98827	0.77073	3.56534	0.954099	4.41244	0.542272	2.51069	0.649795	3.00196	0.805023	3.72177	0.939838	4.35087
0.579288	2.66177	0.423986	1.94752	0.579118	2.66181	0.646932	2.9829	0.77237	3.55759	0.955105	4.39814	0.544048	2.5081	0.651669	2.99771	0.80615	3.71099	0.941259	4.33874
0.581633	2.66116	0.425971	1.9483	0.581464	2.6612	0.648553	2.97758	0.774013	3.54993	0.956115	4.38398	0.545825	2.50552	0.653547	2.99352	0.807282	3.70033	0.942682	4.32671
0.583977	2.66054	0.427956	1.94908	0.583808	2.66058	0.650178	2.97233	0.775659	3.54234	0.95713	4.36997	0.5476	2.50297	0.655428	2.98938	0.808419	3.68979	0.944106	4.3148
0.586318	2.65991	0.42994	1.94984	0.58615	2.65996	0.651806	2.96713	0.777309	3.53483	0.958149	4.35609	0.549376	2.50044	0.657313	2.98529	0.809562	3.67936	0.945532	4.30299
0.588657	2.65929	0.431923	1.95059	0.588489	2.65933	0.653438	2.962	0.778961	3.5274	0.959173	4.34235	0.551151	2.49792	0.659202	2.98125	0.810709	3.66904	0.946959	4.29129
0.590994	2.65865	0.433906	1.95133	0.590826	2.6587	0.655074	2.95692	0.780617	3.52005	0.960201	4.32875	0.552926	2.49543	0.661094	2.97727	0.811862	3.65883	0.948388	4.2797
0.593328	2.65801	0.435888	1.95207	0.59316	2.65806	0.656713	2.95191	0.782276	3.51277	0.961233	4.31527	0.554701	2.49296	0.66299	2.97333	0.81302	3.64872	0.949818	4.26821
0.59566	2.65736	0.437869	1.95279	0.595492	2.65741	0.658356	2.94695	0.783937	3.50556	0.96227	4.30194	0.556476	2.49051	0.664889	2.96944	0.814183	3.63873	0.951249	4.25682
0.597989	2.65671	0.439849	1.95351	0.597821	2.65676	0.660003	2.94206	0.785601	3.49843	0.963311	4.28873	0.558251	2.48808	0.666792	2.9656	0.815351	3.62884	0.952682	4.24553
0.600315	2.65605	0.441829	1.95421	0.600147	2.6561	0.661655	2.93722	0.787269	3.49137	0.964356	4.27565	0.560026	2.48567	0.668698	2.9618	0.816524	3.61905	0.954116	4.23434
0.602638	2.65538	0.443808	1.95491	0.60247	2.65543	0.66331	2.93244	0.788939	3.48438	0.965406	4.26269	0.5618	2.48327	0.670607	2.95805	0.817702	3.60937	0.955552	4.22325
0.604958	2.65471	0.445786	1.9556	0.604791	2.65476	0.66497	2.92772	0.790611	3.47746	0.966461	4.24987	0.563575	2.4809	0.672519	2.95434	0.818886	3.59979	0.956989	4.21225
0.607275	2.65402	0.447763	1.95627	0.607108	2.65407	0.666634	2.92305	0.792287	3.4706	0.96752	4.23716	0.56535	2.47855	0.674434	2.95068	0.820074	3.59031	0.958427	4.20135
0.609589	2.65333	0.44974	1.95694	0.609422	2.65338	0.668303	2.91845	0.793965	3.46382	0.968583	4.22458	0.567125	2.47622	0.676353	2.94706	0.821268	3.58093	0.959866	4.19055
0.611899	2.65263	0.451715	1.95761	0.611732	2.65268	0.669976	2.9139	0.795646	3.4571	0.969651	4.21212	0.5689	2.4739	0.678274	2.94348	0.822467	3.57165	0.961307	4.17984
0.614206	2.65192	0.453691	1.95826	0.61404	2.65197	0.671654	2.90941	0.797329	3.45044	0.970723	4.19978	0.570676	2.47161	0.680197	2.93994	0.823671	3.56246	0.962749	4.16921
0.616509	2.6512	0.455665	1.9589	0.616343	2.65125	0.673337	2.90497	0.799015	3.44385	0.971799	4.18756	0.572451	2.46933	0.682124	2.93644	0.82488	3.55337	0.964192	4.15868
0.618809	2.65047	0.457639	1.95954	0.618643	2.65052	0.675025	2.9006	0.800703	3.43733	0.97288	4.17545	0.574227	2.46708	0.684053	2.93298	0.826094	3.54438	0.965636	4.14824
0.621105	2.64973	0.459611	1.96017	0.620939	2.64978	0.676717	2.89627	0.802394	3.43086	0.973966	4.16346	0.576003	2.46484	0.685985	2.92956	0.827313	3.53547	0.967082	4.13789
0.623396	2.64898	0.461583	1.96078	0.623231	2.64903	0.678416	2.89201	0.804087	3.42446	0.975056	4.15159	0.577779	2.46263	0.68792	2.92618	0.828537	3.52666	0.968528	4.12763
0.625684	2.64822	0.463555	1.9614	0.625519	2.64827	0.680119	2.8878	0.805782	3.41812	0.97615	4.13982	0.579556	2.46043	0.689856	2.92284	0.829767	3.51795	0.969976	4.11745
0.627968	2.64744	0.465525	1.962	0.627803	2.6475	0.681828	2.88365	0.80748	3.41183	0.977249	4.12817	0.581333	2.45825	0.691796	2.91953	0.831001	3.50932	0.971425	4.10735
0.630247	2.64665	0.467495	1.9626	0.630083	2.64671	0.683543	2.87956	0.80918	3.40561	0.978352	4.11663	0.583111	2.45609	0.693737	2.91625	0.832241	3.50078	0.972874	4.09734
0.632522	2.64585	0.469464	1.96318	0.632358	2.64591	0.685263	2.87552	0.810882	3.39945	0.97946	4.1052	0.584889	2.45395	0.695681	2.91302	0.833486	3.49233	0.974325	4.08741
0.634792	2.64504	0.471433	1.96376	0.634628	2.6451	0.686989	2.87153	0.812587	3.39334	0.980571	4.09387	0.586668	2.45183	0.697626	2.90981	0.834736	3.48397	0.975777	4.07757
0.637057	2.64421	0.4734	1.96434	0.636894	2.64427	0.688722	2.86761	0.814293	3.38728	0.981688	4.08265	0.588447	2.44972	0.699574	2.90664	0.835991	3.47569	0.97723	4.0678
0.639317	2.64337	0.475367	1.9649	0.639154	2.64344	0.69046	2.86374	0.816002	3.38129	0.982809	4.07154	0.590226	2.44764	0.701524	2.9035	0.837251	3.4675	0.978685	4.05812
0.641573	2.64252	0.477333	1.96546	0.64141	2.64258	0.692205	2.85992	0.817713	3.37534	0.983934	4.06053	0.592006	2.44557	0.703476	2.9004	0.838516	3.45939	0.98014	4.04851
0.643823	2.64165	0.479298	1.96601	0.643661	2.64171	0.693956	2.85616	0.819425	3.36946	0.985064	4.04962	0.593787	2.44352	0.70543	2.89732	0.839787	3.45136	0.981596	4.03898
0.646068	2.64077	0.481263	1.96655	0.645906	2.64083	0.695714	2.85246	0.82114	3.36362	0.986198	4.03881	0.595569	2.44149	0.707385	2.89428	0.841063	3.44342	0.983053	4.02953
0.648307	2.63987	0.483227	1.96709	0.648146	2.63993	0.697478	2.84881	0.822857	3.35784	0.987337	4.02811	0.597351	2.43948	0.709342	2.89126	0.842343	3.43556	0.98451	4.02015
0.650541	2.63895	0.48519	1.96761	0.65038	2.63902	0.69925	2.84522	0.824575	3.35211	0.98848	4.0175	0.599134	2.43749	0.711301	2.88828	0.843629	3.42778	0.985969	4.01085
0.652769	2.63802	0.487152	1.96814	0.652608	2.63809	0.701028	2.84168	0.826296	3.34642	0.989627	4.00699	0.600917	2.43551	0.713262	2.88532	0.84492	3.42008	0.987429	4.00162
0.654991	2.63707	0.489114	1.96865	0.654831	2.63714	0.702814	2.8382	0.828018	3.34079	0.990779	3.99658	0.602701	2.43356	0.715223	2.8824	0.846216	3.41245	0.98889	3.99246
0.657207	2.6361	0.491074	1.96916	0.657047	2.63617	0.704607	2.83478	0.829742	3.33521	0.991936	3.98626	0.604486	2.43161	0.717187	2.8795	0.847518	3.40491	0.990351	3.98338
0.659417	2.63512	0.493034	1.96966	0.659258	2.63519	0.706407	2.83141	0.831468	3.32968	0.993097	3.97604	0.606272	2.42969	0.719152	2.87663	0.848824	3.39744	0.991814	3.97437
0.66162	2.63412	0.494994	1.97015	0.661462	2.63419	0.708215	2.82809	0.833195	3.32419	0.994262	3.96591	0.608058	2.42779	0.721118	2.87378	0.850136	3.39005	0.993277	3.96543
0.663817	2.6331	0.496952	1.97064	0.663659	2.63317	0.710031	2.82483	0.834924	3.31876	0.995432	3.95587	0.609846	2.4259	0.723085	2.87096	0.851453	3.38273	0.994741	3.95656
0.666008	2.63206	0.49891	1.97112	0.66585	2.63213	0.711854	2.82163	0.836655	3.31336	0.996606	3.94593	0.611634	2.42403	0.725053	2.86817	0.852775	3.37549	0.996206	3.94775
0.668191	2.631	0.500867	1.97159	0.668034	2.63108	0.713686	2.81848	0.838387	3.30802	0.997785	3.93608	0.613423	2.42218	0.727023	2.8654	0.854102	3.36832	0.997671	3.93902
0.670368	2.62992	0.502823	1.97206	0.670211	2.63	0.715526	2.81539	0.840121	3.30272	0.998968	3.92631	0.615213	2.42034	0.728994	2.86265	0.855434	3.36123	0.999138	3.93035
0.672538	2.62883	0.504778	1.97252	0.672382	2.62891	0.717374	2.81235	0.841856	3.29746	1.00016	3.91664	0.617004	2.41852	0.730965	2.85993	0.856772	3.3542	1.00061	3.92175
0.674701	2.62771	0.506733	1.97298	0.674545	2.62779	0.719231	2.80937	0.843593	3.29225			0.618796	2.41672	0.732938	2.85723	0.858115	3.34725		
0.676856	2.62657	0.508687	1.97343	0.676701	2.62666	0.721096	2.80644	0.845331	3.28708			0.620589	2.41493	0.734911	2.85456	0.859463	3.34037		
0.679004	2.62542	0.51064	1.97387	0.678849	2.6255	0.72297	2.80357	0.847071	3.28196			0.622383	2.41316	0.736886	2.85191	0.860816	3.33356		
0.681145	2.62424	0.512593	1.97431	0.68099	2.62433	0.724852	2.80075	0.848812	3.27687			0.624178	2.41141	0.738861	2.84928	0.862174	3.32681		
0.683278	2.62304	0.514545	1.97474	0.683124	2.62313	0.726744	2.79798	0.850554	3.27183			0.625974	2.40968	0.740836	2.84667	0.863538	3.32014		
0.685403	2.62182	0.516496	1.97516	0.68525	2.62191	0.728644	2.79527	0.852298	3.26683			0.627771	2.40796	0.742812	2.84408	0.864907	3.31353		
0.687521	2.62059	0.518446	1.97558	0.687368	2.62068	0.730554	2.79262	0.854043	3.26187			0.629568	2.40626	0.744789	2.84151	0.866281	3.30699		
0.68963	2.61933	0.520395	1.976	0.689478	2.61942	0.732472	2.79001	0.855789	3.25695			0.631367	2.40457	0.746767	2.83896	0.86766	3.30052		
0.691732	2.61804	0.522344	1.9764	0.691581	2.61814	0.7344	2.78747	0.857536	3.25207			0.633168	2.4029	0.748744	2.83643	0.869045	3.29411		
0.693827	2.61674	0.524292	1.97681	0.693676	2.61684	0.736337	2.78497	0.859285	3.24723			0.634969	2.40124	0.750722	2.83393	0.870434	3.28777		
0.695913	2.61542	0.526239	1.9772	0.695762	2.61552	0.738284	2.78253	0.861034	3.24242			0.636771	2.3996	0.752701	2.83144	0.871829	3.28149		
0.697991	2.61408	0.528186	1.97759	0.697841	2.61417	0.74024	2.78014	0.862785	3.23766			0.638575	2.39798	0.754679	2.82896	0.87323	3.27527		
0.700061	2.61271	0.530132	1.97798	0.699912	2.61281	0.742205	2.7778	0.864537	3.23293			0.640379	2.39637	0.756658	2.82651	0.874635	3.26912		
0.702123	2.61133	0.532077	1.97836	0.701974	2.61143	0.74418	2.77551	0.86629	3.22823			0.642185	2.39478	0.758637	2.82407	0.876046	3.26303		
0.704177	2.60992	0.534021	1.97873	0.704029	2.61003	0.746164	2.77327	0.868043	3.22358			0.643992	2.3932	0.760616	2.82166	0.877463	3.257		
0.706223	2.6085	0.535965	1.9791	0.706075	2.6086	0.748157	2.77108	0.869798	3.21896			0.6458	2.39164	0.762595	2.81925	0.878884	3.25104		
0.708261	2.60705	0.537908	1.97947	0.708114	2.60716	0.75016	2.76895	0.871554	3.21437			0.647609	2.3901	0.764574	2.81687	0.880311	3.24513		
0.710291	2.60559	0.53985	1.97983	0.710144	2.6057	0.752172	2.76686	0.873311	3.20982			0.64942	2.38856	0.766553	2.8145	0.881743	3.23929		
0.712313	2.60411	0.541791	1.98018	0.712167	2.60422	0.754194	2.76482	0.875068	3.2053			0.651231	2.38705	0.768532	2.81214	0.883181	3.2335		
0.714327	2.60261	0.543732	1.98053	0.714182	2.60272	0.756225	2.76283	0.876826	3.20082			0.653044	2.38555	0.770511	2.8098	0.884623	3.22777		
0.716333	2.60109	0.545672	1.98087	0.716188	2.6012	0.758266	2.76089	0.878586	3.19637			0.654858	2.38406	0.772489	2.80748	0.886071	3.2221		
0.718331	2.59955	0.547611	1.98121	0.718187	2.59966	0.760315	2.75899	0.880346	3.19195			0.656674	2.38259	0.774467	2.80517	0.887525	3.21649		
0.720322	2.59799	0.54955	1.98155	0.720179	2.59811	0.762374	2.75714	0.882106	3.18757			0.65849	2.38113	0.776445	2.80287	0.888984	3.21093		
0.722305	2.59642	0.551488	1.98188	0.722162	2.59653	0.764442	2.75533	0.883868	3.18322			0.660308	2.37969	0.778422	2.80059	0.890448	3.20544		
0.724281	2.59483	0.553425	1.9822	0.724138	2.59495	0.766518	2.75357	0.88563	3.1789			0.662127	2.37826	0.780399	2.79832	0.891918	3.19999		
0.726249	2.59323	0.555361	1.98252	0.726107	2.59334	0.768604	2.75185	0.887393	3.17461			0.663948	2.37684	0.782375	2.79607	0.893392	3.19461		
0.72821	2.59161	0.557297	1.98284	0.728069	2.59173	0.770698	2.75018	0.889156	3.17035			0.66577	2.37544	0.784351	2.79383	0.894873	3.18928		
0.730164	2.58997	0.559232	1.98315	0.730023	2.59009	0.772801	2.74854	0.89092	3.16612			0.667593	2.37405	0.786326	2.7916	0.896359	3.184		
0.732111	2.58833	0.561166	1.98345	0.73197	2.58844	0.774912	2.74695	0.892685	3.16192			0.669417	2.37268	0.788301	2.78938	0.89785	3.17877		
0.73405	2.58666	0.5631	1.98375	0.733911	2.58678	0.777032	2.7454	0.89445	3.15776			0.671243	2.37132	0.790274	2.78718	0.899346	3.1736		
0.735984	2.58499	0.565033	1.98405	0.735844	2.58511	0.77916	2.74388	0.896216	3.15362			0.67307	2.36997	0.792247	2.78498	0.900848	3.16849		
0.73791	2.5833	0.566965	1.98435	0.737771	2.58342	0.781296	2.74241	0.897983	3.14951			0.674898	2.36864	0.79422	2.7828	0.902355	3.16342		
0.73983	2.5816	0.568897	1.98463	0.739692	2.58173	0.78344	2.74097	0.899749	3.14543			0.676728	2.36732	0.796191	2.78063	0.903868	3.15841		
0.741744	2.57989	0.570828	1.98492	0.741606	2.58002	0.785592	2.73957	0.901517	3.14137			0.678559	2.36601	0.798161	2.77847	0.905386	3.15345		
0.743651	2.57817	0.572758	1.9852	0.743514	2.5783	0.787752	2.7382	0.903285	3.13735			0.680391	2.36472	0.800131	2.77632	0.90691	3.14854		
0.745553	2.57644	0.574687	1.98548	0.745416	2.57657	0.789919	2.73687	0.905053	3.13335			0.682225	2.36344	0.802099	2.77419	0.908439	3.14368		
0.747449	2.5747	0.576616	1.98575	0.747312	2.57483	0.792093	2.73557	0.906822	3.12938			0.68406	2.36217	0.804066	2.77206	0.909974	3.13887		
0.749339	2.57296	0.578545	1.98602	0.749203	2.57308	0.794274	2.73431	0.908591	3.12543			0.685896	2.36092	0.806033	2.76994	0.911514	3.13411		
0.751223	2.5712	0.580472	1.98628	0.751088	2.57133	0.796462	2.73308	0.91036	3.12152			0.687734	2.35968	0.807998	2.76783	0.913059	3.1294		
0.753103	2.56944	0.582399	1.98654	0.752967	2.56957	0.798657	2.73187	0.91213	3.11763			0.689573	2.35845	0.809962	2.76573	0.91461	3.12473		
0.754977	2.56767	0.584325	1.9868	0.754842	2.5678	0.800859	2.7307	0.9139	3.11376			0.691413	2.35723	0.811925	2.76364	0.916166	3.12012		
0.756846	2.5659	0.586251	1.98705	0.756711	2.56603	0.803067	2.72956	0.91567	3.10992			0.693255	2.35603	0.813886	2.76156	0.917728	3.11555		
0.75871	2.56412	0.588176	1.9873	0.758576	2.56425	0.805281	2.72845	0.917441	3.1061			0.695098	2.35483	0.815846	2.75949	0.919295	3.11103		
0.76057	2.56234	0.5901	1.98754	0.760436	2.56247	0.807502	2.72736	0.919212	3.10231			0.696943	2.35365	0.817805	2.75742	0.920868	3.10656		
0.762425	2.56055	0.592023	1.98778	0.762291	2.56068	0.809728	2.7263	0.920983	3.09855			0.698789	2.35249	0.819763	2.75537	0.922446	3.10213		
0.764275	2.55876	0.593946	1.98802	0.764142	2.55889	0.81196	2.72527	0.922755	3.09481			0.700636	2.35133	0.821719	2.75332	0.92403	3.09775		
0.766122	2.55696	0.595869	1.98825	0.765989	2.55709	0.814198	2.72426	0.924526	3.09109			0.702485	2.35019	0.823673	2.75128	0.925619	3.09342		
0.767965	2.55517	0.59779	1.98848	0.767832	2.5553	0.816441	2.72327	0.926298	3.0874			0.704335	2.34905	0.825626	2.74925	0.927214	3.08913		
0.769803	2.55337	0.599711	1.98871	0.769671	2.5535	0.81869	2.72231	0.92807	3.08373			0.706186	2.34793	0.827578	2.74722	0.928814	3.08489		
0.771638	2.55157	0.601632	1.98893	0.771506	2.5517	0.820943	2.72138	0.929842	3.08008			0.708039	2.34682	0.829528	2.74521	0.93042	3.08069		
0.773469	2.54977	0.603552	1.98915	0.773337	2.5499	0.823202	2.72046	0.931615	3.07646			0.709893	2.34572	0.831477	2.7432	0.932031	3.07653		
0.775297	2.54797	0.605471	1.98937	0.775165	2.5481	0.825465	2.71957	0.933387	3.07286			0.711749	2.34464	0.833423	2.74119	0.933647	3.07242		
0.777122	2.54617	0.607389	1.98958	0.77699	2.5463	0.827733	2.71869	0.93516	3.06928			0.713606	2.34356	0.835369	2.7392	0.93527	3.06835		
0.778943	2.54437	0.609307	1.98979	0.778812	2.5445	0.830005	2.71784	0.936932	3.06572			0.715464	2.3425	0.837312	2.73721	0.936897	3.06432		
0.780762	2.54257	0.611225	1.99	0.780631	2.5427	0.832282	2.71701	0.938705	3.06219			0.717324	2.34144	0.839254	2.73523	0.93853	3.06033		
0.782577	2.54078	0.613141	1.9902	0.782446	2.54091	0.834563	2.71619	0.940478	3.05867			0.719185	2.3404	0.841194	2.73325	0.940169	3.05639		
0.78439	2.53898	0.615058	1.9904	0.784259	2.53911	0.836848	2.71539	0.942251	3.05518			0.721047	2.33937	0.843132	2.73128	0.941813	3.05249		
0.7862	2.53719	0.616973	1.9906	0.78607	2.53732	0.839137	2.71461	0.944024	3.05171			0.722911	2.33835	0.845069	2.72931	0.943462	3.04863		
0.788008	2.5354	0.618888	1.9908	0.787878	2.53553	0.841429	2.71385	0.945797	3.04826			0.724776	2.33734	0.847003	2.72736	0.945117	3.04481		
0.789813	2.53362	0.620802	1.99099	0.789683	2.53374	0.843726	2.7131	0.94757	3.04483			0.726642	2.33633	0.848936	2.7254	0.946777	3.04103		
0.791616	2.53183	0.622716	1.99117	0.791486	2.53196	0.846026	2.71237	0.949343	3.04143			0.72851	2.33534	0.850867	2.72346	0.948443	3.03729		
0.793417	2.53005	0.624629	1.99136	0.793287	2.53018	0.848329	2.71166	0.951116	3.03804			0.73038	2.33437	0.852796	2.72151	0.950114	3.03359		
0.795216	2.52828	0.626542	1.99154	0.795086	2.52841	0.850635	2.71096	0.95289	3.03467			0.73225	2.3334	0.854723	2.71958	0.95179	3.02993		
0.797013	2.52651	0.628454	1.99172	0.796883	2.52663	0.852945	2.71027	0.954663	3.03132			0.734122	2.33244	0.856648	2.71765	0.953472	3.02631		
0.798808	2.52474	0.630365	1.9919	0.798679	2.52487	0.855257	2.7096	0.956436	3.028			0.735996	2.33149	0.858571	2.71572	0.95516	3.02273		
0.800601	2.52298	0.632276	1.99207	0.800472	2.52311	0.857573	2.70894	0.958209	3.02469			0.73787	2.33055	0.860492	2.7138	0.956852	3.01918		
0.802393	2.52122	0.634187	1.99224	0.802264	2.52135	0.859891	2.70829	0.959982	3.0214			0.739746	2.32962	0.862412	2.71188	0.958551	3.01568		
0.804183	2.51947	0.636096	1.99241	0.804054	2.5196	0.862212	2.70765	0.961756	3.01813			0.741624	2.3287	0.864329	2.70997	0.960254	3.01221		
0.805972	2.51773	0.638006	1.99257	0.805843	2.51785	0.864536	2.70703	0.963529	3.01488			0.743502	2.32778	0.866244	2.70807	0.961963	3.00877		
0.80776	2.51599	0.639914	1.99274	0.807631	2.51611	0.866862	2.70642	0.965302	3.01165			0.745382	2.32688	0.868157	2.70616	0.963677	3.00538		
0.809546	2.51426	0.641822	1.9929	0.809417	2.51438	0.86919	2.70582	0.967075	3.00843			0.747264	2.32599	0.870068	2.70427	0.965396	3.00202		
0.811331	2.51253	0.64373	1.99305	0.811202	2.51265	0.871521	2.70523	0.968848	3.00524			0.749147	2.32511	0.871977	2.70238	0.967121	2.99869		
0.813115	2.51081	0.645637	1.99321	0.812986	2.51093	0.873854	2.70465	0.970621	3.00206			0.751031	2.32424	0.873884	2.70049	0.968851	2.9954		
0.814897	2.5091	0.647544	1.99336	0.814769	2.50922	0.876189	2.70408	0.972394	2.99891			0.752916	2.32337	0.875788	2.6986	0.970586	2.99215		
0.816679	2.50739	0.64945	1.99351	0.816551	2.50751	0.878526	2.70351	0.974167	2.99576			0.754803	2.32252	0.877691	2.69672	0.972327	2.98893		
0.81846	2.50569	0.651355	1.99366	0.818332	2.50581	0.880865	2.70296	0.97594	2.99264			0.756691	2.32167	0.879592	2.69485	0.974073	2.98574		
0.82024	2.504	0.65326	1.9938	0.820112	2.50412	0.883206	2.70242	0.977713	2.98954			0.75858	2.32083	0.88149	2.69298	0.975823	2.98259		
0.82202	2.50231	0.655164	1.99394	0.821891	2.50243	0.885548	2.70188	0.979486	2.98645			0.760471	2.32	0.883386	2.69111	0.97758	2.97948		
0.823799	2.50063	0.657068	1.99409	0.82367	2.50076	0.887892	2.70136	0.981258	2.98338			0.762363	2.31918	0.88528	2.68925	0.979341	2.97639		
0.825577	2.49896	0.658972	1.99422	0.825448	2.49908	0.890238	2.70084	0.983031	2.98033			0.764256	2.31837	0.887172	2.68739	0.981107	2.97334		
0.827354	2.4973	0.660875	1.99436	0.827226	2.49742	0.892585	2.70033	0.984804	2.97729			0.766151	2.31757	0.889062	2.68554	0.982879	2.97032		
0.829131	2.49565	0.662777	1.99449	0.829003	2.49577	0.894934	2.69982	0.986577	2.97428			0.768046	2.31677	0.89095	2.68369	0.984655	2.96734		
0.830908	2.494	0.664679	1.99462	0.83078	2.49412	0.897284	2.69932	0.98835	2.97127			0.769944	2.31599	0.892835	2.68184	0.986437	2.96438		
0.832684	2.49236	0.666581	1.99475	0.832556	2.49248	0.899635	2.69883	0.990122	2.96829			0.771842	2.31521	0.894719	2.68	0.988223	2.96146		
0.83446	2.49073	0.668481	1.99488	0.834332	2.49085	0.901988	2.69835	0.991895	2.96532			0.773742	2.31444	0.8966	2.67816	0.990015	2.95857		
0.836236	2.48911	0.670382	1.995	0.836108	2.48923	0.904342	2.69787	0.993668	2.96237			0.775643	2.31368	0.898479	2.67632	0.991811	2.95571		
0.838011	2.4875	0.672282	1.99513	0.837883	2.48761	0.906696	2.6974	0.995441	2.95944			0.777545	2.31292	0.900356	2.67449	0.993613	2.95288		
0.839786	2.48589	0.674181	1.99525	0.839658	2.48601	0.909052	2.69693	0.997214	2.95652			0.779448	2.31218	0.902231	2.67266	0.995419	2.95007		
0.841561	2.48429	0.67608	1.99536	0.841433	2.48441	0.911409	2.69647	0.998987	2.95362			0.781353	2.31144	0.904104	2.67084	0.99723	2.9473		
0.843336	2.4827	0.677979	1.99548	0.843208	2.48282	0.913766	2.69601	1.00076	2.95073			0.783259	2.31071	0.905974	2.66902	0.999046	2.94456		
0.845111	2.48112	0.679877	1.99559	0.844983	2.48124	0.916124	2.69556					0.785166	2.30999	0.907843	2.6672	1.00087	2.94185		
0.846886	2.47955	0.681775	1.99571	0.846758	2.47967	0.918483	2.69511					0.787075	2.30927	0.909709	2.66539				
0.848661	2.47799	0.683672	1.99582	0.848533	2.4781	0.920843	2.69467					0.788985	2.30857	0.911574	2.66358				
0.850436	2.47644	0.685569	1.99593	0.850308	2.47655	0.923203	2.69423					0.790896	2.30787	0.913436	2.66178				
0.852211	2.47489	0.687465	1.99603	0.852083	2.475	0.925564	2.6938					0.792808	2.30717	0.915296	2.65998				
0.853986	2.47335	0.689361	1.99614	0.853858	2.47346	0.927926	2.69337					0.794721	2.30649	0.917154	2.65818				
0.855761	2.47182	0.691257	1.99624	0.855633	2.47193	0.930287	2.69294					0.796636	2.30581	0.91901	2.65638				
0.857537	2.4703	0.693152	1.99634	0.857409	2.47041	0.932649	2.69251					0.798551	2.30514	0.920864	2.65459				
0.859312	2.46879	0.695046	1.99644	0.859184	2.4689	0.935012	2.69209					0.800468	2.30447	0.922716	2.65281				
0.861088	2.46729	0.69694	1.99654	0.86096	2.4674	0.937375	2.69168					0.802387	2.30382	0.924566	2.65103				
0.862865	2.4658	0.698834	1.99663	0.862737	2.46591	0.939737	2.69126					0.804306	2.30317	0.926414	2.64925				
0.864641	2.46431	0.700728	1.99673	0.864513	2.46442	0.942101	2.69085					0.806227	2.30252	0.92826	2.64747				
0.866418	2.46284	0.70262	1.99682	0.86629	2.46295	0.944464	2.69044					0.808148	2.30189	0.930104	2.6457				
0.868196	2.46137	0.704513	1.99691	0.868067	2.46148	0.946827	2.69003					0.810071	2.30126	0.931946	2.64393				
0.869973	2.45991	0.706405	1.997	0.869845	2.46002	0.94919	2.68962					0.811995	2.30063	0.933787	2.64217				
0.871751	2.45847	0.708297	1.99709	0.871623	2.45857	0.951553	2.68922					0.81392	2.30001	0.935625	2.64041				
0.87353	2.45703	0.710188	1.99718	0.873402	2.45713	0.953916	2.68882					0.815847	2.2994	0.937462	2.63866				
0.875309	2.45559	0.712079	1.99726	0.875181	2.4557	0.956278	2.68842					0.817774	2.2988	0.939296	2.63691				
0.877088	2.45417	0.71397	1.99734	0.87696	2.45427	0.958641	2.68802					0.819703	2.2982	0.941129	2.63516				
0.878868	2.45276	0.71586	1.99743	0.87874	2.45286	0.961003	2.68762					0.821632	2.29761	0.94296	2.63341				
0.880649	2.45135	0.71775	1.99751	0.88052	2.45145	0.963364	2.68722					0.823563	2.29703	0.944789	2.63168				
0.88243	2.44996	0.719639	1.99759	0.882301	2.45006	0.965726	2.68683					0.825495	2.29645	0.946616	2.62994				
0.884212	2.44857	0.721528	1.99766	0.884083	2.44867	0.968086	2.68643					0.827428	2.29587	0.948442	2.62821				
0.885994	2.44719	0.723417	1.99774	0.885865	2.44729	0.970447	2.68604					0.829363	2.29531	0.950266	2.62648				
0.887777	2.44582	0.725306	1.99781	0.887648	2.44592	0.972806	2.68564					0.831298	2.29475	0.952088	2.62476				
0.88956	2.44446	0.727194	1.99789	0.889431	2.44456	0.975165	2.68525					0.833234	2.29419	0.953909	2.62304				
0.891344	2.44311	0.729081	1.99796	0.891215	2.44321	0.977523	2.68485					0.835172	2.29364	0.955728	2.62133				
0.893129	2.44176	0.730969	1.99803	0.893	2.44186	0.979881	2.68446					0.83711	2.2931	0.957545	2.61962				
0.894914	2.44043	0.732855	1.9981	0.894785	2.44052	0.982238	2.68406					0.83905	2.29256	0.959361	2.61791				
0.8967	2.4391	0.734742	1.99817	0.896571	2.4392	0.984593	2.68367					0.84099	2.29203	0.961175	2.61621				
0.898487	2.43778	0.736628	1.99823	0.898358	2.43788	0.986948	2.68327					0.842932	2.2915	0.962987	2.61451				
0.900274	2.43647	0.738514	1.9983	0.900145	2.43657	0.989302	2.68288					0.844875	2.29098	0.964799	2.61282				
0.902063	2.43517	0.7404	1.99836	0.901933	2.43527	0.991654	2.68248					0.846819	2.29046	0.966608	2.61114				
0.903851	2.43388	0.742285	1.99843	0.903722	2.43397	0.994006	2.68208					0.848764	2.28995	0.968416	2.60945				
0.905641	2.4326	0.74417	1.99849	0.905512	2.43269	0.996356	2.68168					0.850709	2.28945	0.970223	2.60777				
0.907431	2.43132	0.746055	1.99855	0.907302	2.43141	0.998705	2.68128					0.852656	2.28895	0.972028	2.6061				
0.909222	2.43005	0.747939	1.99861	0.909093	2.43015	1.00105	2.68087					0.854604	2.28845	0.973832	2.60443				
0.911014	2.4288	0.749823	1.99867	0.910885	2.42889							0.856553	2.28796	0.975635	2.60277				
0.912807	2.42754	0.751707	1.99872	0.912678	2.42763							0.858503	2.28748	0.977436	2.60111				
0.9146	2.4263	0.753591	1.99878	0.914471	2.42639							0.860454	2.287	0.979236	2.59945				
0.916395	2.42507	0.755474	1.99884	0.916265	2.42516							0.862406	2.28653	0.981035	2.5978				
0.91819	2.42384	0.757357	1.99889	0.91806	2.42393							0.864359	2.28606	0.982832	2.59615				
0.919986	2.42263	0.759239	1.99894	0.919856	2.42271							0.866312	2.28559	0.984628	2.59451				
0.921782	2.42142	0.761122	1.999	0.921653	2.4215							0.868267	2.28513	0.986423	2.59288				
0.92358	2.42021	0.763004	1.99905	0.92345	2.4203							0.870223	2.28468	0.988217	2.59125				
0.925378	2.41902	0.764885	1.9991	0.925248	2.41911							0.87218	2.28423	0.99001	2.58962				
0.927177	2.41784	0.766767	1.99915	0.927047	2.41792							0.874137	2.28378	0.991802	2.588				
0.928977	2.41666	0.768648	1.99919	0.928847	2.41674							0.876096	2.28334	0.993592	2.58639				
0.930778	2.41549	0.770529	1.99924	0.930648	2.41557							0.878056	2.28291	0.995382	2.58478				
0.93258	2.41433	0.772409	1.99929	0.93245	2.41441							0.880016	2.28247	0.99717	2.58317				
0.934383	2.41317	0.77429	1.99933	0.934253	2.41326							0.881978	2.28205	0.998958	2.58157				
0.936186	2.41203	0.77617	1.99938	0.936056	2.41211							0.88394	2.28162	1.00074	2.57998				
0.937991	2.41089	0.77805	1.99942	0.93786	2.41097							0.885903	2.2812						
0.939796	2.40976	0.779929	1.99947	0.939666	2.40984							0.887867	2.28079						
0.941602	2.40863	0.781809	1.99951	0.941472	2.40872							0.889832	2.28038						
0.943409	2.40752	0.783688	1.99955	0.943279	2.4076							0.891798	2.27997						
0.945217	2.40641	0.785567	1.99959	0.945087	2.40649							0.893765	2.27957						
0.947026	2.40531	0.787445	1.99963	0.946895	2.40539							0.895733	2.27918						
0.948836	2.40422	0.789324	1.99967	0.948705	2.4043							0.897701	2.27878						
0.950647	2.40313	0.791202	1.99971	0.950516	2.40321							0.899671	2.27839						
0.952458	2.40206	0.79308	1.99974	0.952327	2.40213							0.901641	2.27801						
0.954271	2.40099	0.794957	1.99978	0.95414	2.40106							0.903612	2.27763						
0.956084	2.39992	0.796835	1.99982	0.955953	2.4							0.905584	2.27725						
0.957899	2.39887	0.798712	1.99985	0.957768	2.39894							0.907557	2.27688						
0.959714	2.39782	0.800589	1.99989	0.959583	2.39789							0.909531	2.27651						
0.96153	2.39678	0.802466	1.99992	0.961399	2.39685							0.911505	2.27614						
0.963347	2.39574	0.804343	1.99995	0.963216	2.39582							0.91348	2.27578						
0.965165	2.39471	0.806219	1.99998	0.965034	2.39479							0.915457	2.27542						
0.966984	2.39369	0.808095	2.00002	0.966853	2.39377							0.917433	2.27507						
0.968804	2.39268	0.809971	2.00005	0.968673	2.39275							0.919411	2.27471						
0.970625	2.39168	0.811847	2.00008	0.970494	2.39175							0.92139	2.27437						
0.972447	2.39068	0.813722	2.00011	0.972316	2.39075							0.923369	2.27402						
0.97427	2.38968	0.815598	2.00014	0.974138	2.38976							0.925349	2.27368						
0.976094	2.3887	0.817473	2.00017	0.975962	2.38877							0.92733	2.27334						
0.977918	2.38772	0.819348	2.00019	0.977787	2.38779							0.929312	2.27301						
0.979744	2.38675	0.821223	2.00022	0.979612	2.38682							0.931294	2.27268						
0.981571	2.38578	0.823098	2.00025	0.981439	2.38585							0.933277	2.27235						
0.983398	2.38482	0.824972	2.00027	0.983266	2.38489							0.935261	2.27203						
0.985227	2.38387	0.826846	2.0003	0.985095	2.38394							0.937246	2.27171						
0.987056	2.38293	0.82872	2.00032	0.986924	2.38299							0.939231	2.27139						
0.988886	2.38199	0.830594	2.00035	0.988754	2.38205							0.941218	2.27108						
0.990718	2.38105	0.832468	2.00037	0.990585	2.38112							0.943204	2.27077						
0.99255	2.38013	0.834342	2.0004	0.992418	2.3802							0.945192	2.27046						
0.994383	2.37921	0.836215	2.00042	0.994251	2.37928							0.94718	2.27016						
0.996217	2.3783	0.838088	2.00044	0.996085	2.37836							0.94917	2.26986						
0.998052	2.37739	0.839961	2.00046	0.99792	2.37745							0.951159	2.26956						
0.999888	2.37649	0.841834	2.00049	0.999756	2.37655							0.95315	2.26926						
1.00173	2.37559	0.843707	2.00051	1.00159	2.37566							0.955141	2.26897						
		0.84558	2.00053									0.957133	2.26868						
		0.847452	2.00055									0.959125	2.26839						
		0.849325	2.00057									0.961119	2.26811						
		0.851197	2.00059									0.963113	2.26783						
		0.853069	2.00061									0.965107	2.26755						
		0.854941	2.00063									0.967103	2.26728						
		0.856812	2.00064									0.969099	2.267						
		0.858684	2.00066									0.971095	2.26673						
		0.860555	2.00068									0.973092	2.26647						
		0.862427	2.0007									0.97509	2.2662						
		0.864298	2.00071									0.977089	2.26594						
		0.866169	2.00073									0.979088	2.26568						
		0.86804	2.00074									0.981088	2.26542						
		0.869911	2.00076									0.983088	2.26517						
		0.871782	2.00078									0.985089	2.26492						
		0.873652	2.00079									0.987091	2.26467						
		0.875523	2.0008									0.989093	2.26442						
		0.877393	2.00082									0.991096	2.26418						
		0.879263	2.00083									0.993099	2.26394						
		0.881133	2.00085									0.995104	2.2637						
		0.883003	2.00086									0.997108	2.26346						
		0.884873	2.00087									0.999113	2.26323						
		0.886743	2.00088									1.00112	2.26299						
		0.888613	2.0009																
		0.890482	2.00091																
		0.892352	2.00092																
		0.894221	2.00093																
		0.89609	2.00094																
		0.897959	2.00095																
		0.899828	2.00096																
		0.901697	2.00097																
		0.903566	2.00098																
		0.905435	2.00099																
		0.907304	2.001																
		0.909172	2.00101																
		0.911041	2.00102																
		0.912909	2.00103																
		0.914778	2.00104																
		0.916646	2.00105																
		0.918514	2.00106																
		0.920382	2.00107																
		0.92225	2.00107																
		0.924118	2.00108																
		0.925986	2.00109																
		0.927854	2.0011																
		0.929721	2.0011																
		0.931589	2.00111																
		0.933457	2.00112																
		0.935324	2.00112																
		0.937192	2.00113																
		0.939059	2.00114																
		0.940926	2.00114																
		0.942794	2.00115																
		0.944661	2.00115																
		0.946528	2.00116																
		0.948395	2.00116																
		0.950262	2.00117																
		0.952129	2.00118																
		0.953996	2.00118																
		0.955863	2.00119																
		0.957729	2.00119																
		0.959596	2.00119																
		0.961463	2.0012																
		0.963329	2.0012																
		0.965196	2.00121																
		0.967062	2.00121																
		0.968929	2.00122																
		0.970795	2.00122																
		0.972662	2.00122																
		0.974528	2.00123																
		0.976394	2.00123																
		0.97826	2.00123																
		0.980126	2.00124																
		0.981993	2.00124																
		0.983859	2.00124																
		0.985725	2.00125																
		0.987591	2.00125																
		0.989457	2.00125																
		0.991323	2.00126																
		0.993189	2.00126																
		0.995054	2.00126																
		0.99692	2.00126																
		0.998786	2.00127																
		1.00065	2.00127																
