Sym0		Asym0		Sym1		Sym2		Sym3		Sym4		Asym1		Asym2		Asym3		Asym4	
455  Points		541  Points		455  Points		404  Points		367  Points		278  Points		479  Points		419  Points		368  Points		278  Points	
Freq (MHz)	Vph (m/ms)	Freq (MHz)	Vph (m/ms)	Freq (MHz)	Vph (m/ms)	Freq (MHz)	Vph (m/ms)	Freq (MHz)	Vph (m/ms)	Freq (MHz)	Vph (m/ms)	Freq (MHz)	Vph (m/ms)	Freq (MHz)	Vph (m/ms)	Freq (MHz)	Vph (m/ms)	Freq (MHz)	Vph (m/ms)
0.279508	3771.13	2.6717e-005	0.0319728	0.279507	363.573	0.356629	3690.88	0.559017	2115.14	0.838526	2240.17	0.139755	1120.18	0.419265	697.471	0.69877	1574.14	0.713258	4237.65
0.279506	277.89	0.000119456	0.0675921	0.279501	164.366	0.356646	346.824	0.559024	467.416	0.83853	642.056	0.139797	132.326	0.419275	273.532	0.698759	507.966	0.713275	648.427
0.279498	144.257	0.000278318	0.103119	0.27949	106.182	0.35669	181.984	0.559039	262.745	0.838538	374.732	0.139906	70.3699	0.419293	170.132	0.698737	302.838	0.713318	351.093
0.279487	97.4091	0.000502825	0.138493	0.279475	78.419	0.356763	123.374	0.559063	182.737	0.83855	264.577	0.140081	47.9755	0.419321	123.467	0.698705	215.717	0.713386	240.732
0.27947	73.5274	0.000792291	0.173657	0.279455	62.1624	0.356863	93.3365	0.559095	140.086	0.838567	204.474	0.140322	36.4327	0.419357	96.8961	0.698662	167.517	0.713479	183.174
0.279449	59.0478	0.00114603	0.208594	0.279431	51.4866	0.356991	75.0753	0.559136	113.582	0.838589	166.625	0.140628	29.4001	0.419402	79.7403	0.69861	136.918	0.713596	147.841
0.279424	49.3308	0.00156308	0.243252	0.279403	43.9385	0.357146	62.8027	0.559185	95.5144	0.838614	140.601	0.140998	24.6718	0.419455	67.7492	0.698548	115.767	0.713736	123.945
0.279395	42.3583	0.0020422	0.277568	0.27937	38.319	0.357328	53.9894	0.559243	82.4094	0.838644	121.61	0.141431	21.2787	0.419518	58.8963	0.698478	100.273	0.7139	106.709
0.279361	37.1112	0.00258226	0.311522	0.279334	33.9726	0.357538	47.3549	0.55931	72.4696	0.838678	107.14	0.141927	18.728	0.419589	52.0925	0.698401	88.4335	0.714086	93.689
0.279325	33.0195	0.00318184	0.345069	0.279295	30.5106	0.357774	42.181	0.559385	64.6721	0.838717	95.7486	0.142483	16.743	0.419668	46.7005	0.698316	79.092	0.714294	83.5083
0.279284	29.7393	0.00383944	0.378174	0.279252	27.6878	0.358038	38.0342	0.559468	58.392	0.838759	86.548	0.143099	15.156	0.419757	42.3224	0.698225	71.5332	0.714522	75.3297
0.27924	27.0509	0.00455359	0.410815	0.279206	25.3422	0.358327	34.6368	0.55956	53.2258	0.838807	78.9617	0.143772	13.8597	0.419854	38.6971	0.698128	65.2911	0.714771	68.6161
0.279194	24.8074	0.00532269	0.442968	0.279157	23.3622	0.358643	31.8031	0.559661	48.9016	0.838858	72.5992	0.144502	12.7821	0.41996	35.6458	0.698027	60.0493	0.715039	63.0065
0.279145	22.9067	0.00614492	0.474597	0.279106	21.6684	0.358984	29.4041	0.55977	45.229	0.838914	67.1865	0.145287	11.873	0.420075	33.0425	0.697923	55.585	0.715325	58.2495
0.279093	21.2758	0.00701868	0.505693	0.279053	20.2029	0.359351	27.3472	0.559887	42.0714	0.838974	62.5258	0.146125	11.0966	0.420198	30.7953	0.697815	51.7374	0.715629	54.1649
0.279039	19.8611	0.00794215	0.536232	0.278998	18.9226	0.359743	25.5644	0.560013	39.3275	0.839038	58.4706	0.147014	10.4264	0.42033	28.8361	0.697704	48.3867	0.715949	50.6195
0.278984	18.6222	0.00891357	0.566202	0.278942	17.7943	0.36016	24.0047	0.560148	36.9213	0.839107	54.9102	0.147953	9.84259	0.420471	27.1127	0.697592	45.4427	0.716286	47.5135
0.278928	17.5284	0.00993122	0.595596	0.278885	16.7926	0.360602	22.6289	0.560291	34.794	0.83918	51.7593	0.148939	9.32992	0.42062	25.5853	0.697479	42.8355	0.716639	44.77
0.27887	16.5554	0.0109933	0.624401	0.278827	15.8973	0.361067	21.4065	0.560443	32.8999	0.839258	48.9511	0.149971	8.87652	0.420779	24.2222	0.697366	40.5106	0.717007	42.3292
0.278812	15.6845	0.012098	0.652614	0.278769	15.0923	0.361556	20.3135	0.560603	31.2027	0.839339	46.4326	0.151048	8.47299	0.420946	22.9983	0.697252	38.4243	0.717388	40.1437
0.278754	14.9002	0.0132437	0.680228	0.278711	14.3645	0.362068	19.3304	0.560771	29.6733	0.839425	44.1612	0.152021	8.1561	0.421121	21.8935	0.697139	36.5419	0.717784	38.1755
0.278696	14.1904	0.0144286	0.707242	0.278653	13.7036	0.362604	18.4416	0.560949	28.288	0.839516	42.1023	0.152874	7.90825	0.421306	20.8911	0.697028	34.8348	0.718193	36.3939
0.278639	13.545	0.0156511	0.733661	0.278597	13.1005	0.363161	17.6344	0.561134	27.0275	0.839611	40.2274	0.153597	7.71716	0.421499	19.9777	0.696918	33.2797	0.718615	34.7735
0.278583	12.9555	0.0169097	0.759486	0.278542	12.5482	0.363741	16.898	0.561329	25.8757	0.83971	38.513	0.154179	7.57417	0.421701	19.142	0.69681	31.8572	0.719049	33.2935
0.278528	12.415	0.0182026	0.784722	0.278488	12.0404	0.364342	16.2238	0.561531	24.8191	0.839813	36.9392	0.154612	7.47331	0.421911	18.3745	0.696704	30.551	0.719495	31.9364
0.278475	11.9177	0.0195285	0.809371	0.278437	11.5721	0.364965	15.6041	0.561743	23.8464	0.839921	35.4896	0.154892	7.41055	0.42213	17.6672	0.696601	29.3475	0.719953	30.6876
0.278424	11.4586	0.0208858	0.833443	0.278388	11.1387	0.365608	15.0328	0.561962	22.9481	0.840033	34.1499	0.155298	7.32272	0.422358	17.0133	0.696501	28.235	0.720422	29.5347
0.278376	11.0336	0.0222731	0.85694	0.278343	10.7366	0.366272	14.5044	0.562191	22.116	0.840149	32.9082	0.155743	7.23028	0.422595	16.4071	0.696405	27.2037	0.720901	28.467
0.278332	10.6389	0.0236891	0.87988	0.2783	10.3626	0.366955	14.0144	0.562427	21.3431	0.84027	31.7541	0.156357	7.10939	0.422841	15.8435	0.696312	26.2449	0.721392	27.4756
0.27829	10.2716	0.0251324	0.902265	0.278262	10.0138	0.367658	13.5588	0.562673	20.6232	0.840395	30.6787	0.157144	6.96396	0.423095	15.3183	0.696223	25.3513	0.721893	26.5524
0.278253	9.92875	0.0266018	0.924109	0.278228	9.68772	0.368381	13.1342	0.562926	19.9512	0.840524	29.6741	0.158113	6.7984	0.423358	14.8276	0.696138	24.5164	0.722404	25.6908
0.27822	9.60814	0.0280962	0.945422	0.278198	9.38232	0.369122	12.7375	0.563189	19.3225	0.840658	28.7337	0.159273	6.61728	0.423629	14.3683	0.696058	23.7348	0.722924	24.8848
0.278191	9.30768	0.0296143	0.966213	0.278173	9.09568	0.369881	12.3661	0.563459	18.7329	0.840796	27.8515	0.160634	6.42511	0.42391	13.9374	0.695982	23.0015	0.723455	24.1292
0.278168	9.02555	0.031155	0.986495	0.278154	8.82617	0.370658	12.0178	0.563739	18.1791	0.840938	27.0222	0.162025	6.24792	0.424199	13.5323	0.695911	22.3121	0.723994	23.4194
0.27815	8.76015	0.0327174	1.00628	0.278141	8.57231	0.371453	11.6904	0.564026	17.6579	0.841085	26.2413	0.163446	6.0841	0.424497	13.151	0.695845	21.6629	0.724543	22.7515
0.278138	8.51006	0.0343003	1.02558	0.278133	8.3328	0.372265	11.3822	0.564323	17.1664	0.841236	25.5047	0.164893	5.93225	0.424803	12.7913	0.695784	21.0504	0.725101	22.1218
0.278132	8.27402	0.035903	1.0444	0.278132	8.13489	0.373094	11.0916	0.564627	16.7023	0.841392	24.8086	0.166367	5.79116	0.425118	12.4514	0.695728	20.4717	0.725668	21.5272
0.278133	8.0509	0.0375244	1.06276	0.278135	7.97356	0.373939	10.8171	0.564941	16.2634	0.841551	24.1499	0.167866	5.65979	0.425442	12.1299	0.695678	19.924	0.726244	20.9648
0.278141	7.83969	0.0391637	1.08067	0.27814	7.845	0.3748	10.5574	0.565262	15.8476	0.841715	23.5256	0.16939	5.5372	0.425775	11.8253	0.695633	19.4049	0.726828	20.4322
0.278155	7.63949	0.04082	1.09815	0.278147	7.74631	0.375677	10.3115	0.565592	15.4532	0.841884	22.9331	0.170935	5.42258	0.426117	11.5362	0.695593	18.9123	0.727421	19.9269
0.278178	7.44948	0.0424926	1.11519	0.278152	7.67534	0.376569	10.0783	0.565931	15.0786	0.842057	22.3701	0.172503	5.31522	0.426467	11.2617	0.69556	18.4441	0.728022	19.447
0.278208	7.26894	0.0441808	1.13182	0.278156	7.63061	0.377476	9.85676	0.566278	14.7224	0.842234	21.8343	0.174092	5.21447	0.426826	11.0005	0.695532	17.9987	0.728631	18.9907
0.278247	7.09718	0.0458838	1.14805	0.278163	7.56724	0.378397	9.64615	0.566634	14.3832	0.842415	21.324	0.1757	5.11977	0.427193	10.7518	0.69551	17.5744	0.729248	18.5562
0.278294	6.93361	0.0476009	1.16388	0.278171	7.49958	0.379333	9.44566	0.566998	14.0599	0.842601	20.8373	0.177327	5.03061	0.427569	10.5147	0.695494	17.1698	0.729874	18.142
0.278351	6.77768	0.0493316	1.17933	0.278184	7.40952	0.380283	9.25461	0.56737	13.7515	0.842791	20.3726	0.178972	4.94654	0.427955	10.2884	0.695483	16.7835	0.730507	17.7467
0.278416	6.62889	0.0510753	1.19441	0.278203	7.29876	0.381246	9.07235	0.567751	13.4568	0.842985	19.9285	0.180635	4.86715	0.428348	10.0723	0.69548	16.4144	0.731148	17.3692
0.278491	6.48678	0.0528312	1.20913	0.27823	7.16929	0.382223	8.89831	0.568141	13.1751	0.843184	19.5036	0.182314	4.79208	0.428751	9.86562	0.695482	16.0612	0.731796	17.0081
0.278576	6.35092	0.054599	1.2235	0.278267	7.02332	0.383213	8.73195	0.568539	12.9055	0.843387	19.0967	0.184008	4.72101	0.429162	9.66782	0.69549	15.7231	0.732453	16.6626
0.27867	6.22095	0.056378	1.23753	0.278318	6.86322	0.384215	8.5728	0.568945	12.6473	0.843595	18.7068	0.185717	4.65362	0.429582	9.47835	0.695505	15.3991	0.733117	16.3315
0.278775	6.09649	0.0581678	1.25123	0.278379	6.71053	0.385231	8.4204	0.56936	12.3997	0.843807	18.3327	0.187441	4.58966	0.430011	9.29669	0.695526	15.0883	0.733788	16.0141
0.278891	5.97724	0.059968	1.2646	0.278448	6.56477	0.386258	8.27434	0.569783	12.1621	0.844023	17.9736	0.189178	4.52888	0.430448	9.1224	0.695553	14.79	0.734467	15.7095
0.279018	5.86288	0.061778	1.27767	0.278527	6.42549	0.387162	8.15194	0.570215	11.934	0.844243	17.6285	0.190929	4.47106	0.430895	8.95504	0.695587	14.5034	0.735153	15.4169
0.279155	5.75314	0.0635974	1.29043	0.278617	6.2923	0.387941	8.051	0.570655	11.7148	0.844468	17.2967	0.192691	4.41598	0.43135	8.79421	0.695627	14.2278	0.735846	15.1357
0.279304	5.64777	0.0654258	1.3029	0.278716	6.16483	0.388589	7.96979	0.571103	11.5039	0.844698	16.9774	0.194466	4.36348	0.431813	8.63956	0.695674	13.9627	0.736546	14.8653
0.279465	5.54653	0.0672628	1.31509	0.278826	6.04273	0.389105	7.90698	0.57156	11.3011	0.844931	16.67	0.196251	4.31337	0.432286	8.49073	0.695727	13.7074	0.737254	14.6049
0.279638	5.44919	0.0691082	1.32699	0.278946	5.92569	0.389485	7.86156	0.572026	11.1057	0.845169	16.3737	0.198048	4.26551	0.432767	8.34742	0.695787	13.4615	0.737969	14.3541
0.279823	5.35555	0.0709615	1.33863	0.279078	5.81342	0.38973	7.83283	0.572499	10.9174	0.845411	16.088	0.199854	4.21975	0.433193	8.22681	0.695854	13.2244	0.73869	14.1124
0.28002	5.26543	0.0728223	1.35001	0.27922	5.70566	0.390082	7.79197	0.572982	10.7358	0.845658	15.8123	0.201671	4.17596	0.433562	8.127	0.695927	12.9957	0.739419	13.8793
0.280229	5.17865	0.0746905	1.36113	0.279375	5.60216	0.390467	7.74815	0.573472	10.5607	0.845909	15.5462	0.203497	4.13401	0.43387	8.04646	0.696007	12.7749	0.740154	13.6543
0.280452	5.09504	0.0765655	1.372	0.279541	5.50268	0.390992	7.68951	0.573971	10.3916	0.846164	15.2891	0.205332	4.09381	0.434117	7.98402	0.696093	12.5617	0.740897	13.4371
0.280687	5.01444	0.0784473	1.38264	0.279719	5.40702	0.391659	7.61691	0.574479	10.2282	0.846424	15.0406	0.207176	4.05523	0.434299	7.93879	0.696186	12.3556	0.741646	13.2271
0.280936	4.93671	0.0803354	1.39304	0.279909	5.31497	0.392472	7.53134	0.574995	10.0704	0.846688	14.8002	0.209027	4.0182	0.434417	7.91014	0.696286	12.1564	0.742402	13.0242
0.281198	4.86172	0.0822297	1.40322	0.280111	5.22636	0.393433	7.43396	0.575519	9.91771	0.846957	14.5677	0.210887	3.98262	0.434586	7.86936	0.696393	11.9637	0.743164	12.8279
0.281474	4.78934	0.0841299	1.41318	0.280327	5.14101	0.394545	7.32599	0.576051	9.77003	0.84723	14.3425	0.212754	3.94841	0.434771	7.82557	0.696506	11.7771	0.743934	12.6379
0.281763	4.71945	0.0860357	1.42292	0.280555	5.05876	0.395666	7.22189	0.576592	9.62708	0.847507	14.1245	0.214628	3.91549	0.435025	7.76687	0.696626	11.5964	0.744709	12.454
0.282067	4.65194	0.0879469	1.43246	0.280796	4.97945	0.396798	7.12143	0.577142	9.48864	0.847788	13.9131	0.216509	3.88379	0.435349	7.69403	0.696753	11.4214	0.745492	12.2758
0.282385	4.5867	0.0898634	1.44179	0.281051	4.90296	0.397939	7.02446	0.577699	9.35452	0.848074	13.7082	0.218397	3.85325	0.435745	7.60798	0.696886	11.2518	0.746281	12.1031
0.282717	4.52364	0.0917848	1.45093	0.281319	4.82915	0.399089	6.93078	0.578266	9.22452	0.848364	13.5094	0.220291	3.82381	0.436216	7.50974	0.697027	11.0872	0.747076	11.9357
0.283064	4.46267	0.093711	1.45988	0.281601	4.75789	0.400249	6.84024	0.57884	9.09846	0.848659	13.3166	0.222191	3.7954	0.436765	7.40048	0.697174	10.9276	0.747878	11.7732
0.283426	4.40369	0.0956418	1.46864	0.281897	4.68908	0.401417	6.75268	0.579423	8.97617	0.848958	13.1293	0.224096	3.76799	0.437322	7.29476	0.697328	10.7727	0.748686	11.6156
0.283803	4.34663	0.097577	1.47722	0.282207	4.6226	0.402594	6.66798	0.580014	8.85748	0.849261	12.9474	0.226007	3.7415	0.437888	7.19243	0.697489	10.6223	0.749501	11.4625
0.284196	4.2914	0.0995165	1.48563	0.282531	4.55834	0.40378	6.58598	0.580614	8.74225	0.849569	12.7707	0.227923	3.71591	0.438463	7.09332	0.697657	10.4762	0.750322	11.3139
0.284603	4.23794	0.10146	1.49387	0.28287	4.49622	0.404974	6.50658	0.581222	8.63034	0.849881	12.599	0.229844	3.69116	0.439046	6.99729	0.697831	10.3343	0.751149	11.1694
0.285027	4.18617	0.103407	1.50194	0.283224	4.43615	0.406176	6.42964	0.581838	8.5216	0.850198	12.432	0.23177	3.66722	0.439638	6.90421	0.698013	10.1963	0.751982	11.029
0.285466	4.13602	0.105359	1.50985	0.283592	4.37803	0.407386	6.35507	0.582382	8.42933	0.850519	12.2695	0.233701	3.64404	0.440239	6.81395	0.698201	10.0621	0.752822	10.8925
0.285922	4.08745	0.107313	1.5176	0.283976	4.3218	0.408604	6.28275	0.58285	8.35244	0.850844	12.1114	0.235635	3.6216	0.440849	6.72639	0.698396	9.93154	0.753667	10.7597
0.286394	4.04038	0.109272	1.52519	0.284375	4.26736	0.409829	6.21259	0.583241	8.29005	0.851173	11.9575	0.237574	3.59985	0.441468	6.64141	0.698598	9.8045	0.754519	10.6305
0.286819	4.00055	0.111233	1.53264	0.28479	4.21466	0.411062	6.1445	0.583552	8.24146	0.851507	11.8077	0.239517	3.57876	0.442095	6.55892	0.698806	9.68085	0.755377	10.5047
0.287191	3.96744	0.113198	1.53995	0.285221	4.16363	0.412302	6.07838	0.583782	8.20615	0.851846	11.6617	0.241463	3.55831	0.442731	6.4788	0.699022	9.56044	0.756241	10.3821
0.287505	3.94063	0.114913	1.54619	0.285667	4.11419	0.413549	6.01416	0.58393	8.18373	0.852188	11.5194	0.243413	3.53846	0.443376	6.40097	0.699244	9.44315	0.757111	10.2628
0.287759	3.91979	0.116376	1.55144	0.28613	4.06629	0.414803	5.95175	0.584144	8.15174	0.852535	11.3808	0.245366	3.51919	0.44403	6.32532	0.699474	9.32887	0.757987	10.1466
0.287948	3.90466	0.117588	1.55572	0.286609	4.01988	0.416064	5.89109	0.584376	8.1173	0.852887	11.2456	0.247323	3.50048	0.444692	6.25178	0.69971	9.21748	0.758869	10.0332
0.28807	3.89507	0.118546	1.55907	0.287105	3.97489	0.417331	5.8321	0.584695	8.07099	0.853243	11.1138	0.249282	3.48229	0.445363	6.18027	0.699953	9.10888	0.759757	9.92273
0.288247	3.8814	0.119251	1.56151	0.287618	3.93128	0.418605	5.77472	0.5851	8.01328	0.853603	10.9852	0.251245	3.46461	0.446043	6.1107	0.700203	9.00297	0.760651	9.81497
0.288442	3.8667	0.119703	1.56306	0.288148	3.889	0.419886	5.71888	0.585595	7.94474	0.853968	10.8597	0.25321	3.44742	0.446732	6.043	0.700459	8.89966	0.76155	9.70985
0.28871	3.84695	0.120352	1.56528	0.288696	3.848	0.421173	5.66452	0.586181	7.86605	0.854337	10.7371	0.255178	3.4307	0.44743	5.97711	0.700723	8.79885	0.762456	9.60727
0.289055	3.8224	0.121059	1.56768	0.28926	3.80824	0.422465	5.61159	0.586861	7.77793	0.85471	10.6175	0.257148	3.41442	0.448136	5.91295	0.700993	8.70046	0.763367	9.50714
0.289482	3.79333	0.122019	1.57092	0.289843	3.76967	0.423764	5.56003	0.587549	7.69207	0.855088	10.5007	0.259121	3.39857	0.448851	5.85046	0.701234	8.61662	0.764284	9.40937
0.289994	3.76004	0.123236	1.57497	0.290444	3.73226	0.425068	5.50979	0.588246	7.60839	0.85547	10.3865	0.261096	3.38313	0.449575	5.78959	0.701444	8.54651	0.765206	9.3139
0.2906	3.72292	0.124708	1.57981	0.291064	3.69597	0.426379	5.46083	0.588951	7.5268	0.855856	10.275	0.263073	3.36808	0.450308	5.73028	0.70162	8.48946	0.766134	9.22063
0.291224	3.68691	0.126436	1.5854	0.291702	3.66076	0.427694	5.41309	0.589664	7.44724	0.856247	10.166	0.265052	3.35342	0.45105	5.67246	0.701761	8.44492	0.767068	9.1295
0.291867	3.65198	0.128421	1.5917	0.292359	3.62661	0.429016	5.36653	0.590386	7.36964	0.856643	10.0594	0.267033	3.33912	0.4518	5.61609	0.701866	8.4125	0.768008	9.04043
0.292529	3.61808	0.130409	1.59789	0.293036	3.59347	0.430342	5.3211	0.591115	7.29392	0.857042	9.95516	0.269015	3.32517	0.452559	5.56112	0.701933	8.39189	0.768953	8.95336
0.293211	3.5852	0.132399	1.60396	0.293732	3.56132	0.431674	5.27678	0.591853	7.22002	0.857446	9.85322	0.270999	3.31156	0.453327	5.50751	0.702031	8.36245	0.769904	8.86823
0.293912	3.55329	0.134392	1.60992	0.294448	3.53012	0.433011	5.23352	0.5926	7.14788	0.857855	9.75349	0.272985	3.29827	0.454104	5.4552	0.702138	8.33071	0.77086	8.78496
0.294633	3.52234	0.136386	1.61578	0.295184	3.49986	0.434352	5.19128	0.593354	7.07744	0.858268	9.6559	0.274972	3.28529	0.45489	5.40415	0.702285	8.28795	0.771697	8.71388
0.295375	3.49231	0.138382	1.62153	0.295942	3.4705	0.435699	5.15002	0.594116	7.00865	0.858685	9.56038	0.27696	3.27262	0.455684	5.35432	0.702473	8.23455	0.772415	8.65434
0.296138	3.46317	0.14038	1.62717	0.29672	3.44202	0.43705	5.10972	0.594887	6.94145	0.859107	9.46687	0.278949	3.26023	0.456487	5.30568	0.702704	8.17096	0.77301	8.60583
0.296922	3.43491	0.142379	1.63272	0.29752	3.4144	0.438406	5.07035	0.595666	6.87579	0.859533	9.37531	0.28094	3.24813	0.457299	5.25817	0.70298	8.09772	0.773482	8.56792
0.297727	3.4075	0.144381	1.63817	0.298342	3.38761	0.439767	5.03186	0.596453	6.81162	0.859963	9.28564	0.282932	3.23629	0.45812	5.21178	0.703302	8.01541	0.773831	8.5403
0.298555	3.38092	0.146384	1.64352	0.299186	3.36163	0.441132	4.99424	0.597248	6.74889	0.860398	9.19781	0.284924	3.22472	0.45895	5.16646	0.703632	7.93491	0.774054	8.52273
0.299405	3.35515	0.148388	1.64878	0.300053	3.33645	0.442501	4.95745	0.598052	6.68756	0.860837	9.11175	0.286917	3.21339	0.459789	5.12218	0.703968	7.85616	0.774375	8.49763
0.300277	3.33016	0.150394	1.65395	0.300943	3.31203	0.443875	4.92147	0.598863	6.62759	0.861281	9.02742	0.288911	3.20231	0.460636	5.0789	0.704311	7.77911	0.774725	8.47054
0.301174	3.30594	0.152402	1.65903	0.301858	3.28837	0.445253	4.88627	0.599683	6.56893	0.861729	8.94477	0.290906	3.19146	0.461493	5.03661	0.704661	7.70369	0.775202	8.43402
0.302094	3.28247	0.154411	1.66402	0.302796	3.26545	0.446634	4.85183	0.600511	6.51154	0.862123	8.87407	0.292901	3.18083	0.462358	4.99526	0.705017	7.62988	0.775806	8.38837
0.303039	3.25974	0.156421	1.66893	0.303759	3.24325	0.44802	4.81812	0.601347	6.45539	0.862461	8.81476	0.294896	3.17043	0.463232	4.95483	0.705381	7.5576	0.776541	8.33394
0.304008	3.23772	0.158433	1.67375	0.304747	3.22176	0.44941	4.78511	0.602191	6.40043	0.862743	8.76636	0.296892	3.16023	0.464115	4.91529	0.70575	7.48683	0.777406	8.27115
0.305003	3.2164	0.160445	1.67849	0.305762	3.20095	0.450803	4.7528	0.603043	6.34664	0.862967	8.7285	0.298889	3.15024	0.465007	4.87661	0.706127	7.41751	0.778403	8.20048
0.306024	3.19577	0.162459	1.68316	0.306802	3.18082	0.4522	4.72116	0.603903	6.29398	0.863133	8.70089	0.300885	3.14044	0.465908	4.83878	0.706511	7.34961	0.779406	8.13123
0.307071	3.1758	0.164474	1.68774	0.30787	3.16135	0.453601	4.69016	0.604771	6.24241	0.863239	8.68332	0.302882	3.13083	0.466817	4.80176	0.706901	7.28308	0.780414	8.06337
0.308146	3.1565	0.166491	1.69225	0.308965	3.14253	0.455005	4.65979	0.605648	6.19191	0.863392	8.65819	0.304878	3.12141	0.467736	4.76554	0.707297	7.21788	0.781427	7.99686
0.309248	3.13784	0.168508	1.69669	0.310088	3.12435	0.456413	4.63003	0.606532	6.14244	0.863558	8.63106	0.306875	3.11217	0.468663	4.73009	0.707701	7.15398	0.782445	7.93165
0.310378	3.11982	0.170526	1.70105	0.31124	3.10679	0.457824	4.60086	0.607424	6.09398	0.863786	8.59447	0.308872	3.1031	0.469599	4.69538	0.708111	7.09134	0.783469	7.86772
0.311537	3.10242	0.172545	1.70534	0.312421	3.08984	0.459239	4.57226	0.608325	6.04649	0.864076	8.54867	0.310868	3.09419	0.470544	4.66141	0.708527	7.02992	0.784497	7.80502
0.312726	3.08562	0.174565	1.70956	0.313631	3.07349	0.460656	4.54422	0.609233	5.99996	0.864428	8.49399	0.312865	3.08545	0.471499	4.62814	0.708951	6.96969	0.785531	7.74352
0.313944	3.06942	0.176585	1.71371	0.314872	3.05773	0.462077	4.51672	0.610149	5.95435	0.864844	8.43082	0.314861	3.07686	0.472462	4.59557	0.709381	6.91062	0.786569	7.6832
0.315192	3.05381	0.178607	1.7178	0.316143	3.04254	0.463501	4.48975	0.611073	5.90963	0.865326	8.35959	0.316856	3.06843	0.473433	4.56366	0.709817	6.85267	0.787613	7.624
0.316471	3.03877	0.180629	1.72182	0.317445	3.02793	0.464927	4.46329	0.612006	5.8658	0.865812	8.28968	0.318852	3.06014	0.474414	4.53241	0.710261	6.79583	0.788661	7.56592
0.317781	3.0243	0.182652	1.72578	0.318779	3.01386	0.466357	4.43733	0.612946	5.82281	0.866303	8.22104	0.320846	3.05199	0.475404	4.5018	0.71071	6.74005	0.789715	7.50891
0.319123	3.01037	0.184676	1.72967	0.320144	3.00034	0.46779	4.41185	0.613894	5.78065	0.866798	8.15365	0.322841	3.04399	0.476402	4.4718	0.711167	6.6853	0.790773	7.45295
0.320497	2.99699	0.1867	1.7335	0.321542	2.98736	0.469225	4.38684	0.61485	5.7393	0.867298	8.08747	0.324834	3.03611	0.47741	4.44241	0.71163	6.63157	0.791836	7.398
0.321902	2.98414	0.188725	1.73728	0.322971	2.97489	0.470663	4.36229	0.615814	5.69874	0.867802	8.02247	0.326827	3.02837	0.478426	4.4136	0.712099	6.57883	0.792904	7.34405
0.32334	2.9718	0.190751	1.74099	0.324433	2.96293	0.472104	4.33818	0.616786	5.65894	0.86831	7.95862	0.32882	3.02075	0.479452	4.38537	0.712575	6.52704	0.793977	7.29107
0.324811	2.95996	0.192777	1.74465	0.325928	2.95146	0.473547	4.3145	0.617765	5.61989	0.868823	7.89589	0.330811	3.01326	0.480486	4.35769	0.713058	6.4762	0.795054	7.23903
0.326313	2.94863	0.194803	1.74825	0.327455	2.94048	0.474993	4.29125	0.618753	5.58156	0.86934	7.83426	0.332802	3.00588	0.481529	4.33056	0.713547	6.42626	0.796137	7.18791
0.327849	2.93776	0.196831	1.75179	0.329014	2.92997	0.476442	4.26841	0.619748	5.54395	0.869862	7.77369	0.334792	2.99862	0.482582	4.30396	0.714042	6.37721	0.797224	7.13768
0.329416	2.92737	0.198858	1.75528	0.330606	2.91992	0.477893	4.24596	0.620751	5.50702	0.870388	7.71416	0.33678	2.99147	0.483643	4.27788	0.714544	6.32903	0.798316	7.08833
0.331016	2.91743	0.200886	1.75872	0.332229	2.91031	0.479346	4.22391	0.621762	5.47077	0.870918	7.65564	0.338768	2.98442	0.484713	4.2523	0.715053	6.2817	0.799412	7.03983
0.332648	2.90793	0.202914	1.7621	0.333884	2.90113	0.480801	4.20223	0.62278	5.43518	0.871453	7.59812	0.340755	2.97749	0.485792	4.22722	0.715568	6.23519	0.800513	6.99216
0.33431	2.89886	0.204943	1.76544	0.335571	2.89237	0.482259	4.18093	0.623807	5.40022	0.871992	7.54155	0.342741	2.97065	0.48688	4.20261	0.71609	6.18948	0.801619	6.94529
0.336005	2.8902	0.206972	1.76872	0.337287	2.884	0.483719	4.15999	0.624841	5.3659	0.872536	7.48594	0.344725	2.96392	0.487977	4.17848	0.716617	6.14456	0.802729	6.89922
0.337729	2.88194	0.209002	1.77196	0.339034	2.87603	0.485181	4.13939	0.625882	5.33218	0.873084	7.43124	0.346708	2.95728	0.489083	4.1548	0.717152	6.10041	0.803843	6.85391
0.339483	2.87406	0.211031	1.77514	0.340811	2.86843	0.486645	4.11914	0.626932	5.29906	0.873636	7.37743	0.34869	2.95074	0.490198	4.13157	0.717692	6.05701	0.804963	6.80936
0.341267	2.86655	0.213061	1.77828	0.342616	2.86118	0.488111	4.09922	0.627989	5.26652	0.874193	7.32451	0.350671	2.94429	0.491322	4.10878	0.71824	6.01433	0.806086	6.76555
0.343079	2.85939	0.215092	1.78137	0.344448	2.85428	0.48958	4.07963	0.629054	5.23455	0.874754	7.27244	0.35265	2.93792	0.492454	4.08641	0.718793	5.97237	0.807214	6.72245
0.344919	2.85258	0.217122	1.78442	0.346308	2.84771	0.49105	4.06036	0.630126	5.20313	0.87532	7.22121	0.354628	2.93164	0.493596	4.06446	0.719353	5.93111	0.808347	6.68005
0.346786	2.84608	0.219153	1.78742	0.348195	2.84145	0.492522	4.0414	0.631206	5.17226	0.87589	7.1708	0.356604	2.92545	0.494747	4.04292	0.719919	5.89053	0.809484	6.63833
0.348679	2.8399	0.221184	1.79038	0.350106	2.83549	0.493996	4.02274	0.632293	5.14191	0.876465	7.12118	0.358579	2.91934	0.495906	4.02177	0.720492	5.85061	0.810625	6.59728
0.350597	2.83402	0.223214	1.7933	0.352042	2.82982	0.495472	4.00438	0.633388	5.11208	0.877044	7.07235	0.360553	2.9133	0.497075	4.00102	0.721071	5.81134	0.811771	6.55689
0.352539	2.82842	0.225246	1.79617	0.354002	2.82442	0.496949	3.9863	0.634491	5.08276	0.877627	7.02428	0.362524	2.90735	0.498252	3.98065	0.721656	5.77271	0.812921	6.51713
0.354504	2.82308	0.227277	1.799	0.355984	2.81927	0.498429	3.96851	0.635601	5.05393	0.878215	6.97696	0.364494	2.90147	0.499439	3.96064	0.722247	5.73471	0.814075	6.478
0.356492	2.81801	0.229308	1.80179	0.357988	2.81438	0.49991	3.95099	0.636719	5.02559	0.878807	6.93036	0.366463	2.89566	0.500634	3.94101	0.722845	5.69731	0.815233	6.43947
0.358502	2.81317	0.231339	1.80454	0.360013	2.80972	0.501393	3.93375	0.637843	4.99772	0.879404	6.88449	0.36843	2.88993	0.501839	3.92172	0.723449	5.6605	0.816396	6.40155
0.360532	2.80857	0.233371	1.80725	0.362058	2.80528	0.502877	3.91676	0.638976	4.9703	0.880005	6.83931	0.370394	2.88426	0.503052	3.90279	0.72406	5.62427	0.817562	6.3642
0.362581	2.80418	0.235402	1.80993	0.364121	2.80104	0.504363	3.90003	0.640116	4.94335	0.88061	6.79481	0.372358	2.87866	0.504274	3.8842	0.724676	5.58862	0.818733	6.32742
0.364649	2.8	0.237434	1.81256	0.366203	2.79701	0.505851	3.88356	0.641263	4.91683	0.88122	6.75098	0.374319	2.87313	0.505505	3.86593	0.725299	5.55352	0.819908	6.29121
0.366736	2.79602	0.239465	1.81516	0.368302	2.79317	0.50734	3.86733	0.642417	4.89074	0.881834	6.70781	0.376278	2.86766	0.506745	3.848	0.725928	5.51896	0.821087	6.25553
0.368839	2.79222	0.241497	1.81772	0.370417	2.7895	0.50883	3.85134	0.643579	4.86508	0.882453	6.66528	0.378236	2.86226	0.507994	3.83038	0.726563	5.48494	0.822271	6.22039
0.370958	2.78859	0.243528	1.82025	0.372548	2.786	0.510322	3.83558	0.644748	4.83983	0.883076	6.62338	0.380191	2.85691	0.509252	3.81308	0.727204	5.45144	0.823458	6.18578
0.373093	2.78513	0.245559	1.82274	0.374694	2.78266	0.511816	3.82006	0.645924	4.81498	0.883704	6.58209	0.382145	2.85163	0.510519	3.79609	0.727852	5.41845	0.824649	6.15167
0.375242	2.78183	0.247591	1.82519	0.376854	2.77946	0.513311	3.80476	0.647108	4.79053	0.884336	6.5414	0.384096	2.8464	0.511795	3.77939	0.728506	5.38596	0.825844	6.11806
0.377405	2.77868	0.249622	1.82761	0.379027	2.77641	0.514807	3.78968	0.648299	4.76647	0.884972	6.5013	0.386045	2.84123	0.513079	3.76298	0.729165	5.35396	0.827043	6.08495
0.379582	2.77566	0.251653	1.83	0.381213	2.7735	0.516305	3.77481	0.649497	4.74279	0.885613	6.46178	0.387993	2.83611	0.514373	3.74687	0.729831	5.32244	0.828246	6.05231
0.381771	2.77278	0.253684	1.83235	0.383411	2.77071	0.517804	3.76016	0.650702	4.71948	0.886258	6.42283	0.389938	2.83105	0.515675	3.73103	0.730503	5.29138	0.829453	6.02014
0.383972	2.77002	0.255715	1.83468	0.38562	2.76803	0.519304	3.74571	0.651914	4.69654	0.886908	6.38443	0.391881	2.82604	0.516986	3.71547	0.731182	5.26079	0.830664	5.98843
0.386184	2.76737	0.257745	1.83697	0.38784	2.76548	0.520806	3.73147	0.653133	4.67395	0.887562	6.34657	0.393822	2.82108	0.518306	3.70018	0.731866	5.23065	0.831878	5.95718
0.388406	2.76484	0.259776	1.83923	0.39007	2.76302	0.522309	3.71742	0.654359	4.65171	0.88822	6.30924	0.395761	2.81618	0.519635	3.68516	0.732556	5.20095	0.833097	5.92636
0.390639	2.76241	0.261806	1.84145	0.39231	2.76067	0.523813	3.70357	0.655592	4.62981	0.888883	6.27244	0.397697	2.81132	0.520973	3.67039	0.733252	5.17169	0.834319	5.89598
0.392882	2.76009	0.263836	1.84365	0.394559	2.75841	0.525319	3.68991	0.656833	4.60825	0.88955	6.23615	0.399631	2.80651	0.522319	3.65588	0.733955	5.14285	0.835545	5.86602
0.395133	2.75785	0.265866	1.84582	0.396817	2.75624	0.526825	3.67643	0.65808	4.58701	0.890222	6.20036	0.401563	2.80174	0.523674	3.64162	0.734663	5.11442	0.836774	5.83647
0.397393	2.75571	0.267896	1.84796	0.399083	2.75416	0.528333	3.66313	0.659334	4.5661	0.890898	6.16506	0.403493	2.79702	0.525038	3.6276	0.735378	5.0864	0.838007	5.80734
0.399661	2.75364	0.269926	1.85007	0.401357	2.75216	0.529842	3.65002	0.660595	4.5455	0.891579	6.13025	0.40542	2.79235	0.526411	3.61382	0.736098	5.05879	0.839244	5.7786
0.401937	2.75166	0.271955	1.85215	0.403638	2.75023	0.531353	3.63708	0.661862	4.52522	0.892264	6.09591	0.407345	2.78772	0.527792	3.60028	0.736824	5.03156	0.840485	5.75025
0.40422	2.74975	0.273984	1.8542	0.405927	2.74837	0.532864	3.62431	0.663137	4.50523	0.892953	6.06203	0.409267	2.78313	0.529182	3.58696	0.737557	5.00472	0.841729	5.72229
0.40651	2.74791	0.276013	1.85623	0.408221	2.74658	0.534377	3.61171	0.664418	4.48554	0.893647	6.02861	0.411188	2.77858	0.530581	3.57387	0.738295	4.97826	0.842977	5.6947
0.408806	2.74614	0.278041	1.85823	0.410523	2.74486	0.535891	3.59928	0.665706	4.46615	0.894345	5.99564	0.413105	2.77408	0.531989	3.56101	0.739039	4.95216	0.844228	5.66748
0.411109	2.74443	0.280069	1.8602	0.41283	2.7432	0.537406	3.58701	0.667001	4.44704	0.895048	5.9631	0.415021	2.76961	0.533405	3.54835	0.739789	4.92643	0.845482	5.64062
0.413418	2.74278	0.282097	1.86214	0.415142	2.74159	0.538922	3.5749	0.668302	4.4282	0.895755	5.931	0.416934	2.76518	0.534829	3.53592	0.740545	4.90106	0.846741	5.61412
0.415732	2.74119	0.284125	1.86406	0.41746	2.74004	0.540439	3.56294	0.66961	4.40965	0.896466	5.89932	0.418844	2.76079	0.536262	3.52369	0.741307	4.87604	0.848002	5.58796
0.418051	2.73965	0.286152	1.86596	0.419783	2.73854	0.541957	3.55114	0.670924	4.39136	0.897182	5.86805	0.420752	2.75644	0.537704	3.51166	0.742075	4.85136	0.849267	5.56215
0.420375	2.73817	0.288179	1.86783	0.422111	2.73709	0.543477	3.53949	0.672245	4.37334	0.897903	5.83719	0.422658	2.75213	0.539154	3.49984	0.742849	4.82701	0.850536	5.53667
0.422704	2.73673	0.290206	1.86967	0.424443	2.73569	0.544997	3.52798	0.673573	4.35557	0.898627	5.80673	0.424561	2.74785	0.540613	3.48821	0.743628	4.803	0.851807	5.51153
0.425038	2.73534	0.292232	1.87149	0.42678	2.73433	0.546519	3.51662	0.674907	4.33806	0.899357	5.77666	0.426462	2.74361	0.54208	3.47677	0.744413	4.77931	0.853082	5.4867
0.427375	2.73399	0.294258	1.87329	0.429121	2.73301	0.548042	3.50541	0.676247	4.3208	0.90009	5.74698	0.42836	2.7394	0.543556	3.46553	0.745205	4.75594	0.854361	5.46219
0.429717	2.73268	0.296284	1.87506	0.431465	2.73173	0.549566	3.49433	0.677594	4.30379	0.900828	5.71768	0.430256	2.73523	0.54504	3.45447	0.746002	4.73289	0.855642	5.43799
0.432062	2.73141	0.298309	1.87681	0.433813	2.73049	0.55109	3.48339	0.678947	4.28701	0.901571	5.68876	0.432149	2.73109	0.546532	3.44359	0.746804	4.71014	0.856927	5.4141
0.434411	2.73018	0.300333	1.87854	0.436165	2.72929	0.552617	3.47258	0.680306	4.27047	0.902318	5.66019	0.43404	2.72698	0.548033	3.4329	0.747613	4.68769	0.858215	5.39051
0.436764	2.72899	0.302358	1.88025	0.43852	2.72812	0.554144	3.46191	0.681671	4.25416	0.903069	5.63199	0.435928	2.72291	0.549541	3.42237	0.748427	4.66554	0.859507	5.36721
0.439119	2.72782	0.304382	1.88193	0.440877	2.72698	0.555672	3.45137	0.683043	4.23808	0.903825	5.60414	0.437814	2.71886	0.551058	3.41202	0.749247	4.64368	0.860801	5.3442
0.441478	2.72669	0.306405	1.88359	0.443238	2.72587	0.557202	3.44096	0.684421	4.22222	0.904585	5.57664	0.439698	2.71485	0.552584	3.40184	0.750073	4.62211	0.862099	5.32148
0.443839	2.72559	0.308428	1.88523	0.445601	2.72479	0.558732	3.43067	0.685805	4.20658	0.905349	5.54948	0.441578	2.71087	0.554117	3.39183	0.750904	4.60082	0.8634	5.29903
0.446203	2.72452	0.310451	1.88685	0.447967	2.72374	0.560264	3.42051	0.687195	4.19116	0.906118	5.52265	0.443457	2.70692	0.555659	3.38198	0.751742	4.57981	0.864703	5.27686
0.44857	2.72348	0.312473	1.88844	0.450336	2.72272	0.561797	3.41047	0.688591	4.17594	0.906892	5.49615	0.445333	2.703	0.557208	3.37228	0.752585	4.55906	0.86601	5.25495
0.450939	2.72246	0.314495	1.89002	0.452706	2.72172	0.563331	3.40055	0.689993	4.16093	0.90767	5.46998	0.447207	2.69911	0.558766	3.36275	0.753433	4.53859	0.86732	5.23332
0.45331	2.72147	0.316517	1.89158	0.455079	2.72075	0.564866	3.39075	0.691401	4.14613	0.908452	5.44413	0.449078	2.69524	0.560331	3.35337	0.754288	4.51837	0.868633	5.21194
0.455683	2.7205	0.318538	1.89311	0.457454	2.71979	0.566402	3.38106	0.692815	4.13152	0.909238	5.41859	0.450946	2.69141	0.561904	3.34414	0.755147	4.49842	0.869949	5.19081
0.458059	2.71956	0.320558	1.89463	0.459831	2.71886	0.56794	3.37149	0.694235	4.11712	0.91003	5.39336	0.452813	2.6876	0.563486	3.33506	0.756013	4.47872	0.871267	5.16994
0.460436	2.71863	0.322578	1.89613	0.462209	2.71796	0.569479	3.36203	0.69566	4.1029	0.910825	5.36843	0.454676	2.68382	0.565075	3.32612	0.756884	4.45927	0.872589	5.14932
0.462815	2.71773	0.324597	1.89761	0.46459	2.71707	0.571019	3.35268	0.697091	4.08887	0.911625	5.3438	0.456538	2.68007	0.566671	3.31733	0.757761	4.44006	0.873914	5.12893
0.465195	2.71684	0.326616	1.89907	0.466971	2.71619	0.57256	3.34344	0.698528	4.07503	0.912429	5.31946	0.458397	2.67635	0.568276	3.30867	0.758644	4.4211	0.875241	5.10879
0.467577	2.71598	0.328635	1.90051	0.469354	2.71534	0.574102	3.3343	0.699971	4.06137	0.913238	5.29541	0.460254	2.67265	0.569888	3.30016	0.759532	4.40237	0.876571	5.08888
0.469961	2.71513	0.330653	1.90193	0.471739	2.7145	0.575646	3.32527	0.701419	4.04789	0.914051	5.27165	0.462109	2.66898	0.571508	3.29177	0.760425	4.38387	0.877904	5.0692
0.472346	2.71429	0.33267	1.90333	0.474125	2.71368	0.577191	3.31635	0.702873	4.03459	0.914869	5.24816	0.463961	2.66533	0.573135	3.28353	0.761324	4.36561	0.87924	5.04974
0.474732	2.71348	0.334687	1.90472	0.476512	2.71288	0.578738	3.30753	0.704332	4.02146	0.915691	5.22495	0.465811	2.66172	0.574769	3.27541	0.762229	4.34757	0.880579	5.03051
0.477119	2.71268	0.336704	1.90609	0.4789	2.71209	0.580285	3.29881	0.705797	4.0085	0.916517	5.20201	0.467658	2.65812	0.576412	3.26742	0.76314	4.32975	0.88192	5.0115
0.479507	2.71189	0.33872	1.90744	0.481288	2.71131	0.581834	3.29019	0.707267	3.9957	0.917348	5.17934	0.469504	2.65455	0.578061	3.25955	0.764055	4.31216	0.883264	4.99271
0.481896	2.71112	0.340735	1.90877	0.483678	2.71055	0.583384	3.28167	0.708742	3.98307	0.918184	5.15693	0.471347	2.65101	0.579718	3.25181	0.764977	4.29477	0.884611	4.97412
0.484286	2.71036	0.34275	1.91009	0.486069	2.7098	0.584936	3.27324	0.710223	3.97061	0.919023	5.13478	0.473188	2.64749	0.581381	3.24419	0.765904	4.2776	0.88596	4.95575
0.486677	2.70961	0.344764	1.91139	0.48846	2.70906	0.586489	3.26491	0.711709	3.9583	0.919868	5.11288	0.475027	2.644	0.583052	3.23668	0.766836	4.26064	0.887312	4.93758
0.489069	2.70887	0.346778	1.91268	0.490852	2.70833	0.588044	3.25667	0.713201	3.94614	0.920716	5.09123	0.476864	2.64053	0.58473	3.2293	0.767774	4.24388	0.888666	4.91961
0.491461	2.70814	0.348791	1.91394	0.493244	2.70761	0.5896	3.24853	0.714697	3.93414	0.921569	5.06983	0.478699	2.63708	0.586415	3.22203	0.768717	4.22732	0.890023	4.90184
0.493853	2.70743	0.350803	1.9152	0.495637	2.7069	0.591158	3.24047	0.716199	3.92229	0.922426	5.04866	0.480531	2.63366	0.588107	3.21486	0.769666	4.21097	0.891383	4.88426
0.496246	2.70672	0.352815	1.91643	0.498031	2.7062	0.592717	3.23251	0.717706	3.91059	0.923288	5.02774	0.482362	2.63026	0.589806	3.20781	0.77062	4.1948	0.892745	4.86688
0.49864	2.70602	0.354827	1.91765	0.500424	2.70551	0.594277	3.22464	0.719217	3.89903	0.924155	5.00706	0.484191	2.62689	0.591512	3.20087	0.77158	4.17884	0.894109	4.84968
0.501033	2.70534	0.356838	1.91886	0.502818	2.70483	0.59584	3.21685	0.720734	3.88762	0.925025	4.9866	0.486017	2.62354	0.593224	3.19403	0.772545	4.16306	0.895476	4.83268
0.503427	2.70466	0.358848	1.92005	0.505212	2.70415	0.597403	3.20915	0.722256	3.87635	0.9259	4.96638	0.487842	2.62021	0.594943	3.1873	0.773516	4.14746	0.896846	4.81585
0.505822	2.70398	0.360857	1.92122	0.507607	2.70349	0.598969	3.20154	0.723782	3.86521	0.92678	4.94637	0.489665	2.61691	0.596669	3.18067	0.774492	4.13205	0.898217	4.79921
0.508216	2.70332	0.362866	1.92238	0.510001	2.70283	0.600536	3.19401	0.725314	3.85421	0.927664	4.92659	0.491486	2.61363	0.598401	3.17414	0.775474	4.11683	0.899591	4.78274
0.51061	2.70266	0.364875	1.92353	0.512395	2.70217	0.602105	3.18656	0.72685	3.84335	0.928552	4.90703	0.493306	2.61037	0.600139	3.1677	0.77646	4.10178	0.900968	4.76645
0.513004	2.70201	0.366883	1.92466	0.514789	2.70152	0.603676	3.1792	0.728391	3.83261	0.929445	4.88769	0.495123	2.60713	0.601884	3.16137	0.777453	4.0869	0.902347	4.75033
0.515398	2.70136	0.36889	1.92578	0.517183	2.70088	0.605248	3.17192	0.729936	3.82201	0.930342	4.86855	0.496939	2.60392	0.603635	3.15512	0.77845	4.0722	0.903728	4.73438
0.517792	2.70072	0.370897	1.92688	0.519577	2.70024	0.606822	3.16472	0.731486	3.81153	0.931244	4.84962	0.498753	2.60073	0.605393	3.14897	0.779453	4.05767	0.905111	4.71859
0.520186	2.70008	0.372903	1.92797	0.52197	2.69961	0.608399	3.15759	0.733041	3.80118	0.93215	4.8309	0.500565	2.59756	0.607156	3.14291	0.780461	4.04331	0.906497	4.70298
0.522579	2.69945	0.374908	1.92905	0.524363	2.69898	0.609977	3.15055	0.7346	3.79095	0.933061	4.81238	0.502376	2.59441	0.608925	3.13694	0.781475	4.02912	0.907885	4.68752
0.524972	2.69882	0.376913	1.93011	0.526756	2.69836	0.611557	3.14358	0.736164	3.78084	0.933975	4.79407	0.504186	2.59129	0.610701	3.13106	0.782494	4.01508	0.909275	4.67222
0.527365	2.6982	0.378917	1.93116	0.529148	2.69774	0.613139	3.13669	0.737732	3.77085	0.934895	4.77594	0.505993	2.58819	0.612482	3.12527	0.783518	4.00121	0.910667	4.65708
0.529757	2.69758	0.38092	1.9322	0.53154	2.69712	0.614723	3.12988	0.739305	3.76098	0.935819	4.75802	0.5078	2.5851	0.614269	3.11956	0.784548	3.9875	0.912061	4.64209
0.532148	2.69696	0.382923	1.93322	0.533931	2.6965	0.616309	3.12314	0.740882	3.75122	0.936747	4.74028	0.509604	2.58205	0.616062	3.11393	0.785583	3.97394	0.913458	4.62725
0.534539	2.69635	0.384925	1.93423	0.536321	2.69589	0.617898	3.11647	0.742463	3.74158	0.937679	4.72274	0.511408	2.57901	0.617861	3.10838	0.786624	3.96054	0.914856	4.61257
0.536929	2.69573	0.386927	1.93523	0.53871	2.69528	0.619488	3.10988	0.744048	3.73204	0.938617	4.70537	0.51321	2.57599	0.619665	3.10291	0.787669	3.94728	0.916257	4.59803
0.539318	2.69512	0.388928	1.93621	0.541099	2.69467	0.621081	3.10336	0.745638	3.72262	0.939558	4.6882	0.515011	2.573	0.621474	3.09752	0.78872	3.93418	0.917659	4.58364
0.541706	2.69451	0.390928	1.93718	0.543487	2.69406	0.622676	3.09692	0.747232	3.71331	0.940504	4.6712	0.51681	2.57003	0.623289	3.09221	0.789776	3.92123	0.919064	4.56939
0.544094	2.6939	0.392928	1.93814	0.545873	2.69345	0.624274	3.09054	0.748829	3.7041	0.941454	4.65438	0.518609	2.56708	0.625109	3.08697	0.790838	3.90842	0.920471	4.55528
0.546481	2.69329	0.394927	1.93909	0.548259	2.69284	0.625874	3.08424	0.750431	3.69499	0.942409	4.63774	0.520406	2.56415	0.626934	3.0818	0.791904	3.89575	0.921879	4.54131
0.548866	2.69269	0.396925	1.94003	0.550644	2.69223	0.627476	3.078	0.752037	3.68599	0.943368	4.62127	0.522202	2.56124	0.628765	3.07671	0.792976	3.88323	0.92329	4.52748
0.55125	2.69208	0.398922	1.94095	0.553027	2.69163	0.629081	3.07183	0.753647	3.67709	0.944332	4.60498	0.523997	2.55835	0.630601	3.07169	0.794054	3.87084	0.924702	4.51379
0.553633	2.69147	0.400919	1.94187	0.55541	2.69102	0.630688	3.06574	0.755261	3.66828	0.9453	4.58885	0.52579	2.55548	0.632441	3.06674	0.795136	3.85859	0.926116	4.50022
0.556015	2.69086	0.402916	1.94277	0.55779	2.69041	0.632299	3.05971	0.756878	3.65958	0.946272	4.57289	0.527583	2.55264	0.634287	3.06185	0.796224	3.84648	0.927533	4.48679
0.558396	2.69025	0.404911	1.94366	0.56017	2.6898	0.633912	3.05374	0.758499	3.65097	0.947249	4.55709	0.529375	2.54981	0.636137	3.05703	0.797317	3.8345	0.928951	4.47349
0.560775	2.68964	0.406906	1.94454	0.562548	2.68919	0.635527	3.04785	0.760124	3.64246	0.948231	4.54146	0.531166	2.54701	0.637992	3.05228	0.798415	3.82265	0.930371	4.46032
0.563153	2.68903	0.4089	1.94541	0.564924	2.68857	0.637146	3.04202	0.761753	3.63404	0.949217	4.52598	0.532956	2.54423	0.639852	3.0476	0.799519	3.81094	0.931792	4.44727
0.565529	2.68841	0.410894	1.94626	0.567299	2.68795	0.638767	3.03625	0.763385	3.62571	0.950207	4.51066	0.534746	2.54147	0.641716	3.04297	0.800627	3.79935	0.933216	4.43434
0.567903	2.6878	0.412887	1.94711	0.569672	2.68734	0.640392	3.03055	0.765021	3.61747	0.951201	4.4955	0.536534	2.53873	0.643585	3.03841	0.801741	3.78789	0.934641	4.42154
0.570276	2.68718	0.414879	1.94795	0.572044	2.68671	0.642019	3.02492	0.76666	3.60932	0.952201	4.4805	0.538322	2.53601	0.645458	3.03391	0.80286	3.77655	0.936068	4.40886
0.572647	2.68655	0.41687	1.94877	0.574413	2.68609	0.64365	3.01935	0.768303	3.60126	0.953204	4.46564	0.540109	2.53331	0.647335	3.02947	0.803985	3.76534	0.937496	4.39629
0.575016	2.68593	0.418861	1.94959	0.57678	2.68546	0.645284	3.01384	0.76995	3.59328	0.954212	4.45093	0.541896	2.53063	0.649217	3.02508	0.805114	3.75425	0.938926	4.38385
0.577382	2.6853	0.420851	1.95039	0.579146	2.68483	0.646921	3.0084	0.7716	3.58539	0.955224	4.43638	0.543682	2.52797	0.651103	3.02075	0.806249	3.74328	0.940358	4.37152
0.579747	2.68466	0.42284	1.95119	0.581509	2.68419	0.648562	3.00301	0.773253	3.57759	0.956241	4.42196	0.545467	2.52533	0.652993	3.01648	0.807389	3.73242	0.941792	4.3593
0.58211	2.68403	0.424829	1.95197	0.58387	2.68355	0.650206	2.99769	0.774909	3.56986	0.957263	4.4077	0.547252	2.52271	0.654887	3.01227	0.808534	3.72169	0.943227	4.34719
0.584471	2.68338	0.426817	1.95275	0.586229	2.6829	0.651854	2.99244	0.776569	3.56222	0.958288	4.39357	0.549036	2.52011	0.656785	3.00811	0.809684	3.71107	0.944664	4.3352
0.586829	2.68273	0.428804	1.95351	0.588586	2.68225	0.653505	2.98724	0.778231	3.55465	0.959318	4.37959	0.55082	2.51753	0.658686	3.004	0.81084	3.70056	0.946102	4.32332
0.589185	2.68208	0.430791	1.95427	0.590939	2.68159	0.65516	2.98211	0.779898	3.54717	0.960353	4.36574	0.552604	2.51498	0.660592	2.99994	0.812	3.69017	0.947542	4.31154
0.591538	2.68142	0.432777	1.95501	0.593291	2.68092	0.656819	2.97703	0.781567	3.53976	0.961392	4.35203	0.554387	2.51244	0.662501	2.99593	0.813166	3.67988	0.948983	4.29987
0.593888	2.68075	0.434762	1.95575	0.595639	2.68025	0.658482	2.97202	0.783239	3.53243	0.962436	4.33846	0.55617	2.50992	0.664413	2.99198	0.814337	3.66971	0.950426	4.2883
0.596236	2.68008	0.436746	1.95647	0.597985	2.67957	0.660149	2.96707	0.784914	3.52517	0.963484	4.32502	0.557952	2.50742	0.666329	2.98807	0.815514	3.65965	0.95187	4.27684
0.598581	2.6794	0.43873	1.95719	0.600328	2.67889	0.66182	2.96217	0.786592	3.51799	0.964536	4.31171	0.559735	2.50494	0.668249	2.98421	0.816695	3.64969	0.953316	4.26548
0.600923	2.67871	0.440713	1.9579	0.602668	2.67819	0.663496	2.95734	0.788273	3.51087	0.965593	4.29853	0.561517	2.50249	0.670172	2.9804	0.817881	3.63983	0.954763	4.25422
0.603262	2.67801	0.442695	1.9586	0.605004	2.67749	0.665176	2.95257	0.789957	3.50384	0.966654	4.28548	0.563299	2.50005	0.672098	2.97663	0.819073	3.63009	0.956212	4.24306
0.605598	2.67731	0.444677	1.95929	0.607338	2.67678	0.66686	2.94785	0.791644	3.49687	0.96772	4.27256	0.565081	2.49763	0.674027	2.97291	0.82027	3.62044	0.957662	4.232
0.607931	2.6766	0.446658	1.95997	0.609668	2.67606	0.668549	2.94319	0.793333	3.48997	0.96879	4.25976	0.566863	2.49523	0.67596	2.96923	0.821472	3.6109	0.959113	4.22103
0.61026	2.67588	0.448638	1.96065	0.611994	2.67533	0.670242	2.9386	0.795026	3.48313	0.969864	4.24708	0.568645	2.49285	0.677895	2.96559	0.822679	3.60146	0.960566	4.21016
0.612586	2.67515	0.450617	1.96131	0.614317	2.67459	0.67194	2.93406	0.796721	3.47637	0.970943	4.23453	0.570427	2.49049	0.679834	2.962	0.823892	3.59211	0.96202	4.19939
0.614908	2.6744	0.452596	1.96197	0.616637	2.67384	0.673644	2.92958	0.798418	3.46967	0.972027	4.2221	0.572209	2.48815	0.681775	2.95845	0.825109	3.58287	0.963475	4.1887
0.617226	2.67365	0.454574	1.96261	0.618952	2.67309	0.675352	2.92515	0.800119	3.46304	0.973115	4.20979	0.573991	2.48582	0.683719	2.95494	0.826332	3.57372	0.964932	4.17811
0.61954	2.67289	0.456551	1.96325	0.621263	2.67232	0.677066	2.92079	0.801821	3.45647	0.974207	4.1976	0.575773	2.48352	0.685666	2.95147	0.82756	3.56466	0.96639	4.16761
0.621851	2.67212	0.458528	1.96389	0.623571	2.67153	0.678784	2.91648	0.803527	3.44997	0.975304	4.18552	0.577555	2.48124	0.687615	2.94803	0.828793	3.55571	0.967849	4.1572
0.624157	2.67133	0.460503	1.96451	0.625874	2.67074	0.680509	2.91223	0.805235	3.44352	0.976405	4.17356	0.579338	2.47897	0.689567	2.94464	0.830031	3.54684	0.969309	4.14688
0.626459	2.67054	0.462479	1.96512	0.628173	2.66993	0.682239	2.90804	0.806945	3.43714	0.977511	4.16171	0.58112	2.47673	0.691522	2.94128	0.831275	3.53807	0.970771	4.13664
0.628757	2.66973	0.464453	1.96573	0.630467	2.66912	0.683974	2.90391	0.808657	3.43082	0.978621	4.14998	0.582903	2.4745	0.693478	2.93796	0.832523	3.52939	0.972233	4.12649
0.63105	2.66891	0.466426	1.96633	0.632756	2.66828	0.685716	2.89983	0.810372	3.42456	0.979736	4.13835	0.584687	2.47229	0.695438	2.93468	0.833777	3.52079	0.973697	4.11643
0.633338	2.66807	0.468399	1.96692	0.635041	2.66744	0.687463	2.89581	0.81209	3.41836	0.980855	4.12684	0.58647	2.4701	0.697399	2.93143	0.835036	3.51229	0.975162	4.10645
0.635622	2.66722	0.470372	1.96751	0.637321	2.66658	0.689217	2.89185	0.813809	3.41222	0.981979	4.11544	0.588254	2.46793	0.699363	2.92822	0.8363	3.50388	0.976628	4.09655
0.6379	2.66636	0.472343	1.96808	0.639596	2.66571	0.690977	2.88794	0.815531	3.40613	0.983107	4.10414	0.590039	2.46578	0.701328	2.92504	0.837569	3.49555	0.978095	4.08673
0.640174	2.66548	0.474314	1.96865	0.641865	2.66482	0.692743	2.88409	0.817255	3.4001	0.984239	4.09295	0.591823	2.46365	0.703296	2.92189	0.838843	3.48731	0.979564	4.077
0.642442	2.66459	0.476284	1.96921	0.644129	2.66391	0.694516	2.8803	0.818981	3.39412	0.985376	4.08186	0.593608	2.46153	0.705266	2.91878	0.840123	3.47915	0.981033	4.06734
0.644705	2.66368	0.478253	1.96977	0.646388	2.66299	0.696296	2.87657	0.820709	3.3882	0.986518	4.07088	0.595394	2.45943	0.707238	2.9157	0.841408	3.47108	0.982504	4.05776
0.646962	2.66276	0.480222	1.97031	0.648641	2.66206	0.698082	2.87289	0.822439	3.38234	0.987664	4.06	0.59718	2.45735	0.709211	2.91264	0.842698	3.46309	0.983975	4.04826
0.649213	2.66182	0.482189	1.97085	0.650888	2.6611	0.699876	2.86927	0.824171	3.37652	0.988814	4.04922	0.598967	2.45529	0.711186	2.90962	0.843993	3.45519	0.985448	4.03884
0.651459	2.66086	0.484156	1.97139	0.653129	2.66013	0.701677	2.86571	0.825905	3.37076	0.989969	4.03854	0.600754	2.45325	0.713163	2.90663	0.845293	3.44736	0.986921	4.02949
0.653699	2.65988	0.486123	1.97191	0.655364	2.65915	0.703485	2.8622	0.827641	3.36505	0.991128	4.02796	0.602542	2.45122	0.715142	2.90367	0.846599	3.43962	0.988396	4.02022
0.655932	2.65889	0.488089	1.97243	0.657593	2.65814	0.7053	2.85875	0.829379	3.35939	0.992292	4.01747	0.60433	2.44922	0.717122	2.90073	0.84791	3.43195	0.989871	4.01102
0.658159	2.65788	0.490053	1.97294	0.659816	2.65712	0.707124	2.85536	0.831119	3.35378	0.99346	4.00709	0.606119	2.44723	0.719103	2.89783	0.849226	3.42436	0.991347	4.00189
0.66038	2.65685	0.492018	1.97345	0.662032	2.65608	0.708955	2.85202	0.832861	3.34822	0.994633	3.9968	0.607909	2.44525	0.721086	2.89495	0.850547	3.41685	0.992825	3.99284
0.662594	2.65581	0.493981	1.97395	0.664241	2.65501	0.710793	2.84874	0.834604	3.34271	0.99581	3.9866	0.6097	2.4433	0.723071	2.8921	0.851873	3.40942	0.994303	3.98386
0.664802	2.65474	0.495944	1.97444	0.666443	2.65393	0.71264	2.84552	0.836349	3.33725	0.996991	3.9765	0.611491	2.44136	0.725056	2.88927	0.853205	3.40206	0.995782	3.97494
0.667003	2.65366	0.497906	1.97493	0.668639	2.65283	0.714495	2.84235	0.838096	3.33183	0.998178	3.96649	0.613283	2.43944	0.727043	2.88647	0.854542	3.39478	0.997262	3.9661
0.669196	2.65255	0.499867	1.97541	0.670827	2.65172	0.716359	2.83924	0.839845	3.32646	0.999368	3.95658	0.615075	2.43754	0.729031	2.8837	0.855884	3.38758	0.998743	3.95733
0.671383	2.65143	0.501828	1.97588	0.673008	2.65058	0.718231	2.83619	0.841595	3.32113	1.00056	3.94675	0.616869	2.43565	0.73102	2.88095	0.857231	3.38044	1.00022	3.94862
0.673562	2.65028	0.503788	1.97634	0.675182	2.64941	0.720111	2.83319	0.843347	3.31586			0.618663	2.43378	0.73301	2.87822	0.858584	3.37338		
0.675734	2.64912	0.505747	1.97681	0.677349	2.64823	0.722	2.83025	0.8451	3.31062			0.620458	2.43193	0.735001	2.87552	0.859942	3.36639		
0.677899	2.64793	0.507705	1.97726	0.679508	2.64703	0.723898	2.82736	0.846855	3.30543			0.622254	2.4301	0.736992	2.87284	0.861305	3.35948		
0.680056	2.64672	0.509663	1.97771	0.681659	2.64581	0.725805	2.82453	0.848611	3.30028			0.624051	2.42828	0.738985	2.87018	0.862673	3.35263		
0.682205	2.6455	0.51162	1.97815	0.683802	2.64457	0.72772	2.82175	0.850368	3.29518			0.625848	2.42648	0.740978	2.86755	0.864047	3.34585		
0.684346	2.64425	0.513577	1.97859	0.685938	2.6433	0.729645	2.81903	0.852128	3.29012			0.627647	2.42469	0.742972	2.86494	0.865425	3.33915		
0.68648	2.64298	0.515532	1.97902	0.688066	2.64201	0.731579	2.81637	0.853888	3.2851			0.629446	2.42292	0.744967	2.86234	0.86681	3.33251		
0.688606	2.64168	0.517487	1.97944	0.690185	2.64071	0.733523	2.81376	0.85565	3.28012			0.631247	2.42117	0.746962	2.85977	0.868199	3.32594		
0.690723	2.64037	0.519441	1.97986	0.692297	2.63938	0.735475	2.8112	0.857413	3.27518			0.633048	2.41943	0.748957	2.85722	0.869594	3.31943		
0.692833	2.63904	0.521395	1.98027	0.694401	2.63803	0.737437	2.8087	0.859177	3.27028			0.63485	2.41771	0.750953	2.85469	0.870994	3.31299		
0.694935	2.63768	0.523347	1.98068	0.696496	2.63666	0.739409	2.80625	0.860943	3.26542			0.636654	2.41601	0.75295	2.85218	0.872399	3.30662		
0.697028	2.6363	0.525299	1.98108	0.698584	2.63526	0.74139	2.80385	0.862709	3.2606			0.638458	2.41432	0.754946	2.84968	0.87381	3.30031		
0.699114	2.63491	0.527251	1.98148	0.700663	2.63385	0.74338	2.80151	0.864477	3.25582			0.640263	2.41264	0.756943	2.84721	0.875226	3.29407		
0.701191	2.63349	0.529201	1.98187	0.702734	2.63242	0.74538	2.79921	0.866246	3.25107			0.64207	2.41099	0.75894	2.84475	0.876647	3.28789		
0.70326	2.63205	0.531151	1.98226	0.704797	2.63096	0.747389	2.79697	0.868016	3.24636			0.643877	2.40934	0.760938	2.84231	0.878074	3.28177		
0.70532	2.63059	0.533101	1.98264	0.706852	2.62949	0.749408	2.79478	0.869788	3.24169			0.645686	2.40772	0.762935	2.83989	0.879506	3.27572		
0.707373	2.62911	0.535049	1.98302	0.708898	2.62799	0.751436	2.79264	0.87156	3.23706			0.647495	2.40611	0.764932	2.83748	0.880943	3.26973		
0.709418	2.62761	0.536997	1.98339	0.710937	2.62648	0.753474	2.79055	0.873333	3.23246			0.649306	2.40451	0.76693	2.83509	0.882386	3.26379		
0.711454	2.62609	0.538944	1.98375	0.712967	2.62494	0.755521	2.78851	0.875107	3.22789			0.651118	2.40293	0.768927	2.83272	0.883834	3.25792		
0.713482	2.62455	0.540891	1.98411	0.71499	2.62339	0.757577	2.78652	0.876882	3.22336			0.652931	2.40136	0.770924	2.83036	0.885288	3.25211		
0.715503	2.62299	0.542837	1.98447	0.717004	2.62182	0.759643	2.78458	0.878659	3.21887			0.654745	2.39981	0.77292	2.82802	0.886747	3.24636		
0.717515	2.62142	0.544782	1.98482	0.719011	2.62023	0.761718	2.78268	0.880435	3.2144			0.65656	2.39827	0.774917	2.82569	0.888211	3.24067		
0.71952	2.61982	0.546726	1.98516	0.72101	2.61862	0.763802	2.78083	0.882213	3.20998			0.658376	2.39675	0.776913	2.82338	0.889681	3.23503		
0.721517	2.61821	0.54867	1.9855	0.723001	2.617	0.765895	2.77902	0.883992	3.20558			0.660194	2.39524	0.778909	2.82108	0.891156	3.22946		
0.723506	2.61658	0.550613	1.98584	0.724985	2.61536	0.767997	2.77726	0.885771	3.20122			0.662012	2.39375	0.780904	2.81879	0.892636	3.22394		
0.725488	2.61494	0.552555	1.98617	0.726961	2.6137	0.770108	2.77554	0.887551	3.19689			0.663832	2.39227	0.782899	2.81652	0.894122	3.21847		
0.727463	2.61328	0.554497	1.9865	0.72893	2.61203	0.772228	2.77387	0.889332	3.19259			0.665653	2.39081	0.784893	2.81426	0.895614	3.21307		
0.72943	2.61161	0.556438	1.98682	0.730892	2.61035	0.774356	2.77223	0.891114	3.18832			0.667476	2.38936	0.786887	2.81202	0.897111	3.20771		
0.73139	2.60992	0.558379	1.98714	0.732846	2.60865	0.776492	2.77064	0.892896	3.18408			0.669299	2.38792	0.78888	2.80978	0.898613	3.20242		
0.733342	2.60821	0.560318	1.98745	0.734794	2.60694	0.778637	2.76909	0.894679	3.17988			0.671124	2.3865	0.790872	2.80756	0.900121	3.19718		
0.735288	2.6065	0.562257	1.98776	0.736735	2.60521	0.78079	2.76758	0.896463	3.1757			0.672949	2.38509	0.792864	2.80535	0.901634	3.19199		
0.737228	2.60477	0.564196	1.98807	0.738669	2.60347	0.782951	2.7661	0.898247	3.17155			0.674777	2.38369	0.794854	2.80316	0.903153	3.18685		
0.73916	2.60303	0.566134	1.98837	0.740597	2.60172	0.78512	2.76466	0.900032	3.16743			0.676605	2.38231	0.796844	2.80097	0.904677	3.18177		
0.741087	2.60128	0.568071	1.98866	0.742519	2.59997	0.787297	2.76326	0.901817	3.16335			0.678434	2.38094	0.798833	2.7988	0.906207	3.17674		
0.743007	2.59952	0.570007	1.98895	0.744434	2.5982	0.789481	2.7619	0.903603	3.15928			0.680265	2.37958	0.800821	2.79663	0.907742	3.17176		
0.744921	2.59774	0.571943	1.98924	0.746344	2.59642	0.791672	2.76056	0.90539	3.15525			0.682097	2.37824	0.802808	2.79448	0.909283	3.16684		
0.746828	2.59596	0.573878	1.98952	0.748247	2.59463	0.793871	2.75927	0.907177	3.15125			0.683931	2.37691	0.804794	2.79233	0.910829	3.16196		
0.748731	2.59417	0.575812	1.9898	0.750145	2.59283	0.796077	2.758	0.908964	3.14727			0.685765	2.3756	0.806779	2.7902	0.912381	3.15714		
0.750627	2.59238	0.577746	1.99008	0.752038	2.59103	0.798289	2.75677	0.910752	3.14332			0.687601	2.37429	0.808762	2.78808	0.913938	3.15236		
0.752518	2.59057	0.57968	1.99035	0.753925	2.58922	0.800509	2.75557	0.91254	3.1394			0.689438	2.373	0.810745	2.78596	0.915501	3.14764		
0.754404	2.58876	0.581612	1.99062	0.755807	2.58741	0.802734	2.75439	0.914329	3.1355			0.691277	2.37172	0.812726	2.78386	0.917069	3.14296		
0.756285	2.58694	0.583544	1.99088	0.757684	2.58558	0.804966	2.75325	0.916118	3.13163			0.693116	2.37046	0.814706	2.78176	0.918643	3.13833		
0.75816	2.58512	0.585475	1.99114	0.759556	2.58376	0.807205	2.75214	0.917907	3.12779			0.694957	2.36921	0.816685	2.77968	0.920222	3.13376		
0.760031	2.58329	0.587406	1.9914	0.761423	2.58193	0.809449	2.75105	0.919697	3.12397			0.6968	2.36797	0.818662	2.7776	0.921807	3.12922		
0.761898	2.58146	0.589336	1.99165	0.763286	2.58009	0.811699	2.74999	0.921487	3.12017			0.698643	2.36674	0.820638	2.77553	0.923398	3.12474		
0.763759	2.57963	0.591266	1.9919	0.765145	2.57826	0.813954	2.74895	0.923277	3.1164			0.700488	2.36552	0.822612	2.77347	0.924994	3.1203		
0.765617	2.57779	0.593195	1.99214	0.766999	2.57642	0.816216	2.74794	0.925068	3.11266			0.702334	2.36432	0.824585	2.77141	0.926595	3.11591		
0.76747	2.57595	0.595123	1.99239	0.76885	2.57458	0.818482	2.74696	0.926859	3.10894			0.704182	2.36312	0.826557	2.76937	0.928202	3.11157		
0.76932	2.57411	0.59705	1.99262	0.770696	2.57273	0.820754	2.746	0.92865	3.10524			0.70603	2.36194	0.828527	2.76733	0.929815	3.10727		
0.771165	2.57226	0.598977	1.99286	0.772539	2.57089	0.82303	2.74506	0.930441	3.10157			0.70788	2.36077	0.830495	2.7653	0.931433	3.10302		
0.773007	2.57042	0.600904	1.99309	0.774378	2.56904	0.825312	2.74414	0.932233	3.09792			0.709732	2.35962	0.832462	2.76328	0.933057	3.09881		
0.774846	2.56857	0.60283	1.99332	0.776214	2.5672	0.827598	2.74324	0.934025	3.09429			0.711585	2.35847	0.834427	2.76126	0.934686	3.09464		
0.776681	2.56673	0.604755	1.99354	0.778047	2.56535	0.829889	2.74236	0.935817	3.09069			0.713438	2.35734	0.83639	2.75925	0.936321	3.09052		
0.778512	2.56489	0.606679	1.99376	0.779876	2.56351	0.832184	2.74151	0.937609	3.08711			0.715294	2.35621	0.838352	2.75724	0.937961	3.08645		
0.780341	2.56304	0.608604	1.99398	0.781703	2.56167	0.834483	2.74067	0.939401	3.08355			0.71715	2.3551	0.840312	2.75525	0.939607	3.08241		
0.782167	2.5612	0.610527	1.9942	0.783526	2.55983	0.836786	2.73985	0.941194	3.08002			0.719008	2.354	0.84227	2.75326	0.941259	3.07842		
0.78399	2.55936	0.61245	1.99441	0.785347	2.55799	0.839094	2.73905	0.942986	3.0765			0.720867	2.35291	0.844226	2.75127	0.942916	3.07447		
0.78581	2.55753	0.614372	1.99461	0.787165	2.55616	0.841405	2.73827	0.944779	3.07301			0.722728	2.35183	0.84618	2.74929	0.944578	3.07056		
0.787627	2.55569	0.616294	1.99482	0.788981	2.55433	0.84372	2.7375	0.946572	3.06954			0.72459	2.35076	0.848133	2.74732	0.946246	3.0667		
0.789442	2.55386	0.618215	1.99502	0.790794	2.5525	0.846038	2.73675	0.948365	3.06609			0.726453	2.3497	0.850083	2.74535	0.94792	3.06287		
0.791255	2.55203	0.620136	1.99522	0.792605	2.55067	0.84836	2.73601	0.950158	3.06266			0.728317	2.34866	0.852032	2.74339	0.949599	3.05909		
0.793065	2.55021	0.622056	1.99542	0.794414	2.54885	0.850685	2.73529	0.951951	3.05925			0.730183	2.34762	0.853979	2.74144	0.951284	3.05535		
0.794874	2.54839	0.623975	1.99561	0.796221	2.54703	0.853013	2.73459	0.953744	3.05587			0.73205	2.34659	0.855923	2.73949	0.952974	3.05164		
0.79668	2.54657	0.625894	1.9958	0.798025	2.54522	0.855344	2.73389	0.955537	3.0525			0.733918	2.34558	0.857866	2.73754	0.95467	3.04798		
0.798484	2.54476	0.627812	1.99599	0.799828	2.54341	0.857678	2.73322	0.957331	3.04915			0.735788	2.34457	0.859807	2.7356	0.956371	3.04435		
0.800287	2.54295	0.62973	1.99617	0.80163	2.54161	0.860015	2.73255	0.959124	3.04583			0.737659	2.34357	0.861745	2.73366	0.958077	3.04077		
0.802088	2.54115	0.631647	1.99635	0.803429	2.53981	0.862355	2.7319	0.960917	3.04252			0.739531	2.34259	0.863682	2.73173	0.959789	3.03722		
0.803887	2.53936	0.633564	1.99653	0.805228	2.53802	0.864697	2.73125	0.962711	3.03923			0.741405	2.34161	0.865616	2.72981	0.961507	3.03371		
0.805685	2.53757	0.63548	1.99671	0.807024	2.53624	0.867042	2.73063	0.964504	3.03597			0.743279	2.34064	0.867549	2.72789	0.96323	3.03024		
0.807481	2.53579	0.637396	1.99688	0.808819	2.53446	0.869389	2.73001	0.966298	3.03272			0.745155	2.33969	0.869479	2.72597	0.964958	3.02681		
0.809276	2.53401	0.639311	1.99705	0.810613	2.53269	0.871739	2.7294	0.968091	3.02949			0.747033	2.33874	0.871407	2.72406	0.966692	3.02341		
0.81107	2.53224	0.641226	1.99722	0.812406	2.53092	0.87409	2.7288	0.969885	3.02628			0.748911	2.3378	0.873333	2.72215	0.968431	3.02005		
0.812862	2.53047	0.64314	1.99739	0.814198	2.52916	0.876444	2.72822	0.971678	3.02308			0.750791	2.33688	0.875257	2.72025	0.970175	3.01672		
0.814653	2.52871	0.645053	1.99755	0.815988	2.52741	0.8788	2.72764	0.973472	3.01991			0.752673	2.33596	0.877178	2.71835	0.971925	3.01343		
0.816444	2.52696	0.646966	1.99771	0.817778	2.52566	0.881158	2.72707	0.975266	3.01676			0.754555	2.33505	0.879098	2.71645	0.97368	3.01018		
0.818233	2.52522	0.648879	1.99787	0.819566	2.52392	0.883517	2.72651	0.977059	3.01362			0.756439	2.33415	0.881015	2.71456	0.97544	3.00696		
0.820021	2.52348	0.650791	1.99802	0.821354	2.52219	0.885879	2.72596	0.978853	3.0105			0.758324	2.33326	0.88293	2.71267	0.977206	3.00377		
0.821809	2.52175	0.652703	1.99817	0.823141	2.52047	0.888241	2.72542	0.980647	3.0074			0.76021	2.33237	0.884843	2.71079	0.978977	3.00062		
0.823596	2.52003	0.654614	1.99833	0.824928	2.51875	0.890606	2.72488	0.98244	3.00432			0.762098	2.3315	0.886753	2.70891	0.980753	2.99751		
0.825382	2.51832	0.656524	1.99847	0.826713	2.51705	0.892972	2.72435	0.984234	3.00125			0.763987	2.33064	0.888662	2.70704	0.982534	2.99443		
0.827168	2.51661	0.658434	1.99862	0.828498	2.51535	0.895339	2.72383	0.986028	2.9982			0.765877	2.32978	0.890568	2.70517	0.984321	2.99138		
0.828952	2.51491	0.660344	1.99876	0.830283	2.51365	0.897708	2.72332	0.987822	2.99517			0.767768	2.32893	0.892472	2.7033	0.986112	2.98836		
0.830737	2.51322	0.662253	1.9989	0.832067	2.51197	0.900078	2.72282	0.989615	2.99216			0.76966	2.32809	0.894373	2.70144	0.987909	2.98538		
0.832521	2.51154	0.664161	1.99904	0.833851	2.51029	0.902449	2.72232	0.991409	2.98916			0.771554	2.32726	0.896273	2.69958	0.989711	2.98242		
0.834304	2.50987	0.666069	1.99918	0.835634	2.50863	0.904822	2.72182	0.993203	2.98618			0.773449	2.32644	0.89817	2.69772	0.991518	2.9795		
0.836088	2.5082	0.667977	1.99932	0.837417	2.50697	0.907195	2.72134	0.994997	2.98322			0.775346	2.32563	0.900065	2.69587	0.99333	2.97662		
0.837871	2.50654	0.669884	1.99945	0.8392	2.50531	0.909569	2.72085	0.996792	2.98027			0.777243	2.32482	0.901958	2.69402	0.995147	2.97376		
0.839653	2.5049	0.671791	1.99958	0.840982	2.50367	0.911945	2.72038	0.998586	2.97734			0.779142	2.32402	0.903848	2.69217	0.996969	2.97093		
0.841436	2.50326	0.673697	1.99971	0.842764	2.50204	0.914321	2.71991	1.00038	2.97443			0.781042	2.32323	0.905737	2.69033	0.998796	2.96814		
0.843218	2.50162	0.675603	1.99983	0.844546	2.50041	0.916698	2.71944					0.782943	2.32245	0.907623	2.68849	1.00063	2.96537		
0.845	2.5	0.677508	1.99996	0.846328	2.4988	0.919075	2.71898					0.784845	2.32168	0.909507	2.68666				
0.846782	2.49839	0.679413	2.00008	0.84811	2.49719	0.921453	2.71852					0.786749	2.32091	0.911389	2.68483				
0.848564	2.49678	0.681318	2.0002	0.849892	2.49559	0.923832	2.71807					0.788653	2.32016	0.913268	2.683				
0.850346	2.49518	0.683222	2.00032	0.851674	2.494	0.926211	2.71762					0.790559	2.31941	0.915146	2.68118				
0.852128	2.49359	0.685125	2.00044	0.853456	2.49242	0.928591	2.71717					0.792467	2.31866	0.917021	2.67936				
0.85391	2.49201	0.687029	2.00055	0.855238	2.49084	0.930971	2.71673					0.794375	2.31793	0.918894	2.67754				
0.855692	2.49044	0.688931	2.00066	0.857021	2.48928	0.933352	2.71629					0.796284	2.3172	0.920765	2.67573				
0.857474	2.48888	0.690834	2.00077	0.858803	2.48772	0.935732	2.71586					0.798195	2.31648	0.922634	2.67392				
0.859256	2.48733	0.692736	2.00088	0.860585	2.48618	0.938113	2.71542					0.800107	2.31577	0.9245	2.67212				
0.861039	2.48579	0.694637	2.00099	0.862368	2.48464	0.940495	2.71499					0.80202	2.31506	0.926365	2.67032				
0.862822	2.48425	0.696538	2.0011	0.864151	2.48311	0.942876	2.71457					0.803934	2.31436	0.928227	2.66852				
0.864605	2.48272	0.698439	2.0012	0.865934	2.48159	0.945257	2.71414					0.805849	2.31367	0.930088	2.66672				
0.866388	2.48121	0.700339	2.0013	0.867718	2.48008	0.947638	2.71372					0.807766	2.31299	0.931946	2.66493				
0.868172	2.4797	0.702239	2.0014	0.869502	2.47858	0.950019	2.7133					0.809683	2.31231	0.933803	2.66315				
0.869956	2.4782	0.704138	2.0015	0.871286	2.47709	0.9524	2.71288					0.811602	2.31164	0.935657	2.66136				
0.87174	2.47671	0.706037	2.0016	0.873071	2.4756	0.954781	2.71246					0.813522	2.31097	0.93751	2.65958				
0.873525	2.47523	0.707936	2.00169	0.874856	2.47413	0.957161	2.71205					0.815443	2.31031	0.93936	2.65781				
0.87531	2.47375	0.709834	2.00179	0.876641	2.47266	0.959542	2.71163					0.817365	2.30966	0.941208	2.65604				
0.877095	2.47229	0.711732	2.00188	0.878427	2.4712	0.961921	2.71122					0.819288	2.30902	0.943055	2.65427				
0.878881	2.47084	0.71363	2.00197	0.880213	2.46976	0.964301	2.71081					0.821213	2.30838	0.9449	2.65251				
0.880668	2.46939	0.715527	2.00206	0.882	2.46832	0.966679	2.71039					0.823138	2.30775	0.946742	2.65075				
0.882455	2.46795	0.717424	2.00215	0.883787	2.46689	0.969058	2.70998					0.825064	2.30712	0.948583	2.64899				
0.884242	2.46652	0.71932	2.00223	0.885575	2.46547	0.971435	2.70957					0.826992	2.3065	0.950422	2.64724				
0.88603	2.4651	0.721216	2.00232	0.887363	2.46405	0.973812	2.70916					0.828921	2.30589	0.95226	2.64549				
0.887818	2.46369	0.723112	2.0024	0.889152	2.46265	0.976188	2.70875					0.83085	2.30528	0.954095	2.64375				
0.889607	2.46229	0.725007	2.00248	0.890942	2.46125	0.978564	2.70834					0.832781	2.30468	0.955929	2.64201				
0.891397	2.4609	0.726902	2.00257	0.892732	2.45987	0.980938	2.70793					0.834713	2.30409	0.957761	2.64027				
0.893187	2.45952	0.728797	2.00264	0.894522	2.45849	0.983312	2.70752					0.836646	2.3035	0.959591	2.63854				
0.894978	2.45814	0.730691	2.00272	0.896313	2.45712	0.985685	2.70711					0.83858	2.30292	0.96142	2.63681				
0.896769	2.45677	0.732585	2.0028	0.898105	2.45576	0.988056	2.7067					0.840515	2.30234	0.963247	2.63509				
0.898561	2.45542	0.734479	2.00287	0.899898	2.45441	0.990427	2.70628					0.842451	2.30177	0.965072	2.63337				
0.900354	2.45407	0.736372	2.00295	0.901691	2.45307	0.992796	2.70587					0.844388	2.30121	0.966896	2.63166				
0.902147	2.45273	0.738265	2.00302	0.903485	2.45173	0.995164	2.70545					0.846327	2.30065	0.968718	2.62995				
0.903941	2.45139	0.740157	2.00309	0.905279	2.45041	0.99753	2.70503					0.848266	2.30009	0.970539	2.62824				
0.905736	2.45007	0.74205	2.00316	0.907074	2.44909	0.999896	2.70461					0.850206	2.29954	0.972358	2.62654				
0.907531	2.44875	0.743942	2.00323	0.90887	2.44778	1.00226	2.70419					0.852147	2.299	0.974176	2.62485				
0.909327	2.44745	0.745833	2.0033	0.910667	2.44648							0.854089	2.29846	0.975992	2.62315				
0.911124	2.44615	0.747725	2.00337	0.912464	2.44519							0.856032	2.29793	0.977807	2.62147				
0.912921	2.44486	0.749616	2.00343	0.914262	2.4439							0.857977	2.2974	0.97962	2.61979				
0.914719	2.44358	0.751506	2.0035	0.916061	2.44263							0.859922	2.29688	0.981432	2.61811				
0.916518	2.44231	0.753397	2.00356	0.91786	2.44136							0.861868	2.29637	0.983243	2.61644				
0.918318	2.44104	0.755287	2.00362	0.91966	2.4401							0.863815	2.29585	0.985052	2.61477				
0.920118	2.43978	0.757177	2.00368	0.921461	2.43885							0.865763	2.29535	0.98686	2.6131				
0.92192	2.43854	0.759066	2.00374	0.923263	2.43761							0.867712	2.29485	0.988667	2.61145				
0.923722	2.4373	0.760956	2.0038	0.925066	2.43638							0.869662	2.29435	0.990472	2.60979				
0.925524	2.43606	0.762845	2.00386	0.926869	2.43515							0.871613	2.29386	0.992277	2.60814				
0.927328	2.43484	0.764733	2.00392	0.928673	2.43393							0.873565	2.29337	0.99408	2.6065				
0.929132	2.43362	0.766622	2.00397	0.930478	2.43272							0.875518	2.29289	0.995882	2.60486				
0.930937	2.43242	0.76851	2.00403	0.932284	2.43152							0.877472	2.29241	0.997683	2.60323				
0.932743	2.43122	0.770398	2.00408	0.93409	2.43033							0.879426	2.29194	0.999483	2.6016				
0.93455	2.43002	0.772285	2.00413	0.935898	2.42914							0.881382	2.29147	1.00128	2.59998				
0.936358	2.42884	0.774173	2.00419	0.937706	2.42796							0.883338	2.29101						
0.938166	2.42766	0.77606	2.00424	0.939515	2.42679							0.885296	2.29055						
0.939976	2.4265	0.777947	2.00429	0.941325	2.42563							0.887254	2.2901						
0.941786	2.42534	0.779833	2.00434	0.943136	2.42448							0.889213	2.28965						
0.943597	2.42418	0.781719	2.00439	0.944947	2.42333							0.891173	2.2892						
0.945408	2.42304	0.783605	2.00443	0.94676	2.42219							0.893134	2.28876						
0.947221	2.4219	0.785491	2.00448	0.948573	2.42106							0.895096	2.28833						
0.949035	2.42077	0.787377	2.00453	0.950387	2.41993							0.897059	2.2879						
0.950849	2.41965	0.789262	2.00457	0.952202	2.41882							0.899022	2.28747						
0.952664	2.41853	0.791147	2.00461	0.954018	2.41771							0.900987	2.28705						
0.95448	2.41743	0.793032	2.00466	0.955835	2.41661							0.902952	2.28663						
0.956297	2.41633	0.794917	2.0047	0.957653	2.41551							0.904918	2.28621						
0.958115	2.41523	0.796801	2.00474	0.959471	2.41442							0.906885	2.2858						
0.959934	2.41415	0.798685	2.00478	0.96129	2.41334							0.908853	2.28539						
0.961753	2.41307	0.800569	2.00482	0.963111	2.41227							0.910822	2.28499						
0.963574	2.412	0.802453	2.00486	0.964932	2.41121							0.912791	2.28459						
0.965395	2.41094	0.804336	2.0049	0.966754	2.41015							0.914761	2.2842						
0.967218	2.40988	0.80622	2.00494	0.968577	2.4091							0.916732	2.2838						
0.969041	2.40883	0.808103	2.00498	0.970401	2.40805							0.918704	2.28342						
0.970865	2.40779	0.809986	2.00501	0.972225	2.40702							0.920677	2.28303						
0.97269	2.40675	0.811868	2.00505	0.974051	2.40599							0.92265	2.28265						
0.974515	2.40572	0.813751	2.00509	0.975877	2.40496							0.924625	2.28228						
0.976342	2.4047	0.815633	2.00512	0.977705	2.40395							0.9266	2.2819						
0.97817	2.40369	0.817515	2.00515	0.979533	2.40294							0.928575	2.28153						
0.979998	2.40268	0.819397	2.00519	0.981362	2.40193							0.930552	2.28117						
0.981828	2.40168	0.821278	2.00522	0.983192	2.40094							0.932529	2.28081						
0.983658	2.40069	0.82316	2.00525	0.985023	2.39995							0.934507	2.28045						
0.985489	2.3997	0.825041	2.00528	0.986855	2.39897							0.936486	2.28009						
0.987321	2.39872	0.826922	2.00531	0.988688	2.39799							0.938466	2.27974						
0.989154	2.39774	0.828803	2.00535	0.990522	2.39702							0.940446	2.27939						
0.990988	2.39678	0.830684	2.00538	0.992356	2.39606							0.942427	2.27905						
0.992823	2.39582	0.832564	2.0054	0.994192	2.3951							0.944409	2.27871						
0.994659	2.39486	0.834445	2.00543	0.996028	2.39415							0.946392	2.27837						
0.996495	2.39391	0.836325	2.00546	0.997865	2.39321							0.948375	2.27803						
0.998333	2.39297	0.838205	2.00549	0.999704	2.39227							0.950359	2.2777						
1.00017	2.39204	0.840085	2.00552	1.00154	2.39134							0.952344	2.27737						
		0.841965	2.00554									0.954329	2.27705						
		0.843844	2.00557									0.956315	2.27673						
		0.845723	2.00559									0.958302	2.27641						
		0.847603	2.00562									0.960289	2.27609						
		0.849482	2.00564									0.962277	2.27578						
		0.851361	2.00567									0.964266	2.27547						
		0.853239	2.00569									0.966256	2.27516						
		0.855118	2.00571									0.968246	2.27485						
		0.856996	2.00574									0.970237	2.27455						
		0.858875	2.00576									0.972228	2.27425						
		0.860753	2.00578									0.974221	2.27396						
		0.862631	2.0058									0.976213	2.27367						
		0.864508	2.00582									0.978207	2.27338						
		0.866386	2.00584									0.980201	2.27309						
		0.868264	2.00586									0.982196	2.2728						
		0.870141	2.00588									0.984191	2.27252						
		0.872019	2.0059									0.986187	2.27224						
		0.873896	2.00592									0.988184	2.27196						
		0.875773	2.00594									0.990181	2.27169						
		0.87765	2.00596									0.992179	2.27142						
		0.879526	2.00598									0.994177	2.27115						
		0.881403	2.006									0.996176	2.27088						
		0.88328	2.00601									0.998176	2.27062						
		0.885156	2.00603									1.00018	2.27036						
		0.887032	2.00605																
		0.888909	2.00606																
		0.890785	2.00608																
		0.892661	2.00609																
		0.894536	2.00611																
		0.896412	2.00612																
		0.898288	2.00614																
		0.900163	2.00615																
		0.902039	2.00617																
		0.903914	2.00618																
		0.905789	2.00619																
		0.907664	2.00621																
		0.909539	2.00622																
		0.911414	2.00623																
		0.913289	2.00624																
		0.915164	2.00626																
		0.917039	2.00627																
		0.918913	2.00628																
		0.920788	2.00629																
		0.922662	2.0063																
		0.924536	2.00631																
		0.92641	2.00632																
		0.928285	2.00633																
		0.930159	2.00634																
		0.932032	2.00635																
		0.933906	2.00636																
		0.93578	2.00637																
		0.937654	2.00638																
		0.939527	2.00639																
		0.941401	2.0064																
		0.943275	2.00641																
		0.945148	2.00642																
		0.947021	2.00643																
		0.948895	2.00644																
		0.950768	2.00644																
		0.952641	2.00645																
		0.954514	2.00646																
		0.956387	2.00647																
		0.95826	2.00647																
		0.960133	2.00648																
		0.962006	2.00649																
		0.963878	2.0065																
		0.965751	2.0065																
		0.967624	2.00651																
		0.969496	2.00652																
		0.971369	2.00652																
		0.973241	2.00653																
		0.975113	2.00653																
		0.976986	2.00654																
		0.978858	2.00655																
		0.98073	2.00655																
		0.982603	2.00656																
		0.984475	2.00656																
		0.986347	2.00657																
		0.988219	2.00657																
		0.990091	2.00658																
		0.991963	2.00658																
		0.993835	2.00659																
		0.995706	2.00659																
		0.997578	2.0066																
		0.99945	2.0066																
		1.00132	2.0066																
