Sym0		Asym0		Sym1		Sym2		Sym3		Sym4		Asym1		Asym2		Asym3		Asym4	
456  Points		542  Points		456  Points		405  Points		369  Points		279  Points		480  Points		421  Points		370  Points		279  Points	
Freq (MHz)	Vph (m/ms)	Freq (MHz)	Vph (m/ms)	Freq (MHz)	Vph (m/ms)	Freq (MHz)	Vph (m/ms)	Freq (MHz)	Vph (m/ms)	Freq (MHz)	Vph (m/ms)	Freq (MHz)	Vph (m/ms)	Freq (MHz)	Vph (m/ms)	Freq (MHz)	Vph (m/ms)	Freq (MHz)	Vph (m/ms)
0.279506	306.465	6.77908e-006	0.0160953	0.279507	365.733	0.35654	4175.29	0.559017	1802.96	0.838526	2296.54	0.139755	1184.76	0.419264	707.947	0.69877	1604.11	0.713081	4677.38
0.279499	151.595	6.97572e-005	0.0515621	0.279501	164.806	0.356557	350.566	0.559024	450.19	0.83853	646.604	0.139796	133.183	0.419274	275.129	0.698759	511.047	0.713098	657.749
0.279487	100.701	0.000198615	0.0869373	0.279489	106.366	0.356601	182.987	0.55904	257.214	0.838538	376.276	0.139904	70.6105	0.419293	170.749	0.698737	303.93	0.71314	353.768
0.279471	75.3876	0.000393175	0.122246	0.279474	78.5188	0.356673	123.824	0.559064	180.045	0.83855	265.346	0.140078	48.0863	0.41932	123.791	0.698704	216.27	0.713208	241.967
0.27945	60.2416	0.000652677	0.157349	0.279453	62.2249	0.356773	93.5877	0.559096	138.499	0.838567	204.933	0.140317	36.4958	0.419355	97.0954	0.698661	167.851	0.713301	183.877
0.279424	50.1613	0.000976552	0.192248	0.279429	51.5293	0.3569	75.2339	0.559137	112.536	0.838588	166.93	0.140621	29.4405	0.4194	79.875	0.698607	137.141	0.713418	148.291
0.279394	42.9692	0.00136393	0.226893	0.279399	43.9694	0.357055	62.9109	0.559186	94.7737	0.838613	140.818	0.140988	24.6995	0.419453	67.8463	0.698544	115.926	0.713559	124.257
0.27936	37.5793	0.00181364	0.261217	0.279366	38.3423	0.357236	54.0673	0.559244	81.8575	0.838642	121.772	0.141419	21.2986	0.419514	58.9695	0.698473	100.392	0.713723	106.936
0.279323	33.3895	0.00232454	0.295189	0.279329	33.9907	0.357445	47.4131	0.55931	72.0425	0.838676	107.266	0.141911	18.7428	0.419584	52.1496	0.698394	88.5256	0.71391	93.8613
0.279281	30.039	0.00289545	0.328787	0.279288	30.525	0.357681	42.226	0.559385	64.3318	0.838714	95.8488	0.142464	16.7541	0.419663	46.7462	0.698307	79.1654	0.714118	83.6429
0.279236	27.2986	0.00352481	0.36196	0.279244	27.6995	0.357944	38.0696	0.559468	58.1145	0.838756	86.6298	0.143076	15.1646	0.41975	42.3598	0.698214	71.5929	0.714347	75.4374
0.279189	25.0154	0.00421119	0.394682	0.279196	25.3518	0.358233	34.6653	0.55956	52.9951	0.838803	79.0297	0.143746	13.8662	0.419846	38.7281	0.698116	65.3406	0.714597	68.704
0.279138	23.0838	0.00495304	0.426931	0.279146	23.3701	0.358547	31.8264	0.55966	48.7067	0.838854	72.6565	0.144472	12.787	0.419951	35.672	0.698013	60.0909	0.714865	63.0793
0.279085	21.4284	0.00574866	0.458674	0.279093	21.675	0.358888	29.4233	0.559768	45.0623	0.838909	67.2355	0.145252	11.8767	0.420064	33.0648	0.697906	55.6205	0.715152	58.3108
0.279029	19.9938	0.00659638	0.489894	0.279038	20.2085	0.359254	27.3632	0.559885	41.9271	0.838968	62.5682	0.146085	11.0993	0.420186	30.8146	0.697796	51.7678	0.715457	54.2169
0.278972	18.7387	0.00749442	0.520568	0.278981	18.9272	0.359645	25.5778	0.56001	39.2014	0.839032	58.5076	0.146969	10.4282	0.420317	28.8527	0.697684	48.4132	0.715778	50.6642
0.278913	17.6314	0.00844109	0.550686	0.278923	17.7983	0.360061	24.0161	0.560144	36.81	0.8391	54.9428	0.147903	9.84372	0.420456	27.1273	0.69757	45.4658	0.716115	47.5522
0.278854	16.6471	0.00943465	0.580237	0.278863	16.7959	0.360502	22.6386	0.560286	34.6951	0.839172	51.7881	0.148884	9.33044	0.420603	25.5981	0.697455	42.8559	0.716469	44.8037
0.278793	15.7666	0.0104733	0.609206	0.278803	15.9	0.360966	21.4148	0.560437	32.8114	0.839248	48.9768	0.149911	8.8765	0.42076	24.2335	0.697339	40.5285	0.716837	42.3588
0.278732	14.9742	0.0115553	0.637588	0.278742	15.0945	0.361454	20.3206	0.560596	31.123	0.839329	46.4556	0.150981	8.47251	0.420925	23.0084	0.697223	38.4403	0.717219	40.1698
0.278672	14.2573	0.0126789	0.66538	0.278681	14.3664	0.361965	19.3365	0.560764	29.6012	0.839414	44.182	0.151949	8.15525	0.421098	21.9024	0.697108	36.5562	0.717615	38.1987
0.278612	13.6057	0.0138423	0.692575	0.278621	13.705	0.362499	18.4469	0.56094	28.2225	0.839503	42.1211	0.152799	7.90712	0.421281	20.8991	0.696995	34.8476	0.718024	36.4146
0.278552	13.0108	0.0150442	0.719181	0.278562	13.1017	0.363055	17.6389	0.561124	26.9676	0.839597	40.2445	0.153518	7.71581	0.421471	19.9849	0.696882	33.2912	0.718446	34.792
0.278494	12.4656	0.0162826	0.745194	0.278503	12.549	0.363634	16.9019	0.561317	25.8207	0.839695	38.5285	0.154096	7.57266	0.421671	19.1484	0.696772	31.8676	0.71888	33.3101
0.278438	11.9641	0.0175561	0.770617	0.278447	12.041	0.364234	16.2271	0.561518	24.7684	0.839797	36.9535	0.154528	7.47168	0.421879	18.3802	0.696664	30.5604	0.719326	31.9514
0.278384	11.5014	0.0188632	0.795459	0.278392	11.5724	0.364855	15.6069	0.561728	23.7996	0.839903	35.5026	0.154806	7.40886	0.422096	17.6723	0.696559	29.356	0.719784	30.7012
0.278332	11.073	0.0202022	0.81972	0.27834	11.1388	0.365497	15.0352	0.561946	22.9047	0.840014	34.1619	0.15521	7.32092	0.422321	17.0179	0.696457	28.2428	0.720253	29.547
0.278284	10.6754	0.0215719	0.843413	0.278291	10.7365	0.366159	14.5064	0.562173	22.0756	0.840129	32.9193	0.155653	7.22838	0.422555	16.4112	0.696359	27.2107	0.720733	28.4782
0.278238	10.3053	0.0229709	0.866543	0.278245	10.3623	0.366841	14.0161	0.562408	21.3053	0.840248	31.7643	0.156263	7.10735	0.422798	15.8472	0.696264	26.2513	0.721223	27.4857
0.278197	9.96008	0.0243978	0.889121	0.278203	10.0133	0.367542	13.5602	0.562651	20.5879	0.840372	30.6881	0.157047	6.96176	0.423049	15.3215	0.696173	25.3571	0.721723	26.5617
0.278159	9.63727	0.0258513	0.911155	0.278165	9.68707	0.368263	13.1352	0.562903	19.9181	0.8405	29.6829	0.158011	6.79601	0.423309	14.8305	0.696086	24.5218	0.722234	25.6992
0.278127	9.33481	0.0273302	0.932653	0.278132	9.38151	0.369002	12.7383	0.563164	19.2913	0.840632	28.7418	0.159166	6.61468	0.423577	14.3708	0.696003	23.7397	0.722754	24.8925
0.278099	9.05085	0.0288334	0.95363	0.278103	9.09472	0.36976	12.3667	0.563432	18.7036	0.840768	27.859	0.16052	6.4223	0.423855	13.9396	0.695925	23.0059	0.723284	24.1363
0.278076	8.78377	0.0303598	0.974096	0.278079	8.82507	0.370535	12.0181	0.56371	18.1514	0.840909	27.0293	0.161905	6.24491	0.42414	13.5343	0.695852	22.3162	0.723823	23.4259
0.278059	8.53213	0.0319082	0.994063	0.278062	8.57107	0.371328	11.6906	0.563995	17.6316	0.841054	26.2479	0.163318	6.0809	0.424435	13.1527	0.695784	21.6666	0.724371	22.7574
0.278049	8.29467	0.0334777	1.01354	0.27805	8.33144	0.372138	11.3822	0.564289	17.1415	0.841203	25.5108	0.164759	5.92887	0.424738	12.7927	0.695721	21.0538	0.724928	22.1273
0.278044	8.07023	0.0350673	1.03254	0.278045	8.13342	0.372964	11.0914	0.564592	16.6787	0.841357	24.8143	0.166226	5.78763	0.42505	12.4527	0.695663	20.4747	0.725494	21.5322
0.278047	7.85781	0.0366761	1.05107	0.278044	7.97201	0.373807	10.8168	0.564902	16.2409	0.841515	24.1552	0.167719	5.6561	0.42537	12.1309	0.69561	19.9268	0.726069	20.9694
0.278056	7.65648	0.0383031	1.06915	0.278047	7.84338	0.374666	10.557	0.565222	15.8261	0.841677	23.5306	0.169235	5.53337	0.425699	11.8261	0.695563	19.4074	0.726653	20.4364
0.278073	7.46543	0.0399476	1.08679	0.278051	7.74462	0.37554	10.311	0.565549	15.4327	0.841843	22.9377	0.170774	5.41862	0.426036	11.5368	0.695521	18.9146	0.727244	19.9307
0.278098	7.2839	0.0416088	1.104	0.278055	7.67362	0.37643	10.0776	0.565885	15.059	0.842014	22.3744	0.172334	5.31113	0.426383	11.2621	0.695485	18.4462	0.727844	19.4505
0.278131	7.11123	0.0432858	1.12079	0.278058	7.62887	0.377335	9.85597	0.56623	14.7036	0.842189	21.8384	0.173916	5.21026	0.426738	11.0007	0.695455	18.0006	0.728452	18.9939
0.278172	6.9468	0.044978	1.13718	0.278063	7.56546	0.378254	9.64525	0.566583	14.3652	0.842368	21.3278	0.175517	5.11544	0.427101	10.7519	0.69543	17.5761	0.729068	18.5591
0.278223	6.79007	0.0466847	1.15316	0.27807	7.49776	0.379187	9.44466	0.566944	14.0427	0.842552	20.8408	0.177137	5.02617	0.427473	10.5146	0.695412	17.1713	0.729692	18.1446
0.278282	6.64053	0.0484053	1.16876	0.27808	7.40765	0.380134	9.25351	0.567313	13.7349	0.84274	20.3759	0.178775	4.942	0.427854	10.2882	0.695399	16.7848	0.730324	17.7491
0.278351	6.49771	0.0501391	1.18399	0.278096	7.29683	0.381095	9.07117	0.567691	13.4408	0.842932	19.9315	0.18043	4.86252	0.428244	10.0719	0.695393	16.4155	0.730964	17.3713
0.278429	6.36118	0.0518854	1.19885	0.278119	7.16728	0.382069	8.89704	0.568078	13.1597	0.843129	19.5064	0.182101	4.78736	0.428642	9.86513	0.695393	16.0623	0.731611	17.0101
0.278517	6.23058	0.0536439	1.21337	0.278152	7.02123	0.383056	8.7306	0.568473	12.8906	0.843329	19.0994	0.183788	4.7162	0.429049	9.6672	0.695399	15.724	0.732266	16.6643
0.278616	6.10553	0.0554139	1.22753	0.278199	6.86103	0.384055	8.57137	0.568876	12.6329	0.843535	18.7093	0.18549	4.64873	0.429464	9.4776	0.695411	15.3999	0.732928	16.3331
0.278725	5.98571	0.057195	1.24137	0.278254	6.70825	0.385067	8.41889	0.569287	12.3857	0.843744	18.335	0.187207	4.58469	0.429888	9.29583	0.695429	15.0889	0.733598	16.0155
0.278845	5.87081	0.0589866	1.25488	0.278318	6.5624	0.386091	8.27277	0.569707	12.1486	0.843958	17.9757	0.188936	4.52383	0.430321	9.12142	0.695454	14.7905	0.734275	15.7107
0.278975	5.76057	0.0607883	1.26807	0.278392	6.42304	0.386993	8.15031	0.570136	11.9209	0.844176	17.6305	0.190679	4.46593	0.430762	8.95394	0.695485	14.5038	0.73496	15.418
0.279118	5.65471	0.0625996	1.28096	0.278476	6.28977	0.387769	8.04932	0.570572	11.7021	0.844398	17.2985	0.192434	4.41078	0.431212	8.79301	0.695523	14.2281	0.735651	15.1367
0.279271	5.55301	0.0644202	1.29355	0.278569	6.16221	0.388415	7.96807	0.571017	11.4916	0.844625	16.9791	0.194201	4.35821	0.431671	8.63825	0.695567	13.9629	0.73635	14.8661
0.279436	5.45523	0.0662496	1.30586	0.278674	6.04003	0.388929	7.90522	0.571471	11.2891	0.844855	16.6715	0.195979	4.30804	0.432138	8.48932	0.695618	13.7075	0.737056	14.6056
0.279614	5.36118	0.0680875	1.31788	0.278788	5.92291	0.389309	7.85978	0.571933	11.094	0.845091	16.3751	0.197768	4.26011	0.432614	8.34592	0.695675	13.4615	0.737769	14.3547
0.279803	5.27066	0.0699335	1.32963	0.278914	5.81057	0.389553	7.83103	0.572403	10.906	0.84533	16.0893	0.199567	4.21429	0.433036	8.22523	0.695739	13.2243	0.738488	14.1129
0.280005	5.18349	0.0717873	1.34112	0.279051	5.70273	0.389904	7.79016	0.572881	10.7248	0.845574	15.8135	0.201376	4.17044	0.433401	8.12534	0.695809	12.9955	0.739215	13.8796
0.28022	5.09951	0.0736485	1.35235	0.279199	5.59915	0.390287	7.74631	0.573368	10.5499	0.845822	15.5472	0.203195	4.12844	0.433707	8.04474	0.695886	12.7747	0.739949	13.6545
0.280448	5.01856	0.0755168	1.36334	0.279359	5.4996	0.390811	7.68765	0.573863	10.381	0.846075	15.29	0.205022	4.08817	0.43395	7.98226	0.695969	12.5614	0.740689	13.4372
0.280688	4.9405	0.077392	1.37408	0.279531	5.40387	0.391476	7.61501	0.574367	10.2179	0.846331	15.0414	0.206858	4.04955	0.434131	7.937	0.69606	12.3552	0.741436	13.2271
0.280942	4.86519	0.0792737	1.38458	0.279715	5.31175	0.392286	7.5294	0.574879	10.0603	0.846592	14.801	0.208702	4.01246	0.434247	7.90833	0.696157	12.1559	0.74219	13.0241
0.28121	4.7925	0.0811618	1.39486	0.279911	5.22307	0.393244	7.43196	0.575399	9.90784	0.846858	14.5683	0.210554	3.97683	0.434415	7.86753	0.69626	11.9631	0.74295	12.8277
0.281491	4.72231	0.0830558	1.40492	0.28012	5.13764	0.394352	7.32394	0.575927	9.76035	0.847128	14.343	0.212413	3.94257	0.434598	7.8237	0.69637	11.7765	0.743717	12.6377
0.281786	4.65451	0.0849557	1.41476	0.280342	5.05532	0.39547	7.21978	0.576464	9.61759	0.847402	14.1249	0.214279	3.9096	0.434849	7.76496	0.696487	11.5957	0.744491	12.4537
0.282096	4.58899	0.0868611	1.42439	0.280576	4.97595	0.396598	7.11928	0.57701	9.47934	0.84768	13.9134	0.216152	3.87786	0.43517	7.69207	0.696611	11.4206	0.745271	12.2754
0.282419	4.52567	0.0887719	1.43382	0.280824	4.8994	0.397735	7.02225	0.577563	9.34539	0.847963	13.7084	0.218032	3.84727	0.435562	7.60595	0.696742	11.2509	0.746058	12.1026
0.282757	4.46443	0.0906877	1.44304	0.281085	4.82552	0.398882	6.92852	0.578125	9.21555	0.84825	13.5096	0.219918	3.81779	0.436028	7.50765	0.696879	11.0864	0.746851	11.9351
0.28311	4.4052	0.0926085	1.45208	0.28136	4.75419	0.400037	6.83793	0.578695	9.08964	0.848541	13.3166	0.22181	3.78934	0.436571	7.39831	0.697023	10.9267	0.74765	11.7726
0.283478	4.34789	0.094534	1.46093	0.281649	4.68531	0.401201	6.75033	0.579273	8.96749	0.848837	13.1293	0.223707	3.76188	0.437122	7.29252	0.697174	10.7717	0.748456	11.6149
0.283861	4.29243	0.096464	1.4696	0.281952	4.61876	0.402374	6.66557	0.57986	8.84895	0.849136	12.9474	0.22561	3.73536	0.437682	7.1901	0.697331	10.6213	0.749268	11.4618
0.28426	4.23874	0.0983983	1.47808	0.282269	4.55444	0.403556	6.58353	0.580455	8.73385	0.849441	12.7706	0.227519	3.70972	0.438251	7.09092	0.697496	10.4751	0.750087	11.313
0.284674	4.18674	0.100337	1.4864	0.282601	4.49226	0.404745	6.50408	0.581058	8.62205	0.849749	12.5987	0.229432	3.68494	0.438829	6.99482	0.697667	10.3331	0.750911	11.1685
0.285103	4.13638	0.102279	1.49455	0.282947	4.43212	0.405943	6.4271	0.58167	8.51343	0.850062	12.4317	0.231349	3.66096	0.439415	6.90167	0.697845	10.1951	0.751742	11.0281
0.285549	4.08759	0.104226	1.50254	0.283308	4.37394	0.407148	6.35248	0.58221	8.42126	0.85038	12.2691	0.233272	3.63774	0.44001	6.81134	0.698029	10.0608	0.752579	10.8915
0.286011	4.04032	0.106176	1.51036	0.283684	4.31764	0.408362	6.28012	0.582675	8.34445	0.850701	12.111	0.235198	3.61526	0.440614	6.72371	0.698221	9.93022	0.753422	10.7586
0.286427	4.00031	0.10813	1.51804	0.284075	4.26315	0.409582	6.20991	0.583063	8.28212	0.851027	11.957	0.237129	3.59347	0.441226	6.63867	0.698419	9.80314	0.754271	10.6293
0.286791	3.96705	0.110087	1.52556	0.284482	4.21038	0.410811	6.14178	0.583372	8.23359	0.851357	11.8071	0.239063	3.57235	0.441847	6.55611	0.698624	9.67944	0.755127	10.5035
0.287099	3.94013	0.112047	1.53293	0.284904	4.15928	0.412046	6.07562	0.5836	8.19831	0.851692	11.661	0.241002	3.55186	0.442477	6.47593	0.698836	9.55898	0.755988	10.3809
0.287348	3.91919	0.114011	1.54016	0.285343	4.10978	0.413288	6.01135	0.583747	8.17591	0.852031	11.5187	0.242944	3.53198	0.443116	6.39803	0.699055	9.44165	0.756855	10.2616
0.287533	3.904	0.115724	1.54635	0.285797	4.06182	0.414538	5.94891	0.583958	8.14396	0.852374	11.38	0.244889	3.51268	0.443763	6.32233	0.699281	9.32732	0.757728	10.1452
0.287652	3.89436	0.117187	1.55155	0.286268	4.01534	0.415794	5.8882	0.584189	8.10955	0.852722	11.2448	0.246837	3.49393	0.444419	6.24873	0.699513	9.21589	0.758608	10.0319
0.287826	3.88063	0.118398	1.55579	0.286755	3.97028	0.417056	5.82917	0.584506	8.06328	0.853074	11.1129	0.248788	3.47572	0.445084	6.17715	0.699752	9.10725	0.759493	9.92134
0.288017	3.86586	0.119356	1.5591	0.287259	3.92661	0.418325	5.77175	0.584908	8.00563	0.85343	10.9842	0.250743	3.45801	0.445757	6.10752	0.699998	9.0013	0.760383	9.81353
0.288279	3.84602	0.12006	1.56152	0.28778	3.88426	0.419601	5.71587	0.585399	7.93715	0.85379	10.8587	0.2527	3.44079	0.446439	6.03977	0.700251	8.89795	0.76128	9.70837
0.288618	3.82136	0.120512	1.56306	0.288318	3.84319	0.420882	5.66147	0.58598	7.85853	0.854155	10.7361	0.254659	3.42403	0.44713	5.97382	0.70051	8.7971	0.762182	9.60574
0.289036	3.79215	0.121161	1.56526	0.288873	3.80336	0.42217	5.6085	0.586656	7.7705	0.854525	10.6164	0.256621	3.40772	0.44783	5.9096	0.700776	8.69867	0.763091	9.50557
0.289539	3.75871	0.121866	1.56764	0.289446	3.76473	0.423463	5.5569	0.587339	7.68471	0.854898	10.4995	0.258586	3.39184	0.448538	5.84706	0.701014	8.61479	0.764004	9.40777
0.290133	3.72141	0.122826	1.57085	0.290038	3.72725	0.424762	5.50663	0.58803	7.6011	0.855276	10.3853	0.260552	3.37638	0.449255	5.78614	0.701221	8.54466	0.764924	9.31226
0.290745	3.68522	0.124042	1.57486	0.290647	3.69089	0.426067	5.45762	0.58873	7.51958	0.855659	10.2737	0.262521	3.3613	0.449981	5.72677	0.701394	8.48758	0.765849	9.21896
0.291376	3.65012	0.125513	1.57966	0.291275	3.65561	0.427377	5.40984	0.589438	7.44009	0.856045	10.1647	0.264491	3.34661	0.450716	5.6689	0.701533	8.44303	0.76678	9.12779
0.292026	3.61605	0.12724	1.5852	0.291922	3.62139	0.428693	5.36324	0.590154	7.36254	0.856436	10.058	0.266464	3.33228	0.451459	5.61248	0.701637	8.41059	0.767716	9.03869
0.292695	3.583	0.129224	1.59144	0.292588	3.58817	0.430014	5.31779	0.590879	7.28688	0.856832	9.95377	0.268438	3.31831	0.452212	5.55746	0.701703	8.38997	0.768658	8.95158
0.293383	3.55092	0.13121	1.59758	0.293273	3.55595	0.43134	5.27342	0.591611	7.21304	0.857231	9.85179	0.270413	3.30467	0.452972	5.50379	0.7018	8.36052	0.769606	8.86641
0.294091	3.5198	0.133199	1.6036	0.293978	3.52468	0.432671	5.23012	0.592352	7.14095	0.857635	9.75201	0.27239	3.29136	0.453742	5.45143	0.701905	8.32876	0.770558	8.78312
0.29482	3.48961	0.13519	1.60951	0.294703	3.49434	0.434007	5.18785	0.593101	7.07057	0.858044	9.65438	0.274369	3.27835	0.454521	5.40034	0.70205	8.28599	0.771393	8.71201
0.295569	3.46031	0.137182	1.61532	0.295448	3.4649	0.435348	5.14656	0.593858	7.00182	0.858456	9.55881	0.276349	3.26566	0.455308	5.35046	0.702236	8.23257	0.772108	8.65245
0.296338	3.43189	0.139177	1.62102	0.296215	3.43634	0.436693	5.10622	0.594623	6.93467	0.858874	9.46526	0.278329	3.25325	0.456104	5.30177	0.702463	8.16895	0.772702	8.60392
0.297129	3.40432	0.141173	1.62662	0.297002	3.40863	0.438043	5.06681	0.595397	6.86905	0.859295	9.37366	0.280311	3.24112	0.456909	5.25422	0.702735	8.09568	0.773172	8.56599
0.297942	3.37757	0.143171	1.63212	0.297812	3.38176	0.439398	5.02829	0.596178	6.80492	0.859721	9.28395	0.282294	3.22926	0.457723	5.20778	0.703054	8.01334	0.773519	8.53836
0.298777	3.35164	0.145171	1.63753	0.298643	3.3557	0.440757	4.99063	0.596968	6.74223	0.860151	9.19607	0.284278	3.21766	0.458545	5.16242	0.703379	7.9328	0.773741	8.52078
0.299634	3.32648	0.147173	1.64284	0.299496	3.33042	0.44212	4.9538	0.597765	6.68094	0.860586	9.10997	0.286263	3.20631	0.459376	5.11809	0.70371	7.85401	0.774062	8.49567
0.300514	3.3021	0.149176	1.64806	0.300373	3.30592	0.443487	4.91779	0.598571	6.621	0.861024	9.0256	0.288248	3.1952	0.460216	5.07477	0.704049	7.77692	0.77441	8.46857
0.301418	3.27847	0.15118	1.65319	0.301273	3.28217	0.444859	4.88255	0.599385	6.56237	0.861468	8.94291	0.290234	3.18433	0.461065	5.03243	0.704394	7.70148	0.774885	8.43204
0.302346	3.25557	0.153186	1.65823	0.302197	3.25915	0.446234	4.84807	0.600207	6.50502	0.861858	8.87218	0.292221	3.17368	0.461923	4.99104	0.704746	7.62762	0.775488	8.38637
0.303298	3.23338	0.155194	1.66319	0.303145	3.23685	0.447614	4.81433	0.601037	6.44889	0.862193	8.81283	0.294208	3.16325	0.462789	4.95056	0.705105	7.55532	0.77622	8.33192
0.304275	3.2119	0.157202	1.66806	0.304118	3.21526	0.448997	4.78129	0.601875	6.39397	0.862471	8.76441	0.296195	3.15303	0.463665	4.91098	0.70547	7.48451	0.777082	8.2691
0.305277	3.1911	0.159212	1.67285	0.305117	3.19435	0.450384	4.74894	0.602722	6.3402	0.862693	8.72653	0.298183	3.14302	0.464549	4.87226	0.705842	7.41516	0.778076	8.1984
0.306306	3.17097	0.161224	1.67756	0.306141	3.17411	0.451774	4.71726	0.603576	6.28757	0.862856	8.69891	0.30017	3.1332	0.465442	4.83439	0.70622	7.34723	0.779075	8.12912
0.307361	3.15149	0.163236	1.68219	0.307192	3.15454	0.453168	4.68623	0.604438	6.23602	0.862961	8.68133	0.302158	3.12358	0.466344	4.79733	0.706606	7.28066	0.780079	8.06124
0.308444	3.13266	0.165249	1.68674	0.30827	3.13561	0.454566	4.65582	0.605308	6.18554	0.863113	8.65619	0.304146	3.11413	0.467255	4.76107	0.706997	7.21543	0.781089	7.99469
0.309554	3.11447	0.167264	1.69122	0.309376	3.11731	0.455967	4.62603	0.606186	6.1361	0.863278	8.62905	0.306134	3.10487	0.468174	4.72558	0.707396	7.1515	0.782104	7.92946
0.310692	3.09689	0.169279	1.69563	0.310509	3.09963	0.457371	4.59682	0.607073	6.08766	0.863503	8.59244	0.308122	3.09578	0.469103	4.69084	0.707801	7.08882	0.783123	7.8655
0.311859	3.07992	0.171296	1.69996	0.311672	3.08257	0.458779	4.56819	0.607967	6.04019	0.86379	8.54661	0.31011	3.08685	0.47004	4.65682	0.708213	7.02737	0.784148	7.80278
0.313055	3.06354	0.173313	1.70422	0.312863	3.0661	0.460189	4.54012	0.608869	5.99367	0.864138	8.49191	0.312098	3.07809	0.470986	4.62352	0.708631	6.96711	0.785178	7.74126
0.314281	3.04775	0.175332	1.70842	0.314084	3.05021	0.461603	4.51259	0.609779	5.94808	0.86455	8.42871	0.314085	3.06949	0.471941	4.59091	0.709056	6.90801	0.786213	7.68091
0.315537	3.03253	0.177351	1.71255	0.315335	3.03491	0.46302	4.48558	0.610697	5.90338	0.865027	8.35744	0.316072	3.06103	0.472905	4.55896	0.709487	6.85004	0.787253	7.62169
0.316823	3.01787	0.179371	1.71661	0.316617	3.02016	0.46444	4.45909	0.611623	5.85956	0.865508	8.28749	0.318058	3.05273	0.473878	4.52767	0.709926	6.79316	0.788297	7.56358
0.318141	3.00377	0.181392	1.7206	0.31793	3.00597	0.465862	4.43309	0.612557	5.81659	0.865994	8.21882	0.320044	3.04456	0.47486	4.49702	0.71037	6.73735	0.789347	7.50655
0.31949	2.9902	0.183413	1.72454	0.319274	2.99232	0.467288	4.40758	0.613499	5.77445	0.866484	8.15139	0.32203	3.03654	0.47585	4.46699	0.710821	6.68258	0.790401	7.45056
0.320871	2.97717	0.185435	1.72841	0.32065	2.9792	0.468716	4.38254	0.614449	5.73311	0.866978	8.08518	0.324015	3.02865	0.47685	4.43756	0.711279	6.62882	0.791461	7.39559
0.322284	2.96465	0.187458	1.73222	0.322058	2.9666	0.470146	4.35795	0.615406	5.69256	0.867477	8.02014	0.325999	3.02088	0.477858	4.40872	0.711743	6.57604	0.792525	7.34162
0.323729	2.95263	0.189481	1.73597	0.323498	2.95451	0.47158	4.33381	0.616371	5.65277	0.86798	7.95626	0.327982	3.01325	0.478875	4.38045	0.712214	6.52423	0.793594	7.28862
0.325206	2.94111	0.191505	1.73967	0.32497	2.94291	0.473016	4.3101	0.617345	5.61373	0.868487	7.8935	0.329965	3.00574	0.479902	4.35274	0.712691	6.47335	0.794667	7.23655
0.326716	2.93007	0.19353	1.7433	0.326474	2.93179	0.474454	4.28681	0.618326	5.57541	0.868999	7.83183	0.331947	2.99834	0.480937	4.32558	0.713174	6.42338	0.795746	7.18541
0.328257	2.91951	0.195555	1.74688	0.328011	2.92115	0.475895	4.26394	0.619314	5.5378	0.869515	7.77123	0.333928	2.99106	0.481981	4.29894	0.713664	6.37431	0.796829	7.13516
0.329831	2.90939	0.197581	1.75041	0.329579	2.91097	0.477338	4.24146	0.620311	5.50089	0.870036	7.71167	0.335908	2.9839	0.483034	4.27283	0.714161	6.3261	0.797916	7.08578
0.331436	2.89972	0.199607	1.75388	0.331179	2.90123	0.478784	4.21937	0.621315	5.46464	0.870561	7.65312	0.337887	2.97684	0.484095	4.24721	0.714664	6.27873	0.799009	7.03726
0.333073	2.89048	0.201633	1.7573	0.332811	2.89192	0.480231	4.19767	0.622327	5.42905	0.87109	7.59556	0.339865	2.96989	0.485166	4.2221	0.715173	6.2322	0.800105	6.98956
0.334741	2.88166	0.20366	1.76067	0.334474	2.88303	0.481681	4.17633	0.623347	5.39411	0.871624	7.53897	0.341842	2.96304	0.486246	4.19746	0.715689	6.18646	0.801207	6.94268
0.33644	2.87323	0.205687	1.76399	0.336168	2.87454	0.483134	4.15535	0.624374	5.35979	0.872162	7.48332	0.343817	2.95629	0.487334	4.17329	0.716211	6.14151	0.802313	6.89658
0.338168	2.8652	0.207715	1.76726	0.337892	2.86645	0.484588	4.13473	0.62541	5.32607	0.872704	7.42859	0.345792	2.94964	0.488432	4.14958	0.716739	6.09733	0.803423	6.85126
0.339926	2.85754	0.209743	1.77048	0.339645	2.85873	0.486044	4.11444	0.626452	5.29296	0.873251	7.37476	0.347765	2.94308	0.489538	4.12632	0.717274	6.0539	0.804538	6.80669
0.341713	2.85023	0.211771	1.77365	0.341428	2.85137	0.487502	4.0945	0.627503	5.26042	0.873802	7.3218	0.349737	2.93661	0.490654	4.1035	0.717816	6.0112	0.805658	6.76285
0.343528	2.84327	0.2138	1.77677	0.343238	2.84436	0.488963	4.07487	0.628561	5.22846	0.874358	7.2697	0.351707	2.93023	0.491778	4.0811	0.718363	5.96921	0.806782	6.71973
0.34537	2.83665	0.215828	1.77985	0.345076	2.83768	0.490425	4.05557	0.629626	5.19704	0.874918	7.21844	0.353676	2.92394	0.492911	4.05912	0.718917	5.92792	0.80791	6.67731
0.347238	2.83033	0.217857	1.78288	0.34694	2.83131	0.491889	4.03657	0.6307	5.16617	0.875482	7.168	0.355644	2.91773	0.494054	4.03755	0.719477	5.88731	0.809042	6.63558
0.349132	2.82432	0.219887	1.78587	0.34883	2.82526	0.493354	4.01788	0.63178	5.13583	0.876051	7.11835	0.35761	2.91161	0.495205	4.01637	0.720044	5.84737	0.810179	6.59451
0.351051	2.8186	0.221916	1.78882	0.350745	2.81949	0.494822	3.99949	0.632869	5.106	0.876624	7.06949	0.359575	2.90556	0.496365	3.99559	0.720616	5.80807	0.811321	6.55409
0.352993	2.81315	0.223945	1.79172	0.352684	2.814	0.496291	3.98138	0.633964	5.07668	0.877202	7.02139	0.361537	2.89959	0.497534	3.97519	0.721196	5.76941	0.812466	6.51432
0.354959	2.80797	0.225975	1.79459	0.354645	2.80877	0.497762	3.96356	0.635068	5.04786	0.877784	6.97404	0.363499	2.8937	0.498712	3.95516	0.721781	5.73138	0.813616	6.47516
0.356946	2.80303	0.228005	1.79741	0.356629	2.80379	0.499235	3.94601	0.636178	5.01951	0.87837	6.92742	0.365458	2.88788	0.499898	3.93549	0.722372	5.69395	0.81477	6.43662
0.358954	2.79832	0.230035	1.80019	0.358634	2.79905	0.500709	3.92873	0.637296	4.99164	0.878961	6.88151	0.367416	2.88213	0.501094	3.91618	0.72297	5.65712	0.815928	6.39867
0.360982	2.79384	0.232065	1.80293	0.360659	2.79454	0.502185	3.91171	0.638422	4.96423	0.879556	6.8363	0.369373	2.87646	0.502299	3.89721	0.723574	5.62087	0.81709	6.36131
0.36303	2.78957	0.234095	1.80563	0.362704	2.79024	0.503663	3.89496	0.639555	4.93727	0.880155	6.79178	0.371327	2.87085	0.503512	3.87859	0.724184	5.58518	0.818256	6.32451
0.365096	2.7855	0.236125	1.80829	0.364767	2.78614	0.505142	3.87845	0.640695	4.91075	0.880759	6.74793	0.373279	2.8653	0.504735	3.8603	0.724801	5.55006	0.819427	6.28828
0.367179	2.78163	0.238155	1.81092	0.366847	2.78223	0.506622	3.86219	0.641843	4.88466	0.881367	6.70473	0.37523	2.85982	0.505966	3.84234	0.725423	5.51547	0.820601	6.25258
0.369279	2.77793	0.240185	1.8135	0.368944	2.7785	0.508104	3.84617	0.642997	4.859	0.88198	6.66217	0.377179	2.85441	0.507206	3.8247	0.726052	5.48142	0.82178	6.21742
0.371394	2.7744	0.242215	1.81606	0.371058	2.77494	0.509587	3.83038	0.64416	4.83375	0.882597	6.62024	0.379126	2.84905	0.508456	3.80737	0.726687	5.4479	0.822962	6.18279
0.373525	2.77103	0.244245	1.81857	0.373186	2.77155	0.511072	3.81482	0.645329	4.8089	0.883218	6.57892	0.381071	2.84376	0.509713	3.79035	0.727328	5.41488	0.824149	6.14866
0.37567	2.76781	0.246275	1.82106	0.375329	2.76831	0.512558	3.79949	0.646505	4.78445	0.883844	6.53821	0.383014	2.83852	0.51098	3.77362	0.727975	5.38236	0.825339	6.11504
0.377828	2.76473	0.248305	1.8235	0.377485	2.76521	0.514045	3.78438	0.647689	4.76039	0.884474	6.49808	0.384954	2.83334	0.512256	3.75719	0.728628	5.35034	0.826533	6.08191
0.38	2.76179	0.250335	1.82592	0.379655	2.76225	0.515534	3.76949	0.64888	4.73671	0.885109	6.45854	0.386893	2.82822	0.513541	3.74105	0.729287	5.31879	0.827732	6.04925
0.382184	2.75898	0.252364	1.8283	0.381836	2.75942	0.517024	3.7548	0.650078	4.71339	0.885747	6.41955	0.38883	2.82314	0.514834	3.72519	0.729952	5.28771	0.828934	6.01706
0.384379	2.75629	0.254394	1.83064	0.38403	2.75671	0.518516	3.74033	0.651283	4.69045	0.886391	6.38113	0.390764	2.81813	0.516136	3.7096	0.730624	5.25709	0.830139	5.98534
0.386585	2.75371	0.256423	1.83296	0.386234	2.75411	0.520008	3.72605	0.652495	4.66785	0.887039	6.34324	0.392697	2.81316	0.517447	3.69428	0.731301	5.22693	0.831349	5.95406
0.388801	2.75124	0.258453	1.83524	0.388449	2.75163	0.521502	3.71197	0.653714	4.64561	0.887691	6.30589	0.394627	2.80824	0.518767	3.67923	0.731985	5.1972	0.832563	5.92323
0.391028	2.74887	0.260482	1.83749	0.390674	2.74924	0.522997	3.69809	0.65494	4.62371	0.888347	6.26907	0.396555	2.80338	0.520096	3.66444	0.732674	5.16791	0.83378	5.89283
0.393264	2.7466	0.262511	1.83972	0.392908	2.74696	0.524493	3.6844	0.656173	4.60215	0.889008	6.23275	0.398481	2.79856	0.521433	3.64991	0.733369	5.13904	0.835001	5.86285
0.395508	2.74442	0.26454	1.84191	0.395152	2.74476	0.525991	3.67089	0.657413	4.58091	0.889673	6.19694	0.400404	2.79379	0.522779	3.63562	0.734071	5.11059	0.836225	5.83329
0.397761	2.74233	0.266568	1.84407	0.397403	2.74265	0.527489	3.65757	0.65866	4.55999	0.890343	6.16161	0.402325	2.78906	0.524134	3.62158	0.734778	5.08255	0.837453	5.80413
0.400022	2.74031	0.268597	1.8462	0.399663	2.74062	0.528989	3.64442	0.659914	4.53939	0.891017	6.12677	0.404244	2.78438	0.525498	3.60777	0.735492	5.05491	0.838685	5.77538
0.402291	2.73837	0.270625	1.84831	0.40193	2.73867	0.53049	3.63145	0.661174	4.5191	0.891695	6.09241	0.406161	2.77974	0.52687	3.5942	0.736211	5.02766	0.839921	5.74701
0.404566	2.73651	0.272653	1.85038	0.404205	2.7368	0.531992	3.61866	0.662442	4.49911	0.892378	6.05851	0.408075	2.77515	0.528251	3.58086	0.736936	5.00079	0.84116	5.71903
0.406848	2.73471	0.274681	1.85243	0.406486	2.73499	0.533495	3.60603	0.663716	4.47942	0.893066	6.02506	0.409987	2.7706	0.52964	3.56775	0.737667	4.9743	0.842402	5.69143
0.409137	2.73298	0.276708	1.85445	0.408773	2.73325	0.534999	3.59356	0.664996	4.46002	0.893757	5.99206	0.411897	2.76608	0.531038	3.55486	0.738404	4.94818	0.843648	5.66419
0.411432	2.73131	0.278736	1.85645	0.411067	2.73157	0.536505	3.58126	0.666284	4.4409	0.894453	5.9595	0.413804	2.76161	0.532445	3.54218	0.739147	4.92243	0.844898	5.63732
0.413732	2.7297	0.280762	1.85842	0.413367	2.72995	0.538011	3.56912	0.667578	4.42207	0.895154	5.92738	0.415709	2.75718	0.533861	3.52972	0.739896	4.89703	0.846151	5.6108
0.416038	2.72814	0.282789	1.86036	0.415672	2.72838	0.539519	3.55714	0.668878	4.4035	0.895858	5.89567	0.417611	2.75279	0.535284	3.51747	0.74065	4.87198	0.847407	5.58463
0.418349	2.72663	0.284815	1.86227	0.417982	2.72687	0.541027	3.5453	0.670185	4.38521	0.896568	5.86438	0.419511	2.74843	0.536717	3.50542	0.741411	4.84728	0.848667	5.5588
0.420665	2.72518	0.286841	1.86416	0.420297	2.72541	0.542537	3.53362	0.671499	4.36718	0.897281	5.8335	0.421409	2.74412	0.538158	3.49357	0.742177	4.82291	0.84993	5.5333
0.422985	2.72377	0.288867	1.86603	0.422617	2.72399	0.544048	3.52209	0.672819	4.34941	0.897999	5.80302	0.423304	2.73983	0.539607	3.48192	0.742949	4.79887	0.851196	5.50814
0.42531	2.72241	0.290892	1.86787	0.424941	2.72262	0.545559	3.5107	0.674146	4.3319	0.898722	5.77293	0.425197	2.73559	0.541065	3.47046	0.743727	4.77516	0.852466	5.48329
0.427639	2.72109	0.292917	1.86969	0.427269	2.72129	0.547072	3.49946	0.675479	4.31463	0.899448	5.74322	0.427087	2.73138	0.542531	3.45919	0.744511	4.75176	0.853739	5.45877
0.429972	2.71981	0.294942	1.87148	0.429601	2.72001	0.548586	3.48835	0.676818	4.29761	0.90018	5.7139	0.428975	2.7272	0.544005	3.44811	0.7453	4.72868	0.855015	5.43455
0.432308	2.71857	0.296966	1.87325	0.431937	2.71876	0.550101	3.47738	0.678164	4.28083	0.900915	5.68495	0.43086	2.72306	0.545488	3.43721	0.746095	4.70591	0.856295	5.41064
0.434648	2.71736	0.29899	1.875	0.434277	2.71755	0.551617	3.46655	0.679515	4.26429	0.901655	5.65636	0.432743	2.71895	0.546979	3.42649	0.746896	4.68344	0.857577	5.38704
0.436991	2.71619	0.301014	1.87672	0.436619	2.71637	0.553134	3.45585	0.680874	4.24797	0.902399	5.62814	0.434624	2.71487	0.548479	3.41594	0.747703	4.66127	0.858863	5.36372
0.439338	2.71505	0.303037	1.87842	0.438965	2.71523	0.554653	3.44528	0.682238	4.23188	0.903148	5.60027	0.436502	2.71083	0.549986	3.40557	0.748515	4.63938	0.860152	5.3407
0.441687	2.71394	0.305059	1.8801	0.441314	2.71412	0.556172	3.43484	0.683608	4.21602	0.903901	5.57274	0.438378	2.70682	0.551502	3.39537	0.749333	4.61779	0.861444	5.31795
0.444039	2.71286	0.307082	1.88176	0.443666	2.71303	0.557692	3.42452	0.684985	4.20037	0.904659	5.54556	0.440251	2.70283	0.553026	3.38533	0.750157	4.59647	0.862739	5.29549
0.446394	2.71182	0.309104	1.8834	0.446021	2.71198	0.559214	3.41433	0.686367	4.18494	0.905421	5.51871	0.442122	2.69888	0.554557	3.37546	0.750986	4.57543	0.864037	5.2733
0.448752	2.71079	0.311125	1.88502	0.448377	2.71095	0.560736	3.40426	0.687756	4.16972	0.906187	5.49219	0.443991	2.69496	0.556097	3.36574	0.751822	4.55467	0.865338	5.25138
0.451111	2.7098	0.313146	1.88661	0.450737	2.70995	0.56226	3.39432	0.68915	4.15471	0.906958	5.466	0.445857	2.69107	0.557645	3.35619	0.752662	4.53417	0.866643	5.22973
0.453473	2.70882	0.315166	1.88818	0.453098	2.70898	0.563785	3.38448	0.690551	4.13989	0.907733	5.44012	0.44772	2.68721	0.559201	3.34678	0.753509	4.51393	0.86795	5.20833
0.455837	2.70787	0.317187	1.88974	0.455462	2.70802	0.565311	3.37477	0.691957	4.12528	0.908513	5.41456	0.449582	2.68337	0.560764	3.33753	0.754361	4.49395	0.86926	5.18719
0.458203	2.70695	0.319206	1.89127	0.457827	2.70709	0.566838	3.36517	0.693369	4.11087	0.909297	5.38931	0.451441	2.67957	0.562336	3.32843	0.755218	4.47423	0.870573	5.16631
0.46057	2.70604	0.321225	1.89279	0.460195	2.70618	0.568366	3.35568	0.694787	4.09665	0.910085	5.36436	0.453297	2.67579	0.563915	3.31947	0.756082	4.45476	0.871889	5.14566
0.46294	2.70515	0.323244	1.89428	0.462564	2.70529	0.569896	3.3463	0.696211	4.08261	0.910878	5.33971	0.455152	2.67204	0.565502	3.31065	0.75695	4.43553	0.873207	5.12527
0.465311	2.70428	0.325262	1.89576	0.464935	2.70442	0.571426	3.33703	0.69764	4.06876	0.911675	5.31535	0.457004	2.66832	0.567097	3.30198	0.757825	4.41654	0.874529	5.1051
0.467683	2.70343	0.32728	1.89722	0.467307	2.70357	0.572958	3.32787	0.699075	4.0551	0.912477	5.29128	0.458853	2.66462	0.568699	3.29344	0.758705	4.39779	0.875853	5.08518
0.470057	2.7026	0.329297	1.89866	0.469681	2.70273	0.574491	3.31882	0.700516	4.04161	0.913283	5.26749	0.460701	2.66095	0.570309	3.28504	0.75959	4.37927	0.87718	5.06548
0.472432	2.70178	0.331314	1.90008	0.472056	2.70191	0.576026	3.30987	0.701962	4.0283	0.914093	5.24399	0.462546	2.65731	0.571926	3.27677	0.760481	4.36098	0.87851	5.04601
0.474809	2.70098	0.33333	1.90148	0.474432	2.70111	0.577561	3.30102	0.703413	4.01516	0.914908	5.22076	0.464389	2.6537	0.573551	3.26863	0.761378	4.34292	0.879843	5.02677
0.477186	2.7002	0.335346	1.90286	0.476809	2.70032	0.579098	3.29227	0.70487	4.00219	0.915727	5.1978	0.46623	2.65011	0.575183	3.26062	0.76228	4.32508	0.881178	5.00774
0.479565	2.69942	0.337361	1.90423	0.479187	2.69954	0.580636	3.28362	0.706333	3.98939	0.91655	5.1751	0.468069	2.64654	0.576822	3.25273	0.763188	4.30746	0.882516	4.98893
0.481944	2.69866	0.339375	1.90558	0.481567	2.69878	0.582175	3.27507	0.7078	3.97676	0.917378	5.15267	0.469905	2.643	0.578469	3.24497	0.764101	4.29005	0.883857	4.97033
0.484325	2.69792	0.341389	1.90691	0.483947	2.69803	0.583716	3.26662	0.709273	3.96428	0.918211	5.1305	0.471739	2.63949	0.580122	3.23732	0.765019	4.27286	0.8852	4.95193
0.486706	2.69718	0.343403	1.90823	0.486328	2.6973	0.585258	3.25826	0.710752	3.95197	0.919048	5.10858	0.473572	2.636	0.581783	3.2298	0.765943	4.25587	0.886546	4.93375
0.489087	2.69646	0.345416	1.90953	0.488709	2.69657	0.586802	3.25	0.712235	3.9398	0.919889	5.08691	0.475402	2.63253	0.583451	3.22239	0.766873	4.23909	0.887894	4.91576
0.49147	2.69575	0.347428	1.91081	0.491092	2.69586	0.588347	3.24182	0.713724	3.9278	0.920734	5.06549	0.47723	2.62909	0.585126	3.2151	0.767808	4.22251	0.889245	4.89798
0.493852	2.69504	0.34944	1.91208	0.493474	2.69515	0.589893	3.23374	0.715218	3.91594	0.921584	5.04431	0.479056	2.62568	0.586808	3.20792	0.768748	4.20613	0.890598	4.88039
0.496236	2.69435	0.351451	1.91333	0.495858	2.69446	0.591441	3.22575	0.716717	3.90423	0.922439	5.02337	0.480881	2.62228	0.588497	3.20084	0.769694	4.18995	0.891954	4.86299
0.498619	2.69367	0.353462	1.91457	0.498241	2.69377	0.592991	3.21785	0.718221	3.89267	0.923297	5.00266	0.482703	2.61892	0.590192	3.19388	0.770645	4.17396	0.893312	4.84578
0.501003	2.69299	0.355472	1.91579	0.500625	2.6931	0.594542	3.21004	0.71973	3.88124	0.924161	4.98219	0.484523	2.61557	0.591894	3.18702	0.771602	4.15816	0.894673	4.82875
0.503388	2.69232	0.357482	1.91699	0.503009	2.69243	0.596094	3.20231	0.721243	3.86996	0.925028	4.96194	0.486342	2.61225	0.593603	3.18027	0.772564	4.14254	0.896036	4.81191
0.505772	2.69166	0.35949	1.91818	0.505394	2.69177	0.597648	3.19467	0.722762	3.85882	0.9259	4.94192	0.488159	2.60895	0.595318	3.17362	0.773531	4.12711	0.897401	4.79525
0.508156	2.69101	0.361499	1.91935	0.507778	2.69111	0.599204	3.18712	0.724285	3.84781	0.926777	4.92212	0.489974	2.60568	0.59704	3.16707	0.774504	4.11186	0.898769	4.77877
0.510541	2.69036	0.363506	1.92051	0.510163	2.69046	0.600762	3.17964	0.725814	3.83694	0.927657	4.90254	0.491787	2.60243	0.598768	3.16061	0.775482	4.09679	0.900139	4.76246
0.512925	2.68972	0.365514	1.92166	0.512547	2.68982	0.602321	3.17225	0.727347	3.8262	0.928543	4.88317	0.493598	2.5992	0.600503	3.15426	0.776466	4.0819	0.901511	4.74633
0.51531	2.68909	0.36752	1.92279	0.514932	2.68919	0.603882	3.16494	0.728884	3.81559	0.929432	4.86402	0.495408	2.59599	0.602243	3.14799	0.777455	4.06717	0.902886	4.73036
0.517694	2.68846	0.369526	1.9239	0.517316	2.68856	0.605444	3.15771	0.730426	3.8051	0.930326	4.84508	0.497216	2.59281	0.60399	3.14182	0.778449	4.05262	0.904263	4.71456
0.520078	2.68783	0.371531	1.92501	0.5197	2.68793	0.607009	3.15056	0.731973	3.79474	0.931225	4.82634	0.499023	2.58965	0.605743	3.13575	0.779449	4.03824	0.905642	4.69893
0.522462	2.68721	0.373536	1.9261	0.522084	2.68731	0.608575	3.14349	0.733524	3.7845	0.932127	4.8078	0.500828	2.58651	0.607502	3.12976	0.780454	4.02402	0.907023	4.68345
0.524845	2.6866	0.37554	1.92717	0.524467	2.68669	0.610144	3.1365	0.73508	3.77439	0.933035	4.78946	0.502632	2.58339	0.609267	3.12386	0.781464	4.00997	0.908407	4.66814
0.527228	2.68598	0.377543	1.92823	0.52685	2.68608	0.611714	3.12958	0.73664	3.76439	0.933946	4.77132	0.504434	2.5803	0.611038	3.11804	0.782479	3.99607	0.909792	4.65298
0.52961	2.68538	0.379546	1.92928	0.529232	2.68547	0.613286	3.12274	0.738205	3.75451	0.934862	4.75338	0.506234	2.57723	0.612815	3.11231	0.7835	3.98234	0.91118	4.63798
0.531992	2.68477	0.381548	1.93031	0.531614	2.68487	0.61486	3.11597	0.739773	3.74474	0.935783	4.73562	0.508034	2.57418	0.614597	3.10666	0.784526	3.96876	0.91257	4.62313
0.534373	2.68417	0.383549	1.93134	0.533996	2.68426	0.616437	3.10928	0.741346	3.73509	0.936708	4.71806	0.509832	2.57115	0.616385	3.10109	0.785557	3.95533	0.913962	4.60843
0.536754	2.68356	0.38555	1.93235	0.536376	2.68366	0.618015	3.10266	0.742924	3.72555	0.937637	4.70068	0.511628	2.56814	0.618179	3.09561	0.786594	3.94206	0.915356	4.59387
0.539133	2.68296	0.38755	1.93334	0.538756	2.68306	0.619596	3.09612	0.744505	3.71612	0.938571	4.68349	0.513424	2.56516	0.619978	3.0902	0.787636	3.92894	0.916751	4.57947
0.541512	2.68237	0.38955	1.93433	0.541135	2.68246	0.621179	3.08964	0.746091	3.70679	0.939509	4.66647	0.515218	2.5622	0.621782	3.08487	0.788683	3.91596	0.918149	4.5652
0.54389	2.68177	0.391548	1.9353	0.543513	2.68186	0.622764	3.08324	0.74768	3.69757	0.940451	4.64964	0.517011	2.55926	0.623592	3.07961	0.789736	3.90313	0.919549	4.55108
0.546267	2.68117	0.393547	1.93626	0.545891	2.68127	0.624351	3.0769	0.749274	3.68846	0.941398	4.63298	0.518803	2.55634	0.625407	3.07443	0.790793	3.89044	0.920951	4.5371
0.548644	2.68058	0.395544	1.9372	0.548267	2.68067	0.625941	3.07064	0.750872	3.67945	0.94235	4.61649	0.520594	2.55344	0.627227	3.06931	0.791856	3.8779	0.922354	4.52325
0.551019	2.67998	0.397541	1.93814	0.550642	2.68008	0.627534	3.06445	0.752473	3.67054	0.943305	4.60018	0.522384	2.55056	0.629052	3.06427	0.792924	3.86549	0.92376	4.50954
0.553392	2.67938	0.399537	1.93906	0.553016	2.67948	0.629129	3.05832	0.754078	3.66173	0.944265	4.58403	0.524173	2.54771	0.630882	3.0593	0.793998	3.85322	0.925167	4.49596
0.555765	2.67879	0.401532	1.93998	0.555389	2.67888	0.630726	3.05226	0.755688	3.65301	0.94523	4.56805	0.525961	2.54487	0.632716	3.0544	0.795076	3.84109	0.926577	4.48251
0.558136	2.67819	0.403527	1.94088	0.55776	2.67828	0.632326	3.04627	0.7573	3.6444	0.946199	4.55224	0.527748	2.54206	0.634556	3.04957	0.79616	3.82909	0.927988	4.46919
0.560506	2.67759	0.405521	1.94177	0.56013	2.67769	0.633929	3.04035	0.758917	3.63588	0.947172	4.53659	0.529534	2.53927	0.636401	3.0448	0.797249	3.81722	0.9294	4.456
0.562874	2.67699	0.407514	1.94264	0.562499	2.67709	0.635535	3.03449	0.760537	3.62745	0.94815	4.52109	0.531319	2.5365	0.63825	3.04009	0.798343	3.80549	0.930815	4.44294
0.565241	2.67639	0.409507	1.94351	0.564866	2.67648	0.637143	3.02869	0.762161	3.61911	0.949133	4.50576	0.533104	2.53375	0.640103	3.03545	0.799443	3.79388	0.932231	4.43
0.567607	2.67578	0.411499	1.94437	0.567231	2.67588	0.638754	3.02296	0.763789	3.61086	0.950119	4.49058	0.534888	2.53102	0.641962	3.03087	0.800547	3.7824	0.933649	4.41718
0.56997	2.67518	0.41349	1.94521	0.569595	2.67527	0.640369	3.0173	0.76542	3.6027	0.95111	4.47556	0.536671	2.52831	0.643824	3.02635	0.801657	3.77104	0.935069	4.40448
0.572332	2.67457	0.415481	1.94605	0.571957	2.67466	0.641986	3.0117	0.767054	3.59463	0.952106	4.46069	0.538454	2.52562	0.645691	3.02189	0.802772	3.7598	0.93649	4.3919
0.574692	2.67395	0.417471	1.94687	0.574318	2.67405	0.643607	3.00616	0.768692	3.58665	0.953106	4.44596	0.540236	2.52295	0.647562	3.01749	0.803892	3.74869	0.937914	4.37944
0.57705	2.67333	0.41946	1.94769	0.576676	2.67343	0.64523	3.00069	0.770333	3.57875	0.95411	4.43139	0.542017	2.52031	0.649437	3.01315	0.805017	3.7377	0.939338	4.3671
0.579406	2.67271	0.421448	1.94849	0.579033	2.67281	0.646857	2.99528	0.771978	3.57093	0.955119	4.41696	0.543798	2.51768	0.651316	3.00886	0.806148	3.72683	0.940765	4.35486
0.58176	2.67209	0.423436	1.94928	0.581387	2.67219	0.648488	2.98993	0.773626	3.5632	0.956132	4.40268	0.545579	2.51508	0.6532	3.00463	0.807283	3.71607	0.942192	4.34274
0.584112	2.67146	0.425423	1.95007	0.583739	2.67156	0.650121	2.98464	0.775277	3.55555	0.95715	4.38854	0.547359	2.51249	0.655087	3.00045	0.808424	3.70543	0.943622	4.33073
0.586461	2.67082	0.427409	1.95084	0.586089	2.67092	0.651759	2.97941	0.776931	3.54797	0.958172	4.37454	0.549139	2.50993	0.656978	2.99633	0.80957	3.69491	0.945053	4.31883
0.588809	2.67018	0.429395	1.9516	0.588436	2.67028	0.6534	2.97425	0.778589	3.54048	0.959198	4.36067	0.550918	2.50738	0.658873	2.99225	0.810721	3.68449	0.946485	4.30704
0.591153	2.66954	0.43138	1.95236	0.590781	2.66964	0.655045	2.96914	0.780249	3.53306	0.960229	4.34695	0.552697	2.50486	0.660771	2.98823	0.811878	3.67419	0.947919	4.29536
0.593495	2.66888	0.433364	1.9531	0.593124	2.66899	0.656693	2.96409	0.781913	3.52572	0.961265	4.33336	0.554476	2.50235	0.662673	2.98426	0.813039	3.664	0.949354	4.28377
0.595835	2.66822	0.435347	1.95383	0.595464	2.66833	0.658345	2.95911	0.783579	3.51845	0.962304	4.3199	0.556255	2.49987	0.664578	2.98034	0.814206	3.65391	0.950791	4.2723
0.598171	2.66756	0.43733	1.95456	0.597801	2.66766	0.660002	2.95418	0.785249	3.51126	0.963348	4.30658	0.558033	2.49741	0.666487	2.97646	0.815377	3.64393	0.95223	4.26092
0.600505	2.66689	0.439312	1.95528	0.600135	2.66699	0.661662	2.94932	0.786921	3.50414	0.964397	4.29338	0.559812	2.49496	0.6684	2.97263	0.816554	3.63406	0.953669	4.24965
0.602836	2.6662	0.441293	1.95598	0.602467	2.66631	0.663327	2.94451	0.788596	3.49709	0.96545	4.28032	0.56159	2.49254	0.670315	2.96885	0.817736	3.62429	0.95511	4.23847
0.605164	2.66552	0.443274	1.95668	0.604795	2.66563	0.664996	2.93976	0.790274	3.49011	0.966508	4.26738	0.563369	2.49013	0.672234	2.96511	0.818923	3.61463	0.956553	4.22739
0.607488	2.66482	0.445253	1.95737	0.60712	2.66493	0.66667	2.93507	0.791955	3.4832	0.96757	4.25456	0.565147	2.48775	0.674156	2.96142	0.820116	3.60507	0.957996	4.21641
0.60981	2.66411	0.447232	1.95805	0.609442	2.66423	0.668348	2.93044	0.793639	3.47636	0.968636	4.24187	0.566925	2.48538	0.676081	2.95777	0.821313	3.5956	0.959441	4.20553
0.612128	2.6634	0.449211	1.95872	0.61176	2.66351	0.670031	2.92586	0.795325	3.46959	0.969707	4.22931	0.568703	2.48304	0.678008	2.95416	0.822516	3.58624	0.960888	4.19474
0.614442	2.66267	0.451188	1.95939	0.614075	2.66279	0.671718	2.92134	0.797014	3.46288	0.970782	4.21686	0.570482	2.48071	0.679939	2.95059	0.823723	3.57698	0.962335	4.18404
0.616753	2.66194	0.453165	1.96004	0.616386	2.66206	0.67341	2.91689	0.798705	3.45624	0.971862	4.20454	0.57226	2.4784	0.681872	2.94707	0.824936	3.56781	0.963784	4.17343
0.619059	2.6612	0.455141	1.96069	0.618694	2.66131	0.675108	2.91248	0.800399	3.44966	0.972946	4.19233	0.574039	2.47612	0.683809	2.94358	0.826154	3.55874	0.965234	4.16292
0.621362	2.66044	0.457117	1.96132	0.620997	2.66056	0.67681	2.90814	0.802096	3.44315	0.974034	4.18024	0.575818	2.47385	0.685748	2.94014	0.827377	3.54976	0.966686	4.15249
0.623661	2.65967	0.459091	1.96195	0.623297	2.6598	0.678518	2.90385	0.803795	3.43669	0.975127	4.16826	0.577597	2.4716	0.687689	2.93673	0.828606	3.54087	0.968138	4.14215
0.625956	2.65889	0.461065	1.96257	0.625592	2.65902	0.680231	2.89962	0.805496	3.4303	0.976225	4.1564	0.579377	2.46937	0.689633	2.93336	0.829839	3.53208	0.969592	4.1319
0.628247	2.6581	0.463038	1.96319	0.627883	2.65823	0.68195	2.89545	0.8072	3.42397	0.977327	4.14465	0.581157	2.46716	0.691579	2.93003	0.831077	3.52338	0.971047	4.12173
0.630533	2.6573	0.465011	1.96379	0.63017	2.65743	0.683674	2.89133	0.808906	3.4177	0.978433	4.13301	0.582937	2.46496	0.693528	2.92673	0.832321	3.51477	0.972503	4.11165
0.632814	2.65649	0.466982	1.96439	0.632452	2.65662	0.685405	2.88727	0.810614	3.41149	0.979544	4.12148	0.584717	2.46279	0.695479	2.92347	0.83357	3.50625	0.97396	4.10166
0.635091	2.65566	0.468953	1.96498	0.63473	2.65579	0.687141	2.88327	0.812324	3.40534	0.980659	4.11006	0.586498	2.46064	0.697432	2.92024	0.834824	3.49782	0.975418	4.09174
0.637363	2.65481	0.470923	1.96556	0.637002	2.65495	0.688883	2.87932	0.814037	3.39924	0.981778	4.09875	0.58828	2.4585	0.699387	2.91705	0.836083	3.48947	0.976877	4.08191
0.639629	2.65396	0.472893	1.96614	0.63927	2.65409	0.690631	2.87544	0.815752	3.3932	0.982903	4.08754	0.590062	2.45638	0.701345	2.91389	0.837347	3.48121	0.978337	4.07216
0.641891	2.65308	0.474862	1.9667	0.641533	2.65322	0.692386	2.8716	0.817469	3.38722	0.984031	4.07644	0.591844	2.45428	0.703304	2.91077	0.838617	3.47304	0.979799	4.06249
0.644148	2.6522	0.47683	1.96726	0.64379	2.65234	0.694147	2.86783	0.819188	3.38128	0.985164	4.06544	0.593627	2.4522	0.705265	2.90767	0.839891	3.46494	0.981261	4.05289
0.646399	2.65129	0.478797	1.96781	0.646042	2.65144	0.695915	2.8641	0.820909	3.37541	0.986302	4.05455	0.59541	2.45014	0.707228	2.90461	0.841171	3.45694	0.982724	4.04338
0.648644	2.65038	0.480763	1.96836	0.648288	2.65052	0.69769	2.86044	0.822632	3.36958	0.987443	4.04376	0.597194	2.44809	0.709193	2.90157	0.842456	3.44901	0.984189	4.03394
0.650884	2.64944	0.482729	1.9689	0.650529	2.64959	0.699472	2.85683	0.824357	3.36381	0.98859	4.03306	0.598979	2.44607	0.71116	2.89857	0.843746	3.44117	0.985654	4.02458
0.653118	2.64849	0.484694	1.96943	0.652764	2.64864	0.70126	2.85328	0.826084	3.35809	0.989741	4.02247	0.600764	2.44406	0.713128	2.8956	0.845041	3.4334	0.987121	4.01529
0.655345	2.64752	0.486658	1.96995	0.654992	2.64768	0.703056	2.84978	0.827813	3.35242	0.990896	4.01197	0.60255	2.44207	0.715098	2.89265	0.846342	3.42572	0.988588	4.00608
0.657567	2.64653	0.488622	1.97047	0.657215	2.64669	0.70486	2.84635	0.829544	3.3468	0.992056	4.00157	0.604337	2.44009	0.717069	2.88974	0.847647	3.41811	0.990056	3.99693
0.659782	2.64553	0.490584	1.97098	0.659431	2.64569	0.706671	2.84296	0.831276	3.34123	0.99322	3.99127	0.606124	2.43814	0.719042	2.88685	0.848958	3.41058	0.991525	3.98787
0.661991	2.64451	0.492547	1.97148	0.661641	2.64467	0.708489	2.83963	0.83301	3.33571	0.994388	3.98106	0.607912	2.4362	0.721016	2.88398	0.850274	3.40313	0.992995	3.97887
0.664194	2.64347	0.494508	1.97198	0.663845	2.64363	0.710316	2.83636	0.834746	3.33024	0.995561	3.97094	0.609701	2.43428	0.722991	2.88115	0.851595	3.39576	0.994466	3.96994
0.666389	2.64241	0.496468	1.97247	0.666041	2.64258	0.71215	2.83315	0.836484	3.32481	0.996739	3.96092	0.61149	2.43238	0.724968	2.87834	0.852922	3.38846	0.995937	3.96108
0.668578	2.64133	0.498428	1.97295	0.668231	2.6415	0.713993	2.82999	0.838223	3.31943	0.997921	3.95099	0.613281	2.43049	0.726946	2.87555	0.854253	3.38123	0.99741	3.95229
0.67076	2.64023	0.500387	1.97343	0.670414	2.64041	0.715843	2.82688	0.839964	3.3141	0.999107	3.94115	0.615072	2.42862	0.728924	2.87279	0.85559	3.37408	0.998883	3.94357
0.672934	2.63911	0.502346	1.9739	0.67259	2.63929	0.717702	2.82384	0.841706	3.30881	1.0003	3.9314	0.616864	2.42677	0.730904	2.87006	0.856932	3.367	1.00036	3.93492
0.675102	2.63797	0.504303	1.97436	0.674759	2.63815	0.71957	2.82084	0.84345	3.30357			0.618657	2.42494	0.732885	2.86734	0.858279	3.36		
0.677262	2.63681	0.50626	1.97482	0.67692	2.637	0.721446	2.81791	0.845195	3.29837			0.620451	2.42312	0.734867	2.86466	0.859632	3.35306		
0.679415	2.63563	0.508216	1.97527	0.679074	2.63582	0.723331	2.81503	0.846942	3.29321			0.622246	2.42132	0.736849	2.86199	0.860989	3.3462		
0.68156	2.63443	0.510172	1.97572	0.68122	2.63463	0.725225	2.8122	0.84869	3.28809			0.624042	2.41954	0.738833	2.85935	0.862352	3.3394		
0.683697	2.63321	0.512126	1.97616	0.683358	2.63341	0.727128	2.80943	0.85044	3.28302			0.625838	2.41777	0.740817	2.85672	0.86372	3.33267		
0.685827	2.63197	0.51408	1.97659	0.685489	2.63217	0.729039	2.80671	0.852191	3.27799			0.627636	2.41602	0.742801	2.85412	0.865094	3.32602		
0.687949	2.63071	0.516033	1.97702	0.687612	2.63091	0.73096	2.80405	0.853943	3.273			0.629435	2.41428	0.744787	2.85154	0.866472	3.31943		
0.690063	2.62942	0.517986	1.97744	0.689728	2.62963	0.73289	2.80144	0.855697	3.26805			0.631234	2.41256	0.746772	2.84898	0.867856	3.3129		
0.692169	2.62812	0.519938	1.97785	0.691835	2.62833	0.734829	2.79888	0.857452	3.26314			0.633035	2.41086	0.748759	2.84644	0.869245	3.30645		
0.694267	2.62679	0.521889	1.97826	0.693934	2.627	0.736778	2.79638	0.859208	3.25827			0.634836	2.40917	0.750745	2.84392	0.87064	3.30006		
0.696357	2.62544	0.523839	1.97867	0.696026	2.62566	0.738736	2.79393	0.860965	3.25344			0.636639	2.4075	0.752732	2.84142	0.872039	3.29373		
0.698438	2.62407	0.525789	1.97907	0.698109	2.62429	0.740703	2.79154	0.862723	3.24865			0.638443	2.40585	0.754719	2.83894	0.873444	3.28747		
0.700512	2.62269	0.527737	1.97946	0.700184	2.62291	0.74268	2.78919	0.864483	3.24389			0.640248	2.40421	0.756707	2.83647	0.874855	3.28127		
0.702578	2.62128	0.529686	1.97985	0.702251	2.6215	0.744666	2.7869	0.866243	3.23918			0.642054	2.40258	0.758695	2.83403	0.87627	3.27513		
0.704636	2.61985	0.531633	1.98023	0.70431	2.62007	0.746662	2.78466	0.868005	3.23449			0.643861	2.40097	0.760682	2.8316	0.877691	3.26906		
0.706685	2.6184	0.53358	1.98061	0.70636	2.61863	0.748667	2.78247	0.869767	3.22985			0.645669	2.39938	0.76267	2.82918	0.879118	3.26305		
0.708726	2.61693	0.535526	1.98098	0.708403	2.61716	0.750682	2.78033	0.871531	3.22524			0.647479	2.3978	0.764658	2.82679	0.880549	3.2571		
0.71076	2.61544	0.537471	1.98135	0.710438	2.61567	0.752706	2.77824	0.873295	3.22066			0.649289	2.39624	0.766646	2.82441	0.881986	3.25121		
0.712785	2.61393	0.539416	1.98171	0.712464	2.61417	0.754739	2.7762	0.875061	3.21613			0.651101	2.39469	0.768633	2.82204	0.883429	3.24538		
0.714803	2.6124	0.541359	1.98207	0.714483	2.61264	0.756782	2.7742	0.876827	3.21162			0.652914	2.39316	0.770621	2.81969	0.884876	3.23961		
0.716812	2.61085	0.543303	1.98242	0.716494	2.6111	0.758834	2.77226	0.878595	3.20715			0.654728	2.39164	0.772608	2.81736	0.886329	3.2339		
0.718814	2.60929	0.545245	1.98277	0.718497	2.60954	0.760895	2.77036	0.880363	3.20271			0.656543	2.39014	0.774595	2.81504	0.887788	3.22825		
0.720808	2.60771	0.547187	1.98311	0.720492	2.60796	0.762966	2.76851	0.882131	3.1983			0.65836	2.38865	0.776581	2.81274	0.889251	3.22265		
0.722794	2.60611	0.549128	1.98345	0.72248	2.60637	0.765045	2.7667	0.883901	3.19393			0.660177	2.38717	0.778567	2.81045	0.890721	3.21711		
0.724773	2.6045	0.551068	1.98378	0.72446	2.60475	0.767134	2.76493	0.885671	3.18959			0.661996	2.38571	0.780553	2.80817	0.892195	3.21163		
0.726745	2.60287	0.553008	1.98411	0.726433	2.60313	0.769231	2.76321	0.887443	3.18528			0.663816	2.38427	0.782538	2.80591	0.893675	3.20621		
0.728709	2.60122	0.554947	1.98443	0.728398	2.60148	0.771337	2.76154	0.889214	3.181			0.665638	2.38284	0.784523	2.80366	0.89516	3.20084		
0.730666	2.59956	0.556885	1.98475	0.730356	2.59983	0.773452	2.7599	0.890987	3.17676			0.66746	2.38142	0.786507	2.80142	0.896651	3.19552		
0.732616	2.59789	0.558823	1.98507	0.732307	2.59815	0.775575	2.75831	0.89276	3.17254			0.669284	2.38001	0.78849	2.79919	0.898147	3.19026		
0.734559	2.5962	0.56076	1.98538	0.734251	2.59647	0.777706	2.75675	0.894534	3.16835			0.671109	2.37862	0.790472	2.79698	0.899649	3.18505		
0.736495	2.5945	0.562696	1.98568	0.736189	2.59477	0.779846	2.75524	0.896308	3.16419			0.672936	2.37725	0.792454	2.79478	0.901156	3.1799		
0.738425	2.59279	0.564632	1.98598	0.738119	2.59306	0.781993	2.75376	0.898083	3.16007			0.674763	2.37588	0.794435	2.79259	0.902669	3.1748		
0.740348	2.59107	0.566567	1.98628	0.740044	2.59134	0.784149	2.75232	0.899858	3.15597			0.676592	2.37453	0.796416	2.79041	0.904186	3.16975		
0.742265	2.58933	0.568501	1.98657	0.741962	2.58961	0.786312	2.75092	0.901634	3.1519			0.678423	2.3732	0.798395	2.78825	0.90571	3.16475		
0.744176	2.58759	0.570434	1.98686	0.743873	2.58786	0.788483	2.74955	0.903411	3.14785			0.680254	2.37187	0.800373	2.78609	0.907239	3.15981		
0.746081	2.58583	0.572367	1.98714	0.745779	2.58611	0.790661	2.74822	0.905188	3.14384			0.682087	2.37056	0.802351	2.78394	0.908773	3.15492		
0.74798	2.58407	0.5743	1.98742	0.747679	2.58435	0.792847	2.74692	0.906965	3.13985			0.683921	2.36926	0.804327	2.78181	0.910313	3.15007		
0.749873	2.5823	0.576231	1.9877	0.749573	2.58258	0.79504	2.74565	0.908743	3.13589			0.685757	2.36798	0.806302	2.77968	0.911858	3.14528		
0.751761	2.58052	0.578162	1.98797	0.751462	2.58081	0.797239	2.74442	0.910521	3.13196			0.687594	2.36671	0.808276	2.77757	0.913409	3.14054		
0.753644	2.57874	0.580092	1.98824	0.753346	2.57902	0.799446	2.74322	0.912299	3.12805			0.689432	2.36545	0.810249	2.77546	0.914965	3.13584		
0.755521	2.57695	0.582022	1.9885	0.755224	2.57723	0.801658	2.74204	0.914078	3.12417			0.691271	2.3642	0.812221	2.77336	0.916527	3.1312		
0.757394	2.57515	0.583951	1.98876	0.757097	2.57543	0.803878	2.7409	0.915858	3.12032			0.693112	2.36297	0.814191	2.77127	0.918094	3.1266		
0.759261	2.57335	0.585879	1.98902	0.758966	2.57363	0.806103	2.73978	0.917637	3.11649			0.694954	2.36175	0.81616	2.76919	0.919667	3.12205		
0.761124	2.57154	0.587807	1.98927	0.760829	2.57183	0.808335	2.7387	0.919417	3.11268			0.696797	2.36054	0.818128	2.76712	0.921245	3.11755		
0.762983	2.56973	0.589734	1.98952	0.762688	2.57002	0.810572	2.73763	0.921197	3.1089			0.698642	2.35934	0.820094	2.76506	0.922829	3.11309		
0.764837	2.56792	0.591661	1.98976	0.764543	2.56821	0.812815	2.7366	0.922978	3.10515			0.700488	2.35816	0.822059	2.76301	0.924419	3.10868		
0.766687	2.5661	0.593586	1.99	0.766394	2.56639	0.815064	2.73559	0.924759	3.10142			0.702336	2.35698	0.824023	2.76096	0.926013	3.10432		
0.768533	2.56428	0.595512	1.99024	0.768241	2.56457	0.817318	2.7346	0.926539	3.09771			0.704184	2.35582	0.825985	2.75892	0.927614	3.1		
0.770375	2.56247	0.597436	1.99048	0.770083	2.56275	0.819578	2.73364	0.928321	3.09403			0.706034	2.35467	0.827945	2.75689	0.92922	3.09573		
0.772214	2.56064	0.59936	1.99071	0.771922	2.56093	0.821842	2.7327	0.930102	3.09037			0.707886	2.35353	0.829904	2.75487	0.930831	3.0915		
0.774048	2.55882	0.601283	1.99093	0.773758	2.55911	0.824111	2.73178	0.931883	3.08673			0.709739	2.35241	0.831861	2.75285	0.932448	3.08732		
0.77588	2.557	0.603206	1.99116	0.77559	2.55729	0.826385	2.73089	0.933665	3.08312			0.711593	2.35129	0.833817	2.75084	0.93407	3.08318		
0.777708	2.55518	0.605128	1.99138	0.777418	2.55547	0.828664	2.73001	0.935447	3.07953			0.713448	2.35019	0.835771	2.74884	0.935698	3.07908		
0.779533	2.55336	0.60705	1.99159	0.779244	2.55365	0.830947	2.72916	0.937229	3.07596			0.715305	2.34909	0.837723	2.74684	0.937331	3.07503		
0.781355	2.55154	0.608971	1.99181	0.781066	2.55183	0.833234	2.72832	0.939011	3.07241			0.717163	2.34801	0.839673	2.74485	0.93897	3.07102		
0.783174	2.54973	0.610891	1.99202	0.782886	2.55001	0.835526	2.7275	0.940793	3.06889			0.719023	2.34694	0.841622	2.74287	0.940615	3.06705		
0.784991	2.54791	0.612811	1.99223	0.784703	2.5482	0.837821	2.7267	0.942576	3.06539			0.720883	2.34588	0.843569	2.74089	0.942265	3.06313		
0.786804	2.5461	0.61473	1.99243	0.786517	2.54639	0.84012	2.72592	0.944358	3.06191			0.722746	2.34483	0.845514	2.73892	0.94392	3.05924		
0.788616	2.54429	0.616648	1.99263	0.788328	2.54458	0.842423	2.72516	0.946141	3.05845			0.724609	2.34379	0.847457	2.73695	0.945581	3.0554		
0.790425	2.54248	0.618566	1.99283	0.790138	2.54277	0.84473	2.72441	0.947923	3.05501			0.726474	2.34276	0.849399	2.73499	0.947247	3.0516		
0.792231	2.54068	0.620483	1.99302	0.791945	2.54096	0.84704	2.72367	0.949706	3.05159			0.72834	2.34174	0.851338	2.73304	0.948919	3.04783		
0.794036	2.53888	0.6224	1.99321	0.79375	2.53917	0.849354	2.72295	0.951488	3.04819			0.730208	2.34074	0.853276	2.73109	0.950596	3.04411		
0.795838	2.53709	0.624316	1.9934	0.795552	2.53737	0.85167	2.72225	0.953271	3.04482			0.732076	2.33974	0.855211	2.72915	0.952279	3.04043		
0.797639	2.5353	0.626232	1.99359	0.797353	2.53558	0.85399	2.72156	0.955054	3.04146			0.733947	2.33875	0.857145	2.72721	0.953967	3.03678		
0.799438	2.53351	0.628147	1.99377	0.799152	2.53379	0.856313	2.72088	0.956837	3.03812			0.735818	2.33778	0.859077	2.72528	0.955661	3.03318		
0.801235	2.53173	0.630062	1.99395	0.80095	2.53201	0.858639	2.72022	0.958619	3.0348			0.737691	2.33681	0.861006	2.72335	0.95736	3.02961		
0.80303	2.52995	0.631976	1.99413	0.802745	2.53024	0.860967	2.71957	0.960402	3.03151			0.739565	2.33585	0.862934	2.72142	0.959065	3.02609		
0.804824	2.52819	0.633889	1.9943	0.804539	2.52847	0.863298	2.71893	0.962185	3.02823			0.741441	2.3349	0.864859	2.71951	0.960774	3.02259		
0.806616	2.52642	0.635802	1.99448	0.806332	2.5267	0.865632	2.7183	0.963968	3.02497			0.743317	2.33397	0.866783	2.71759	0.96249	3.01914		
0.808407	2.52466	0.637714	1.99465	0.808123	2.52494	0.867968	2.71769	0.965751	3.02173			0.745195	2.33304	0.868704	2.71568	0.96421	3.01573		
0.810197	2.52291	0.639626	1.99481	0.809913	2.52319	0.870306	2.71708	0.967534	3.01851			0.747075	2.33212	0.870623	2.71378	0.965936	3.01235		
0.811986	2.52117	0.641537	1.99498	0.811702	2.52144	0.872647	2.71649	0.969316	3.01531			0.748956	2.33121	0.872541	2.71188	0.967667	3.009		
0.813773	2.51943	0.643448	1.99514	0.81349	2.5197	0.87499	2.71591	0.971099	3.01212			0.750838	2.33031	0.874456	2.70998	0.969404	3.00569		
0.81556	2.5177	0.645358	1.9953	0.815276	2.51797	0.877335	2.71533	0.972882	3.00896			0.752721	2.32942	0.876368	2.70809	0.971146	3.00242		
0.817345	2.51597	0.647268	1.99545	0.817062	2.51625	0.879682	2.71477	0.974665	3.00581			0.754606	2.32854	0.878279	2.70621	0.972893	2.99918		
0.81913	2.51426	0.649177	1.99561	0.818847	2.51453	0.88203	2.71421	0.976448	3.00268			0.756492	2.32767	0.880188	2.70432	0.974646	2.99598		
0.820913	2.51255	0.651086	1.99576	0.820631	2.51282	0.884381	2.71366	0.97823	2.99957			0.758379	2.3268	0.882094	2.70245	0.976403	2.99281		
0.822696	2.51084	0.652994	1.99591	0.822414	2.51111	0.886733	2.71312	0.980013	2.99647			0.760267	2.32595	0.883999	2.70057	0.978166	2.98968		
0.824479	2.50915	0.654902	1.99605	0.824196	2.50942	0.889087	2.71259	0.981796	2.9934			0.762157	2.3251	0.885901	2.6987	0.979934	2.98658		
0.826261	2.50746	0.656809	1.9962	0.825978	2.50773	0.891442	2.71207	0.983579	2.99034			0.764048	2.32427	0.887801	2.69683	0.981707	2.98351		
0.828042	2.50578	0.658715	1.99634	0.827759	2.50605	0.893799	2.71156	0.985362	2.9873			0.765941	2.32344	0.889698	2.69497	0.983486	2.98048		
0.829822	2.50411	0.660621	1.99648	0.82954	2.50437	0.896157	2.71105	0.987144	2.98427			0.767834	2.32262	0.891594	2.69311	0.985269	2.97747		
0.831602	2.50245	0.662527	1.99662	0.83132	2.50271	0.898517	2.71055	0.988927	2.98126			0.769729	2.32181	0.893487	2.69126	0.987058	2.9745		
0.833382	2.50079	0.664432	1.99675	0.8331	2.50105	0.900877	2.71005	0.99071	2.97827			0.771625	2.321	0.895379	2.68941	0.988851	2.97157		
0.835162	2.49914	0.666337	1.99688	0.834879	2.4994	0.903239	2.70956	0.992493	2.9753			0.773523	2.32021	0.897268	2.68756	0.99065	2.96866		
0.836941	2.4975	0.668241	1.99701	0.836659	2.49776	0.905602	2.70908	0.994276	2.97234			0.775422	2.31942	0.899154	2.68572	0.992454	2.96578		
0.83872	2.49587	0.670145	1.99714	0.838437	2.49613	0.907966	2.7086	0.996059	2.9694			0.777321	2.31864	0.901039	2.68388	0.994262	2.96294		
0.840498	2.49425	0.672048	1.99727	0.840216	2.49451	0.910331	2.70813	0.997842	2.96648			0.779223	2.31787	0.902922	2.68204	0.996076	2.96012		
0.842277	2.49264	0.673951	1.99739	0.841995	2.49289	0.912697	2.70766	0.999625	2.96357			0.781125	2.31711	0.904802	2.68021	0.997894	2.95734		
0.844055	2.49103	0.675853	1.99751	0.843773	2.49128	0.915064	2.7072	1.00141	2.96068			0.783029	2.31635	0.90668	2.67838	0.999718	2.95459		
0.845833	2.48943	0.677755	1.99763	0.845551	2.48969	0.917432	2.70674					0.784933	2.31561	0.908556	2.67656	1.00155	2.95186		
0.847612	2.48784	0.679656	1.99775	0.84733	2.4881	0.9198	2.70629					0.78684	2.31487	0.91043	2.67473				
0.84939	2.48626	0.681557	1.99787	0.849108	2.48651	0.922169	2.70584					0.788747	2.31413	0.912302	2.67292				
0.851168	2.48469	0.683458	1.99798	0.850886	2.48494	0.924538	2.7054					0.790655	2.31341	0.914171	2.6711				
0.852947	2.48313	0.685358	1.9981	0.852664	2.48338	0.926908	2.70496					0.792565	2.31269	0.916039	2.66929				
0.854725	2.48158	0.687257	1.99821	0.854443	2.48182	0.929278	2.70452					0.794476	2.31198	0.917904	2.66749				
0.856504	2.48003	0.689157	1.99832	0.856222	2.48028	0.931649	2.70409					0.796388	2.31128	0.919767	2.66568				
0.858283	2.4785	0.691055	1.99842	0.858	2.47874	0.93402	2.70366					0.798301	2.31059	0.921628	2.66389				
0.860062	2.47697	0.692954	1.99853	0.859779	2.47721	0.936391	2.70324					0.800216	2.3099	0.923488	2.66209				
0.861841	2.47545	0.694852	1.99863	0.861558	2.47569	0.938762	2.70281					0.802132	2.30922	0.925345	2.6603				
0.86362	2.47394	0.696749	1.99873	0.863338	2.47418	0.941134	2.70239					0.804048	2.30854	0.9272	2.65851				
0.8654	2.47244	0.698646	1.99883	0.865118	2.47268	0.943506	2.70197					0.805966	2.30788	0.929053	2.65673				
0.86718	2.47095	0.700543	1.99893	0.866898	2.47119	0.945878	2.70156					0.807886	2.30722	0.930904	2.65495				
0.868961	2.46947	0.702439	1.99903	0.868678	2.4697	0.948249	2.70114					0.809806	2.30656	0.932753	2.65317				
0.870742	2.468	0.704335	1.99912	0.870459	2.46823	0.950621	2.70073					0.811727	2.30592	0.9346	2.6514				
0.872523	2.46653	0.70623	1.99921	0.87224	2.46676	0.952993	2.70032					0.81365	2.30528	0.936445	2.64963				
0.874305	2.46508	0.708126	1.99931	0.874022	2.46531	0.955364	2.69991					0.815574	2.30465	0.938288	2.64786				
0.876087	2.46363	0.71002	1.9994	0.875804	2.46386	0.957735	2.6995					0.817499	2.30402	0.94013	2.6461				
0.877869	2.46219	0.711915	1.99948	0.877586	2.46242	0.960106	2.6991					0.819425	2.3034	0.941969	2.64435				
0.879652	2.46076	0.713809	1.99957	0.879369	2.46099	0.962476	2.69869					0.821352	2.30278	0.943807	2.64259				
0.881436	2.45934	0.715702	1.99966	0.881153	2.45956	0.964846	2.69829					0.82328	2.30218	0.945643	2.64084				
0.88322	2.45793	0.717595	1.99974	0.882937	2.45815	0.967215	2.69789					0.825209	2.30158	0.947477	2.6391				
0.885005	2.45653	0.719488	1.99982	0.884721	2.45675	0.969584	2.69748					0.82714	2.30098	0.949309	2.63736				
0.88679	2.45513	0.72138	1.9999	0.886507	2.45535	0.971952	2.69708					0.829071	2.30039	0.951139	2.63562				
0.888575	2.45375	0.723273	1.99998	0.888292	2.45397	0.97432	2.69668					0.831004	2.29981	0.952968	2.63389				
0.890362	2.45237	0.725164	2.00006	0.890078	2.45259	0.976687	2.69628					0.832937	2.29923	0.954795	2.63216				
0.892149	2.451	0.727056	2.00014	0.891865	2.45122	0.979053	2.69588					0.834872	2.29866	0.95662	2.63043				
0.893936	2.44964	0.728947	2.00021	0.893653	2.44986	0.981418	2.69547					0.836808	2.29809	0.958444	2.62871				
0.895725	2.44829	0.730837	2.00029	0.895441	2.44851	0.983783	2.69507					0.838745	2.29754	0.960266	2.627				
0.897514	2.44695	0.732728	2.00036	0.89723	2.44716	0.986146	2.69467					0.840683	2.29698	0.962086	2.62529				
0.899303	2.44562	0.734618	2.00043	0.899019	2.44583	0.988508	2.69426					0.842622	2.29643	0.963905	2.62358				
0.901093	2.44429	0.736507	2.0005	0.900809	2.4445	0.990869	2.69386					0.844562	2.29589	0.965722	2.62188				
0.902884	2.44298	0.738397	2.00057	0.9026	2.44318	0.99323	2.69345					0.846503	2.29535	0.967538	2.62018				
0.904676	2.44167	0.740286	2.00064	0.904392	2.44188	0.995588	2.69304					0.848445	2.29482	0.969352	2.61849				
0.906468	2.44037	0.742174	2.00071	0.906184	2.44057	0.997946	2.69264					0.850388	2.2943	0.971165	2.6168				
0.908261	2.43908	0.744063	2.00077	0.907977	2.43928	1.0003	2.69222					0.852332	2.29378	0.972976	2.61511				
0.910055	2.4378	0.745951	2.00084	0.90977	2.438							0.854277	2.29326	0.974786	2.61343				
0.911849	2.43652	0.747838	2.0009	0.911565	2.43672							0.856224	2.29275	0.976594	2.61176				
0.913645	2.43526	0.749726	2.00096	0.91336	2.43546							0.858171	2.29225	0.978402	2.61009				
0.915441	2.434	0.751613	2.00102	0.915156	2.4342							0.860119	2.29175	0.980207	2.60842				
0.917238	2.43275	0.7535	2.00108	0.916953	2.43295							0.862068	2.29125	0.982012	2.60676				
0.919035	2.43151	0.755386	2.00114	0.91875	2.43171							0.864018	2.29076	0.983815	2.6051				
0.920834	2.43028	0.757273	2.0012	0.920548	2.43047							0.865969	2.29028	0.985617	2.60345				
0.922633	2.42905	0.759159	2.00125	0.922347	2.42925							0.867921	2.2898	0.987418	2.60181				
0.924433	2.42784	0.761044	2.00131	0.924147	2.42803							0.869874	2.28932	0.989217	2.60016				
0.926234	2.42663	0.76293	2.00136	0.925948	2.42682							0.871828	2.28885	0.991016	2.59853				
0.928035	2.42543	0.764815	2.00142	0.92775	2.42562							0.873783	2.28839	0.992813	2.5969				
0.929838	2.42424	0.766699	2.00147	0.929552	2.42442							0.875739	2.28793	0.994609	2.59527				
0.931641	2.42305	0.768584	2.00152	0.931355	2.42324							0.877696	2.28747	0.996404	2.59365				
0.933445	2.42188	0.770468	2.00157	0.933159	2.42206							0.879653	2.28702	0.998198	2.59203				
0.93525	2.42071	0.772352	2.00162	0.934964	2.42089							0.881612	2.28657	0.999991	2.59042				
0.937056	2.41955	0.774236	2.00167	0.93677	2.41973							0.883571	2.28613	1.00178	2.58881				
0.938863	2.41839	0.776119	2.00172	0.938576	2.41858							0.885532	2.28569						
0.940671	2.41725	0.778003	2.00176	0.940384	2.41743							0.887493	2.28526						
0.942479	2.41611	0.779886	2.00181	0.942192	2.41629							0.889455	2.28483						
0.944288	2.41498	0.781768	2.00186	0.944001	2.41516							0.891418	2.28441						
0.946099	2.41386	0.783651	2.0019	0.945811	2.41404							0.893382	2.28399						
0.94791	2.41274	0.785533	2.00194	0.947622	2.41292							0.895347	2.28357						
0.949722	2.41164	0.787415	2.00199	0.949434	2.41181							0.897313	2.28316						
0.951535	2.41054	0.789297	2.00203	0.951247	2.41071							0.89928	2.28275						
0.953348	2.40945	0.791178	2.00207	0.953061	2.40962							0.901247	2.28235						
0.955163	2.40836	0.793059	2.00211	0.954875	2.40853							0.903215	2.28195						
0.956979	2.40728	0.79494	2.00215	0.95669	2.40745							0.905185	2.28155						
0.958795	2.40621	0.796821	2.00219	0.958507	2.40638							0.907155	2.28116						
0.960612	2.40515	0.798702	2.00222	0.960324	2.40532							0.909125	2.28077						
0.962431	2.40409	0.800582	2.00226	0.962142	2.40426							0.911097	2.28039						
0.96425	2.40305	0.802462	2.0023	0.963961	2.40321							0.91307	2.28001						
0.96607	2.40201	0.804342	2.00233	0.965781	2.40217							0.915043	2.27963						
0.967891	2.40097	0.806222	2.00237	0.967602	2.40113							0.917017	2.27926						
0.969713	2.39994	0.808101	2.0024	0.969424	2.40011							0.918992	2.27889						
0.971536	2.39892	0.809981	2.00244	0.971246	2.39908							0.920968	2.27853						
0.973359	2.39791	0.81186	2.00247	0.97307	2.39807							0.922944	2.27817						
0.975184	2.3969	0.813739	2.0025	0.974894	2.39706							0.924921	2.27781						
0.97701	2.3959	0.815617	2.00253	0.97672	2.39606							0.926899	2.27745						
0.978836	2.39491	0.817496	2.00257	0.978546	2.39507							0.928878	2.2771						
0.980663	2.39393	0.819374	2.0026	0.980374	2.39408							0.930858	2.27676						
0.982492	2.39295	0.821252	2.00263	0.982202	2.3931							0.932838	2.27641						
0.984321	2.39197	0.82313	2.00266	0.984031	2.39213							0.934819	2.27607						
0.986151	2.39101	0.825008	2.00268	0.985861	2.39116							0.936801	2.27574						
0.987982	2.39005	0.826885	2.00271	0.987692	2.3902							0.938784	2.2754						
0.989814	2.3891	0.828763	2.00274	0.989524	2.38925							0.940767	2.27507						
0.991647	2.38815	0.83064	2.00277	0.991357	2.3883							0.942752	2.27475						
0.993481	2.38721	0.832517	2.00279	0.99319	2.38736							0.944736	2.27442						
0.995316	2.38628	0.834394	2.00282	0.995025	2.38642							0.946722	2.2741						
0.997152	2.38535	0.83627	2.00285	0.996861	2.3855							0.948708	2.27378						
0.998989	2.38443	0.838147	2.00287	0.998697	2.38457							0.950695	2.27347						
1.00083	2.38351	0.840023	2.0029	1.00053	2.38366							0.952683	2.27316						
		0.841899	2.00292									0.954671	2.27285						
		0.843775	2.00294									0.95666	2.27254						
		0.845651	2.00297									0.95865	2.27224						
		0.847527	2.00299									0.960641	2.27194						
		0.849403	2.00301									0.962632	2.27165						
		0.851278	2.00303									0.964624	2.27135						
		0.853153	2.00305									0.966616	2.27106						
		0.855028	2.00307									0.968609	2.27077						
		0.856903	2.00309									0.970603	2.27049						
		0.858778	2.00311									0.972598	2.27021						
		0.860653	2.00313									0.974593	2.26993						
		0.862527	2.00315									0.976589	2.26965						
		0.864402	2.00317									0.978585	2.26938						
		0.866276	2.00319									0.980582	2.26911						
		0.86815	2.00321									0.98258	2.26884						
		0.870024	2.00323									0.984578	2.26857						
		0.871898	2.00324									0.986577	2.26831						
		0.873772	2.00326									0.988577	2.26805						
		0.875645	2.00328									0.990577	2.26779						
		0.877519	2.00329									0.992578	2.26753						
		0.879392	2.00331									0.994579	2.26728						
		0.881265	2.00332									0.996581	2.26703						
		0.883139	2.00334									0.998584	2.26678						
		0.885012	2.00335									1.00059	2.26653						
		0.886885	2.00337																
		0.888757	2.00338																
		0.89063	2.0034																
		0.892503	2.00341																
		0.894375	2.00342																
		0.896247	2.00344																
		0.89812	2.00345																
		0.899992	2.00346																
		0.901864	2.00347																
		0.903736	2.00348																
		0.905608	2.0035																
		0.90748	2.00351																
		0.909351	2.00352																
		0.911223	2.00353																
		0.913094	2.00354																
		0.914966	2.00355																
		0.916837	2.00356																
		0.918708	2.00357																
		0.920579	2.00358																
		0.92245	2.00359																
		0.924322	2.0036																
		0.926192	2.00361																
		0.928063	2.00362																
		0.929934	2.00362																
		0.931805	2.00363																
		0.933675	2.00364																
		0.935546	2.00365																
		0.937416	2.00366																
		0.939287	2.00366																
		0.941157	2.00367																
		0.943027	2.00368																
		0.944897	2.00369																
		0.946767	2.00369																
		0.948637	2.0037																
		0.950507	2.00371																
		0.952377	2.00371																
		0.954247	2.00372																
		0.956117	2.00373																
		0.957987	2.00373																
		0.959856	2.00374																
		0.961726	2.00374																
		0.963595	2.00375																
		0.965465	2.00375																
		0.967334	2.00376																
		0.969204	2.00376																
		0.971073	2.00377																
		0.972942	2.00377																
		0.974812	2.00378																
		0.976681	2.00378																
		0.97855	2.00379																
		0.980419	2.00379																
		0.982288	2.0038																
		0.984157	2.0038																
		0.986026	2.00381																
		0.987895	2.00381																
		0.989764	2.00381																
		0.991633	2.00382																
		0.993501	2.00382																
		0.99537	2.00382																
		0.997239	2.00383																
		0.999107	2.00383																
		1.00098	2.00383																
