Sym0		Asym0		Sym1		Sym2		Sym3		Sym4		Asym1		Asym2		Asym3		Asym4	
458  Points		540  Points		458  Points		408  Points		371  Points		281  Points		481  Points		423  Points		372  Points		280  Points	
Freq (MHz)	Vph (m/ms)	Freq (MHz)	Vph (m/ms)	Freq (MHz)	Vph (m/ms)	Freq (MHz)	Vph (m/ms)	Freq (MHz)	Vph (m/ms)	Freq (MHz)	Vph (m/ms)	Freq (MHz)	Vph (m/ms)	Freq (MHz)	Vph (m/ms)	Freq (MHz)	Vph (m/ms)	Freq (MHz)	Vph (m/ms)
0.279507	351.51	0.000327966	0.111368	0.279507	368.742	0.356437	5012.12	0.559017	1895.72	0.838526	2384.68	0.139755	1282.67	0.419264	722.859	0.69877	1647.51	0.712875	5403.3
0.2795	161.855	0.000567297	0.146339	0.2795	165.415	0.356453	355.455	0.559024	455.759	0.83853	653.404	0.139795	134.334	0.419274	277.352	0.698759	515.373	0.712891	670.245
0.279488	105.128	0.000870838	0.181112	0.279489	106.619	0.356497	184.283	0.559039	259.022	0.838537	378.569	0.139902	70.9316	0.419292	171.602	0.698736	305.455	0.712934	357.302
0.279472	77.842	0.00123783	0.215651	0.279473	78.6563	0.356569	124.405	0.559063	180.928	0.83855	266.484	0.140074	48.234	0.419318	124.239	0.698703	217.041	0.713001	243.593
0.27945	61.7988	0.00166719	0.24989	0.279451	62.311	0.356668	93.9119	0.559095	139.021	0.838566	205.611	0.14031	36.5798	0.419354	97.3704	0.698658	168.314	0.713094	184.801
0.279425	51.2364	0.00215779	0.283793	0.279426	51.5881	0.356794	75.4387	0.559135	112.88	0.838586	167.379	0.140611	29.4942	0.419397	80.0608	0.698604	137.45	0.713212	148.883
0.279394	43.7557	0.00270838	0.317324	0.279396	44.012	0.356948	63.0507	0.559184	95.0176	0.838611	141.138	0.140976	24.7364	0.419449	67.98	0.69854	116.146	0.713353	124.666
0.27936	38.1794	0.00331767	0.350455	0.279361	38.3745	0.357129	54.1681	0.559241	82.0392	0.83864	122.011	0.141403	21.3251	0.41951	59.0703	0.698467	100.557	0.713518	107.235
0.279321	33.8623	0.00398418	0.383152	0.279322	34.0158	0.357338	47.4888	0.559306	72.183	0.838673	107.451	0.141892	18.7625	0.419579	52.2282	0.698385	88.6535	0.713705	94.0882
0.279278	30.4211	0.00470631	0.415379	0.27928	30.5449	0.357573	42.2844	0.55938	64.4436	0.838711	95.9965	0.14244	16.7691	0.419656	46.8091	0.698297	79.2673	0.713914	83.8204
0.279232	27.6136	0.00548248	0.447117	0.279234	27.7157	0.357834	38.1159	0.559462	58.2055	0.838752	86.7503	0.143048	15.176	0.419742	42.4112	0.698202	71.676	0.714144	75.5797
0.279183	25.2796	0.00631105	0.478344	0.279185	25.3651	0.358122	34.7026	0.559552	53.0706	0.838798	79.1298	0.143712	13.8751	0.419837	38.7709	0.698102	65.4095	0.714394	68.8203
0.27913	23.3084	0.00719025	0.509036	0.279132	23.3812	0.358436	31.8569	0.559651	48.7703	0.838848	72.7411	0.144433	12.7938	0.41994	35.7081	0.697997	60.1489	0.714663	63.1759
0.279075	21.6217	0.00811842	0.539182	0.279077	21.6843	0.358776	29.4485	0.559758	45.1166	0.838902	67.3078	0.145208	11.8818	0.420051	33.0956	0.697887	55.6699	0.714951	58.3921
0.279017	20.1618	0.00909378	0.568766	0.27902	20.2163	0.359141	27.3843	0.559873	41.9739	0.838961	62.6307	0.146035	11.1031	0.420171	30.8411	0.697775	51.8104	0.715256	54.2861
0.278958	18.886	0.0101146	0.597781	0.27896	18.9338	0.359531	25.5957	0.559997	39.2421	0.839023	58.5622	0.146913	10.4309	0.4203	28.8758	0.69766	48.4501	0.715578	50.7237
0.278897	17.7615	0.0111792	0.626214	0.278899	17.8038	0.359945	24.0312	0.560129	36.8457	0.83909	54.9908	0.14784	9.84545	0.420437	27.1475	0.697543	45.4981	0.715916	47.6038
0.278834	16.7629	0.0122857	0.654062	0.278836	16.8006	0.360384	22.6515	0.560269	34.7267	0.839161	51.8307	0.148814	9.33136	0.420582	25.6158	0.697426	42.8843	0.71627	44.8489
0.278771	15.8702	0.0134326	0.681325	0.278773	15.904	0.360847	21.4259	0.560418	32.8395	0.839237	49.0147	0.149834	8.87673	0.420736	24.2492	0.697307	40.5538	0.716638	42.3985
0.278707	15.0674	0.0146181	0.707999	0.278709	15.0978	0.361334	20.3301	0.560575	31.1481	0.839316	46.4896	0.150898	8.47212	0.420899	23.0223	0.697189	38.4628	0.717021	40.205
0.278643	14.3415	0.0158407	0.734086	0.278645	14.3692	0.361844	19.3447	0.560741	29.6237	0.8394	44.2126	0.15186	8.15439	0.42107	21.9148	0.697072	36.5763	0.717417	38.23
0.278579	13.6821	0.0170987	0.75959	0.278581	13.7073	0.362376	18.454	0.560915	28.2428	0.839488	42.1488	0.152704	7.90589	0.421249	20.9102	0.696956	34.8657	0.717827	36.4425
0.278516	13.0805	0.0183907	0.784514	0.278518	13.1035	0.362931	17.6451	0.561097	26.986	0.83958	40.2697	0.153418	7.71429	0.421437	19.9948	0.696841	33.3075	0.718249	34.817
0.278454	12.5293	0.0197151	0.808862	0.278456	12.5504	0.363508	16.9072	0.561287	25.8374	0.839676	38.5515	0.153993	7.57094	0.421634	19.1573	0.696728	31.8823	0.718683	33.3327
0.278393	12.0226	0.0210704	0.83264	0.278396	12.042	0.364106	16.2317	0.561486	24.7836	0.839777	36.9745	0.154422	7.46981	0.421839	18.3882	0.696618	30.5738	0.719129	31.9718
0.278335	11.5551	0.0224554	0.855861	0.278337	11.5731	0.364725	15.6109	0.561694	23.8134	0.839882	35.522	0.154699	7.40689	0.422052	17.6795	0.69651	29.3681	0.719586	30.7196
0.278279	11.1226	0.0238687	0.87853	0.278281	11.1392	0.365365	15.0386	0.561909	22.9173	0.839991	34.1797	0.1551	7.31883	0.422274	17.0244	0.696405	28.2538	0.720055	29.5638
0.278226	10.7212	0.0253089	0.900653	0.278228	10.7367	0.366025	14.5093	0.562133	22.0872	0.840104	32.9357	0.15554	7.22615	0.422505	16.417	0.696304	27.2208	0.720534	28.4935
0.278175	10.3478	0.026775	0.922248	0.278177	10.3622	0.366705	14.0185	0.562365	21.316	0.840222	31.7795	0.156147	7.10495	0.422744	15.8524	0.696207	26.2605	0.721024	27.4996
0.278129	9.99949	0.0282657	0.943319	0.278131	10.0129	0.367404	13.5622	0.562606	20.5977	0.840343	30.7022	0.156925	6.95914	0.422992	15.3262	0.696113	25.3655	0.721524	26.5744
0.278086	9.67391	0.0297798	0.963879	0.278088	9.68649	0.368123	13.1369	0.562855	19.9271	0.840469	29.696	0.157884	6.79315	0.423248	14.8347	0.696024	24.5295	0.722034	25.7109
0.278048	9.36892	0.0313162	0.983938	0.278049	9.38071	0.36886	12.7397	0.563112	19.2996	0.840599	28.754	0.159031	6.61156	0.423512	14.3746	0.695938	23.7467	0.722553	24.9032
0.278015	9.08265	0.0328741	1.00351	0.278016	9.09373	0.369615	12.3678	0.563377	18.7112	0.840734	27.8704	0.160378	6.4189	0.423786	13.943	0.695858	23.0124	0.723082	24.1461
0.277986	8.81346	0.0344524	1.0226	0.277987	8.82389	0.370388	12.0189	0.563651	18.1584	0.840872	27.0398	0.161754	6.24125	0.424067	13.5373	0.695782	22.3221	0.723621	23.4349
0.277963	8.55989	0.03605	1.04123	0.277964	8.56972	0.371178	11.6911	0.563934	17.6381	0.841015	26.2577	0.163159	6.077	0.424358	13.1553	0.695711	21.672	0.724168	22.7657
0.277947	8.32064	0.0376663	1.05941	0.277947	8.32992	0.371985	11.3825	0.564224	17.1475	0.841162	25.52	0.164591	5.92475	0.424656	12.795	0.695645	21.0588	0.724724	22.1349
0.277936	8.09455	0.0393003	1.07714	0.277937	8.13176	0.372809	11.0915	0.564523	16.6841	0.841314	24.8229	0.16605	5.78329	0.424963	12.4546	0.695584	20.4793	0.725289	21.5392
0.277932	7.8806	0.0409512	1.09444	0.277933	7.97023	0.373649	10.8167	0.56483	16.2459	0.841469	24.1632	0.167533	5.65157	0.425279	12.1326	0.695529	19.931	0.725863	20.9759
0.277935	7.67785	0.0426183	1.11132	0.277932	7.84151	0.374505	10.5567	0.565146	15.8307	0.841629	23.5381	0.169041	5.52866	0.425604	11.8274	0.695479	19.4113	0.726445	20.4423
0.277945	7.48547	0.0443007	1.12779	0.277933	7.74269	0.375377	10.3105	0.56547	15.4369	0.841793	22.9448	0.170571	5.41374	0.425936	11.538	0.695434	18.9181	0.727035	19.9362
0.277963	7.30272	0.0459979	1.14387	0.277935	7.67163	0.376263	10.077	0.565802	15.0629	0.841961	22.381	0.172123	5.30608	0.426278	11.2629	0.695395	18.4494	0.727634	19.4556
0.277989	7.1289	0.0477092	1.15956	0.277937	7.62684	0.377165	9.85521	0.566142	14.7071	0.842133	21.8446	0.173695	5.20506	0.426628	11.0014	0.695362	18.0035	0.728241	18.9985
0.278023	6.9634	0.0494339	1.17487	0.27794	7.5634	0.378081	9.64435	0.566491	14.3684	0.84231	21.3336	0.175287	5.1101	0.426986	10.7523	0.695335	17.5788	0.728855	18.5634
0.278066	6.80566	0.0511714	1.18982	0.277944	7.49564	0.379011	9.44363	0.566848	14.0456	0.842491	20.8462	0.176898	5.02069	0.427353	10.5148	0.695314	17.1737	0.729478	18.1485
0.278118	6.65517	0.0529212	1.20441	0.277952	7.40547	0.379955	9.25236	0.567214	13.7375	0.842676	20.381	0.178527	4.93639	0.427729	10.2882	0.695298	16.7871	0.730108	17.7527
0.278179	6.51146	0.0546827	1.21866	0.277964	7.29456	0.380912	9.06989	0.567587	13.4432	0.842865	19.9363	0.180173	4.85678	0.428113	10.0718	0.695289	16.4175	0.730746	17.3746
0.278249	6.3741	0.0564555	1.23258	0.277983	7.16492	0.381882	8.89565	0.567969	13.1618	0.843059	19.5109	0.181836	4.78151	0.428506	9.86477	0.695286	16.064	0.731391	17.0131
0.27833	6.2427	0.058239	1.24617	0.278011	7.01876	0.382866	8.72911	0.56836	12.8925	0.843257	19.1036	0.183514	4.71023	0.428907	9.66666	0.695288	15.7256	0.732044	16.6671
0.27842	6.1169	0.0600327	1.25944	0.278051	6.85844	0.383861	8.56977	0.568758	12.6345	0.843459	18.7132	0.185206	4.64266	0.429316	9.4769	0.695298	15.4013	0.732705	16.3356
0.278521	5.99637	0.0618363	1.27241	0.278099	6.70554	0.384869	8.4172	0.569165	12.3872	0.843665	18.3387	0.186913	4.57851	0.429735	9.29497	0.695313	15.0902	0.733372	16.0177
0.278632	5.88081	0.0636493	1.28507	0.278157	6.55957	0.38589	8.27098	0.56958	12.1498	0.843876	17.9791	0.188634	4.51755	0.430162	9.1204	0.695335	14.7916	0.734047	15.7127
0.278754	5.76993	0.0654713	1.29745	0.278224	6.4201	0.386788	8.14844	0.570004	11.9219	0.844091	17.6337	0.190367	4.45956	0.430597	8.95278	0.695363	14.5047	0.73473	15.4198
0.278888	5.66347	0.0673019	1.30955	0.278301	6.28672	0.387561	8.04738	0.570436	11.7029	0.84431	17.3015	0.192113	4.40432	0.431041	8.7917	0.695397	14.2289	0.735419	15.1383
0.279032	5.56119	0.0691408	1.32138	0.278388	6.15905	0.388205	7.96608	0.570876	11.4923	0.844533	16.9819	0.19387	4.35166	0.431494	8.63681	0.695438	13.9635	0.736116	14.8675
0.279189	5.46286	0.0709876	1.33294	0.278485	6.03677	0.388717	7.9032	0.571324	11.2896	0.844761	16.6741	0.195639	4.30141	0.431955	8.48775	0.695485	13.708	0.736819	14.6068
0.279357	5.36829	0.0728419	1.34424	0.278593	5.91955	0.389095	7.85772	0.571781	11.0943	0.844993	16.3775	0.197418	4.2534	0.432424	8.34422	0.695539	13.4619	0.73753	14.3558
0.279537	5.27727	0.0747035	1.35529	0.278712	5.8071	0.389338	7.82896	0.572246	10.9062	0.845229	16.0915	0.199208	4.2075	0.432841	8.22342	0.695599	13.2246	0.738247	14.1138
0.27973	5.18962	0.0765721	1.3661	0.278841	5.69917	0.389688	7.78805	0.572719	10.7248	0.845469	15.8155	0.201007	4.16357	0.433201	8.12344	0.695666	12.9956	0.738971	13.8804
0.279935	5.10518	0.0784475	1.37668	0.278982	5.59549	0.390069	7.74418	0.5732	10.5497	0.845713	15.5491	0.202816	4.1215	0.433502	8.04277	0.69574	12.7747	0.739702	13.6551
0.280153	5.02379	0.0803291	1.38702	0.279134	5.49585	0.39059	7.68548	0.57369	10.3807	0.845962	15.2917	0.204634	4.08117	0.433742	7.98023	0.69582	12.5612	0.74044	13.4376
0.280383	4.94531	0.082217	1.39714	0.279298	5.40002	0.391253	7.61279	0.574188	10.2175	0.846215	15.0429	0.20646	4.04247	0.433921	7.93493	0.695906	12.355	0.741185	13.2275
0.280627	4.86959	0.0841108	1.40705	0.279475	5.30782	0.39206	7.52712	0.574694	10.0597	0.846473	14.8023	0.208294	4.00532	0.434035	7.90624	0.695999	12.1556	0.741936	13.0243
0.280885	4.79651	0.0860101	1.41674	0.279663	5.21904	0.393014	7.42962	0.575209	9.90715	0.846734	14.5695	0.210136	3.96962	0.434201	7.86539	0.696099	11.9627	0.742694	12.8278
0.281156	4.72594	0.0879151	1.42623	0.279864	5.13353	0.394117	7.32153	0.575732	9.75954	0.847	14.3442	0.211986	3.9353	0.434382	7.82152	0.696206	11.776	0.743458	12.6377
0.28144	4.65778	0.0898251	1.43552	0.280077	5.05112	0.395231	7.2173	0.576263	9.61666	0.84727	14.1259	0.213842	3.90227	0.434629	7.76273	0.696319	11.5951	0.744229	12.4535
0.281739	4.59192	0.0917402	1.44461	0.280304	4.97167	0.396354	7.11672	0.576802	9.47829	0.847545	13.9143	0.215706	3.87047	0.434946	7.68978	0.696439	11.42	0.745006	12.2752
0.282052	4.52826	0.0936601	1.45352	0.280543	4.89502	0.397486	7.01962	0.57735	9.34423	0.847823	13.7092	0.217576	3.83983	0.435333	7.60358	0.696565	11.2502	0.74579	12.1023
0.282379	4.4667	0.0955847	1.46224	0.280796	4.82106	0.398628	6.92583	0.577905	9.21428	0.848106	13.5102	0.219452	3.81029	0.435793	7.50518	0.696699	11.0855	0.74658	11.9347
0.282721	4.40715	0.0975137	1.47079	0.281062	4.74965	0.399778	6.83517	0.578469	9.08826	0.848393	13.3171	0.221334	3.78179	0.436328	7.39574	0.696839	10.9258	0.747376	11.7721
0.283077	4.34954	0.099447	1.47916	0.281342	4.68069	0.400937	6.74751	0.579042	8.96601	0.848685	13.1297	0.223221	3.75427	0.436873	7.28984	0.696986	10.7707	0.748179	11.6143
0.283449	4.29378	0.101384	1.48737	0.281636	4.61406	0.402105	6.66269	0.579622	8.84736	0.84898	12.9476	0.225114	3.7277	0.437426	7.18733	0.697139	10.6202	0.748988	11.4611
0.283835	4.2398	0.103326	1.49541	0.281944	4.54966	0.403281	6.58059	0.580211	8.73217	0.84928	12.7708	0.227013	3.70202	0.437987	7.08805	0.697299	10.474	0.749804	11.3123
0.284237	4.18752	0.105271	1.50329	0.282266	4.48739	0.404466	6.50108	0.580808	8.62028	0.849585	12.5988	0.228916	3.67718	0.438558	6.99186	0.697466	10.3319	0.750625	11.1677
0.284655	4.13689	0.10722	1.51101	0.282603	4.42717	0.405658	6.42404	0.581413	8.51156	0.849893	12.4316	0.230823	3.65315	0.439137	6.89861	0.69764	10.1938	0.751453	11.0272
0.285088	4.08784	0.109172	1.51859	0.282954	4.36891	0.406858	6.34936	0.581947	8.4193	0.850206	12.269	0.232736	3.62989	0.439724	6.80819	0.69782	10.0595	0.752286	10.8905
0.285538	4.04031	0.111127	1.52601	0.283321	4.31253	0.408066	6.27694	0.582407	8.34243	0.850523	12.1108	0.234652	3.60736	0.44032	6.72048	0.698007	9.9288	0.753126	10.7576
0.285942	4.00008	0.113086	1.5333	0.283702	4.25795	0.409281	6.20668	0.582791	8.28005	0.850844	11.9567	0.236573	3.58553	0.440925	6.63535	0.698201	9.80166	0.753972	10.6282
0.286297	3.96664	0.115048	1.54044	0.284099	4.2051	0.410503	6.13849	0.583097	8.23147	0.85117	11.8067	0.238497	3.56437	0.441538	6.55271	0.698402	9.67789	0.754824	10.5023
0.286597	3.93956	0.116761	1.54655	0.284511	4.15392	0.411733	6.07227	0.583323	8.19616	0.8515	11.6606	0.240425	3.54384	0.44216	6.47245	0.698609	9.55737	0.755682	10.3797
0.286839	3.91851	0.118222	1.55168	0.284939	4.10434	0.412969	6.00796	0.583468	8.17374	0.851834	11.5182	0.242357	3.52391	0.442791	6.39447	0.698823	9.43998	0.756546	10.2602
0.28702	3.90323	0.119431	1.55587	0.285383	4.05629	0.414212	5.94545	0.583677	8.14176	0.852172	11.3794	0.244292	3.50457	0.44343	6.31868	0.699044	9.3256	0.757415	10.1438
0.287136	3.89354	0.120389	1.55915	0.285843	4.00973	0.415462	5.8847	0.583906	8.10732	0.852515	11.2441	0.24623	3.48578	0.444078	6.245	0.699272	9.21411	0.758291	10.0304
0.287305	3.87973	0.121093	1.56154	0.286319	3.9646	0.416719	5.82562	0.584219	8.06101	0.852862	11.1121	0.248171	3.46753	0.444735	6.17335	0.699506	9.10541	0.759172	9.91981
0.287491	3.86487	0.121544	1.56306	0.286812	3.92084	0.417981	5.76814	0.584617	8.00331	0.853213	10.9834	0.250115	3.44978	0.4454	6.10365	0.699747	8.99941	0.76006	9.81195
0.287748	3.84493	0.122192	1.56524	0.287322	3.87841	0.41925	5.71221	0.585103	7.93477	0.853569	10.8577	0.252062	3.43252	0.446074	6.03582	0.699995	8.896	0.760953	9.70673
0.288078	3.82012	0.122897	1.56759	0.287848	3.83726	0.420526	5.65776	0.585679	7.85608	0.853929	10.7351	0.254011	3.41573	0.446756	5.9698	0.70025	8.79509	0.761851	9.60405
0.288486	3.79074	0.123856	1.57076	0.288392	3.79734	0.421807	5.60474	0.586347	7.76797	0.854293	10.6153	0.255962	3.39938	0.447448	5.90551	0.700511	8.69661	0.762756	9.50383
0.288976	3.7571	0.125071	1.57473	0.288954	3.75862	0.423093	5.55309	0.587023	7.6821	0.854662	10.4984	0.257916	3.38347	0.448148	5.8429	0.700744	8.61269	0.763666	9.40598
0.289556	3.71958	0.12654	1.57947	0.289533	3.72106	0.424386	5.50276	0.587708	7.59842	0.855034	10.3841	0.259873	3.36796	0.448856	5.78191	0.700947	8.54252	0.764581	9.31041
0.290154	3.68318	0.128266	1.58494	0.29013	3.68461	0.425684	5.45371	0.5884	7.51683	0.855411	10.2724	0.261831	3.35286	0.449573	5.72247	0.701117	8.48541	0.765503	9.21706
0.29077	3.64786	0.130248	1.59112	0.290745	3.64925	0.426987	5.40588	0.589101	7.43726	0.855793	10.1633	0.263791	3.33813	0.450299	5.66453	0.701254	8.44083	0.76643	9.12585
0.291404	3.61358	0.132233	1.59719	0.291379	3.61493	0.428296	5.35924	0.58981	7.35964	0.856178	10.0566	0.265753	3.32377	0.451034	5.60805	0.701355	8.40837	0.767362	9.0367
0.292058	3.58032	0.13422	1.60314	0.292031	3.58162	0.42961	5.31373	0.590527	7.28391	0.856568	9.95228	0.267716	3.30976	0.451778	5.55296	0.701421	8.38774	0.7683	8.94955
0.29273	3.54804	0.136208	1.60899	0.292703	3.5493	0.430929	5.26932	0.591252	7.21	0.856963	9.85023	0.269681	3.29609	0.45253	5.49923	0.701515	8.35828	0.769243	8.86434
0.293422	3.51671	0.138199	1.61473	0.293394	3.51794	0.432253	5.22597	0.591986	7.13784	0.857361	9.75039	0.271648	3.28274	0.453291	5.44681	0.701619	8.3265	0.770192	8.78099
0.294134	3.48631	0.140192	1.62038	0.294105	3.4875	0.433582	5.18365	0.592727	7.06739	0.857764	9.65269	0.273616	3.26971	0.45406	5.39565	0.701761	8.2837	0.771023	8.70985
0.294866	3.45681	0.142186	1.62592	0.294836	3.45797	0.434915	5.14231	0.593477	6.99858	0.858171	9.55707	0.275585	3.25698	0.454838	5.34571	0.701944	8.23025	0.771735	8.65026
0.295618	3.42818	0.144182	1.63137	0.295587	3.42931	0.436253	5.10193	0.594235	6.93136	0.858583	9.46346	0.277555	3.24454	0.455625	5.29696	0.702168	8.1666	0.772326	8.6017
0.296391	3.40041	0.14618	1.63672	0.29636	3.4015	0.437596	5.06247	0.595	6.86568	0.858998	9.3718	0.279526	3.23238	0.456421	5.24935	0.702435	8.09329	0.772795	8.56376
0.297185	3.37346	0.14818	1.64198	0.297153	3.37452	0.438943	5.0239	0.595774	6.80149	0.859418	9.28203	0.281499	3.22049	0.457226	5.20285	0.702748	8.0109	0.77314	8.53611
0.298001	3.34733	0.150181	1.64715	0.297968	3.34835	0.440294	4.9862	0.596556	6.73874	0.859843	9.1941	0.283472	3.20886	0.458039	5.15743	0.703067	7.93031	0.773361	8.51852
0.298839	3.32197	0.152184	1.65223	0.298805	3.32297	0.44165	4.94933	0.597346	6.67738	0.860271	9.10795	0.285446	3.19748	0.458861	5.11304	0.703393	7.85148	0.77368	8.49339
0.2997	3.29739	0.154188	1.65722	0.299665	3.29835	0.443009	4.91326	0.598144	6.61739	0.860704	9.02352	0.28742	3.18634	0.459692	5.06967	0.703726	7.77435	0.774027	8.46628
0.300583	3.27355	0.156193	1.66213	0.300548	3.27449	0.444373	4.87798	0.59895	6.5587	0.861142	8.94078	0.289396	3.17544	0.460531	5.02727	0.704066	7.69885	0.7745	8.42973
0.30149	3.25045	0.1582	1.66696	0.301454	3.25135	0.445741	4.84346	0.599764	6.50129	0.861526	8.87	0.291371	3.16477	0.461379	4.98582	0.704412	7.62496	0.775101	8.38403
0.302421	3.22806	0.160208	1.6717	0.302383	3.22894	0.447112	4.80967	0.600586	6.44511	0.861857	8.81062	0.293347	3.15431	0.462237	4.94529	0.704765	7.55261	0.775829	8.32956
0.303376	3.20636	0.162217	1.67637	0.303337	3.20722	0.448487	4.77659	0.601417	6.39013	0.862132	8.76216	0.295324	3.14406	0.463102	4.90566	0.705124	7.48176	0.776687	8.26671
0.304356	3.18536	0.164227	1.68096	0.304317	3.18618	0.449866	4.7442	0.602255	6.33631	0.86235	8.72426	0.297301	3.13402	0.463977	4.86689	0.70549	7.41236	0.777677	8.19597
0.305362	3.16502	0.166239	1.68548	0.305321	3.16581	0.451248	4.71247	0.603101	6.28361	0.862512	8.69662	0.299278	3.12418	0.464861	4.82896	0.705863	7.34438	0.778672	8.12665
0.306393	3.14533	0.168251	1.68992	0.306351	3.1461	0.452634	4.68139	0.603955	6.23202	0.862615	8.67903	0.301255	3.11453	0.465753	4.79185	0.706242	7.27778	0.779672	8.05873
0.307451	3.12629	0.170265	1.69429	0.307408	3.12704	0.454023	4.65094	0.604817	6.18149	0.862765	8.65387	0.303232	3.10506	0.466654	4.75554	0.706628	7.21251	0.780677	7.99215
0.308536	3.10788	0.172279	1.69859	0.308492	3.1086	0.455416	4.62111	0.605687	6.13199	0.862928	8.62671	0.305209	3.09577	0.467564	4.72	0.70702	7.14853	0.781687	7.92689
0.309648	3.09008	0.174295	1.70281	0.309603	3.09078	0.456812	4.59186	0.606565	6.08349	0.86315	8.59007	0.307186	3.08665	0.468482	4.68521	0.707419	7.08581	0.782702	7.86289
0.310789	3.07289	0.176311	1.70698	0.310742	3.07357	0.458211	4.56318	0.607451	6.03598	0.863432	8.54422	0.309163	3.0777	0.46941	4.65114	0.707825	7.02432	0.783722	7.80013
0.311958	3.0563	0.178328	1.71107	0.31191	3.05695	0.459613	4.53507	0.608345	5.98941	0.863776	8.48948	0.31114	3.06892	0.470346	4.61779	0.708237	6.96402	0.784748	7.73858
0.313156	3.04029	0.180346	1.7151	0.313107	3.04091	0.461018	4.50749	0.609247	5.94377	0.864183	8.42624	0.313116	3.06029	0.471291	4.58513	0.708655	6.90488	0.785778	7.67819
0.314384	3.02484	0.182365	1.71907	0.314334	3.02545	0.462426	4.48044	0.610157	5.89902	0.864653	8.35493	0.315092	3.05181	0.472245	4.55314	0.70908	6.84686	0.786813	7.61894
0.315641	3.00996	0.184384	1.72297	0.315591	3.01055	0.463836	4.45391	0.611074	5.85515	0.865128	8.28493	0.317068	3.04348	0.473208	4.5218	0.709512	6.78995	0.787853	7.5608
0.31693	2.99563	0.186404	1.72682	0.316878	2.99619	0.46525	4.42787	0.612	5.81213	0.865608	8.21621	0.319043	3.03529	0.47418	4.4911	0.70995	6.7341	0.788898	7.50374
0.318249	2.98184	0.188425	1.7306	0.318195	2.98238	0.466666	4.40231	0.612933	5.76994	0.866091	8.14873	0.321017	3.02724	0.47516	4.46103	0.710394	6.67928	0.789947	7.44772
0.319599	2.96858	0.190447	1.73432	0.319545	2.9691	0.468085	4.37723	0.613874	5.72856	0.866579	8.08247	0.322991	3.01933	0.47615	4.43155	0.710845	6.62549	0.791002	7.39272
0.320981	2.95583	0.192469	1.73799	0.320925	2.95633	0.469507	4.3526	0.614823	5.68796	0.867071	8.01739	0.324964	3.01155	0.477148	4.40266	0.711303	6.57267	0.792061	7.33872
0.322394	2.94359	0.194491	1.7416	0.322337	2.94407	0.470931	4.32842	0.61578	5.64813	0.867567	7.95347	0.326937	3.00389	0.478155	4.37435	0.711767	6.52082	0.793125	7.28568
0.323839	2.93185	0.196514	1.74516	0.323781	2.93231	0.472358	4.30467	0.616744	5.60904	0.868068	7.89066	0.328908	2.99636	0.479171	4.3466	0.712237	6.4699	0.794194	7.23359
0.325316	2.92059	0.198538	1.74866	0.325257	2.92103	0.473787	4.28134	0.617717	5.57068	0.868573	7.82895	0.330879	2.98894	0.480196	4.31939	0.712714	6.4199	0.795267	7.18242
0.326826	2.9098	0.200562	1.75211	0.326765	2.91022	0.475218	4.25842	0.618697	5.53303	0.869083	7.7683	0.332849	2.98164	0.48123	4.29271	0.713197	6.37078	0.796345	7.13214
0.328366	2.89946	0.202587	1.75551	0.328304	2.89987	0.476652	4.2359	0.619685	5.49607	0.869597	7.7087	0.334818	2.97445	0.482272	4.26655	0.713686	6.32254	0.797427	7.08273
0.329939	2.88958	0.204612	1.75886	0.329876	2.88996	0.478088	4.21377	0.62068	5.45979	0.870115	7.65011	0.336786	2.96738	0.483324	4.2409	0.714182	6.27514	0.798515	7.03418
0.331543	2.88012	0.206637	1.76215	0.331478	2.88049	0.479526	4.19203	0.621684	5.42416	0.870637	7.59251	0.338753	2.9604	0.484384	4.21574	0.714684	6.22856	0.799606	6.98646
0.333178	2.87109	0.208663	1.7654	0.333112	2.87144	0.480966	4.17065	0.622695	5.38917	0.871164	7.53587	0.340719	2.95354	0.485454	4.19106	0.715193	6.18279	0.800703	6.93954
0.334844	2.86246	0.210689	1.7686	0.334777	2.8628	0.482409	4.14963	0.623713	5.35481	0.871695	7.48018	0.342683	2.94677	0.486532	4.16686	0.715708	6.1378	0.801804	6.89342
0.33654	2.85423	0.212715	1.77176	0.336472	2.85455	0.483853	4.12896	0.624739	5.32105	0.872231	7.42541	0.344647	2.94009	0.487619	4.14311	0.716229	6.09359	0.802909	6.84807
0.338266	2.84637	0.214742	1.77486	0.338196	2.84668	0.4853	4.10864	0.625773	5.2879	0.872771	7.37154	0.346609	2.93352	0.488715	4.1198	0.716757	6.05012	0.804019	6.80347
0.34002	2.83888	0.216769	1.77792	0.33995	2.83917	0.486748	4.08865	0.626815	5.25532	0.873315	7.31854	0.34857	2.92703	0.48982	4.09694	0.717291	6.00738	0.805133	6.75961
0.341804	2.83174	0.218796	1.78094	0.341732	2.83202	0.488198	4.06899	0.627864	5.22332	0.873863	7.2664	0.350529	2.92064	0.490934	4.0745	0.717831	5.96535	0.806251	6.71646
0.343614	2.82494	0.220823	1.78391	0.343542	2.8252	0.48965	4.04964	0.628921	5.19187	0.874416	7.2151	0.352487	2.91433	0.492056	4.05249	0.718377	5.92403	0.807374	6.67401
0.345452	2.81846	0.22285	1.78684	0.345378	2.81871	0.491104	4.03061	0.629985	5.16096	0.874973	7.16462	0.354444	2.9081	0.493188	4.03088	0.71893	5.88338	0.808501	6.63225
0.347316	2.81229	0.224878	1.78973	0.347241	2.81253	0.492559	4.01188	0.631057	5.13058	0.875535	7.11494	0.356399	2.90196	0.494328	4.00966	0.719489	5.8434	0.809633	6.59116
0.349204	2.80641	0.226906	1.79258	0.349128	2.80664	0.494017	3.99344	0.632136	5.10072	0.876101	7.06604	0.358352	2.8959	0.495478	3.98884	0.720054	5.80407	0.810768	6.55072
0.351117	2.80081	0.228934	1.79538	0.351041	2.80103	0.495476	3.97529	0.633222	5.07136	0.876671	7.0179	0.360304	2.88991	0.496636	3.9684	0.720625	5.76538	0.811908	6.51092
0.353054	2.79548	0.230962	1.79815	0.352976	2.79569	0.496936	3.95743	0.634317	5.0425	0.877245	6.97051	0.362255	2.884	0.497803	3.94833	0.721203	5.72731	0.813052	6.47174
0.355013	2.79041	0.23299	1.80088	0.354934	2.7906	0.498399	3.93984	0.635418	5.01412	0.877824	6.92385	0.364203	2.87817	0.498979	3.92863	0.721787	5.68985	0.814201	6.43317
0.356993	2.78557	0.235018	1.80357	0.356914	2.78576	0.499862	3.92252	0.636527	4.98621	0.878407	6.87791	0.36615	2.87241	0.500164	3.90928	0.722376	5.65298	0.815353	6.3952
0.358994	2.78097	0.237047	1.80622	0.358914	2.78115	0.501328	3.90547	0.637644	4.95876	0.878995	6.83266	0.368096	2.86671	0.501358	3.89028	0.722973	5.61669	0.81651	6.35781
0.361015	2.77659	0.239075	1.80883	0.360934	2.77676	0.502794	3.88867	0.638767	4.93177	0.879587	6.7881	0.370039	2.86109	0.502561	3.87163	0.723575	5.58097	0.81767	6.32099
0.363055	2.77241	0.241103	1.81141	0.362973	2.77257	0.504262	3.87212	0.639898	4.90521	0.880183	6.74421	0.371981	2.85553	0.503772	3.8533	0.724183	5.54581	0.818835	6.28472
0.365113	2.76842	0.243131	1.81395	0.36503	2.76858	0.505732	3.85582	0.641037	4.87909	0.880784	6.70098	0.373921	2.85004	0.504993	3.8353	0.724798	5.5112	0.820004	6.24901
0.367188	2.76463	0.24516	1.81645	0.367105	2.76477	0.507203	3.83976	0.642182	4.8534	0.881389	6.65838	0.375859	2.84461	0.506222	3.81763	0.725418	5.47711	0.821176	6.21383
0.369279	2.761	0.247188	1.81892	0.369195	2.76115	0.508676	3.82394	0.643335	4.82811	0.881998	6.61642	0.377794	2.83924	0.50746	3.80026	0.726045	5.44355	0.822353	6.17917
0.371386	2.75755	0.249216	1.82136	0.371302	2.75768	0.510149	3.80834	0.644495	4.80323	0.882612	6.57507	0.379729	2.83393	0.508707	3.7832	0.726677	5.4105	0.823534	6.14502
0.373507	2.75425	0.251244	1.82377	0.373423	2.75438	0.511624	3.79297	0.645662	4.77875	0.88323	6.53432	0.381661	2.82868	0.509963	3.76645	0.727316	5.37795	0.824718	6.11137
0.375643	2.7511	0.253272	1.82614	0.375558	2.75122	0.513101	3.77783	0.646837	4.75466	0.883852	6.49416	0.383591	2.82349	0.511228	3.74998	0.727961	5.34589	0.825907	6.07821
0.377792	2.74808	0.2553	1.82847	0.377706	2.7482	0.514578	3.76289	0.648018	4.73094	0.884479	6.45458	0.385519	2.81835	0.512501	3.73381	0.728612	5.31431	0.827099	6.04553
0.379954	2.7452	0.257328	1.83078	0.379868	2.74532	0.516057	3.74817	0.649207	4.7076	0.88511	6.41556	0.387444	2.81327	0.513783	3.71791	0.729269	5.2832	0.828295	6.01332
0.382128	2.74245	0.259355	1.83305	0.382041	2.74255	0.517537	3.73365	0.650403	4.68462	0.885746	6.3771	0.389368	2.80824	0.515074	3.70229	0.729932	5.25255	0.829495	5.98157
0.384313	2.73981	0.261383	1.8353	0.384225	2.73991	0.519018	3.71934	0.651605	4.662	0.886385	6.33919	0.39129	2.80326	0.516374	3.68695	0.730601	5.22235	0.830698	5.95028
0.386509	2.73728	0.26341	1.83751	0.386421	2.73738	0.520501	3.70523	0.652815	4.63972	0.887029	6.3018	0.393209	2.79834	0.517683	3.67186	0.731275	5.19259	0.831906	5.91942
0.388715	2.73486	0.265437	1.8397	0.388627	2.73496	0.521985	3.6913	0.654032	4.61779	0.887678	6.26494	0.395127	2.79346	0.519	3.65704	0.731956	5.16327	0.833117	5.889
0.390931	2.73254	0.267464	1.84185	0.390842	2.73263	0.523469	3.67757	0.655255	4.5962	0.888331	6.22859	0.397042	2.78863	0.520326	3.64247	0.732643	5.13437	0.834331	5.859
0.393156	2.73031	0.269491	1.84398	0.393067	2.7304	0.524955	3.66403	0.656486	4.57493	0.888988	6.19275	0.398955	2.78385	0.521661	3.62815	0.733336	5.10588	0.83555	5.82941
0.395389	2.72817	0.271517	1.84608	0.3953	2.72825	0.526442	3.65067	0.657723	4.55398	0.88965	6.15739	0.400865	2.77911	0.523005	3.61408	0.734034	5.07781	0.836772	5.80023
0.397631	2.72612	0.273544	1.84815	0.397542	2.7262	0.52793	3.63748	0.658968	4.53335	0.890316	6.12252	0.402774	2.77442	0.524357	3.60024	0.734739	5.05013	0.837997	5.77146
0.399881	2.72414	0.27557	1.85019	0.399791	2.72422	0.529419	3.62448	0.660218	4.51303	0.890986	6.08812	0.40468	2.76978	0.525718	3.58664	0.735449	5.02285	0.839226	5.74307
0.402138	2.72224	0.277595	1.8522	0.402048	2.72231	0.530909	3.61164	0.661476	4.49302	0.891661	6.05419	0.406584	2.76518	0.527087	3.57327	0.736165	4.99595	0.840459	5.71506
0.404403	2.72041	0.279621	1.85419	0.404312	2.72048	0.532401	3.59898	0.662741	4.4733	0.89234	6.02071	0.408485	2.76062	0.528465	3.56013	0.736887	4.96943	0.841695	5.68744
0.406673	2.71864	0.281646	1.85615	0.406583	2.71871	0.533893	3.58648	0.664012	4.45387	0.893023	5.98768	0.410385	2.7561	0.529852	3.5472	0.737615	4.94328	0.842934	5.66018
0.408951	2.71694	0.283671	1.85809	0.40886	2.71701	0.535386	3.57414	0.66529	4.43472	0.893711	5.95509	0.412282	2.75162	0.531247	3.5345	0.738349	4.91749	0.844177	5.63328
0.411234	2.71531	0.285696	1.86	0.411142	2.71537	0.536881	3.56196	0.666574	4.41586	0.894403	5.92293	0.414176	2.74718	0.532651	3.52201	0.739089	4.89206	0.845424	5.60674
0.413522	2.71372	0.28772	1.86188	0.413431	2.71379	0.538376	3.54994	0.667865	4.39727	0.895099	5.8912	0.416068	2.74278	0.534063	3.50972	0.739834	4.86698	0.846674	5.58055
0.415816	2.7122	0.289744	1.86375	0.415725	2.71226	0.539873	3.53807	0.669163	4.37895	0.8958	5.85988	0.417958	2.73842	0.535484	3.49764	0.740586	4.84225	0.847927	5.5547
0.418116	2.71072	0.291768	1.86558	0.418024	2.71078	0.54137	3.52635	0.670467	4.3609	0.896505	5.82896	0.419846	2.7341	0.536913	3.48577	0.741343	4.81785	0.849183	5.52918
0.42042	2.70929	0.293791	1.86739	0.420328	2.70935	0.542869	3.51478	0.671777	4.3431	0.897215	5.79845	0.421731	2.72981	0.538351	3.47409	0.742105	4.79378	0.850443	5.50399
0.422728	2.70791	0.295814	1.86918	0.422636	2.70796	0.544368	3.50336	0.673094	4.32556	0.897929	5.76833	0.423613	2.72556	0.539797	3.4626	0.742874	4.77003	0.851706	5.47913
0.425041	2.70657	0.297837	1.87095	0.424949	2.70662	0.545869	3.49208	0.674417	4.30827	0.898647	5.7386	0.425494	2.72134	0.541251	3.4513	0.743648	4.74661	0.852972	5.45458
0.427358	2.70527	0.299859	1.87269	0.427265	2.70532	0.54737	3.48093	0.675747	4.29122	0.89937	5.70925	0.427372	2.71716	0.542714	3.44019	0.744428	4.7235	0.854242	5.43035
0.429678	2.70402	0.301881	1.87441	0.429586	2.70407	0.548873	3.46993	0.677083	4.27442	0.900097	5.68027	0.429247	2.71302	0.544185	3.42926	0.745214	4.70069	0.855515	5.40642
0.432003	2.7028	0.303902	1.87611	0.43191	2.70284	0.550376	3.45906	0.678425	4.25785	0.900828	5.65165	0.43112	2.70891	0.545664	3.41851	0.746005	4.67819	0.85679	5.38279
0.434331	2.70161	0.305923	1.87779	0.434238	2.70166	0.551881	3.44832	0.679773	4.24151	0.901564	5.6234	0.432991	2.70483	0.547152	3.40794	0.746802	4.65599	0.858069	5.35945
0.436662	2.70046	0.307944	1.87944	0.436569	2.70051	0.553386	3.43772	0.681128	4.2254	0.902304	5.5955	0.43486	2.70078	0.548647	3.39754	0.747605	4.63407	0.859351	5.3364
0.438996	2.69934	0.309964	1.88108	0.438903	2.69939	0.554893	3.42724	0.682488	4.20951	0.903048	5.56794	0.436726	2.69676	0.550151	3.38731	0.748414	4.61245	0.860636	5.31364
0.441333	2.69826	0.311984	1.88269	0.44124	2.6983	0.556401	3.41689	0.683855	4.19384	0.903797	5.54073	0.438589	2.69278	0.551663	3.37724	0.749228	4.5911	0.861925	5.29116
0.443673	2.6972	0.314003	1.88428	0.44358	2.69724	0.557909	3.40666	0.685228	4.17838	0.90455	5.51385	0.440451	2.68883	0.553183	3.36734	0.750047	4.57003	0.863216	5.26895
0.446015	2.69617	0.316022	1.88585	0.445922	2.69621	0.559419	3.39656	0.686607	4.16313	0.905308	5.48731	0.442309	2.6849	0.55471	3.3576	0.750873	4.54924	0.86451	5.24701
0.44836	2.69516	0.318041	1.8874	0.448267	2.6952	0.56093	3.38658	0.687991	4.1481	0.90607	5.46109	0.444166	2.68101	0.556246	3.34801	0.751704	4.52871	0.865807	5.22533
0.450708	2.69418	0.320059	1.88893	0.450614	2.69422	0.562442	3.37671	0.689382	4.13326	0.906836	5.43518	0.44602	2.67715	0.55779	3.33858	0.75254	4.50844	0.867107	5.20392
0.453057	2.69323	0.322076	1.89045	0.452963	2.69327	0.563955	3.36696	0.690778	4.11863	0.907607	5.40959	0.447872	2.67331	0.559341	3.3293	0.753382	4.48843	0.86841	5.18276
0.455409	2.6923	0.324093	1.89194	0.455315	2.69233	0.565469	3.35732	0.692181	4.10419	0.908382	5.38431	0.449722	2.66951	0.560901	3.32017	0.75423	4.46868	0.869716	5.16185
0.457762	2.69139	0.32611	1.89341	0.457668	2.69142	0.566984	3.3478	0.693589	4.08994	0.909161	5.35934	0.451569	2.66573	0.562468	3.31119	0.755083	4.44917	0.871024	5.14119
0.460117	2.6905	0.328126	1.89487	0.460023	2.69053	0.5685	3.33839	0.695002	4.07589	0.909945	5.33466	0.453415	2.66198	0.564042	3.30234	0.755942	4.42991	0.872336	5.12077
0.462474	2.68962	0.330141	1.8963	0.46238	2.68966	0.570018	3.32909	0.696422	4.06202	0.910733	5.31027	0.455258	2.65826	0.565625	3.29364	0.756806	4.4109	0.87365	5.10058
0.464833	2.68877	0.332156	1.89772	0.464739	2.68881	0.571536	3.31989	0.697847	4.04833	0.911526	5.28618	0.457098	2.65457	0.567215	3.28508	0.757676	4.39212	0.874967	5.08064
0.467193	2.68794	0.334171	1.89912	0.467099	2.68797	0.573056	3.3108	0.699277	4.03482	0.912323	5.26237	0.458937	2.6509	0.568812	3.27665	0.758551	4.37357	0.876287	5.06092
0.469554	2.68712	0.336185	1.90051	0.46946	2.68715	0.574577	3.30181	0.700713	4.02149	0.913124	5.23883	0.460773	2.64726	0.570417	3.26835	0.759432	4.35525	0.877609	5.04143
0.471917	2.68632	0.338198	1.90187	0.471823	2.68635	0.576099	3.29293	0.702155	4.00833	0.91393	5.21558	0.462607	2.64365	0.572029	3.26018	0.760319	4.33716	0.878935	5.02217
0.474281	2.68553	0.340211	1.90322	0.474187	2.68556	0.577622	3.28415	0.703602	3.99534	0.91474	5.19259	0.464439	2.64006	0.573649	3.25215	0.76121	4.31929	0.880262	5.00312
0.476646	2.68476	0.342224	1.90455	0.476552	2.68479	0.579147	3.27546	0.705054	3.98252	0.915554	5.16987	0.466269	2.6365	0.575276	3.24423	0.762108	4.30164	0.881593	4.98428
0.479012	2.684	0.344235	1.90586	0.478918	2.68403	0.580673	3.26688	0.706512	3.96986	0.916373	5.14741	0.468097	2.63297	0.57691	3.23644	0.763011	4.28421	0.882926	4.96566
0.481379	2.68326	0.346247	1.90716	0.481285	2.68329	0.5822	3.25839	0.707975	3.95736	0.917196	5.12521	0.469923	2.62945	0.578551	3.22878	0.763919	4.26699	0.884261	4.94725
0.483747	2.68252	0.348257	1.90844	0.483653	2.68255	0.583728	3.25	0.709444	3.94502	0.918023	5.10327	0.471746	2.62597	0.580199	3.22123	0.764832	4.24997	0.8856	4.92905
0.486116	2.6818	0.350268	1.90971	0.486021	2.68183	0.585258	3.2417	0.710917	3.93284	0.918855	5.08158	0.473568	2.62251	0.581855	3.21379	0.765751	4.23316	0.88694	4.91104
0.488485	2.68109	0.352277	1.91096	0.488391	2.68112	0.586789	3.2335	0.712396	3.92081	0.919692	5.06013	0.475388	2.61907	0.583517	3.20647	0.766676	4.21656	0.888283	4.89323
0.490855	2.68039	0.354286	1.91219	0.49076	2.68042	0.588322	3.22538	0.713879	3.90893	0.920532	5.03892	0.477206	2.61566	0.585186	3.19927	0.767606	4.20015	0.889629	4.87562
0.493225	2.67971	0.356294	1.91341	0.493131	2.67973	0.589856	3.21736	0.715368	3.8972	0.921377	5.01796	0.479022	2.61228	0.586862	3.19217	0.768541	4.18394	0.890977	4.8582
0.495596	2.67903	0.358302	1.91461	0.495502	2.67905	0.591391	3.20942	0.716862	3.88562	0.922227	4.99723	0.480836	2.60891	0.588545	3.18518	0.769482	4.16792	0.892327	4.84097
0.497968	2.67836	0.360309	1.9158	0.497873	2.67838	0.592928	3.20158	0.71836	3.87418	0.923081	4.97673	0.482649	2.60558	0.590234	3.1783	0.770428	4.15209	0.89368	4.82393
0.500339	2.67769	0.362316	1.91697	0.500245	2.67772	0.594467	3.19381	0.719864	3.86288	0.923939	4.95646	0.484459	2.60226	0.59193	3.17152	0.771379	4.13644	0.895035	4.80707
0.502711	2.67704	0.364322	1.91813	0.502617	2.67706	0.596007	3.18614	0.721372	3.85171	0.924801	4.93641	0.486268	2.59897	0.593633	3.16484	0.772336	4.12098	0.896393	4.79039
0.505083	2.67639	0.366327	1.91927	0.504989	2.67642	0.597548	3.17855	0.722886	3.84069	0.925668	4.91659	0.488075	2.5957	0.595342	3.15826	0.773298	4.10571	0.897753	4.77389
0.507456	2.67575	0.368332	1.9204	0.507361	2.67578	0.599091	3.17104	0.724404	3.82979	0.92654	4.89698	0.48988	2.59246	0.597057	3.15179	0.774265	4.09061	0.899115	4.75756
0.509828	2.67512	0.370336	1.92152	0.509733	2.67514	0.600636	3.16362	0.725926	3.81903	0.927415	4.87759	0.491684	2.58924	0.598779	3.1454	0.775238	4.07569	0.900479	4.74141
0.5122	2.67449	0.37234	1.92262	0.512106	2.67452	0.602182	3.15627	0.727454	3.8084	0.928295	4.85841	0.493486	2.58604	0.600507	3.13912	0.776216	4.06094	0.901846	4.72542
0.514572	2.67387	0.374342	1.9237	0.514478	2.67389	0.603731	3.14901	0.728985	3.7979	0.92918	4.83945	0.495287	2.58287	0.602241	3.13292	0.777199	4.04636	0.903215	4.7096
0.516945	2.67325	0.376345	1.92478	0.51685	2.67328	0.605281	3.14183	0.730522	3.78752	0.930069	4.82068	0.497086	2.57971	0.603981	3.12682	0.778188	4.03195	0.904586	4.69395
0.519316	2.67264	0.378346	1.92584	0.519222	2.67267	0.606832	3.13472	0.732063	3.77726	0.930962	4.80212	0.498884	2.57659	0.605727	3.12081	0.779182	4.0177	0.905959	4.67845
0.521688	2.67204	0.380347	1.92688	0.521593	2.67206	0.608386	3.12769	0.733608	3.76712	0.93186	4.78376	0.50068	2.57348	0.607479	3.11488	0.780181	4.00362	0.907334	4.66312
0.524059	2.67143	0.382347	1.92792	0.523965	2.67146	0.609941	3.12074	0.735158	3.75711	0.932762	4.7656	0.502475	2.5704	0.609237	3.10904	0.781185	3.9897	0.908711	4.64794
0.52643	2.67083	0.384347	1.92894	0.526336	2.67086	0.611499	3.11387	0.736712	3.74721	0.933668	4.74763	0.504268	2.56733	0.611001	3.10329	0.782195	3.97594	0.910091	4.63292
0.528801	2.67024	0.386346	1.92995	0.528706	2.67026	0.613058	3.10707	0.73827	3.73742	0.934579	4.72985	0.50606	2.56429	0.61277	3.09762	0.78321	3.96233	0.911472	4.61805
0.53117	2.66964	0.388344	1.93094	0.531076	2.66967	0.614619	3.10034	0.739833	3.72775	0.935494	4.71227	0.507851	2.56128	0.614545	3.09203	0.78423	3.94888	0.912856	4.60333
0.53354	2.66905	0.390342	1.93192	0.533445	2.66908	0.616183	3.09369	0.7414	3.71819	0.936413	4.69486	0.509641	2.55828	0.616325	3.08652	0.785256	3.93558	0.914241	4.58875
0.535908	2.66847	0.392339	1.93289	0.535814	2.66849	0.617748	3.0871	0.742971	3.70874	0.937337	4.67765	0.511429	2.55531	0.618111	3.08108	0.786286	3.92243	0.915629	4.57433
0.538276	2.66788	0.394335	1.93385	0.538182	2.6679	0.619316	3.0806	0.744546	3.69939	0.938266	4.66061	0.513217	2.55236	0.619903	3.07573	0.787322	3.90943	0.917018	4.56004
0.540644	2.6673	0.39633	1.9348	0.540549	2.66732	0.620886	3.07416	0.746125	3.69016	0.939198	4.64375	0.515003	2.54943	0.621699	3.07045	0.788363	3.89657	0.918409	4.5459
0.54301	2.66671	0.398325	1.93573	0.542916	2.66674	0.622458	3.06779	0.747708	3.68103	0.940136	4.62707	0.516788	2.54652	0.623501	3.06524	0.78941	3.88386	0.919802	4.5319
0.545375	2.66613	0.400319	1.93665	0.545281	2.66615	0.624032	3.06149	0.749295	3.672	0.941077	4.61056	0.518573	2.54364	0.625308	3.06011	0.790461	3.87128	0.921198	4.51803
0.54774	2.66555	0.402313	1.93757	0.547646	2.66557	0.625609	3.05526	0.750886	3.66307	0.942023	4.59423	0.520356	2.54077	0.62712	3.05505	0.791518	3.85885	0.922594	4.5043
0.550103	2.66497	0.404306	1.93846	0.550009	2.66499	0.627188	3.0491	0.752481	3.65424	0.942973	4.57806	0.522138	2.53793	0.628936	3.05005	0.79258	3.84656	0.923993	4.4907
0.552466	2.66439	0.406298	1.93935	0.552371	2.66441	0.62877	3.04301	0.754079	3.64551	0.943928	4.56206	0.52392	2.53511	0.630758	3.04513	0.793647	3.8344	0.925394	4.47723
0.554827	2.6638	0.408289	1.94023	0.554733	2.66383	0.630354	3.03698	0.755681	3.63687	0.944887	4.54622	0.525701	2.53231	0.632585	3.04027	0.794719	3.82237	0.926796	4.4639
0.557187	2.66322	0.41028	1.94109	0.557093	2.66324	0.631941	3.03102	0.757287	3.62833	0.945851	4.53055	0.52748	2.52953	0.634416	3.03548	0.795797	3.81048	0.9282	4.45069
0.559545	2.66264	0.41227	1.94195	0.559451	2.66266	0.633531	3.02512	0.758897	3.61988	0.946819	4.51503	0.52926	2.52677	0.636252	3.03075	0.796879	3.79872	0.929606	4.4376
0.561903	2.66205	0.414259	1.94279	0.561809	2.66208	0.635123	3.0193	0.76051	3.61153	0.947791	4.49968	0.531038	2.52404	0.638092	3.02609	0.797967	3.78708	0.931014	4.42464
0.564258	2.66147	0.416247	1.94363	0.564164	2.66149	0.636718	3.01353	0.762127	3.60326	0.948768	4.48448	0.532816	2.52132	0.639937	3.02149	0.79906	3.77557	0.932423	4.41181
0.566613	2.66088	0.418235	1.94445	0.566519	2.6609	0.638316	3.00783	0.763747	3.59509	0.949749	4.46943	0.534593	2.51863	0.641786	3.01695	0.800158	3.76419	0.933834	4.39909
0.568965	2.66029	0.420222	1.94526	0.568872	2.66031	0.639917	3.00219	0.765371	3.587	0.950734	4.45454	0.53637	2.51595	0.64364	3.01247	0.801261	3.75293	0.935246	4.38649
0.571316	2.65969	0.422209	1.94606	0.571223	2.65971	0.64152	2.99662	0.766998	3.579	0.951724	4.4398	0.538146	2.5133	0.645498	3.00805	0.80237	3.74179	0.93666	4.37401
0.573665	2.65909	0.424194	1.94685	0.573572	2.65912	0.643127	2.99111	0.768628	3.57108	0.952718	4.4252	0.539922	2.51067	0.64736	3.00368	0.803483	3.73078	0.938076	4.36164
0.576013	2.65849	0.426179	1.94764	0.575919	2.65852	0.644737	2.98566	0.770262	3.56325	0.953717	4.41075	0.541697	2.50806	0.649226	2.99937	0.804602	3.71988	0.939493	4.34939
0.578358	2.65789	0.428163	1.94841	0.578265	2.65791	0.646351	2.98027	0.771899	3.5555	0.95472	4.39645	0.543472	2.50547	0.651096	2.99512	0.805726	3.7091	0.940912	4.33725
0.580702	2.65728	0.430147	1.94917	0.580608	2.65731	0.647967	2.97494	0.77354	3.54783	0.955728	4.38229	0.545247	2.5029	0.65297	2.99092	0.806855	3.69843	0.942332	4.32522
0.583043	2.65667	0.432129	1.94992	0.58295	2.65669	0.649587	2.96968	0.775183	3.54023	0.95674	4.36827	0.547021	2.50035	0.654848	2.98678	0.807989	3.68788	0.943754	4.3133
0.585382	2.65605	0.434111	1.95066	0.585289	2.65608	0.651211	2.96447	0.776829	3.53272	0.957756	4.35438	0.548795	2.49782	0.656729	2.98268	0.809128	3.67744	0.945177	4.30149
0.587719	2.65543	0.436092	1.9514	0.587626	2.65545	0.652838	2.95933	0.778479	3.52529	0.958777	4.34064	0.550569	2.49531	0.658614	2.97864	0.810272	3.66712	0.946602	4.28979
0.590054	2.6548	0.438073	1.95212	0.589961	2.65483	0.654468	2.95424	0.780132	3.51793	0.959802	4.32703	0.552343	2.49283	0.660503	2.97465	0.811422	3.6569	0.948028	4.27818
0.592386	2.65417	0.440053	1.95283	0.592293	2.65419	0.656103	2.94922	0.781787	3.51064	0.960831	4.31355	0.554116	2.49036	0.662395	2.97071	0.812576	3.64679	0.949456	4.26669
0.594715	2.65353	0.442032	1.95354	0.594622	2.65355	0.657741	2.94425	0.783446	3.50343	0.961865	4.30021	0.55589	2.48791	0.664291	2.96681	0.813736	3.63679	0.950884	4.25529
0.597042	2.65288	0.44401	1.95424	0.59695	2.65291	0.659383	2.93934	0.785107	3.4963	0.962904	4.28699	0.557663	2.48548	0.66619	2.96296	0.814901	3.62689	0.952315	4.244
0.599366	2.65223	0.445987	1.95492	0.599274	2.65226	0.66103	2.93449	0.786771	3.48923	0.963947	4.27391	0.559436	2.48308	0.668092	2.95916	0.816071	3.6171	0.953746	4.2328
0.601688	2.65157	0.447964	1.9556	0.601595	2.6516	0.66268	2.9297	0.788438	3.48224	0.964994	4.26095	0.56121	2.48069	0.669998	2.95541	0.817246	3.60741	0.955179	4.22171
0.604006	2.6509	0.44994	1.95627	0.603914	2.65093	0.664335	2.92497	0.790108	3.47531	0.966045	4.24811	0.562983	2.47832	0.671906	2.95169	0.818426	3.59782	0.956614	4.21071
0.606321	2.65023	0.451915	1.95693	0.606229	2.65025	0.665993	2.9203	0.79178	3.46845	0.967101	4.23541	0.564757	2.47597	0.673818	2.94803	0.819611	3.58833	0.958049	4.1998
0.608633	2.64954	0.45389	1.95758	0.608541	2.64957	0.667657	2.91568	0.793455	3.46166	0.968162	4.22282	0.56653	2.47365	0.675732	2.9444	0.820801	3.57895	0.959486	4.18899
0.610942	2.64885	0.455863	1.95823	0.61085	2.64888	0.669325	2.91112	0.795133	3.45494	0.969227	4.21035	0.568304	2.47134	0.67765	2.94082	0.821997	3.56966	0.960924	4.17827
0.613248	2.64815	0.457836	1.95886	0.613156	2.64818	0.670998	2.90661	0.796813	3.44828	0.970296	4.19801	0.570078	2.46905	0.67957	2.93727	0.823197	3.56046	0.962363	4.16765
0.61555	2.64744	0.459808	1.95949	0.615458	2.64747	0.672675	2.90217	0.798496	3.44168	0.97137	4.18578	0.571853	2.46678	0.681493	2.93377	0.824403	3.55137	0.963803	4.15711
0.617848	2.64672	0.46178	1.96011	0.617756	2.64675	0.674357	2.89778	0.800181	3.43515	0.972448	4.17367	0.573627	2.46453	0.683419	2.93031	0.825614	3.54237	0.965245	4.14667
0.620143	2.64599	0.463751	1.96072	0.620051	2.64602	0.676045	2.89344	0.801869	3.42868	0.973531	4.16168	0.575402	2.4623	0.685347	2.92688	0.826829	3.53346	0.966688	4.13631
0.622433	2.64524	0.46572	1.96132	0.622342	2.64527	0.677737	2.88917	0.803559	3.42228	0.974618	4.14979	0.577177	2.46009	0.687278	2.9235	0.82805	3.52464	0.968132	4.12604
0.62472	2.64449	0.46769	1.96191	0.624629	2.64452	0.679435	2.88495	0.805251	3.41593	0.975709	4.13803	0.578953	2.4579	0.689211	2.92015	0.829276	3.51592	0.969577	4.11585
0.627002	2.64373	0.469658	1.9625	0.626911	2.64376	0.681138	2.88078	0.806946	3.40964	0.976805	4.12637	0.580729	2.45572	0.691147	2.91683	0.830508	3.50728	0.971023	4.10575
0.629281	2.64295	0.471626	1.96308	0.62919	2.64298	0.682847	2.87667	0.808643	3.40341	0.977905	4.11482	0.582506	2.45357	0.693085	2.91356	0.831744	3.49874	0.97247	4.09574
0.631555	2.64216	0.473592	1.96365	0.631464	2.64219	0.684562	2.87262	0.810342	3.39724	0.97901	4.10338	0.584282	2.45143	0.695025	2.91031	0.832985	3.49028	0.973918	4.0858
0.633824	2.64136	0.475559	1.96422	0.633733	2.64139	0.686282	2.86863	0.812043	3.39113	0.980119	4.09205	0.58606	2.44931	0.696967	2.9071	0.834232	3.48191	0.975368	4.07595
0.636088	2.64054	0.477524	1.96477	0.635998	2.64058	0.688008	2.86468	0.813747	3.38507	0.981233	4.08083	0.587838	2.44722	0.698911	2.90393	0.835483	3.47363	0.976818	4.06618
0.638348	2.63972	0.479488	1.96532	0.638258	2.63975	0.689741	2.8608	0.815452	3.37907	0.982351	4.06971	0.589616	2.44514	0.700857	2.90079	0.83674	3.46543	0.978269	4.05649
0.640603	2.63887	0.481452	1.96586	0.640513	2.63891	0.691479	2.85697	0.81716	3.37313	0.983473	4.05869	0.591396	2.44308	0.702806	2.89768	0.838002	3.45731	0.979722	4.04688
0.642853	2.63802	0.483415	1.9664	0.642763	2.63805	0.693224	2.8532	0.81887	3.36723	0.9846	4.04778	0.593175	2.44103	0.704756	2.8946	0.839269	3.44928	0.981175	4.03734
0.645098	2.63714	0.485378	1.96693	0.645008	2.63718	0.694976	2.84948	0.820581	3.36139	0.985731	4.03697	0.594956	2.43901	0.706708	2.89155	0.840541	3.44133	0.982629	4.02789
0.647337	2.63626	0.487339	1.96745	0.647247	2.63629	0.696734	2.84582	0.822295	3.3556	0.986867	4.02626	0.596737	2.437	0.708661	2.88853	0.841818	3.43347	0.984084	4.0185
0.64957	2.63535	0.4893	1.96796	0.649481	2.63539	0.698499	2.84221	0.82401	3.34987	0.988007	4.01564	0.598519	2.43501	0.710617	2.88554	0.843101	3.42568	0.98554	4.0092
0.651798	2.63444	0.49126	1.96847	0.651709	2.63447	0.70027	2.83866	0.825727	3.34418	0.989152	4.00513	0.600301	2.43304	0.712574	2.88258	0.844388	3.41797	0.986997	3.99996
0.65402	2.6335	0.493219	1.96897	0.653932	2.63354	0.702049	2.83516	0.827446	3.33855	0.990301	3.99471	0.602084	2.43109	0.714532	2.87965	0.845681	3.41034	0.988455	3.9908
0.656237	2.63255	0.495177	1.96946	0.656148	2.63259	0.703836	2.83172	0.829167	3.33296	0.991455	3.98439	0.603869	2.42916	0.716492	2.87675	0.846979	3.40279	0.989914	3.98171
0.658447	2.63158	0.497135	1.96995	0.658359	2.63162	0.705629	2.82833	0.83089	3.32742	0.992613	3.97416	0.605653	2.42724	0.718453	2.87387	0.848282	3.39532	0.991373	3.9727
0.66065	2.63059	0.499092	1.97043	0.660563	2.63063	0.707431	2.825	0.832614	3.32193	0.993775	3.96403	0.607439	2.42534	0.720416	2.87102	0.84959	3.38792	0.992834	3.96375
0.662848	2.62958	0.501048	1.9709	0.66276	2.62962	0.709239	2.82173	0.83434	3.31649	0.994942	3.95399	0.609226	2.42346	0.72238	2.8682	0.850903	3.38059	0.994295	3.95487
0.665039	2.62856	0.503004	1.97137	0.664952	2.6286	0.711056	2.81851	0.836068	3.3111	0.996113	3.94404	0.611013	2.42159	0.724345	2.8654	0.852222	3.37335	0.995757	3.94606
0.667223	2.62752	0.504958	1.97183	0.667136	2.62756	0.712881	2.81534	0.837797	3.30575	0.997289	3.93418	0.612801	2.41974	0.726311	2.86263	0.853545	3.36617	0.99722	3.93732
0.669401	2.62646	0.506912	1.97228	0.669314	2.6265	0.714713	2.81223	0.839527	3.30044	0.998469	3.92442	0.614591	2.41791	0.728278	2.85988	0.854874	3.35907	0.998683	3.92865
0.671571	2.62538	0.508865	1.97273	0.671485	2.62542	0.716554	2.80918	0.841259	3.29518	0.999654	3.91474	0.616381	2.4161	0.730246	2.85716	0.856208	3.35204	1.00015	3.92004
0.673735	2.62427	0.510818	1.97317	0.673649	2.62432	0.718404	2.80618	0.842993	3.28997	1.00084	3.90515	0.618172	2.4143	0.732215	2.85446	0.857547	3.34508		
0.675891	2.62315	0.512769	1.97361	0.675805	2.6232	0.720261	2.80323	0.844728	3.28479			0.619964	2.41252	0.734185	2.85178	0.858891	3.33819		
0.67804	2.62201	0.51472	1.97404	0.677955	2.62206	0.722128	2.80034	0.846464	3.27966			0.621757	2.41076	0.736156	2.84912	0.860241	3.33137		
0.680182	2.62085	0.51667	1.97446	0.680097	2.6209	0.724003	2.79751	0.848202	3.27458			0.623551	2.40902	0.738128	2.84649	0.861596	3.32462		
0.682316	2.61967	0.51862	1.97488	0.682231	2.61972	0.725887	2.79473	0.849941	3.26953			0.625346	2.40729	0.7401	2.84388	0.862956	3.31794		
0.684443	2.61847	0.520568	1.97529	0.684358	2.61852	0.72778	2.792	0.851682	3.26452			0.627143	2.40557	0.742073	2.84128	0.864321	3.31133		
0.686562	2.61725	0.522516	1.9757	0.686477	2.6173	0.729681	2.78932	0.853423	3.25956			0.62894	2.40388	0.744046	2.83871	0.865691	3.30478		
0.688673	2.61601	0.524463	1.9761	0.688589	2.61606	0.731592	2.7867	0.855166	3.25463			0.630738	2.4022	0.74602	2.83616	0.867067	3.2983		
0.690776	2.61474	0.52641	1.97649	0.690693	2.61479	0.733513	2.78414	0.85691	3.24975			0.632538	2.40053	0.747995	2.83363	0.868448	3.29189		
0.692872	2.61346	0.528355	1.97688	0.692788	2.61351	0.735442	2.78162	0.858656	3.2449			0.634338	2.39888	0.749969	2.83112	0.869834	3.28554		
0.69496	2.61215	0.5303	1.97727	0.694876	2.6122	0.73738	2.77916	0.860402	3.24009			0.63614	2.39725	0.751944	2.82863	0.871225	3.27926		
0.697039	2.61083	0.532245	1.97765	0.696956	2.61088	0.739328	2.77675	0.862149	3.23532			0.637943	2.39563	0.75392	2.82615	0.872622	3.27303		
0.699111	2.60948	0.534188	1.97802	0.699028	2.60953	0.741286	2.7744	0.863898	3.23059			0.639747	2.39403	0.755895	2.8237	0.874024	3.26688		
0.701174	2.60811	0.536131	1.97839	0.701092	2.60817	0.743252	2.77209	0.865647	3.22589			0.641552	2.39244	0.757871	2.82126	0.875431	3.26078		
0.70323	2.60672	0.538073	1.97875	0.703148	2.60678	0.745228	2.76984	0.867398	3.22123			0.643358	2.39087	0.759847	2.81884	0.876843	3.25475		
0.705278	2.60532	0.540014	1.97911	0.705196	2.60537	0.747214	2.76763	0.869149	3.21661			0.645166	2.38932	0.761823	2.81643	0.878261	3.24877		
0.707317	2.60389	0.541954	1.97946	0.707236	2.60395	0.749209	2.76548	0.870902	3.21202			0.646975	2.38778	0.763798	2.81404	0.879684	3.24286		
0.709349	2.60244	0.543894	1.97981	0.709268	2.6025	0.751213	2.76337	0.872655	3.20746			0.648785	2.38625	0.765774	2.81167	0.881113	3.23701		
0.711373	2.60098	0.545833	1.98015	0.711292	2.60103	0.753227	2.76132	0.874409	3.20294			0.650596	2.38474	0.76775	2.80932	0.882546	3.23122		
0.713388	2.59949	0.547772	1.98049	0.713308	2.59955	0.75525	2.75931	0.876164	3.19845			0.652408	2.38325	0.769725	2.80697	0.883985	3.22548		
0.715396	2.59799	0.549709	1.98082	0.715316	2.59805	0.757283	2.75735	0.87792	3.194			0.654222	2.38177	0.7717	2.80465	0.885429	3.21981		
0.717397	2.59647	0.551646	1.98115	0.717317	2.59653	0.759324	2.75544	0.879677	3.18958			0.656037	2.3803	0.773675	2.80234	0.886879	3.21419		
0.719389	2.59493	0.553582	1.98148	0.71931	2.59499	0.761375	2.75357	0.881434	3.18519			0.657853	2.37885	0.77565	2.80004	0.888334	3.20863		
0.721374	2.59337	0.555518	1.98179	0.721295	2.59343	0.763435	2.75175	0.883192	3.18084			0.659671	2.37741	0.777624	2.79776	0.889794	3.20312		
0.723351	2.5918	0.557453	1.98211	0.723272	2.59186	0.765504	2.74997	0.884951	3.17651			0.66149	2.37599	0.779597	2.79549	0.89126	3.19767		
0.725321	2.59021	0.559387	1.98242	0.725242	2.59027	0.767582	2.74823	0.886711	3.17222			0.66331	2.37458	0.781571	2.79323	0.892731	3.19228		
0.727283	2.5886	0.56132	1.98272	0.727205	2.58867	0.769669	2.74654	0.888471	3.16796			0.665131	2.37318	0.783543	2.79099	0.894207	3.18694		
0.729239	2.58698	0.563253	1.98302	0.729161	2.58705	0.771764	2.74489	0.890232	3.16372			0.666954	2.3718	0.785515	2.78875	0.895689	3.18166		
0.731187	2.58535	0.565185	1.98332	0.731109	2.58542	0.773868	2.74329	0.891993	3.15952			0.668778	2.37043	0.787487	2.78654	0.897176	3.17643		
0.733128	2.5837	0.567116	1.98361	0.733051	2.58377	0.77598	2.74172	0.893755	3.15535			0.670603	2.36908	0.789457	2.78433	0.898669	3.17125		
0.735062	2.58204	0.569046	1.9839	0.734985	2.58211	0.7781	2.74019	0.895517	3.15121			0.67243	2.36774	0.791427	2.78214	0.900167	3.16613		
0.73699	2.58037	0.570976	1.98418	0.736913	2.58044	0.780229	2.7387	0.89728	3.14709			0.674258	2.36641	0.793396	2.77995	0.90167	3.16106		
0.738912	2.57868	0.572906	1.98446	0.738835	2.57875	0.782366	2.73725	0.899044	3.14301			0.676088	2.3651	0.795364	2.77778	0.903179	3.15604		
0.740826	2.57699	0.574834	1.98474	0.74075	2.57706	0.78451	2.73583	0.900808	3.13895			0.677918	2.3638	0.797332	2.77562	0.904693	3.15107		
0.742735	2.57528	0.576762	1.98501	0.742659	2.57535	0.786663	2.73446	0.902572	3.13492			0.67975	2.36252	0.799298	2.77347	0.906213	3.14615		
0.744638	2.57356	0.578689	1.98527	0.744562	2.57363	0.788823	2.73311	0.904337	3.13092			0.681584	2.36124	0.801264	2.77133	0.907738	3.14129		
0.746534	2.57184	0.580616	1.98554	0.746459	2.57191	0.79099	2.7318	0.906102	3.12694			0.683419	2.35998	0.803228	2.7692	0.909269	3.13647		
0.748425	2.5701	0.582541	1.98579	0.74835	2.57017	0.793164	2.73052	0.907868	3.12299			0.685255	2.35873	0.805192	2.76708	0.910805	3.1317		
0.750311	2.56836	0.584467	1.98605	0.750236	2.56843	0.795345	2.72928	0.909634	3.11907			0.687092	2.3575	0.807154	2.76497	0.912346	3.12699		
0.752191	2.56661	0.586391	1.9863	0.752116	2.56668	0.797534	2.72807	0.9114	3.11518			0.688931	2.35627	0.809115	2.76287	0.913893	3.12232		
0.754066	2.56485	0.588315	1.98655	0.753991	2.56492	0.799729	2.72688	0.913167	3.11131			0.690772	2.35506	0.811075	2.76078	0.915445	3.1177		
0.755935	2.56309	0.590238	1.98679	0.755861	2.56316	0.80193	2.72573	0.914934	3.10746			0.692613	2.35387	0.813033	2.7587	0.917003	3.11312		
0.7578	2.56132	0.592161	1.98703	0.757726	2.56139	0.804138	2.72461	0.916701	3.10364			0.694456	2.35268	0.814991	2.75663	0.918566	3.1086		
0.75966	2.55955	0.594082	1.98727	0.759586	2.55962	0.806352	2.72351	0.918468	3.09985			0.696301	2.35151	0.816947	2.75456	0.920135	3.10412		
0.761516	2.55777	0.596004	1.9875	0.761442	2.55784	0.808572	2.72244	0.920236	3.09608			0.698147	2.35034	0.818901	2.75251	0.921709	3.09969		
0.763367	2.55599	0.597924	1.98773	0.763293	2.55606	0.810798	2.7214	0.922004	3.09234			0.699994	2.34919	0.820855	2.75046	0.923288	3.0953		
0.765213	2.5542	0.599844	1.98795	0.76514	2.55428	0.813029	2.72038	0.923772	3.08862			0.701842	2.34806	0.822807	2.74842	0.924873	3.09096		
0.767056	2.55242	0.601764	1.98818	0.766983	2.55249	0.815266	2.71939	0.925541	3.08492			0.703692	2.34693	0.824757	2.74639	0.926464	3.08666		
0.768895	2.55063	0.603682	1.98839	0.768822	2.5507	0.817509	2.71842	0.927309	3.08124			0.705544	2.34582	0.826706	2.74436	0.92806	3.08241		
0.77073	2.54884	0.6056	1.98861	0.770657	2.54891	0.819756	2.71748	0.929078	3.07759			0.707397	2.34471	0.828653	2.74234	0.929661	3.07821		
0.772561	2.54705	0.607518	1.98882	0.772488	2.54712	0.822009	2.71655	0.930847	3.07397			0.709251	2.34362	0.830599	2.74033	0.931268	3.07405		
0.774389	2.54525	0.609435	1.98903	0.774316	2.54533	0.824266	2.71565	0.932616	3.07036			0.711106	2.34254	0.832543	2.73833	0.93288	3.06993		
0.776213	2.54346	0.611351	1.98923	0.776141	2.54353	0.826528	2.71477	0.934385	3.06678			0.712963	2.34147	0.834486	2.73633	0.934498	3.06585		
0.778035	2.54167	0.613266	1.98944	0.777962	2.54174	0.828795	2.71391	0.936154	3.06322			0.714822	2.34041	0.836426	2.73434	0.936122	3.06182		
0.779853	2.53988	0.615181	1.98964	0.77978	2.53995	0.831066	2.71307	0.937923	3.05968			0.716681	2.33937	0.838366	2.73236	0.93775	3.05783		
0.781668	2.53809	0.617096	1.98983	0.781596	2.53816	0.833341	2.71225	0.939693	3.05616			0.718542	2.33833	0.840303	2.73039	0.939385	3.05388		
0.783481	2.5363	0.61901	1.99002	0.783409	2.53637	0.835621	2.71145	0.941462	3.05267			0.720405	2.3373	0.842239	2.72841	0.941024	3.04997		
0.785291	2.53452	0.620923	1.99021	0.785218	2.53459	0.837904	2.71066	0.943231	3.04919			0.722269	2.33629	0.844173	2.72645	0.942669	3.0461		
0.787098	2.53273	0.622835	1.9904	0.787026	2.5328	0.840192	2.70989	0.945001	3.04574			0.724134	2.33528	0.846105	2.72449	0.94432	3.04228		
0.788903	2.53095	0.624747	1.99058	0.788831	2.53102	0.842483	2.70914	0.94677	3.04231			0.726001	2.33429	0.848035	2.72254	0.945976	3.03849		
0.790705	2.52918	0.626659	1.99076	0.790633	2.52925	0.844777	2.70841	0.94854	3.0389			0.727869	2.33331	0.849963	2.72059	0.947637	3.03475		
0.792505	2.5274	0.62857	1.99094	0.792434	2.52747	0.847075	2.70769	0.95031	3.0355			0.729738	2.33233	0.85189	2.71865	0.949304	3.03104		
0.794304	2.52563	0.63048	1.99112	0.794232	2.5257	0.849377	2.70698	0.952079	3.03213			0.731609	2.33137	0.853814	2.71672	0.950976	3.02737		
0.7961	2.52387	0.63239	1.99129	0.796028	2.52394	0.851681	2.70629	0.953849	3.02878			0.733481	2.33042	0.855737	2.71479	0.952654	3.02375		
0.797894	2.52211	0.634299	1.99146	0.797823	2.52218	0.853989	2.70561	0.955618	3.02545			0.735354	2.32947	0.857658	2.71286	0.954337	3.02016		
0.799687	2.52035	0.636207	1.99162	0.799616	2.52042	0.856299	2.70495	0.957388	3.02214			0.737229	2.32854	0.859576	2.71094	0.956025	3.0166		
0.801478	2.5186	0.638115	1.99179	0.801407	2.51867	0.858613	2.7043	0.959158	3.01884			0.739105	2.32762	0.861493	2.70903	0.957719	3.01309		
0.803268	2.51685	0.640023	1.99195	0.803196	2.51692	0.860929	2.70366	0.960927	3.01557			0.740983	2.3267	0.863408	2.70711	0.959418	3.00961		
0.805055	2.51511	0.64193	1.99211	0.804984	2.51518	0.863248	2.70303	0.962697	3.01232			0.742862	2.3258	0.86532	2.70521	0.961122	3.00617		
0.806842	2.51338	0.643836	1.99226	0.806771	2.51345	0.865569	2.70242	0.964466	3.00908			0.744742	2.3249	0.867231	2.70331	0.962832	3.00277		
0.808627	2.51165	0.645742	1.99242	0.808556	2.51172	0.867893	2.70181	0.966236	3.00586			0.746624	2.32402	0.86914	2.70141	0.964547	2.99941		
0.810411	2.50993	0.647647	1.99257	0.81034	2.51	0.870219	2.70122	0.968005	3.00267			0.748507	2.32314	0.871046	2.69952	0.966267	2.99607		
0.812194	2.50821	0.649552	1.99271	0.812123	2.50828	0.872548	2.70064	0.969774	2.99949			0.750391	2.32227	0.872951	2.69763	0.967993	2.99278		
0.813976	2.5065	0.651457	1.99286	0.813905	2.50657	0.874878	2.70006	0.971544	2.99632			0.752277	2.32142	0.874853	2.69575	0.969724	2.98952		
0.815757	2.5048	0.65336	1.993	0.815686	2.50487	0.877211	2.6995	0.973313	2.99318			0.754164	2.32057	0.876754	2.69387	0.97146	2.98629		
0.817537	2.50311	0.655263	1.99314	0.817466	2.50317	0.879545	2.69895	0.975082	2.99005			0.756052	2.31973	0.878652	2.692	0.973201	2.9831		
0.819316	2.50142	0.657166	1.99328	0.819245	2.50149	0.881882	2.6984	0.976851	2.98694			0.757942	2.3189	0.880548	2.69013	0.974947	2.97995		
0.821094	2.49974	0.659068	1.99342	0.821023	2.4998	0.88422	2.69786	0.97862	2.98385			0.759833	2.31807	0.882442	2.68826	0.976699	2.97682		
0.822872	2.49806	0.66097	1.99355	0.822801	2.49813	0.88656	2.69734	0.98039	2.98078			0.761725	2.31726	0.884334	2.6864	0.978456	2.97373		
0.824649	2.4964	0.662871	1.99369	0.824578	2.49646	0.888901	2.69681	0.982159	2.97772			0.763619	2.31646	0.886224	2.68455	0.980217	2.97067		
0.826425	2.49474	0.664772	1.99381	0.826355	2.4948	0.891245	2.6963	0.983928	2.97468			0.765513	2.31566	0.888111	2.68269	0.981984	2.96765		
0.828201	2.49309	0.666672	1.99394	0.82813	2.49315	0.893589	2.6958	0.985697	2.97166			0.76741	2.31487	0.889997	2.68084	0.983756	2.96466		
0.829977	2.49144	0.668572	1.99407	0.829906	2.49151	0.895935	2.6953	0.987466	2.96866			0.769307	2.31409	0.89188	2.679	0.985533	2.9617		
0.831752	2.48981	0.670471	1.99419	0.831681	2.48987	0.898282	2.69481	0.989235	2.96567			0.771206	2.31332	0.893762	2.67716	0.987315	2.95877		
0.833526	2.48818	0.67237	1.99431	0.833456	2.48825	0.900631	2.69432	0.991004	2.9627			0.773106	2.31256	0.895641	2.67532	0.989102	2.95587		
0.835301	2.48656	0.674268	1.99443	0.83523	2.48663	0.90298	2.69384	0.992773	2.95974			0.775007	2.3118	0.897518	2.67349	0.990894	2.953		
0.837075	2.48495	0.676166	1.99455	0.837004	2.48502	0.905331	2.69337	0.994542	2.9568			0.77691	2.31105	0.899393	2.67166	0.992691	2.95017		
0.838849	2.48335	0.678063	1.99466	0.838778	2.48341	0.907683	2.6929	0.996311	2.95388			0.778814	2.31031	0.901266	2.66983	0.994493	2.94736		
0.840623	2.48176	0.67996	1.99477	0.840552	2.48182	0.910036	2.69244	0.99808	2.95097			0.780719	2.30958	0.903136	2.66801	0.9963	2.94458		
0.842396	2.48017	0.681857	1.99489	0.842326	2.48023	0.91239	2.69198	0.999849	2.94808			0.782625	2.30886	0.905005	2.66619	0.998111	2.94184		
0.84417	2.47859	0.683753	1.99499	0.844099	2.47866	0.914744	2.69153	1.00162	2.94521			0.784533	2.30814	0.906871	2.66438	0.999927	2.93912		
0.845943	2.47702	0.685648	1.9951	0.845873	2.47709	0.917099	2.69108					0.786442	2.30743	0.908736	2.66256	1.00175	2.93643		
0.847717	2.47546	0.687543	1.99521	0.847646	2.47553	0.919455	2.69064					0.788352	2.30673	0.910598	2.66076				
0.849491	2.47391	0.689438	1.99531	0.84942	2.47397	0.921812	2.6902					0.790263	2.30604	0.912458	2.65895				
0.851264	2.47237	0.691332	1.99541	0.851194	2.47243	0.924169	2.68977					0.792176	2.30535	0.914316	2.65716				
0.853038	2.47084	0.693226	1.99551	0.852967	2.4709	0.926527	2.68934					0.79409	2.30467	0.916172	2.65536				
0.854812	2.46931	0.695119	1.99561	0.854741	2.46937	0.928885	2.68891					0.796005	2.304	0.918027	2.65357				
0.856586	2.46779	0.697012	1.99571	0.856516	2.46785	0.931244	2.68849					0.797921	2.30333	0.919879	2.65178				
0.858361	2.46629	0.698905	1.9958	0.85829	2.46635	0.933603	2.68807					0.799839	2.30268	0.921729	2.65				
0.860135	2.46479	0.700797	1.99589	0.860065	2.46485	0.935962	2.68765					0.801757	2.30203	0.923577	2.64821				
0.86191	2.4633	0.702688	1.99598	0.86184	2.46336	0.938322	2.68724					0.803677	2.30138	0.925423	2.64644				
0.863686	2.46181	0.70458	1.99607	0.863615	2.46187	0.940681	2.68682					0.805598	2.30074	0.927267	2.64467				
0.865461	2.46034	0.706471	1.99616	0.86539	2.4604	0.943041	2.68642					0.807521	2.30011	0.929109	2.6429				
0.867237	2.45888	0.708361	1.99625	0.867166	2.45894	0.945401	2.68601					0.809444	2.29949	0.930949	2.64113				
0.869013	2.45742	0.710251	1.99633	0.868943	2.45748	0.947761	2.6856					0.811368	2.29887	0.932788	2.63937				
0.87079	2.45598	0.712141	1.99642	0.870719	2.45603	0.950121	2.6852					0.813294	2.29826	0.934624	2.63761				
0.872567	2.45454	0.71403	1.9965	0.872496	2.4546	0.95248	2.6848					0.815221	2.29766	0.936459	2.63586				
0.874345	2.45311	0.715919	1.99658	0.874274	2.45317	0.95484	2.6844					0.817149	2.29706	0.938291	2.63411				
0.876123	2.45169	0.717808	1.99666	0.876052	2.45175	0.957199	2.68401					0.819078	2.29647	0.940122	2.63237				
0.877902	2.45028	0.719696	1.99674	0.877831	2.45033	0.959558	2.68361					0.821009	2.29588	0.941951	2.63062				
0.879681	2.44888	0.721584	1.99681	0.87961	2.44893	0.961917	2.68321					0.82294	2.2953	0.943779	2.62889				
0.881461	2.44748	0.723471	1.99689	0.88139	2.44754	0.964275	2.68282					0.824873	2.29473	0.945604	2.62715				
0.883241	2.4461	0.725358	1.99696	0.88317	2.44615	0.966633	2.68243					0.826806	2.29416	0.947428	2.62543				
0.885022	2.44472	0.727245	1.99703	0.884951	2.44478	0.968991	2.68204					0.828741	2.2936	0.94925	2.6237				
0.886803	2.44335	0.729131	1.9971	0.886732	2.44341	0.971347	2.68164					0.830677	2.29305	0.951071	2.62198				
0.888585	2.442	0.731017	1.99717	0.888514	2.44205	0.973704	2.68125					0.832614	2.2925	0.95289	2.62026				
0.890368	2.44065	0.732903	1.99724	0.890297	2.4407	0.976059	2.68086					0.834552	2.29196	0.954707	2.61855				
0.892151	2.4393	0.734788	1.99731	0.89208	2.43936	0.978414	2.68047					0.836491	2.29142	0.956522	2.61685				
0.893935	2.43797	0.736673	1.99737	0.893864	2.43802	0.980768	2.68008					0.838431	2.29089	0.958336	2.61514				
0.89572	2.43665	0.738558	1.99744	0.895649	2.4367	0.983121	2.67968					0.840372	2.29036	0.960148	2.61344				
0.897505	2.43533	0.740443	1.9975	0.897434	2.43538	0.985473	2.67929					0.842315	2.28984	0.961959	2.61175				
0.899292	2.43402	0.742327	1.99756	0.89922	2.43408	0.987825	2.6789					0.844258	2.28932	0.963769	2.61006				
0.901078	2.43273	0.74421	1.99762	0.901007	2.43278	0.990175	2.6785					0.846203	2.28881	0.965576	2.60837				
0.902866	2.43144	0.746094	1.99768	0.902795	2.43149	0.992524	2.67811					0.848148	2.28831	0.967383	2.60669				
0.904654	2.43015	0.747977	1.99774	0.904583	2.43021	0.994872	2.67771					0.850094	2.28781	0.969188	2.60502				
0.906443	2.42888	0.74986	1.9978	0.906372	2.42893	0.997219	2.67732					0.852042	2.28732	0.970991	2.60334				
0.908233	2.42762	0.751742	1.99785	0.908162	2.42767	0.999564	2.67692					0.853991	2.28683	0.972793	2.60168				
0.910024	2.42636	0.753624	1.99791	0.909952	2.42641	1.00191	2.67652					0.85594	2.28634	0.974594	2.60001				
0.911815	2.42511	0.755506	1.99796	0.911743	2.42516							0.857891	2.28586	0.976394	2.59836				
0.913607	2.42387	0.757388	1.99801	0.913536	2.42392							0.859842	2.28539	0.978192	2.5967				
0.9154	2.42264	0.759269	1.99807	0.915328	2.42269							0.861795	2.28492	0.979989	2.59506				
0.917194	2.42142	0.76115	1.99812	0.917122	2.42147							0.863748	2.28446	0.981785	2.59341				
0.918988	2.4202	0.763031	1.99817	0.918917	2.42025							0.865703	2.284	0.983579	2.59177				
0.920784	2.419	0.764911	1.99822	0.920712	2.41904							0.867658	2.28355	0.985373	2.59014				
0.92258	2.4178	0.766791	1.99826	0.922508	2.41784							0.869615	2.2831	0.987165	2.58851				
0.924377	2.41661	0.768671	1.99831	0.924305	2.41665							0.871572	2.28265	0.988956	2.58689				
0.926175	2.41542	0.770551	1.99836	0.926103	2.41547							0.873531	2.28221	0.990746	2.58527				
0.927974	2.41425	0.77243	1.9984	0.927902	2.41429							0.87549	2.28178	0.992535	2.58366				
0.929774	2.41308	0.774309	1.99845	0.929702	2.41313							0.87745	2.28135	0.994323	2.58205				
0.931574	2.41192	0.776188	1.99849	0.931502	2.41197							0.879411	2.28092	0.996109	2.58045				
0.933375	2.41077	0.778067	1.99853	0.933304	2.41082							0.881373	2.2805	0.997895	2.57885				
0.935178	2.40963	0.779945	1.99858	0.935106	2.40967							0.883336	2.28008	0.99968	2.57726				
0.936981	2.40849	0.781823	1.99862	0.936909	2.40854							0.8853	2.27967	1.00146	2.57567				
0.938785	2.40736	0.783701	1.99866	0.938713	2.40741							0.887265	2.27926						
0.94059	2.40624	0.785578	1.9987	0.940518	2.40629							0.889231	2.27885						
0.942396	2.40513	0.787456	1.99873	0.942324	2.40517							0.891198	2.27845						
0.944203	2.40402	0.789333	1.99877	0.944131	2.40407							0.893165	2.27806						
0.94601	2.40293	0.79121	1.99881	0.945938	2.40297							0.895134	2.27767						
0.947819	2.40184	0.793087	1.99885	0.947747	2.40188							0.897103	2.27728						
0.949628	2.40075	0.794963	1.99888	0.949556	2.4008							0.899073	2.27689						
0.951439	2.39968	0.796839	1.99892	0.951367	2.39972							0.901044	2.27651						
0.95325	2.39861	0.798715	1.99895	0.953178	2.39865							0.903016	2.27614						
0.955063	2.39755	0.800591	1.99898	0.95499	2.39759							0.904989	2.27577						
0.956876	2.3965	0.802466	1.99902	0.956803	2.39654							0.906962	2.2754						
0.95869	2.39545	0.804342	1.99905	0.958618	2.39549							0.908937	2.27503						
0.960505	2.39441	0.806217	1.99908	0.960433	2.39445							0.910912	2.27467						
0.962321	2.39338	0.808092	1.99911	0.962249	2.39342							0.912888	2.27432						
0.964138	2.39236	0.809967	1.99914	0.964066	2.3924							0.914865	2.27396						
0.965956	2.39134	0.811841	1.99917	0.965884	2.39138							0.916842	2.27361						
0.967775	2.39033	0.813715	1.9992	0.967702	2.39037							0.918821	2.27327						
0.969595	2.38932	0.81559	1.99923	0.969522	2.38936							0.9208	2.27293						
0.971416	2.38833	0.817464	1.99925	0.971343	2.38837							0.92278	2.27259						
0.973237	2.38734	0.819337	1.99928	0.973165	2.38738							0.924761	2.27225						
0.97506	2.38635	0.821211	1.99931	0.974987	2.38639							0.926743	2.27192						
0.976884	2.38538	0.823084	1.99933	0.976811	2.38542							0.928725	2.27159						
0.978708	2.38441	0.824957	1.99936	0.978635	2.38445							0.930708	2.27127						
0.980534	2.38345	0.82683	1.99938	0.980461	2.38349							0.932692	2.27094						
0.98236	2.38249	0.828703	1.99941	0.982287	2.38253							0.934677	2.27063						
0.984188	2.38154	0.830576	1.99943	0.984115	2.38158							0.936662	2.27031						
0.986016	2.3806	0.832449	1.99945	0.985943	2.38064							0.938649	2.27						
0.987845	2.37966	0.834321	1.99948	0.987772	2.3797							0.940636	2.26969						
0.989676	2.37873	0.836193	1.9995	0.989603	2.37877							0.942623	2.26938						
0.991507	2.37781	0.838065	1.99952	0.991434	2.37785							0.944612	2.26908						
0.993339	2.37689	0.839937	1.99954	0.993266	2.37693							0.946601	2.26878						
0.995172	2.37598	0.841809	1.99956	0.995099	2.37602							0.948591	2.26848						
0.997006	2.37508	0.84368	1.99958	0.996933	2.37511							0.950581	2.26819						
0.998842	2.37418	0.845552	1.9996	0.998768	2.37422							0.952572	2.2679						
1.00068	2.37329	0.847423	1.99962	1.0006	2.37332							0.954564	2.26761						
		0.849294	1.99964									0.956557	2.26733						
		0.851165	1.99966									0.95855	2.26705						
		0.853036	1.99968									0.960544	2.26677						
		0.854906	1.9997									0.962539	2.26649						
		0.856777	1.99971									0.964535	2.26622						
		0.858647	1.99973									0.966531	2.26595						
		0.860518	1.99975									0.968527	2.26568						
		0.862388	1.99976									0.970525	2.26542						
		0.864258	1.99978									0.972523	2.26515						
		0.866128	1.99979									0.974521	2.26489						
		0.867997	1.99981									0.976521	2.26464						
		0.869867	1.99982									0.978521	2.26438						
		0.871736	1.99984									0.980521	2.26413						
		0.873606	1.99985									0.982522	2.26388						
		0.875475	1.99987									0.984524	2.26363						
		0.877344	1.99988									0.986527	2.26339						
		0.879213	1.99989									0.98853	2.26315						
		0.881082	1.9999									0.990533	2.26291						
		0.882951	1.99992									0.992538	2.26267						
		0.88482	1.99993									0.994543	2.26243						
		0.886688	1.99994									0.996548	2.2622						
		0.888557	1.99995									0.998554	2.26197						
		0.890425	1.99996									1.00056	2.26174						
		0.892293	1.99998																
		0.894162	1.99999																
		0.89603	2																
		0.897898	2.00001																
		0.899765	2.00002																
		0.901633	2.00003																
		0.903501	2.00004																
		0.905369	2.00005																
		0.907236	2.00005																
		0.909104	2.00006																
		0.910971	2.00007																
		0.912838	2.00008																
		0.914705	2.00009																
		0.916572	2.0001																
		0.918439	2.0001																
		0.920306	2.00011																
		0.922173	2.00012																
		0.92404	2.00013																
		0.925907	2.00013																
		0.927773	2.00014																
		0.92964	2.00015																
		0.931507	2.00015																
		0.933373	2.00016																
		0.935239	2.00016																
		0.937106	2.00017																
		0.938972	2.00018																
		0.940838	2.00018																
		0.942704	2.00019																
		0.94457	2.00019																
		0.946436	2.0002																
		0.948302	2.0002																
		0.950168	2.00021																
		0.952034	2.00021																
		0.953899	2.00022																
		0.955765	2.00022																
		0.957631	2.00022																
		0.959496	2.00023																
		0.961362	2.00023																
		0.963227	2.00024																
		0.965093	2.00024																
		0.966958	2.00024																
		0.968824	2.00025																
		0.970689	2.00025																
		0.972554	2.00025																
		0.974419	2.00026																
		0.976284	2.00026																
		0.97815	2.00026																
		0.980015	2.00027																
		0.98188	2.00027																
		0.983745	2.00027																
		0.98561	2.00028																
		0.987475	2.00028																
		0.989339	2.00028																
		0.991204	2.00028																
		0.993069	2.00029																
		0.994934	2.00029																
		0.996799	2.00029																
		0.998663	2.00029																
		1.00053	2.00029																
