Sym0		Asym0		Sym1		Sym2		Sym3		Sym4		Asym1		Asym2		Asym3		Asym4	
453  Points		539  Points		452  Points		400  Points		365  Points		276  Points		478  Points		416  Points		366  Points		277  Points	
Freq (MHz)	Vph (m/ms)	Freq (MHz)	Vph (m/ms)	Freq (MHz)	Vph (m/ms)	Freq (MHz)	Vph (m/ms)	Freq (MHz)	Vph (m/ms)	Freq (MHz)	Vph (m/ms)	Freq (MHz)	Vph (m/ms)	Freq (MHz)	Vph (m/ms)	Freq (MHz)	Vph (m/ms)	Freq (MHz)	Vph (m/ms)
0.279508	1189.58	3.18337e-005	0.0350516	0.279507	360.129	0.356786	3083.59	0.559017	1983.16	0.838526	2157.65	0.139755	1027.11	0.419265	681.151	0.69877	1528.03	0.713571	3659.75
0.279505	239.577	0.000130426	0.0708878	0.279501	163.659	0.356803	340.656	0.559024	460.642	0.83853	635.094	0.139798	130.927	0.419275	270.986	0.698759	503.067	0.713589	633.359
0.279497	133.198	0.000295658	0.106675	0.279491	105.887	0.356848	180.309	0.55904	260.592	0.838538	372.35	0.139909	69.9736	0.419294	169.144	0.698738	301.09	0.713632	346.698
0.279485	92.2379	0.000526885	0.142275	0.279476	78.258	0.356921	122.62	0.559064	181.693	0.838551	263.388	0.140087	47.7924	0.419322	122.946	0.698707	214.829	0.7137	238.691
0.279469	70.5419	0.000823639	0.177701	0.279458	62.0615	0.357022	92.9145	0.559097	139.472	0.838569	203.763	0.14033	36.3283	0.419359	96.5753	0.698666	166.982	0.713792	182.008
0.279448	57.1068	0.00118491	0.212858	0.279435	51.4177	0.357151	74.8089	0.559139	113.178	0.83859	166.153	0.14064	29.3334	0.419405	79.5232	0.698615	136.561	0.713909	147.093
0.279424	47.9687	0.00160985	0.247731	0.279408	43.8886	0.357307	62.6209	0.559189	95.2289	0.838616	140.265	0.141014	24.626	0.41946	67.5928	0.698556	115.512	0.714049	123.428
0.279396	41.3501	0.00209728	0.28227	0.279378	38.2814	0.357491	53.8586	0.559248	82.1971	0.838647	121.358	0.141452	21.2457	0.419524	58.7783	0.698488	100.082	0.714212	106.331
0.279364	36.3351	0.00264585	0.316423	0.279343	33.9434	0.357701	47.2571	0.559316	72.3056	0.838682	106.945	0.141953	18.7036	0.419596	52.0005	0.698413	88.2853	0.714397	93.403
0.279328	32.4038	0.0032543	0.350172	0.279306	30.4873	0.357939	42.1057	0.559392	64.5417	0.838721	95.5929	0.142515	16.7246	0.419678	46.6268	0.698331	78.9739	0.714603	83.2848
0.279289	29.2391	0.00392098	0.383465	0.279266	27.669	0.358203	37.9748	0.559477	58.2859	0.838765	86.4209	0.143137	15.142	0.419768	42.2622	0.698243	71.437	0.714831	75.151
0.279248	26.6366	0.00464446	0.416289	0.279222	25.3268	0.358494	34.5891	0.55957	53.1379	0.838813	78.856	0.143818	13.849	0.419867	38.647	0.69815	65.2114	0.715078	68.4703
0.279204	24.4587	0.00542301	0.448608	0.279177	23.3494	0.358811	31.7643	0.559673	48.8276	0.838865	72.51	0.144555	12.7739	0.419975	35.6036	0.698052	59.9823	0.715345	62.8857
0.279157	22.6093	0.00625491	0.480399	0.279129	21.6578	0.359154	29.372	0.559784	45.166	0.838922	67.1102	0.145347	11.8669	0.420092	33.0065	0.697951	55.528	0.71563	58.1481
0.279108	21.0193	0.00713836	0.51164	0.279079	20.1941	0.359522	27.3205	0.559903	42.0171	0.838984	62.4599	0.146193	11.0922	0.420218	30.7644	0.697846	51.6884	0.715932	54.0787
0.279058	19.6376	0.00807172	0.542322	0.279028	18.9151	0.359916	25.542	0.560031	39.2803	0.83905	58.4131	0.14709	10.4234	0.420353	28.8092	0.697739	48.3443	0.716252	50.5456
0.279006	18.4259	0.00905315	0.572429	0.278975	17.7881	0.360334	23.9858	0.560168	36.8799	0.83912	54.8597	0.148038	9.84084	0.420497	27.0892	0.697631	45.4056	0.716588	47.4496
0.278953	17.3545	0.0100808	0.601944	0.278922	16.7874	0.360777	22.6128	0.560314	34.7574	0.839194	51.7145	0.149033	9.32921	0.420649	25.5646	0.697522	42.8029	0.716939	44.7143
0.2789	16.4006	0.0111529	0.630864	0.278868	15.893	0.361244	21.3929	0.560468	32.8674	0.839273	48.9112	0.150075	8.8767	0.420811	24.204	0.697412	40.4817	0.717306	42.2803
0.278846	15.5457	0.0122676	0.659181	0.278815	15.0887	0.361735	20.3018	0.560631	31.1737	0.839357	46.3968	0.151161	8.47395	0.420981	22.9822	0.697302	38.3987	0.717687	40.1006
0.278792	14.7753	0.0134234	0.686897	0.278761	14.3617	0.362249	19.3204	0.560802	29.6473	0.839445	44.129	0.152142	8.15767	0.42116	21.8791	0.697193	36.5191	0.718082	38.1373
0.278739	14.0773	0.0146184	0.714004	0.278709	13.7013	0.362787	18.4331	0.560982	28.2647	0.839537	42.0731	0.153003	7.9103	0.421348	20.8783	0.697085	34.8144	0.718491	36.3598
0.278687	13.4422	0.015851	0.740511	0.278657	13.0988	0.363346	17.6271	0.561171	27.0064	0.839634	40.2009	0.153732	7.71956	0.421545	19.9663	0.696979	33.2614	0.718912	34.743
0.278636	12.8617	0.0171195	0.766413	0.278607	12.547	0.363928	16.8918	0.561368	25.8566	0.839735	38.4888	0.154319	7.57685	0.421751	19.1318	0.696875	31.8407	0.719346	33.2661
0.278587	12.3292	0.0184224	0.791718	0.278559	12.0397	0.364532	16.2184	0.561575	24.8017	0.83984	36.9172	0.154756	7.47617	0.421966	18.3654	0.696773	30.5361	0.719792	31.9118
0.27854	11.839	0.0197582	0.816434	0.278514	11.5717	0.365157	15.5996	0.561789	23.8306	0.83995	35.4694	0.155038	7.41354	0.42219	17.659	0.696673	29.334	0.720249	30.6654
0.278495	11.3862	0.0211253	0.840565	0.278471	11.1387	0.365803	15.029	0.562013	22.9337	0.840064	34.1313	0.155448	7.32587	0.422422	17.006	0.696577	28.2228	0.720718	29.5146
0.278454	10.9668	0.0225224	0.86412	0.278431	10.737	0.366469	14.5013	0.562244	22.1028	0.840183	32.8911	0.155897	7.23361	0.422664	16.4006	0.696485	27.1926	0.721198	28.4488
0.278416	10.5771	0.023948	0.887106	0.278395	10.3633	0.367155	14.0119	0.562485	21.331	0.840306	31.7383	0.156515	7.11295	0.422914	15.8377	0.696396	26.2348	0.721689	27.459
0.278381	10.2143	0.025401	0.909538	0.278363	10.0148	0.367861	13.5568	0.562734	20.6122	0.840434	30.6641	0.157309	6.9678	0.423173	15.3131	0.696311	25.3421	0.722191	26.5373
0.278351	9.87557	0.0268799	0.931421	0.278335	9.68899	0.368586	13.1326	0.562992	19.9411	0.840566	29.6606	0.158287	6.80255	0.423441	14.8231	0.69623	24.5081	0.722702	25.6771
0.278325	9.55869	0.0283836	0.952767	0.278312	9.38385	0.36933	12.7363	0.563259	19.3132	0.840702	28.7212	0.159456	6.62177	0.423718	14.3643	0.696153	23.7272	0.723224	24.8723
0.278304	9.26162	0.0299111	0.97359	0.278295	9.09746	0.370093	12.3653	0.563534	18.7245	0.840843	27.8398	0.160828	6.42997	0.424004	13.9339	0.696081	22.9946	0.723755	24.1177
0.278289	8.98259	0.031461	0.993899	0.278282	8.82818	0.370873	12.0173	0.563817	18.1714	0.840988	27.0114	0.162231	6.25311	0.424299	13.5293	0.696014	22.3058	0.724296	23.409
0.278279	8.72004	0.0330325	1.01371	0.278276	8.57454	0.371672	11.6902	0.56411	17.6508	0.841138	26.2312	0.163662	6.0896	0.424602	13.1484	0.695952	21.6572	0.724846	22.742
0.278275	8.47256	0.0346245	1.03303	0.278276	8.33525	0.372487	11.3823	0.564411	17.1599	0.841292	25.4953	0.165122	5.93805	0.424915	12.7891	0.695894	21.0452	0.725405	22.1131
0.278278	8.23893	0.036236	1.05187	0.278281	8.13751	0.373319	11.092	0.56472	16.6964	0.841451	24.7999	0.166607	5.79724	0.425236	12.4496	0.695842	20.467	0.725973	21.5192
0.278287	8.01803	0.0378662	1.07024	0.27829	7.97633	0.374168	10.8177	0.565038	16.2579	0.841614	24.1417	0.168118	5.66612	0.425566	12.1285	0.695796	19.9197	0.72655	20.9576
0.278304	7.80889	0.0395141	1.08817	0.2783	7.84789	0.375033	10.5583	0.565365	15.8426	0.841781	23.518	0.169653	5.54377	0.425905	11.8242	0.695755	19.401	0.727136	20.4255
0.278328	7.61061	0.0411791	1.10565	0.27831	7.74928	0.375914	10.3126	0.5657	15.4487	0.841953	22.926	0.171211	5.42938	0.426253	11.5354	0.695719	18.9088	0.72773	19.9209
0.27836	7.42238	0.0428602	1.1227	0.278319	7.67838	0.37681	10.0796	0.566044	15.0745	0.842129	22.3635	0.172791	5.32223	0.42661	11.2612	0.69569	18.441	0.728333	19.4415
0.2784	7.2435	0.0445567	1.13933	0.278325	7.63369	0.377721	9.85825	0.566397	14.7187	0.842309	21.8282	0.174392	5.22168	0.426976	11.0003	0.695666	17.9959	0.728944	18.9857
0.278449	7.0733	0.046268	1.15556	0.278334	7.57038	0.378647	9.64782	0.566758	14.3799	0.842494	21.3183	0.176012	5.12717	0.42735	10.7518	0.695648	17.572	0.729563	18.5516
0.278506	6.91118	0.0479933	1.1714	0.278345	7.50278	0.379587	9.4475	0.567128	14.057	0.842684	20.832	0.177651	5.03819	0.427734	10.515	0.695636	17.1676	0.730191	18.1378
0.278572	6.75662	0.0497321	1.18685	0.278362	7.41281	0.380542	9.2566	0.567506	13.7489	0.842878	20.3676	0.179309	4.95429	0.428126	10.289	0.69563	16.7816	0.730826	17.743
0.278648	6.60911	0.0514837	1.20192	0.278386	7.30215	0.38151	9.07449	0.567893	13.4546	0.843076	19.9239	0.180984	4.87507	0.428527	10.0731	0.69563	16.4127	0.731469	17.3658
0.278734	6.4682	0.0532475	1.21664	0.278419	7.1728	0.382491	8.90059	0.568288	13.1732	0.843279	19.4993	0.182675	4.80016	0.428937	9.86664	0.695636	16.0598	0.73212	17.0051
0.278829	6.33348	0.055023	1.231	0.278464	7.02698	0.383486	8.73437	0.568692	12.9038	0.843486	19.0928	0.184382	4.72924	0.429356	9.66905	0.695649	15.722	0.732779	16.6599
0.278935	6.20458	0.0568098	1.24502	0.278524	6.86704	0.384494	8.57535	0.569105	12.6459	0.843698	18.7031	0.186104	4.662	0.429784	9.47978	0.695668	15.3982	0.733445	16.3291
0.279051	6.08114	0.0586071	1.25871	0.278593	6.7145	0.385514	8.42307	0.569526	12.3985	0.843914	18.3293	0.187841	4.59817	0.43022	9.29833	0.695693	15.0876	0.734119	16.012
0.279179	5.96284	0.0604147	1.27208	0.278671	6.56889	0.386546	8.27714	0.569956	12.1612	0.844134	17.9705	0.18959	4.53752	0.430666	9.12422	0.695725	14.7894	0.734801	15.7077
0.279317	5.8494	0.062232	1.28513	0.27876	6.42976	0.387456	8.15484	0.570394	11.9333	0.844359	17.6257	0.191353	4.47982	0.43112	8.95705	0.695763	14.503	0.73549	15.4154
0.279466	5.74052	0.0640587	1.29788	0.278858	6.29671	0.388238	8.05398	0.570841	11.7144	0.844588	17.2941	0.193129	4.42487	0.431584	8.7964	0.695808	14.2276	0.736186	15.1344
0.279628	5.63597	0.0658943	1.31034	0.278967	6.16938	0.38889	7.97284	0.571296	11.5037	0.844822	16.975	0.194916	4.37248	0.432056	8.64192	0.695859	13.9627	0.736889	14.8642
0.279801	5.53551	0.0677384	1.32251	0.279086	6.04741	0.389408	7.91008	0.57176	11.3011	0.84506	16.6678	0.196715	4.32249	0.432537	8.49326	0.695917	13.7076	0.7376	14.6041
0.279986	5.43892	0.0695908	1.3344	0.279216	5.9305	0.389791	7.8647	0.572232	11.1059	0.845303	16.3717	0.198524	4.27473	0.433027	8.35012	0.695982	13.4618	0.738317	14.3535
0.280183	5.346	0.0714509	1.34602	0.279358	5.81837	0.390037	7.83599	0.572713	10.9178	0.84555	16.0862	0.200344	4.22908	0.433461	8.22964	0.696053	13.2248	0.739042	14.112
0.280393	5.25656	0.0733185	1.35738	0.279511	5.71074	0.390391	7.79516	0.573202	10.7364	0.845801	15.8108	0.202174	4.18538	0.433836	8.12994	0.696131	12.9963	0.739774	13.879
0.280616	5.17043	0.0751934	1.36848	0.279675	5.60736	0.390777	7.75138	0.5737	10.5615	0.846057	15.5448	0.204013	4.14354	0.43415	8.04949	0.696216	12.7756	0.740513	13.6542
0.280852	5.08743	0.0770751	1.37934	0.279851	5.508	0.391305	7.6928	0.574207	10.3925	0.846318	15.2879	0.205861	4.10343	0.434401	7.98712	0.696307	12.5625	0.741259	13.4371
0.281101	5.00743	0.0789633	1.38996	0.28004	5.41246	0.391977	7.62025	0.574722	10.2294	0.846582	15.0396	0.207718	4.06495	0.434586	7.94195	0.696405	12.3566	0.742011	13.2274
0.281363	4.93028	0.080858	1.40034	0.280241	5.32054	0.392794	7.53476	0.575245	10.0717	0.846852	14.7994	0.209583	4.028	0.434706	7.91333	0.69651	12.1575	0.742771	13.0246
0.281639	4.85584	0.0827586	1.4105	0.280454	5.23204	0.39376	7.43745	0.575777	9.91916	0.847125	14.567	0.211456	3.9925	0.434878	7.8726	0.696622	11.9648	0.743537	12.8284
0.281929	4.78399	0.084665	1.42044	0.280681	5.14681	0.394878	7.32958	0.576318	9.77163	0.847403	14.342	0.213336	3.95838	0.435067	7.82886	0.69674	11.7784	0.74431	12.6386
0.282233	4.71461	0.0865771	1.43016	0.28092	5.06467	0.396006	7.22557	0.576867	9.62883	0.847686	14.1241	0.215224	3.92554	0.435325	7.77023	0.696865	11.5978	0.745089	12.4548
0.282551	4.64759	0.0884944	1.43967	0.281173	4.98548	0.397144	7.12521	0.577424	9.49054	0.847973	13.9129	0.217118	3.89392	0.435655	7.69748	0.696998	11.4229	0.745875	12.2767
0.282884	4.58283	0.0904169	1.44899	0.281439	4.9091	0.398292	7.02831	0.57799	9.35656	0.848264	13.7081	0.219019	3.86346	0.436058	7.61152	0.697137	11.2534	0.746668	12.1042
0.283231	4.52023	0.0923442	1.4581	0.281719	4.8354	0.399449	6.93472	0.578564	9.2267	0.84856	13.5095	0.220927	3.83409	0.436537	7.51341	0.697282	11.0889	0.747468	11.9368
0.283593	4.4597	0.0942763	1.46703	0.282013	4.76426	0.400615	6.84426	0.579147	9.10077	0.84886	13.3167	0.22284	3.80576	0.437095	7.40428	0.697435	10.9294	0.748273	11.7745
0.283971	4.40115	0.0962129	1.47577	0.282321	4.69555	0.40179	6.75679	0.579738	8.97861	0.849165	13.1296	0.224759	3.77841	0.437662	7.29869	0.697595	10.7746	0.749086	11.617
0.284364	4.34451	0.0981538	1.48433	0.282643	4.62918	0.402974	6.67216	0.580338	8.86005	0.849474	12.9479	0.226684	3.752	0.438238	7.19648	0.697761	10.6243	0.749904	11.464
0.284772	4.28968	0.100099	1.49271	0.28298	4.56504	0.404167	6.59025	0.580946	8.74495	0.849788	12.7713	0.228613	3.72647	0.438823	7.09749	0.697935	10.4783	0.750729	11.3155
0.285196	4.23661	0.102048	1.50092	0.283331	4.50303	0.405368	6.51092	0.581563	8.63315	0.850106	12.5996	0.230548	3.70179	0.439416	7.00158	0.698115	10.3364	0.751561	11.1711
0.285636	4.18522	0.104001	1.50897	0.283698	4.44306	0.406578	6.43406	0.582188	8.52453	0.850429	12.4327	0.232488	3.67791	0.440019	6.90862	0.698302	10.1985	0.752399	11.0308
0.286092	4.13545	0.105958	1.51685	0.28408	4.38506	0.407795	6.35957	0.582739	8.43236	0.850755	12.2704	0.234432	3.6548	0.44063	6.81848	0.698496	10.0644	0.753242	10.8944
0.286565	4.08724	0.107918	1.52458	0.284477	4.32893	0.409021	6.28732	0.583214	8.35555	0.851087	12.1124	0.23638	3.63242	0.44125	6.73103	0.698697	9.93393	0.754093	10.7617
0.287054	4.04052	0.109881	1.53215	0.284889	4.2746	0.410254	6.21724	0.583611	8.29323	0.851423	11.9586	0.238333	3.61073	0.441879	6.64617	0.698905	9.80698	0.754949	10.6325
0.287494	4.00099	0.111848	1.53958	0.285318	4.22201	0.411494	6.14921	0.583927	8.2447	0.851763	11.8089	0.240289	3.5897	0.442517	6.56378	0.69912	9.6834	0.755812	10.5068
0.287879	3.96813	0.113565	1.54593	0.285762	4.17108	0.412743	6.08317	0.58416	8.20942	0.852108	11.663	0.24225	3.5693	0.443164	6.48377	0.699342	9.56306	0.75668	10.3844
0.288205	3.94153	0.11503	1.55125	0.286223	4.12175	0.413998	6.01902	0.58431	8.18703	0.852457	11.5209	0.244214	3.54951	0.44382	6.40604	0.699571	9.44585	0.757555	10.2651
0.288467	3.92085	0.116242	1.5556	0.2867	4.07397	0.41526	5.95668	0.584526	8.15508	0.852811	11.3823	0.246181	3.5303	0.444484	6.3305	0.699806	9.33164	0.758436	10.1489
0.288663	3.90584	0.117202	1.559	0.287194	4.02766	0.416529	5.89609	0.584762	8.12068	0.853169	11.2472	0.248152	3.51164	0.445158	6.25706	0.700049	9.22032	0.759322	10.0357
0.288789	3.89632	0.117908	1.56148	0.287705	3.98279	0.417805	5.83717	0.585085	8.07442	0.853531	11.1155	0.250125	3.49351	0.44584	6.18565	0.700299	9.11179	0.760215	9.92526
0.288972	3.88276	0.11836	1.56306	0.288233	3.93929	0.419088	5.77985	0.585496	8.01677	0.853898	10.987	0.252102	3.47589	0.446531	6.11618	0.700555	9.00595	0.761114	9.81757
0.289174	3.86817	0.11901	1.56532	0.288779	3.89712	0.420377	5.72408	0.585998	7.94831	0.85427	10.8615	0.254081	3.45875	0.447231	6.04858	0.700818	8.90271	0.762018	9.71252
0.289451	3.84858	0.119717	1.56776	0.289342	3.85623	0.421673	5.66979	0.586592	7.86971	0.854646	10.7391	0.256063	3.44207	0.44794	5.98278	0.701088	8.80196	0.762929	9.61
0.289808	3.82423	0.120679	1.57104	0.289923	3.81659	0.422974	5.61693	0.587282	7.78169	0.855026	10.6195	0.258048	3.42584	0.448658	5.91871	0.701366	8.70363	0.763845	9.50993
0.290249	3.79538	0.121897	1.57516	0.290522	3.77814	0.424282	5.56543	0.58798	7.69593	0.855411	10.5028	0.260035	3.41004	0.449385	5.85632	0.701613	8.61985	0.764767	9.41223
0.290779	3.76237	0.12337	1.58007	0.29114	3.74085	0.425596	5.51526	0.588686	7.61234	0.8558	10.3887	0.262024	3.39465	0.45012	5.79554	0.701828	8.54979	0.765695	9.31682
0.291405	3.72555	0.125101	1.58574	0.291777	3.70468	0.426915	5.46636	0.589401	7.53086	0.856194	10.2773	0.264015	3.37966	0.450865	5.73631	0.702008	8.49278	0.766628	9.22361
0.292049	3.68984	0.127089	1.59214	0.292432	3.66959	0.42824	5.41868	0.590124	7.45139	0.856592	10.1683	0.266008	3.36504	0.451618	5.67858	0.702153	8.44827	0.767568	9.13254
0.292713	3.6552	0.129079	1.59841	0.293107	3.63556	0.429571	5.37219	0.590855	7.37387	0.856995	10.0618	0.268004	3.35078	0.45238	5.6223	0.70226	8.41587	0.768512	9.04353
0.293396	3.6216	0.131072	1.60457	0.293802	3.60254	0.430907	5.32683	0.591594	7.29824	0.857402	9.95768	0.27	3.33688	0.453152	5.56742	0.702329	8.39527	0.769463	8.95652
0.294099	3.589	0.133066	1.61062	0.294517	3.57052	0.432248	5.28257	0.592342	7.22443	0.857813	9.85582	0.271999	3.32331	0.453932	5.51388	0.702429	8.36586	0.770419	8.87144
0.294823	3.55738	0.135063	1.61656	0.295253	3.53946	0.433595	5.23937	0.593099	7.15238	0.858229	9.75616	0.273999	3.31007	0.45472	5.46166	0.702539	8.33413	0.771381	8.78823
0.295567	3.52672	0.137061	1.62239	0.296009	3.50933	0.434946	5.19719	0.593863	7.08203	0.85865	9.65864	0.276	3.29714	0.455518	5.41069	0.702689	8.29141	0.772223	8.7172
0.296332	3.49697	0.139062	1.62811	0.296786	3.4801	0.436303	5.156	0.594636	7.01332	0.859075	9.5632	0.278003	3.2845	0.456325	5.36094	0.702882	8.23805	0.772945	8.6577
0.297119	3.46812	0.141064	1.63373	0.297585	3.45176	0.437665	5.11576	0.595417	6.9462	0.859504	9.46976	0.280007	3.27216	0.457141	5.31238	0.703118	8.17451	0.773544	8.60922
0.297927	3.44014	0.143068	1.63925	0.298406	3.42428	0.439031	5.07645	0.596206	6.88062	0.859938	9.37827	0.282012	3.2601	0.457965	5.26496	0.7034	8.10131	0.774019	8.57133
0.298757	3.41301	0.145073	1.64467	0.29925	3.39764	0.440402	5.03803	0.597004	6.81653	0.860376	9.28867	0.284018	3.2483	0.458799	5.21864	0.70373	8.01907	0.774369	8.54373
0.299611	3.38671	0.147081	1.65	0.300117	3.37181	0.441777	5.00046	0.597809	6.75389	0.860819	9.2009	0.286025	3.23677	0.459641	5.1734	0.704067	7.93862	0.774593	8.52617
0.300487	3.36122	0.149089	1.65523	0.301007	3.34677	0.443157	4.96374	0.598623	6.69263	0.861266	9.11491	0.288033	3.22548	0.460492	5.12919	0.704411	7.85993	0.774917	8.50108
0.301387	3.33651	0.151099	1.66038	0.301921	3.32252	0.444541	4.92782	0.599445	6.63274	0.861718	9.03065	0.290042	3.21444	0.461353	5.08599	0.704762	7.78293	0.775268	8.47401
0.302311	3.31258	0.153111	1.66543	0.302859	3.29902	0.44593	4.89268	0.600276	6.57415	0.862174	8.94806	0.292051	3.20363	0.462222	5.04377	0.705119	7.70758	0.775748	8.43752
0.30326	3.28939	0.155124	1.67039	0.303822	3.27626	0.447322	4.85829	0.601114	6.51684	0.862575	8.87742	0.294061	3.19304	0.4631	5.00249	0.705483	7.63381	0.776357	8.3919
0.304234	3.26694	0.157138	1.67528	0.304811	3.25423	0.448719	4.82464	0.601961	6.46076	0.86292	8.81815	0.296071	3.18267	0.463987	4.96213	0.705855	7.5616	0.777095	8.3375
0.305233	3.24521	0.159153	1.68007	0.305826	3.23291	0.45012	4.7917	0.602816	6.40588	0.863207	8.76979	0.298082	3.17251	0.464883	4.92266	0.706232	7.49088	0.777965	8.27476
0.306259	3.22418	0.16117	1.68479	0.306868	3.21228	0.451524	4.75945	0.603679	6.35216	0.863435	8.73196	0.300093	3.16255	0.465787	4.88406	0.706617	7.42162	0.778969	8.20413
0.307312	3.20384	0.163187	1.68943	0.307936	3.19233	0.452933	4.72786	0.60455	6.29957	0.863603	8.70438	0.302104	3.15279	0.466701	4.8463	0.707009	7.35377	0.779977	8.13493
0.308392	3.18417	0.165206	1.69399	0.309032	3.17305	0.454345	4.69692	0.605429	6.24807	0.863711	8.68682	0.304116	3.14322	0.467624	4.80935	0.707407	7.28729	0.780991	8.06711
0.3095	3.16516	0.167226	1.69847	0.310157	3.15442	0.455761	4.66661	0.606317	6.19763	0.863867	8.66172	0.306127	3.13384	0.468556	4.77319	0.707812	7.22215	0.782011	8.00065
0.310637	3.1468	0.169246	1.70288	0.311311	3.13643	0.45718	4.63691	0.607212	6.14823	0.864037	8.63461	0.308139	3.12463	0.469496	4.73781	0.708224	7.1583	0.783035	7.93549
0.311803	3.12908	0.171268	1.70721	0.312493	3.11907	0.458603	4.6078	0.608116	6.09984	0.864269	8.59804	0.31015	3.11559	0.470446	4.70317	0.708642	7.09571	0.784065	7.8716
0.312998	3.11198	0.17329	1.71148	0.313706	3.10233	0.460029	4.57926	0.609027	6.05242	0.864563	8.55228	0.312162	3.10672	0.471404	4.66926	0.709067	7.03434	0.785099	7.80894
0.314224	3.09549	0.175314	1.71568	0.314949	3.08619	0.461458	4.55128	0.609947	6.00595	0.864922	8.49765	0.314173	3.09801	0.472372	4.63606	0.709499	6.97416	0.786139	7.74749
0.31548	3.0796	0.177338	1.7198	0.316224	3.07064	0.462891	4.52384	0.610875	5.9604	0.865346	8.43453	0.316184	3.08945	0.473348	4.60355	0.709938	6.91514	0.787184	7.6872
0.316767	3.06429	0.179363	1.72386	0.317529	3.05567	0.464327	4.49692	0.61181	5.91575	0.865836	8.36337	0.318195	3.08105	0.474334	4.57171	0.710383	6.85725	0.788234	7.62805
0.318086	3.04956	0.181388	1.72786	0.318866	3.04127	0.465766	4.47052	0.612754	5.87198	0.866331	8.29351	0.320205	3.07279	0.475328	4.54052	0.710835	6.80045	0.789289	7.57001
0.319436	3.0354	0.183414	1.73179	0.320236	3.02743	0.467208	4.44461	0.613706	5.82906	0.866831	8.22493	0.322215	3.06468	0.476331	4.50996	0.711294	6.74472	0.790349	7.51304
0.320819	3.02179	0.185441	1.73566	0.321638	3.01413	0.468653	4.41919	0.614665	5.78696	0.867335	8.1576	0.324224	3.0567	0.477343	4.48003	0.711759	6.69003	0.791414	7.45711
0.322235	3.00872	0.187469	1.73947	0.323072	3.00137	0.470101	4.39424	0.615633	5.74567	0.867843	8.09147	0.326232	3.04886	0.478365	4.45069	0.712231	6.63635	0.792484	7.40221
0.323683	2.99617	0.189497	1.74322	0.324539	2.98913	0.471551	4.36974	0.616609	5.70517	0.868356	8.02653	0.32824	3.04114	0.479395	4.42195	0.71271	6.58366	0.793558	7.3483
0.325164	2.98415	0.191526	1.74691	0.326039	2.97739	0.473005	4.34569	0.617592	5.66543	0.868873	7.96274	0.330248	3.03356	0.480434	4.39377	0.713195	6.53192	0.794638	7.29536
0.326678	2.97262	0.193555	1.75054	0.327572	2.96616	0.474461	4.32207	0.618583	5.62643	0.869395	7.90007	0.332254	3.02609	0.481482	4.36616	0.713687	6.48112	0.795722	7.24336
0.328225	2.96159	0.195584	1.75411	0.329138	2.9554	0.475919	4.29887	0.619583	5.58816	0.869922	7.83849	0.33426	3.01874	0.48254	4.33908	0.714186	6.43124	0.796811	7.19227
0.329804	2.95103	0.197614	1.75763	0.330736	2.94511	0.477381	4.27609	0.62059	5.5506	0.870452	7.77797	0.336264	3.0115	0.483606	4.31254	0.714691	6.38224	0.797905	7.14208
0.331416	2.94094	0.199645	1.7611	0.332367	2.93528	0.478845	4.2537	0.621605	5.51374	0.870988	7.7185	0.338268	3.00438	0.484681	4.28652	0.715202	6.33411	0.799004	7.09277
0.33306	2.93129	0.201676	1.76451	0.33403	2.92589	0.480311	4.2317	0.622627	5.47754	0.871527	7.66003	0.340271	2.99737	0.485765	4.26099	0.71572	6.28682	0.800107	7.0443
0.334736	2.92208	0.203707	1.76787	0.335724	2.91693	0.481779	4.21008	0.623658	5.442	0.872071	7.60256	0.342273	2.99046	0.486858	4.23596	0.716245	6.24036	0.801215	6.99666
0.336443	2.91329	0.205738	1.77118	0.337449	2.90837	0.483251	4.18883	0.624696	5.4071	0.87262	7.54605	0.344273	2.98365	0.487961	4.21141	0.716776	6.1947	0.802328	6.94983
0.338182	2.90491	0.20777	1.77444	0.339205	2.90022	0.484724	4.16794	0.625742	5.37283	0.873173	7.49048	0.346273	2.97694	0.489072	4.18733	0.717314	6.14983	0.803445	6.9038
0.33995	2.89691	0.209802	1.77765	0.340991	2.89244	0.486199	4.14741	0.626796	5.33916	0.873731	7.43584	0.348271	2.97032	0.490192	4.16371	0.717858	6.10572	0.804567	6.85853
0.341748	2.8893	0.211835	1.78081	0.342806	2.88504	0.487677	4.12721	0.627858	5.30609	0.874293	7.38209	0.350268	2.96381	0.491321	4.14053	0.718409	6.06237	0.805694	6.81401
0.343575	2.88204	0.213867	1.78393	0.344649	2.87798	0.489157	4.10735	0.628927	5.27361	0.874859	7.32921	0.352264	2.95738	0.492459	4.11779	0.718966	6.01974	0.806825	6.77023
0.345429	2.87513	0.2159	1.787	0.346519	2.87126	0.490639	4.08781	0.630004	5.24169	0.87543	7.27719	0.354258	2.95104	0.493606	4.09548	0.71953	5.97783	0.80796	6.72716
0.347311	2.86854	0.217933	1.79002	0.348417	2.86487	0.492123	4.06859	0.631088	5.21032	0.876006	7.22601	0.356251	2.94478	0.494763	4.07358	0.7201	5.93661	0.8091	6.6848
0.34922	2.86228	0.219967	1.793	0.35034	2.85878	0.493609	4.04969	0.632181	5.1795	0.876586	7.17565	0.358242	2.93861	0.495928	4.05209	0.720676	5.89608	0.810244	6.64312
0.351153	2.85632	0.222	1.79593	0.352287	2.85298	0.495097	4.03108	0.63328	5.1492	0.87717	7.12608	0.360232	2.93252	0.497102	4.031	0.721259	5.85621	0.811393	6.6021
0.353111	2.85064	0.224033	1.79883	0.354259	2.84747	0.496587	4.01277	0.634388	5.11942	0.877759	7.0773	0.36222	2.92651	0.498285	4.01029	0.721849	5.81699	0.812546	6.56174
0.355093	2.84523	0.226067	1.80168	0.356254	2.84221	0.498079	3.99475	0.635503	5.09015	0.878352	7.02928	0.364206	2.92057	0.499477	3.98997	0.722444	5.7784	0.813704	6.52202
0.357097	2.84009	0.2281	1.80448	0.358271	2.83721	0.499573	3.97701	0.636625	5.06137	0.87895	6.982	0.366191	2.91471	0.500678	3.97002	0.723046	5.74044	0.814865	6.48292
0.359122	2.83519	0.230134	1.80725	0.360308	2.83245	0.501068	3.95955	0.637755	5.03307	0.879552	6.93546	0.368175	2.90893	0.501888	3.95043	0.723655	5.70308	0.816031	6.44442
0.361169	2.83053	0.232168	1.80998	0.362366	2.82792	0.502565	3.94236	0.638892	5.00525	0.880159	6.88963	0.370156	2.90321	0.503107	3.9312	0.72427	5.66632	0.817202	6.40653
0.363235	2.82608	0.234202	1.81267	0.364443	2.8236	0.504064	3.92542	0.640037	4.97788	0.88077	6.84449	0.372136	2.89757	0.504335	3.91231	0.724891	5.63014	0.818376	6.36921
0.36532	2.82185	0.236235	1.81532	0.366539	2.81948	0.505565	3.90875	0.64119	4.95097	0.881386	6.80005	0.374114	2.89199	0.505572	3.89376	0.725518	5.59453	0.819555	6.33247
0.367423	2.81781	0.238269	1.81793	0.368652	2.81556	0.507067	3.89233	0.642349	4.92449	0.882006	6.75626	0.37609	2.88647	0.506819	3.87555	0.726152	5.55948	0.820738	6.29628
0.369543	2.81397	0.240303	1.82051	0.370782	2.81181	0.508571	3.87615	0.643516	4.89845	0.882631	6.71314	0.378064	2.88102	0.508074	3.85766	0.726792	5.52497	0.821925	6.26064
0.371679	2.8103	0.242336	1.82305	0.372927	2.80824	0.510076	3.86021	0.644691	4.87283	0.88326	6.67065	0.380036	2.87563	0.509337	3.84009	0.727438	5.49099	0.823116	6.22553
0.373831	2.80679	0.24437	1.82555	0.375087	2.80483	0.511584	3.84451	0.645872	4.84763	0.883893	6.62879	0.382006	2.8703	0.51061	3.82284	0.72809	5.45753	0.824311	6.19095
0.375997	2.80345	0.246404	1.82802	0.377262	2.80158	0.513092	3.82904	0.647061	4.82283	0.884531	6.58755	0.383974	2.86504	0.511892	3.80589	0.728749	5.42459	0.825511	6.15687
0.378178	2.80025	0.248437	1.83045	0.37945	2.79846	0.514602	3.81379	0.648258	4.79842	0.885174	6.54691	0.38594	2.85982	0.513183	3.78924	0.729414	5.39214	0.826714	6.1233
0.380372	2.7972	0.25047	1.83285	0.381651	2.79549	0.516114	3.79876	0.649461	4.7744	0.885821	6.50685	0.387904	2.85467	0.514483	3.77288	0.730085	5.36018	0.827921	6.09021
0.382578	2.79428	0.252504	1.83522	0.383865	2.79264	0.517627	3.78395	0.650672	4.75076	0.886472	6.46738	0.389866	2.84957	0.515791	3.75681	0.730763	5.32871	0.829132	6.0576
0.384796	2.79149	0.254537	1.83755	0.38609	2.78992	0.519141	3.76935	0.651889	4.72749	0.887128	6.42847	0.391825	2.84452	0.517109	3.74102	0.731446	5.2977	0.830347	6.02547
0.387025	2.78881	0.256569	1.83985	0.388325	2.78731	0.520657	3.75495	0.653114	4.70459	0.887789	6.39011	0.393783	2.83952	0.518435	3.7255	0.732136	5.26715	0.831566	5.99379
0.389266	2.78625	0.258602	1.84212	0.390571	2.78481	0.522174	3.74076	0.654346	4.68204	0.888454	6.3523	0.395738	2.83458	0.51977	3.71025	0.732832	5.23705	0.832789	5.96256
0.391516	2.78379	0.260635	1.84436	0.392827	2.78241	0.523693	3.72676	0.655586	4.65984	0.889123	6.31501	0.397691	2.82968	0.521115	3.69527	0.733534	5.2074	0.834016	5.93178
0.393776	2.78143	0.262667	1.84656	0.395092	2.7801	0.525213	3.71296	0.656832	4.63799	0.889797	6.27825	0.399642	2.82484	0.522468	3.68055	0.734242	5.17818	0.835247	5.90142
0.396045	2.77917	0.264699	1.84874	0.397366	2.77789	0.526734	3.69935	0.658085	4.61646	0.890475	6.24201	0.40159	2.82004	0.523829	3.66608	0.734956	5.14938	0.836481	5.87149
0.398322	2.77699	0.266731	1.85089	0.399649	2.77577	0.528257	3.68593	0.659345	4.59527	0.891158	6.20626	0.403536	2.81528	0.5252	3.65186	0.735676	5.121	0.837719	5.84198
0.400608	2.7749	0.268763	1.85301	0.401939	2.77373	0.52978	3.67268	0.660612	4.57439	0.891845	6.171	0.40548	2.81058	0.52658	3.63789	0.736403	5.09302	0.838961	5.81287
0.402901	2.77289	0.270794	1.8551	0.404236	2.77176	0.531306	3.65962	0.661886	4.55384	0.892536	6.13623	0.407421	2.80591	0.527968	3.62415	0.737135	5.06545	0.840206	5.78416
0.405202	2.77096	0.272825	1.85716	0.406541	2.76987	0.532832	3.64673	0.663166	4.53359	0.893232	6.10193	0.40936	2.80129	0.529365	3.61065	0.737873	5.03826	0.841456	5.75584
0.407509	2.7691	0.274856	1.85919	0.408853	2.76805	0.53436	3.63401	0.664454	4.51364	0.893933	6.06809	0.411296	2.79671	0.530771	3.59738	0.738618	5.01147	0.842708	5.72791
0.409823	2.7673	0.276887	1.8612	0.41117	2.76629	0.535888	3.62146	0.665748	4.49399	0.894638	6.03471	0.41323	2.79217	0.532185	3.58433	0.739368	4.98504	0.843965	5.70035
0.412143	2.76557	0.278917	1.86318	0.413494	2.76459	0.537419	3.60908	0.667049	4.47463	0.895348	6.00178	0.415162	2.78767	0.533608	3.5715	0.740125	4.95899	0.845225	5.67316
0.41447	2.7639	0.280947	1.86513	0.415823	2.76295	0.53895	3.59686	0.668357	4.45556	0.896062	5.96929	0.417091	2.78322	0.53504	3.55889	0.740887	4.93331	0.846489	5.64633
0.416801	2.76229	0.282977	1.86705	0.418158	2.76137	0.540482	3.5848	0.669671	4.43676	0.89678	5.93722	0.419018	2.7788	0.53648	3.54649	0.741656	4.90797	0.847756	5.61986
0.419138	2.76073	0.285006	1.86896	0.420498	2.75984	0.542016	3.57289	0.670992	4.41824	0.897503	5.90558	0.420942	2.77441	0.537929	3.53431	0.74243	4.88299	0.849026	5.59373
0.42148	2.75922	0.287035	1.87083	0.422842	2.75837	0.543551	3.56114	0.67232	4.39999	0.89823	5.87435	0.422864	2.77007	0.539387	3.52232	0.74321	4.85835	0.8503	5.56795
0.423827	2.75776	0.289064	1.87268	0.425192	2.75693	0.545087	3.54953	0.673654	4.382	0.898962	5.84353	0.424783	2.76576	0.540853	3.51054	0.743997	4.83405	0.851578	5.5425
0.426178	2.75635	0.291092	1.87451	0.427545	2.75555	0.546625	3.53808	0.674995	4.36427	0.899698	5.81311	0.426699	2.76149	0.542328	3.49895	0.744789	4.81008	0.852859	5.51738
0.428533	2.75498	0.29312	1.87631	0.429903	2.7542	0.548163	3.52677	0.676342	4.3468	0.900439	5.78309	0.428613	2.75725	0.543811	3.48755	0.745587	4.78643	0.854143	5.49258
0.430892	2.75365	0.295148	1.87809	0.432264	2.7529	0.549703	3.5156	0.677695	4.32957	0.901185	5.75345	0.430525	2.75305	0.545303	3.47635	0.746391	4.76311	0.855431	5.4681
0.433255	2.75237	0.297175	1.87984	0.434629	2.75164	0.551244	3.50457	0.679055	4.31259	0.901934	5.72418	0.432434	2.74887	0.546803	3.46533	0.747201	4.74009	0.856722	5.44393
0.435622	2.75112	0.299202	1.88158	0.436998	2.75041	0.552786	3.49368	0.680422	4.29585	0.902688	5.69529	0.43434	2.74474	0.548312	3.45449	0.748016	4.71738	0.858016	5.42006
0.437991	2.7499	0.301229	1.88328	0.43937	2.74921	0.554329	3.48293	0.681794	4.27934	0.903447	5.66677	0.436244	2.74063	0.549828	3.44383	0.748838	4.69498	0.859313	5.3965
0.440365	2.74872	0.303255	1.88497	0.441744	2.74805	0.555873	3.4723	0.683173	4.26307	0.90421	5.6386	0.438145	2.73656	0.551353	3.43335	0.749665	4.67287	0.860614	5.37323
0.442741	2.74757	0.30528	1.88664	0.444122	2.74692	0.557419	3.46181	0.684558	4.24702	0.904978	5.61079	0.440044	2.73252	0.552887	3.42304	0.750498	4.65105	0.861918	5.35025
0.445119	2.74646	0.307306	1.88828	0.446502	2.74582	0.558966	3.45145	0.685949	4.23119	0.90575	5.58332	0.44194	2.72851	0.554429	3.4129	0.751337	4.62952	0.863225	5.32755
0.447501	2.74537	0.30933	1.8899	0.448886	2.74475	0.560514	3.44121	0.687347	4.21558	0.906526	5.5562	0.443834	2.72452	0.555978	3.40292	0.752182	4.60827	0.864535	5.30513
0.449885	2.74431	0.311355	1.8915	0.451271	2.74371	0.562063	3.43109	0.68875	4.20019	0.907307	5.52941	0.445725	2.72057	0.557536	3.39311	0.753033	4.5873	0.865849	5.28299
0.452272	2.74328	0.313379	1.89308	0.453659	2.74269	0.563613	3.4211	0.69016	4.18501	0.908092	5.50295	0.447613	2.71665	0.559102	3.38345	0.753889	4.56659	0.867165	5.26111
0.45466	2.74227	0.315402	1.89464	0.456049	2.74169	0.565165	3.41123	0.691575	4.17003	0.908882	5.47682	0.449499	2.71276	0.560677	3.37396	0.754751	4.54616	0.868485	5.2395
0.457051	2.74128	0.317425	1.89618	0.45844	2.74072	0.566718	3.40147	0.692997	4.15526	0.909677	5.451	0.451383	2.70889	0.562259	3.36461	0.755619	4.52598	0.869808	5.21815
0.459444	2.74032	0.319447	1.8977	0.460834	2.73977	0.568272	3.39183	0.694424	4.14069	0.910475	5.4255	0.453264	2.70506	0.563849	3.35542	0.756492	4.50607	0.871133	5.19705
0.461838	2.73938	0.321469	1.8992	0.46323	2.73884	0.569827	3.38231	0.695857	4.12631	0.911279	5.4003	0.455142	2.70125	0.565447	3.34638	0.757371	4.48641	0.872462	5.17621
0.464234	2.73846	0.323491	1.90068	0.465627	2.73793	0.571384	3.37289	0.697296	4.11212	0.912086	5.37541	0.457018	2.69746	0.567053	3.33748	0.758256	4.467	0.873793	5.15561
0.466632	2.73756	0.325512	1.90215	0.468026	2.73704	0.572942	3.36359	0.698741	4.09813	0.912898	5.35081	0.458892	2.69371	0.568666	3.32872	0.759147	4.44783	0.875128	5.13526
0.469032	2.73668	0.327533	1.90359	0.470426	2.73617	0.574501	3.3544	0.700192	4.08432	0.913715	5.32651	0.460763	2.68998	0.570288	3.32011	0.760043	4.4289	0.876465	5.11514
0.471432	2.73581	0.329553	1.90501	0.472827	2.73532	0.576062	3.34531	0.701648	4.07069	0.914536	5.3025	0.462631	2.68628	0.571917	3.31163	0.760945	4.41022	0.877806	5.09526
0.473834	2.73496	0.331572	1.90642	0.47523	2.73448	0.577624	3.33633	0.70311	4.05724	0.915362	5.27877	0.464497	2.6826	0.573553	3.30328	0.761852	4.39176	0.879149	5.0756
0.476238	2.73413	0.333591	1.90781	0.477634	2.73365	0.579187	3.32745	0.704577	4.04396	0.916192	5.25532	0.466361	2.67895	0.575197	3.29507	0.762765	4.37353	0.880495	5.05618
0.478642	2.73331	0.33561	1.90918	0.480039	2.73285	0.580752	3.31868	0.70605	4.03086	0.917026	5.23214	0.468223	2.67533	0.576849	3.28699	0.763684	4.35553	0.881844	5.03697
0.481047	2.73251	0.337628	1.91053	0.482445	2.73205	0.582318	3.31001	0.707528	4.01793	0.917865	5.20924	0.470082	2.67172	0.578508	3.27904	0.764608	4.33776	0.883195	5.01799
0.483453	2.73172	0.339645	1.91187	0.484851	2.73127	0.583885	3.30143	0.709012	4.00517	0.918708	5.1866	0.471939	2.66815	0.580175	3.27121	0.765538	4.3202	0.884549	4.99922
0.48586	2.73095	0.341662	1.91319	0.487259	2.7305	0.585454	3.29296	0.710502	3.99257	0.919556	5.16422	0.473793	2.6646	0.581849	3.2635	0.766474	4.30285	0.885906	4.98066
0.488268	2.73018	0.343679	1.91449	0.489667	2.72974	0.587025	3.28458	0.711996	3.98013	0.920408	5.1421	0.475645	2.66107	0.58353	3.25591	0.767415	4.28572	0.887266	4.96231
0.490676	2.72943	0.345695	1.91578	0.492076	2.729	0.588597	3.27629	0.713496	3.96785	0.921265	5.12024	0.477495	2.65757	0.585218	3.24845	0.768361	4.26879	0.888628	4.94417
0.493085	2.72869	0.34771	1.91705	0.494485	2.72826	0.59017	3.2681	0.715001	3.95572	0.922126	5.09862	0.479343	2.65409	0.586913	3.2411	0.769314	4.25207	0.889993	4.92623
0.495495	2.72795	0.349725	1.9183	0.496894	2.72753	0.591745	3.26	0.716512	3.94375	0.922992	5.07725	0.481188	2.65063	0.588616	3.23386	0.770271	4.23556	0.891361	4.90848
0.497905	2.72723	0.351739	1.91954	0.499304	2.72682	0.593322	3.252	0.718027	3.93193	0.923862	5.05613	0.483032	2.6472	0.590325	3.22673	0.771234	4.21924	0.892731	4.89094
0.500315	2.72652	0.353752	1.92077	0.501715	2.72611	0.5949	3.24408	0.719548	3.92025	0.924737	5.03524	0.484873	2.64379	0.592041	3.21972	0.772203	4.20311	0.894104	4.87358
0.502725	2.72582	0.355765	1.92197	0.504125	2.72541	0.59648	3.23625	0.721074	3.90873	0.925616	5.01458	0.486712	2.64041	0.593764	3.21281	0.773177	4.18718	0.895479	4.85641
0.505136	2.72512	0.357778	1.92316	0.506536	2.72472	0.598061	3.22851	0.722604	3.89734	0.926499	4.99416	0.488549	2.63705	0.595494	3.20601	0.774157	4.17144	0.896857	4.83943
0.507546	2.72443	0.35979	1.92434	0.508947	2.72403	0.599644	3.22086	0.72414	3.88609	0.927387	4.97397	0.490384	2.63371	0.597231	3.19931	0.775142	4.15589	0.898237	4.82263
0.509957	2.72375	0.361801	1.9255	0.511357	2.72336	0.601229	3.21329	0.725681	3.87499	0.928279	4.954	0.492217	2.63039	0.598974	3.19271	0.776133	4.14051	0.89962	4.80602
0.512368	2.72307	0.363812	1.92665	0.513768	2.72268	0.602816	3.20581	0.727226	3.86401	0.929176	4.93425	0.494049	2.62709	0.600724	3.18621	0.777129	4.12532	0.901005	4.78958
0.514778	2.7224	0.365822	1.92778	0.516178	2.72202	0.604404	3.19841	0.728776	3.85318	0.930077	4.91472	0.495878	2.62382	0.60248	3.17982	0.778131	4.11031	0.902392	4.77331
0.517189	2.72174	0.367831	1.9289	0.518589	2.72136	0.605995	3.19109	0.730331	3.84247	0.930983	4.89541	0.497705	2.62057	0.604243	3.17351	0.779138	4.09547	0.903782	4.75722
0.519599	2.72108	0.36984	1.93001	0.520999	2.7207	0.607587	3.18386	0.731891	3.83189	0.931893	4.8763	0.499531	2.61734	0.606011	3.1673	0.78015	4.08081	0.905174	4.74129
0.522009	2.72043	0.371848	1.9311	0.523408	2.72005	0.609181	3.1767	0.733455	3.82144	0.932808	4.85741	0.501354	2.61414	0.607786	3.16119	0.781168	4.06632	0.906569	4.72554
0.524418	2.71978	0.373856	1.93218	0.525817	2.71941	0.610777	3.16962	0.735024	3.81112	0.933727	4.83872	0.503176	2.61095	0.609568	3.15516	0.782191	4.05199	0.907966	4.70994
0.526827	2.71913	0.375863	1.93324	0.528226	2.71876	0.612375	3.16263	0.736598	3.80091	0.934651	4.82023	0.504997	2.60779	0.611355	3.14923	0.78322	4.03783	0.909365	4.69451
0.529235	2.71849	0.377869	1.93429	0.530634	2.71812	0.613976	3.15571	0.738176	3.79083	0.935579	4.80194	0.506815	2.60465	0.613148	3.14338	0.784254	4.02384	0.910766	4.67924
0.531643	2.71785	0.379875	1.93533	0.533042	2.71748	0.615578	3.14886	0.739758	3.78087	0.936511	4.78385	0.508632	2.60153	0.614947	3.13762	0.785293	4.01	0.912169	4.66412
0.534051	2.71722	0.38188	1.93635	0.535448	2.71685	0.617182	3.1421	0.741345	3.77102	0.937448	4.76596	0.510448	2.59844	0.616752	3.13194	0.786338	3.99632	0.913575	4.64916
0.536457	2.71658	0.383885	1.93736	0.537854	2.71622	0.618789	3.1354	0.742936	3.76129	0.93839	4.74825	0.512262	2.59536	0.618563	3.12634	0.787389	3.9828	0.914983	4.63435
0.538863	2.71595	0.385889	1.93836	0.54026	2.71559	0.620398	3.12879	0.744532	3.75167	0.939336	4.73074	0.514074	2.59231	0.62038	3.12083	0.788444	3.96943	0.916393	4.6197
0.541267	2.71532	0.387892	1.93935	0.542664	2.71496	0.622009	3.12224	0.746132	3.74216	0.940286	4.7134	0.515885	2.58927	0.622202	3.11539	0.789505	3.95622	0.917805	4.60518
0.543671	2.71469	0.389895	1.94032	0.545067	2.71433	0.623623	3.11577	0.747735	3.73276	0.941241	4.69626	0.517694	2.58626	0.624029	3.11003	0.790571	3.94315	0.919219	4.59082
0.546074	2.71406	0.391897	1.94129	0.547469	2.7137	0.625239	3.10937	0.749344	3.72347	0.9422	4.67929	0.519502	2.58327	0.625862	3.10475	0.791643	3.93023	0.920635	4.5766
0.548476	2.71344	0.393898	1.94224	0.54987	2.71307	0.626858	3.10304	0.750956	3.71429	0.943163	4.6625	0.521309	2.5803	0.6277	3.09954	0.79272	3.91746	0.922054	4.56252
0.550876	2.71281	0.395899	1.94317	0.55227	2.71244	0.628479	3.09678	0.752572	3.70521	0.944132	4.64589	0.523115	2.57735	0.629544	3.09441	0.793802	3.90483	0.923474	4.54857
0.553276	2.71218	0.397899	1.9441	0.554669	2.71182	0.630103	3.0906	0.754193	3.69623	0.945104	4.62945	0.524919	2.57442	0.631392	3.08935	0.794889	3.89234	0.924896	4.53477
0.555674	2.71155	0.399898	1.94502	0.557066	2.71119	0.631729	3.08448	0.755817	3.68736	0.946081	4.61318	0.526722	2.57152	0.633246	3.08436	0.795982	3.87999	0.926321	4.5211
0.55807	2.71092	0.401897	1.94592	0.559462	2.71056	0.633358	3.07843	0.757445	3.67858	0.947063	4.59709	0.528524	2.56863	0.635105	3.07944	0.79708	3.86778	0.927747	4.50756
0.560466	2.71029	0.403895	1.94681	0.561856	2.70992	0.63499	3.07245	0.759077	3.6699	0.948049	4.58115	0.530325	2.56576	0.636968	3.07458	0.798184	3.8557	0.929175	4.49416
0.562859	2.70966	0.405893	1.94769	0.564249	2.70929	0.636625	3.06653	0.760713	3.66132	0.949039	4.56539	0.532125	2.56292	0.638837	3.0698	0.799292	3.84375	0.930605	4.48088
0.565251	2.70902	0.407889	1.94856	0.56664	2.70865	0.638263	3.06069	0.762353	3.65283	0.950034	4.54978	0.533924	2.56009	0.64071	3.06508	0.800406	3.83194	0.932037	4.46773
0.567642	2.70838	0.409885	1.94942	0.569029	2.70801	0.639904	3.05491	0.763996	3.64443	0.951033	4.53433	0.535721	2.55729	0.642588	3.06042	0.801526	3.82026	0.93347	4.45471
0.57003	2.70774	0.411881	1.95027	0.571417	2.70737	0.641548	3.04919	0.765643	3.63613	0.952037	4.51905	0.537518	2.55451	0.644471	3.05582	0.80265	3.80871	0.934906	4.44181
0.572417	2.7071	0.413876	1.95111	0.573802	2.70672	0.643195	3.04354	0.767294	3.62791	0.953045	4.50391	0.539314	2.55174	0.646357	3.05129	0.80378	3.79728	0.936343	4.42904
0.574802	2.70645	0.41587	1.95193	0.576186	2.70608	0.644845	3.03796	0.768948	3.61979	0.954058	4.48893	0.541109	2.549	0.648249	3.04682	0.804915	3.78598	0.937782	4.41638
0.577184	2.7058	0.417863	1.95275	0.578567	2.70542	0.646499	3.03244	0.770605	3.61175	0.955075	4.47411	0.542904	2.54628	0.650144	3.04241	0.806055	3.7748	0.939223	4.40384
0.579565	2.70515	0.419856	1.95356	0.580947	2.70476	0.648156	3.02698	0.772267	3.6038	0.956097	4.45943	0.544698	2.54358	0.652044	3.03805	0.807201	3.76374	0.940666	4.39142
0.581943	2.70449	0.421848	1.95435	0.583324	2.7041	0.649816	3.02159	0.773931	3.59594	0.957123	4.4449	0.546491	2.54089	0.653948	3.03375	0.808352	3.75281	0.94211	4.37912
0.584319	2.70382	0.423839	1.95514	0.585698	2.70343	0.65148	3.01626	0.775599	3.58815	0.958154	4.43052	0.548283	2.53823	0.655857	3.02951	0.809508	3.74199	0.943556	4.36693
0.586693	2.70315	0.42583	1.95592	0.58807	2.70276	0.653148	3.01099	0.777271	3.58045	0.959189	4.41628	0.550075	2.53559	0.657769	3.02532	0.810669	3.73128	0.945004	4.35485
0.589064	2.70247	0.42782	1.95668	0.59044	2.70208	0.65482	3.00579	0.778945	3.57283	0.960228	4.40218	0.551866	2.53297	0.659685	3.02119	0.811836	3.7207	0.946453	4.34288
0.591432	2.70179	0.429809	1.95744	0.592807	2.70139	0.656496	3.00065	0.780623	3.56529	0.961272	4.38822	0.553656	2.53037	0.661605	3.01711	0.813007	3.71023	0.947904	4.33102
0.593798	2.7011	0.431798	1.95819	0.595171	2.7007	0.658175	2.99557	0.782304	3.55783	0.962321	4.3744	0.555446	2.52778	0.663528	3.01308	0.814184	3.69987	0.949356	4.31927
0.596161	2.70041	0.433786	1.95893	0.597532	2.7	0.659859	2.99055	0.783988	3.55044	0.963373	4.36072	0.557236	2.52522	0.665455	3.0091	0.815367	3.68962	0.95081	4.30763
0.598521	2.6997	0.435773	1.95966	0.59989	2.69929	0.661546	2.98559	0.785675	3.54314	0.964431	4.34717	0.559025	2.52268	0.667386	3.00517	0.816554	3.67948	0.952266	4.29609
0.600878	2.69899	0.43776	1.96038	0.602246	2.69857	0.663238	2.9807	0.787366	3.5359	0.965493	4.33376	0.560814	2.52015	0.66932	3.00129	0.817747	3.66945	0.953723	4.28465
0.603232	2.69827	0.439746	1.96109	0.604597	2.69785	0.664935	2.97586	0.789059	3.52874	0.966559	4.32047	0.562603	2.51765	0.671258	2.99745	0.818945	3.65952	0.955181	4.27332
0.605582	2.69754	0.441731	1.96179	0.606946	2.69712	0.666636	2.97108	0.790755	3.52165	0.96763	4.30732	0.564391	2.51517	0.673199	2.99367	0.820148	3.6497	0.956642	4.26208
0.607929	2.69681	0.443715	1.96248	0.609291	2.69637	0.668341	2.96637	0.792454	3.51464	0.968705	4.2943	0.566179	2.5127	0.675143	2.98992	0.821356	3.63999	0.958103	4.25095
0.610273	2.69606	0.445699	1.96317	0.611633	2.69562	0.670052	2.96171	0.794156	3.50769	0.969785	4.2814	0.567967	2.51026	0.677091	2.98623	0.82257	3.63038	0.959566	4.23991
0.612613	2.6953	0.447682	1.96384	0.613971	2.69486	0.671767	2.95711	0.795861	3.50082	0.970869	4.26863	0.569755	2.50783	0.679041	2.98257	0.823788	3.62087	0.96103	4.22897
0.61495	2.69454	0.449665	1.96451	0.616305	2.69409	0.673487	2.95258	0.797569	3.49401	0.971958	4.25598	0.571542	2.50543	0.680995	2.97896	0.825012	3.61146	0.962496	4.21813
0.617282	2.69376	0.451647	1.96517	0.618635	2.6933	0.675213	2.9481	0.799279	3.48727	0.973051	4.24346	0.57333	2.50304	0.682951	2.9754	0.826241	3.60215	0.963963	4.20738
0.61961	2.69297	0.453628	1.96582	0.620961	2.69251	0.676943	2.94368	0.800992	3.48059	0.974148	4.23105	0.575117	2.50067	0.684911	2.97187	0.827476	3.59293	0.965432	4.19672
0.621935	2.69217	0.455608	1.96646	0.623283	2.6917	0.678679	2.93932	0.802708	3.47398	0.97525	4.21877	0.576905	2.49832	0.686873	2.96838	0.828715	3.58382	0.966902	4.18616
0.624255	2.69136	0.457588	1.9671	0.6256	2.69088	0.680421	2.93502	0.804426	3.46744	0.976357	4.2066	0.578692	2.49599	0.688838	2.96494	0.82996	3.5748	0.968373	4.17568
0.62657	2.69054	0.459566	1.96772	0.627913	2.69005	0.682168	2.93078	0.806147	3.46095	0.977468	4.19455	0.58048	2.49368	0.690805	2.96153	0.83121	3.56587	0.969845	4.1653
0.628881	2.6897	0.461545	1.96834	0.630221	2.68921	0.683921	2.9266	0.80787	3.45453	0.978583	4.18261	0.582268	2.49139	0.692775	2.95816	0.832465	3.55704	0.971319	4.155
0.631188	2.68885	0.463522	1.96895	0.632525	2.68835	0.68568	2.92247	0.809596	3.44818	0.979703	4.17079	0.584055	2.48912	0.694747	2.95482	0.833726	3.5483	0.972794	4.14479
0.633489	2.68799	0.465499	1.96955	0.634824	2.68748	0.687445	2.9184	0.811324	3.44188	0.980828	4.15908	0.585843	2.48686	0.696722	2.95153	0.834991	3.53965	0.97427	4.13467
0.635786	2.68711	0.467475	1.97015	0.637117	2.68659	0.689216	2.9144	0.813054	3.43564	0.981957	4.14748	0.587631	2.48463	0.698699	2.94827	0.836262	3.53109	0.975747	4.12463
0.638077	2.68621	0.469451	1.97074	0.639406	2.68569	0.690993	2.91045	0.814787	3.42946	0.98309	4.13599	0.58942	2.48241	0.700679	2.94504	0.837539	3.52262	0.977226	4.11468
0.640363	2.68531	0.471426	1.97132	0.641689	2.68477	0.692777	2.90655	0.816522	3.42334	0.984228	4.12461	0.591208	2.48021	0.70266	2.94185	0.83882	3.51424	0.978706	4.1048
0.642644	2.68438	0.4734	1.97189	0.643966	2.68384	0.694568	2.90272	0.818259	3.41727	0.98537	4.11334	0.592997	2.47803	0.704644	2.93869	0.840106	3.50594	0.980187	4.09501
0.644919	2.68344	0.475373	1.97245	0.646238	2.68289	0.696365	2.89894	0.819999	3.41127	0.986517	4.10217	0.594787	2.47587	0.706629	2.93556	0.841398	3.49774	0.981669	4.0853
0.647189	2.68249	0.477346	1.97301	0.648504	2.68192	0.69817	2.89523	0.821741	3.40531	0.987668	4.09111	0.596576	2.47372	0.708617	2.93247	0.842695	3.48961	0.983152	4.07567
0.649452	2.68151	0.479318	1.97356	0.650764	2.68094	0.699982	2.89157	0.823485	3.39941	0.988824	4.08015	0.598366	2.47159	0.710606	2.92941	0.843997	3.48157	0.984636	4.06612
0.65171	2.68052	0.481289	1.9741	0.653018	2.67994	0.7018	2.88797	0.825231	3.39357	0.989984	4.0693	0.600157	2.46949	0.712597	2.92638	0.845305	3.47362	0.986121	4.05665
0.653961	2.67951	0.483259	1.97464	0.655266	2.67892	0.703627	2.88442	0.826979	3.38778	0.991149	4.05854	0.601948	2.4674	0.71459	2.92337	0.846618	3.46574	0.987608	4.04725
0.656206	2.67849	0.485229	1.97517	0.657507	2.67788	0.70546	2.88094	0.828729	3.38204	0.992318	4.04789	0.603739	2.46532	0.716584	2.9204	0.847936	3.45795	0.989095	4.03793
0.658445	2.67744	0.487198	1.97569	0.659742	2.67683	0.707302	2.87751	0.83048	3.37635	0.993492	4.03733	0.605531	2.46327	0.71858	2.91746	0.849259	3.45023	0.990584	4.02868
0.660677	2.67638	0.489167	1.97621	0.66197	2.67575	0.709151	2.87414	0.832234	3.37071	0.99467	4.02687	0.607323	2.46123	0.720578	2.91454	0.850587	3.4426	0.992073	4.01951
0.662902	2.6753	0.491135	1.97672	0.664192	2.67466	0.711009	2.87082	0.83399	3.36513	0.995853	4.01651	0.609116	2.45921	0.722577	2.91166	0.851921	3.43505	0.993564	4.01041
0.665121	2.6742	0.493102	1.97722	0.666406	2.67355	0.712874	2.86757	0.835748	3.35959	0.99704	4.00624	0.610909	2.45721	0.724577	2.9088	0.85326	3.42757	0.995055	4.00138
0.667332	2.67307	0.495068	1.97772	0.668613	2.67241	0.714748	2.86437	0.837507	3.3541	0.998232	3.99607	0.612704	2.45523	0.726579	2.90596	0.854604	3.42017	0.996548	3.99242
0.669536	2.67193	0.497034	1.97821	0.670813	2.67126	0.71663	2.86123	0.839268	3.34866	0.999428	3.98599	0.614498	2.45326	0.728582	2.90316	0.855954	3.41284	0.998041	3.98354
0.671733	2.67077	0.498999	1.97869	0.673006	2.67008	0.718521	2.85815	0.841031	3.34326	1.00063	3.97601	0.616294	2.45131	0.730586	2.90037	0.857309	3.40559	0.999535	3.97472
0.673922	2.66958	0.500963	1.97917	0.675191	2.66889	0.72042	2.85512	0.842796	3.33791			0.61809	2.44938	0.732591	2.89762	0.858669	3.39842	1.00103	3.96597
0.676104	2.66838	0.502927	1.97964	0.677368	2.66767	0.722328	2.85215	0.844562	3.33261			0.619886	2.44746	0.734597	2.89488	0.860034	3.39132		
0.678279	2.66715	0.50489	1.9801	0.679538	2.66643	0.724246	2.84924	0.84633	3.32735			0.621684	2.44556	0.736604	2.89217	0.861405	3.38429		
0.680445	2.66591	0.506852	1.98056	0.6817	2.66517	0.726172	2.84639	0.848099	3.32214			0.623482	2.44368	0.738612	2.88949	0.862781	3.37733		
0.682604	2.66464	0.508814	1.98102	0.683854	2.66389	0.728107	2.84359	0.84987	3.31697			0.625281	2.44181	0.74062	2.88682	0.864162	3.37045		
0.684755	2.66335	0.510775	1.98146	0.686001	2.66259	0.730051	2.84084	0.851642	3.31185			0.627081	2.43996	0.74263	2.88418	0.865549	3.36363		
0.686898	2.66203	0.512735	1.9819	0.688139	2.66126	0.732005	2.83815	0.853416	3.30677			0.628881	2.43813	0.74464	2.88156	0.866941	3.35689		
0.689033	2.6607	0.514694	1.98234	0.690269	2.65992	0.733967	2.83552	0.855191	3.30172			0.630683	2.43631	0.746651	2.87896	0.868338	3.35021		
0.691159	2.65934	0.516653	1.98277	0.692391	2.65855	0.73594	2.83294	0.856968	3.29673			0.632485	2.43451	0.748662	2.87638	0.869741	3.34361		
0.693278	2.65797	0.518611	1.98319	0.694504	2.65716	0.737921	2.83042	0.858746	3.29177			0.634288	2.43273	0.750674	2.87383	0.871149	3.33707		
0.695388	2.65657	0.520569	1.98361	0.69661	2.65575	0.739913	2.82795	0.860526	3.28685			0.636092	2.43096	0.752686	2.87129	0.872562	3.33059		
0.69749	2.65515	0.522526	1.98402	0.698707	2.65431	0.741913	2.82554	0.862306	3.28197			0.637897	2.42921	0.754699	2.86877	0.873981	3.32419		
0.699584	2.65371	0.524482	1.98443	0.700796	2.65286	0.743923	2.82318	0.864088	3.27713			0.639703	2.42747	0.756711	2.86627	0.875405	3.31784		
0.701669	2.65224	0.526437	1.98483	0.702876	2.65138	0.745943	2.82087	0.865871	3.27233			0.641509	2.42575	0.758725	2.86379	0.876834	3.31157		
0.703746	2.65076	0.528392	1.98523	0.704949	2.64989	0.747973	2.81861	0.867656	3.26757			0.643317	2.42405	0.760738	2.86132	0.878269	3.30536		
0.705815	2.64925	0.530346	1.98562	0.707013	2.64837	0.750011	2.8164	0.869441	3.26285			0.645126	2.42236	0.762751	2.85888	0.879709	3.29921		
0.707875	2.64773	0.532299	1.98601	0.709068	2.64683	0.75206	2.81425	0.871228	3.25816			0.646935	2.42068	0.764765	2.85645	0.881155	3.29312		
0.709928	2.64618	0.534252	1.98639	0.711116	2.64528	0.754118	2.81215	0.873016	3.25351			0.648746	2.41903	0.766778	2.85404	0.882606	3.2871		
0.711972	2.64462	0.536204	1.98676	0.713156	2.6437	0.756185	2.81009	0.874805	3.24889			0.650557	2.41738	0.768791	2.85164	0.884063	3.28114		
0.714008	2.64304	0.538156	1.98713	0.715187	2.64211	0.758261	2.80809	0.876594	3.24432			0.65237	2.41575	0.770805	2.84926	0.885525	3.27524		
0.716036	2.64143	0.540107	1.9875	0.71721	2.64049	0.760347	2.80613	0.878385	3.23977			0.654184	2.41414	0.772818	2.8469	0.886992	3.2694		
0.718056	2.63981	0.542057	1.98786	0.719226	2.63886	0.762442	2.80422	0.880177	3.23526			0.655998	2.41254	0.77483	2.84455	0.888465	3.26362		
0.720068	2.63817	0.544006	1.98822	0.721233	2.63721	0.764547	2.80236	0.88197	3.23079			0.657814	2.41096	0.776843	2.84222	0.889943	3.2579		
0.722073	2.63652	0.545955	1.98857	0.723233	2.63555	0.76666	2.80054	0.883763	3.22635			0.659631	2.40939	0.778855	2.8399	0.891427	3.25224		
0.724069	2.63484	0.547903	1.98891	0.725225	2.63386	0.768782	2.79876	0.885558	3.22194			0.661449	2.40784	0.780867	2.8376	0.892916	3.24664		
0.726058	2.63315	0.549851	1.98925	0.72721	2.63217	0.770913	2.79704	0.887353	3.21757			0.663268	2.4063	0.782878	2.83531	0.89441	3.24109		
0.72804	2.63145	0.551798	1.98959	0.729188	2.63045	0.773053	2.79535	0.88915	3.21322			0.665088	2.40477	0.784889	2.83303	0.895911	3.2356		
0.730014	2.62973	0.553744	1.98992	0.731158	2.62872	0.775201	2.79371	0.890947	3.20891			0.666909	2.40326	0.786899	2.83076	0.897416	3.23017		
0.731981	2.628	0.555689	1.99025	0.733121	2.62698	0.777358	2.7921	0.892744	3.20463			0.668731	2.40176	0.788908	2.82851	0.898927	3.2248		
0.733941	2.62625	0.557634	1.99058	0.735077	2.62523	0.779523	2.79054	0.894543	3.20039			0.670554	2.40028	0.790917	2.82627	0.900444	3.21948		
0.735895	2.62449	0.559578	1.99089	0.737026	2.62346	0.781696	2.78902	0.896342	3.19617			0.672379	2.39881	0.792925	2.82405	0.901966	3.21421		
0.737841	2.62271	0.561522	1.99121	0.738969	2.62168	0.783877	2.78753	0.898142	3.19198			0.674205	2.39736	0.794932	2.82183	0.903494	3.209		
0.739781	2.62093	0.563465	1.99152	0.740905	2.61989	0.786066	2.78609	0.899943	3.18783			0.676031	2.39591	0.796939	2.81963	0.905027	3.20385		
0.741714	2.61913	0.565408	1.99183	0.742834	2.61809	0.788262	2.78468	0.901744	3.1837			0.677859	2.39449	0.798944	2.81744	0.906566	3.19874		
0.743641	2.61733	0.567349	1.99213	0.744758	2.61627	0.790466	2.7833	0.903546	3.1796			0.679689	2.39307	0.800949	2.81526	0.90811	3.19369		
0.745562	2.61551	0.56929	1.99243	0.746675	2.61445	0.792678	2.78196	0.905348	3.17553			0.681519	2.39167	0.802953	2.81309	0.90966	3.1887		
0.747477	2.61369	0.571231	1.99272	0.748587	2.61262	0.794896	2.78065	0.907151	3.17149			0.68335	2.39028	0.804955	2.81093	0.911215	3.18375		
0.749387	2.61185	0.573171	1.99301	0.750493	2.61079	0.797122	2.77938	0.908955	3.16748			0.685183	2.38891	0.806956	2.80878	0.912776	3.17886		
0.75129	2.61001	0.57511	1.99329	0.752393	2.60894	0.799354	2.77814	0.910759	3.1635			0.687017	2.38755	0.808957	2.80664	0.914343	3.17401		
0.753188	2.60817	0.577049	1.99358	0.754288	2.60709	0.801593	2.77693	0.912563	3.15954			0.688852	2.3862	0.810956	2.80451	0.915915	3.16922		
0.755081	2.60631	0.578987	1.99385	0.756178	2.60523	0.803838	2.77575	0.914368	3.15561			0.690688	2.38486	0.812954	2.80239	0.917493	3.16448		
0.756969	2.60445	0.580924	1.99413	0.758063	2.60337	0.80609	2.7746	0.916174	3.15171			0.692526	2.38354	0.81495	2.80028	0.919076	3.15979		
0.758852	2.60259	0.582861	1.9944	0.759943	2.6015	0.808348	2.77347	0.91798	3.14783			0.694364	2.38223	0.816945	2.79817	0.920665	3.15514		
0.76073	2.60072	0.584797	1.99466	0.761819	2.59963	0.810611	2.77238	0.919786	3.14398			0.696204	2.38093	0.818939	2.79608	0.92226	3.15055		
0.762603	2.59884	0.586733	1.99493	0.763689	2.59776	0.812881	2.77131	0.921593	3.14016			0.698046	2.37964	0.820932	2.794	0.92386	3.146		
0.764472	2.59697	0.588668	1.99518	0.765556	2.59588	0.815156	2.77027	0.9234	3.13636			0.699888	2.37837	0.822923	2.79192	0.925466	3.1415		
0.766337	2.59509	0.590602	1.99544	0.767418	2.594	0.817436	2.76925	0.925207	3.13258			0.701731	2.37711	0.824912	2.78985	0.927077	3.13705		
0.768197	2.59321	0.592536	1.99569	0.769276	2.59211	0.819722	2.76825	0.927015	3.12883			0.703576	2.37586	0.8269	2.78779	0.928694	3.13265		
0.770054	2.59132	0.594469	1.99594	0.771131	2.59023	0.822013	2.76728	0.928823	3.12511			0.705422	2.37462	0.828887	2.78574	0.930317	3.12829		
0.771907	2.58944	0.596402	1.99618	0.772981	2.58835	0.824308	2.76633	0.930631	3.12141			0.70727	2.3734	0.830871	2.78369	0.931945	3.12398		
0.773756	2.58756	0.598334	1.99643	0.774828	2.58646	0.826609	2.76541	0.93244	3.11773			0.709118	2.37218	0.832854	2.78165	0.933579	3.11971		
0.775601	2.58567	0.600266	1.99666	0.776672	2.58458	0.828914	2.7645	0.934249	3.11408			0.710968	2.37098	0.834836	2.77962	0.935218	3.11549		
0.777443	2.58379	0.602197	1.9969	0.778512	2.58269	0.831224	2.76362	0.936058	3.11045			0.712819	2.36979	0.836815	2.77759	0.936863	3.11131		
0.779282	2.5819	0.604127	1.99713	0.780349	2.58081	0.833538	2.76275	0.937867	3.10684			0.714671	2.36861	0.838793	2.77558	0.938514	3.10718		
0.781118	2.58002	0.606057	1.99736	0.782183	2.57893	0.835856	2.76191	0.939677	3.10326			0.716525	2.36744	0.840769	2.77356	0.94017	3.10309		
0.782951	2.57814	0.607986	1.99758	0.784014	2.57705	0.838178	2.76108	0.941487	3.0997			0.71838	2.36629	0.842744	2.77156	0.941832	3.09905		
0.784781	2.57626	0.609915	1.9978	0.785842	2.57517	0.840504	2.76027	0.943297	3.09616			0.720236	2.36514	0.844716	2.76956	0.9435	3.09504		
0.786608	2.57439	0.611843	1.99802	0.787668	2.5733	0.842834	2.75948	0.945107	3.09264			0.722093	2.36401	0.846687	2.76757	0.945173	3.09109		
0.788432	2.57252	0.61377	1.99823	0.789491	2.57143	0.845167	2.7587	0.946917	3.08915			0.723951	2.36289	0.848655	2.76558	0.946852	3.08717		
0.790255	2.57065	0.615697	1.99845	0.791312	2.56956	0.847504	2.75794	0.948728	3.08568			0.725811	2.36178	0.850622	2.7636	0.948536	3.08329		
0.792074	2.56878	0.617624	1.99865	0.79313	2.5677	0.849844	2.7572	0.950538	3.08223			0.727672	2.36067	0.852587	2.76162	0.950226	3.07946		
0.793892	2.56692	0.619549	1.99886	0.794947	2.56584	0.852188	2.75647	0.952349	3.0788			0.729534	2.35958	0.854549	2.75965	0.951921	3.07567		
0.795707	2.56506	0.621475	1.99906	0.796761	2.56398	0.854535	2.75576	0.95416	3.07539			0.731398	2.3585	0.85651	2.75768	0.953622	3.07192		
0.797521	2.56321	0.6234	1.99926	0.798573	2.56213	0.856884	2.75506	0.955971	3.072			0.733263	2.35743	0.858468	2.75572	0.955329	3.06821		
0.799332	2.56136	0.625324	1.99946	0.800383	2.56029	0.859237	2.75437	0.957782	3.06863			0.735129	2.35637	0.860425	2.75377	0.957041	3.06454		
0.801141	2.55952	0.627248	1.99965	0.802192	2.55845	0.861592	2.7537	0.959593	3.06529			0.736996	2.35533	0.862379	2.75182	0.958759	3.0609		
0.802949	2.55768	0.629171	1.99984	0.803999	2.55661	0.86395	2.75303	0.961405	3.06196			0.738864	2.35429	0.864332	2.74987	0.960482	3.05731		
0.804755	2.55585	0.631094	2.00003	0.805804	2.55479	0.86631	2.75238	0.963216	3.05865			0.740734	2.35326	0.866282	2.74793	0.962211	3.05376		
0.80656	2.55402	0.633016	2.00022	0.807608	2.55296	0.868673	2.75174	0.965028	3.05536			0.742605	2.35224	0.86823	2.74599	0.963945	3.05024		
0.808363	2.5522	0.634937	2.0004	0.80941	2.55115	0.871038	2.75112	0.966839	3.0521			0.744477	2.35123	0.870175	2.74406	0.965685	3.04677		
0.810165	2.55039	0.636858	2.00058	0.811211	2.54934	0.873406	2.7505	0.968651	3.04885			0.746351	2.35023	0.872119	2.74213	0.96743	3.04333		
0.811965	2.54858	0.638779	2.00076	0.813011	2.54753	0.875775	2.7499	0.970463	3.04562			0.748225	2.34924	0.87406	2.74021	0.969181	3.03992		
0.813765	2.54678	0.640699	2.00093	0.814809	2.54574	0.878147	2.7493	0.972274	3.04241			0.750101	2.34826	0.875999	2.73829	0.970937	3.03656		
0.815563	2.54499	0.642619	2.00111	0.816607	2.54395	0.880521	2.74871	0.974086	3.03922			0.751978	2.34729	0.877936	2.73638	0.972699	3.03323		
0.81736	2.5432	0.644538	2.00128	0.818403	2.54217	0.882896	2.74813	0.975898	3.03605			0.753857	2.34633	0.879871	2.73446	0.974466	3.02994		
0.819156	2.54142	0.646456	2.00144	0.820199	2.54039	0.885273	2.74757	0.97771	3.03289			0.755736	2.34538	0.881803	2.73256	0.976238	3.02668		
0.820951	2.53965	0.648374	2.00161	0.821994	2.53862	0.887652	2.74701	0.979522	3.02976			0.757617	2.34444	0.883733	2.73066	0.978016	3.02346		
0.822745	2.53789	0.650292	2.00177	0.823787	2.53687	0.890033	2.74645	0.981335	3.02664			0.759499	2.34351	0.885661	2.72876	0.979799	3.02027		
0.824539	2.53613	0.652209	2.00193	0.82558	2.53511	0.892415	2.74591	0.983147	3.02354			0.761383	2.34259	0.887587	2.72686	0.981587	3.01712		
0.826332	2.53438	0.654126	2.00209	0.827373	2.53337	0.894798	2.74537	0.984959	3.02046			0.763267	2.34167	0.88951	2.72497	0.983381	3.014		
0.828124	2.53264	0.656042	2.00224	0.829165	2.53163	0.897183	2.74484	0.986772	3.0174			0.765153	2.34077	0.891431	2.72308	0.98518	3.01091		
0.829915	2.53091	0.657958	2.0024	0.830956	2.52991	0.899569	2.74432	0.988584	3.01435			0.76704	2.33987	0.893349	2.7212	0.986984	3.00786		
0.831706	2.52918	0.659873	2.00255	0.832746	2.52819	0.901956	2.74381	0.990397	3.01132			0.768928	2.33898	0.895266	2.71932	0.988793	3.00485		
0.833497	2.52747	0.661788	2.00269	0.834537	2.52647	0.904345	2.7433	0.992209	3.00831			0.770817	2.3381	0.89718	2.71744	0.990608	3.00186		
0.835287	2.52576	0.663702	2.00284	0.836326	2.52477	0.906734	2.74279	0.994022	3.00532			0.772708	2.33723	0.899091	2.71557	0.992427	2.99891		
0.837076	2.52406	0.665616	2.00298	0.838116	2.52308	0.909125	2.7423	0.995835	3.00234			0.7746	2.33637	0.901001	2.7137	0.994252	2.99599		
0.838866	2.52237	0.667529	2.00313	0.839905	2.52139	0.911516	2.7418	0.997648	2.99939			0.776493	2.33552	0.902908	2.71183	0.996082	2.9931		
0.840655	2.52069	0.669442	2.00326	0.841694	2.51971	0.913908	2.74132	0.999461	2.99644			0.778387	2.33467	0.904813	2.70997	0.997917	2.99024		
0.842443	2.51901	0.671354	2.0034	0.843482	2.51804	0.916301	2.74083	1.00127	2.99352			0.780282	2.33383	0.906715	2.70811	0.999757	2.98741		
0.844232	2.51735	0.673266	2.00354	0.845271	2.51638	0.918695	2.74036					0.782179	2.333	0.908615	2.70626	1.0016	2.98462		
0.84602	2.51569	0.675178	2.00367	0.847059	2.51473	0.921089	2.73988					0.784076	2.33218	0.910513	2.7044				
0.847808	2.51404	0.677089	2.0038	0.848847	2.51309	0.923484	2.73942					0.785975	2.33137	0.912409	2.70256				
0.849596	2.5124	0.679	2.00393	0.850635	2.51146	0.92588	2.73895					0.787875	2.33057	0.914302	2.70071				
0.851384	2.51077	0.68091	2.00406	0.852423	2.50983	0.928275	2.73849					0.789777	2.32977	0.916193	2.69887				
0.853172	2.50915	0.68282	2.00418	0.854211	2.50822	0.930672	2.73804					0.791679	2.32898	0.918082	2.69703				
0.85496	2.50754	0.684729	2.00431	0.855999	2.50661	0.933068	2.73758					0.793582	2.3282	0.919969	2.6952				
0.856749	2.50594	0.686638	2.00443	0.857787	2.50501	0.935465	2.73713					0.795487	2.32742	0.921853	2.69337				
0.858537	2.50434	0.688547	2.00455	0.859575	2.50342	0.937862	2.73669					0.797393	2.32666	0.923735	2.69154				
0.860325	2.50276	0.690455	2.00466	0.861364	2.50184	0.940259	2.73624					0.7993	2.3259	0.925615	2.68971				
0.862114	2.50118	0.692362	2.00478	0.863152	2.50027	0.942656	2.7358					0.801208	2.32515	0.927493	2.68789				
0.863902	2.49961	0.69427	2.00489	0.864941	2.49871	0.945054	2.73536					0.803117	2.3244	0.929369	2.68608				
0.865691	2.49806	0.696177	2.00501	0.86673	2.49715	0.947451	2.73492					0.805028	2.32367	0.931242	2.68426				
0.86748	2.49651	0.698083	2.00512	0.868519	2.49561	0.949848	2.73449					0.806939	2.32294	0.933114	2.68245				
0.869269	2.49497	0.699989	2.00523	0.870309	2.49407	0.952245	2.73406					0.808852	2.32221	0.934983	2.68065				
0.871059	2.49343	0.701895	2.00533	0.872099	2.49255	0.954641	2.73362					0.810765	2.3215	0.93685	2.67885				
0.872849	2.49191	0.7038	2.00544	0.873889	2.49103	0.957038	2.73319					0.81268	2.32079	0.938715	2.67705				
0.874639	2.4904	0.705705	2.00554	0.875679	2.48952	0.959434	2.73277					0.814596	2.32009	0.940578	2.67525				
0.87643	2.48889	0.70761	2.00564	0.87747	2.48802	0.961829	2.73234					0.816513	2.31939	0.942439	2.67346				
0.878221	2.4874	0.709514	2.00574	0.879261	2.48653	0.964224	2.73191					0.818431	2.31871	0.944298	2.67167				
0.880012	2.48591	0.711418	2.00584	0.881053	2.48505	0.966619	2.73148					0.82035	2.31802	0.946155	2.66989				
0.881804	2.48444	0.713321	2.00594	0.882845	2.48358	0.969013	2.73106					0.822271	2.31735	0.94801	2.66811				
0.883596	2.48297	0.715224	2.00604	0.884637	2.48212	0.971406	2.73063					0.824192	2.31668	0.949863	2.66633				
0.885389	2.48151	0.717127	2.00613	0.88643	2.48066	0.973798	2.73021					0.826114	2.31602	0.951715	2.66456				
0.887182	2.48006	0.719029	2.00622	0.888224	2.47922	0.97619	2.72978					0.828038	2.31536	0.953564	2.66279				
0.888975	2.47862	0.720931	2.00631	0.890017	2.47778	0.978581	2.72936					0.829962	2.31472	0.955411	2.66103				
0.89077	2.47718	0.722833	2.0064	0.891812	2.47636	0.980971	2.72893					0.831888	2.31407	0.957257	2.65927				
0.892564	2.47576	0.724734	2.00649	0.893607	2.47494	0.98336	2.72851					0.833815	2.31344	0.959101	2.65751				
0.89436	2.47434	0.726635	2.00658	0.895402	2.47353	0.985747	2.72808					0.835742	2.31281	0.960943	2.65576				
0.896155	2.47294	0.728536	2.00666	0.897199	2.47213	0.988134	2.72765					0.837671	2.31218	0.962783	2.65401				
0.897952	2.47154	0.730436	2.00675	0.898995	2.47073	0.99052	2.72722					0.839601	2.31156	0.964621	2.65227				
0.899748	2.47015	0.732336	2.00683	0.900792	2.46935	0.992904	2.72679					0.841532	2.31095	0.966458	2.65053				
0.901546	2.46877	0.734235	2.00691	0.90259	2.46797	0.995287	2.72636					0.843463	2.31035	0.968293	2.64879				
0.903344	2.4674	0.736135	2.00699	0.904389	2.46661	0.997668	2.72593					0.845396	2.30975	0.970127	2.64706				
0.905143	2.46604	0.738033	2.00707	0.906188	2.46525	1.00005	2.72549					0.84733	2.30915	0.971959	2.64533				
0.906942	2.46468	0.739932	2.00715	0.907988	2.4639							0.849265	2.30856	0.973789	2.64361				
0.908742	2.46334	0.74183	2.00723	0.909788	2.46256							0.851201	2.30798	0.975617	2.64189				
0.910543	2.462	0.743728	2.0073	0.911589	2.46123							0.853138	2.3074	0.977445	2.64018				
0.912344	2.46067	0.745626	2.00737	0.913391	2.45991							0.855076	2.30683	0.97927	2.63847				
0.914146	2.45935	0.747523	2.00745	0.915193	2.45859							0.857014	2.30626	0.981094	2.63677				
0.915949	2.45804	0.74942	2.00752	0.916996	2.45729							0.858954	2.3057	0.982917	2.63507				
0.917752	2.45674	0.751317	2.00759	0.9188	2.45599							0.860895	2.30515	0.984738	2.63337				
0.919557	2.45545	0.753213	2.00766	0.920605	2.4547							0.862837	2.3046	0.986558	2.63168				
0.921361	2.45416	0.755109	2.00773	0.92241	2.45342							0.864779	2.30405	0.988377	2.63				
0.923167	2.45288	0.757005	2.00779	0.924216	2.45214							0.866723	2.30351	0.990194	2.62832				
0.924973	2.45161	0.758901	2.00786	0.926023	2.45088							0.868667	2.30298	0.99201	2.62664				
0.92678	2.45035	0.760796	2.00792	0.92783	2.44962							0.870613	2.30245	0.993825	2.62497				
0.928588	2.4491	0.762691	2.00799	0.929638	2.44837							0.872559	2.30192	0.995638	2.6233				
0.930397	2.44785	0.764586	2.00805	0.931447	2.44713							0.874507	2.30141	0.99745	2.62164				
0.932206	2.44661	0.76648	2.00811	0.933257	2.4459							0.876455	2.30089	0.999261	2.61999				
0.934016	2.44539	0.768374	2.00817	0.935067	2.44467							0.878404	2.30038	1.00107	2.61834				
0.935827	2.44416	0.770268	2.00823	0.936879	2.44346							0.880354	2.29988						
0.937638	2.44295	0.772162	2.00829	0.938691	2.44225							0.882305	2.29938						
0.939451	2.44175	0.774055	2.00835	0.940504	2.44105							0.884257	2.29888						
0.941264	2.44055	0.775948	2.0084	0.942317	2.43986							0.88621	2.29839						
0.943078	2.43936	0.777841	2.00846	0.944132	2.43867							0.888164	2.29791						
0.944892	2.43818	0.779733	2.00851	0.945947	2.43749							0.890119	2.29743						
0.946708	2.437	0.781625	2.00857	0.947763	2.43632							0.892074	2.29695						
0.948524	2.43584	0.783517	2.00862	0.94958	2.43516							0.89403	2.29648						
0.950342	2.43468	0.785409	2.00867	0.951397	2.43401							0.895988	2.29601						
0.95216	2.43353	0.787301	2.00872	0.953216	2.43286							0.897946	2.29555						
0.953978	2.43238	0.789192	2.00877	0.955035	2.43172							0.899905	2.29509						
0.955798	2.43125	0.791083	2.00882	0.956855	2.43059							0.901865	2.29463						
0.957618	2.43012	0.792974	2.00887	0.958676	2.42947							0.903825	2.29418						
0.95944	2.429	0.794864	2.00892	0.960498	2.42835							0.905787	2.29374						
0.961262	2.42788	0.796755	2.00897	0.962321	2.42724							0.907749	2.2933						
0.963085	2.42678	0.798645	2.00901	0.964144	2.42614							0.909712	2.29286						
0.964909	2.42568	0.800534	2.00906	0.965968	2.42504							0.911676	2.29243						
0.966733	2.42459	0.802424	2.0091	0.967793	2.42396							0.913641	2.292						
0.968559	2.4235	0.804314	2.00915	0.969619	2.42287							0.915606	2.29157						
0.970385	2.42242	0.806203	2.00919	0.971446	2.4218							0.917573	2.29115						
0.972212	2.42135	0.808092	2.00923	0.973274	2.42074							0.91954	2.29073						
0.97404	2.42029	0.80998	2.00927	0.975102	2.41968							0.921508	2.29032						
0.975869	2.41923	0.811869	2.00931	0.976932	2.41862							0.923477	2.28991						
0.977699	2.41818	0.813757	2.00936	0.978762	2.41758							0.925446	2.28951						
0.979529	2.41714	0.815645	2.00939	0.980593	2.41654							0.927417	2.2891						
0.981361	2.41611	0.817533	2.00943	0.982425	2.41551							0.929388	2.28871						
0.983193	2.41508	0.819421	2.00947	0.984258	2.41448							0.93136	2.28831						
0.985026	2.41406	0.821309	2.00951	0.986091	2.41347							0.933332	2.28792						
0.98686	2.41304	0.823196	2.00955	0.987926	2.41245							0.935306	2.28753						
0.988695	2.41203	0.825083	2.00958	0.989761	2.41145							0.93728	2.28715						
0.990531	2.41103	0.82697	2.00962	0.991598	2.41045							0.939255	2.28677						
0.992367	2.41004	0.828857	2.00965	0.993435	2.40946							0.941231	2.2864						
0.994205	2.40905	0.830743	2.00969	0.995273	2.40848							0.943207	2.28602						
0.996043	2.40807	0.83263	2.00972	0.997111	2.4075							0.945184	2.28565						
0.997882	2.40709	0.834516	2.00975	0.998951	2.40653							0.947162	2.28529						
0.999723	2.40612	0.836402	2.00979	1.00079	2.40556							0.94914	2.28492						
1.00156	2.40516	0.838288	2.00982									0.95112	2.28457						
		0.840173	2.00985									0.9531	2.28421						
		0.842059	2.00988									0.95508	2.28386						
		0.843944	2.00991									0.957062	2.28351						
		0.845829	2.00994									0.959044	2.28316						
		0.847714	2.00997									0.961027	2.28282						
		0.849599	2.01									0.96301	2.28248						
		0.851484	2.01003									0.964994	2.28214						
		0.853368	2.01005									0.966979	2.28181						
		0.855253	2.01008									0.968965	2.28148						
		0.857137	2.01011									0.970951	2.28115						
		0.859021	2.01013									0.972938	2.28082						
		0.860905	2.01016									0.974925	2.2805						
		0.862788	2.01019									0.976913	2.28018						
		0.864672	2.01021									0.978902	2.27987						
		0.866555	2.01023									0.980891	2.27955						
		0.868439	2.01026									0.982882	2.27924						
		0.870322	2.01028									0.984872	2.27894						
		0.872205	2.01031									0.986864	2.27863						
		0.874088	2.01033									0.988855	2.27833						
		0.875971	2.01035									0.990848	2.27803						
		0.877853	2.01037									0.992841	2.27773						
		0.879736	2.01039									0.994835	2.27744						
		0.881618	2.01042									0.996829	2.27715						
		0.8835	2.01044									0.998824	2.27686						
		0.885382	2.01046									1.00082	2.27657						
		0.887264	2.01048																
		0.889146	2.0105																
		0.891028	2.01051																
		0.892909	2.01053																
		0.894791	2.01055																
		0.896672	2.01057																
		0.898553	2.01059																
		0.900434	2.01061																
		0.902315	2.01062																
		0.904196	2.01064																
		0.906077	2.01066																
		0.907958	2.01067																
		0.909838	2.01069																
		0.911719	2.0107																
		0.913599	2.01072																
		0.915479	2.01074																
		0.917359	2.01075																
		0.91924	2.01076																
		0.921119	2.01078																
		0.922999	2.01079																
		0.924879	2.01081																
		0.926759	2.01082																
		0.928638	2.01083																
		0.930518	2.01085																
		0.932397	2.01086																
		0.934277	2.01087																
		0.936156	2.01088																
		0.938035	2.0109																
		0.939914	2.01091																
		0.941793	2.01092																
		0.943672	2.01093																
		0.945551	2.01094																
		0.947429	2.01095																
		0.949308	2.01096																
		0.951187	2.01097																
		0.953065	2.01098																
		0.954944	2.01099																
		0.956822	2.011																
		0.9587	2.01101																
		0.960578	2.01102																
		0.962457	2.01103																
		0.964335	2.01104																
		0.966213	2.01105																
		0.968091	2.01106																
		0.969968	2.01107																
		0.971846	2.01108																
		0.973724	2.01109																
		0.975602	2.01109																
		0.977479	2.0111																
		0.979357	2.01111																
		0.981234	2.01112																
		0.983112	2.01112																
		0.984989	2.01113																
		0.986866	2.01114																
		0.988744	2.01115																
		0.990621	2.01115																
		0.992498	2.01116																
		0.994375	2.01117																
		0.996252	2.01117																
		0.998129	2.01118																
		1.00001	2.01119																
