Sym0		Asym0		Sym1		Sym2		Sym3		Sym4		Asym1		Asym2		Asym3		Asym4	
456  Points		539  Points		456  Points		405  Points		368  Points		279  Points		480  Points		420  Points		369  Points		279  Points	
Freq (MHz)	Vph (m/ms)	Freq (MHz)	Vph (m/ms)	Freq (MHz)	Vph (m/ms)	Freq (MHz)	Vph (m/ms)	Freq (MHz)	Vph (m/ms)	Freq (MHz)	Vph (m/ms)	Freq (MHz)	Vph (m/ms)	Freq (MHz)	Vph (m/ms)	Freq (MHz)	Vph (m/ms)	Freq (MHz)	Vph (m/ms)
0.279509	12829.8	0.00033968	0.113749	0.279507	364.758	0.356579	3945.5	0.559018	1774.79	0.838526	2270.56	0.139755	1155.09	0.419265	703.2	0.69877	1590.5	0.713158	4471.14
0.279506	293.143	0.000583728	0.14899	0.279501	164.608	0.356596	348.895	0.559025	448.414	0.83853	644.527	0.139797	132.8	0.419274	274.409	0.698759	509.658	0.713175	653.571
0.279499	148.261	0.00089237	0.184009	0.27949	106.283	0.35664	182.54	0.55904	256.633	0.838538	375.572	0.139905	70.5031	0.419293	170.471	0.698737	303.439	0.713218	352.573
0.279487	99.2189	0.00126483	0.21878	0.279474	78.4739	0.356712	123.624	0.559064	179.76	0.83855	264.996	0.140079	48.0369	0.41932	123.646	0.698704	216.021	0.713286	241.416
0.27947	74.554	0.00170009	0.253254	0.279454	62.1968	0.356812	93.4759	0.559097	138.33	0.838567	204.724	0.140319	36.4676	0.419356	97.0057	0.698661	167.701	0.713379	183.563
0.279449	59.7081	0.00219695	0.287383	0.27943	51.5101	0.35694	75.1634	0.559138	112.425	0.838588	166.791	0.140624	29.4225	0.419401	79.8144	0.698608	137.041	0.713496	148.09
0.279424	49.7909	0.00275423	0.321141	0.279401	43.9555	0.357095	62.8627	0.559187	94.6949	0.838613	140.719	0.140993	24.6872	0.419454	67.8026	0.698546	115.855	0.713637	124.118
0.279394	42.697	0.00337038	0.354476	0.279368	38.3318	0.357277	54.0326	0.559245	81.7988	0.838643	121.698	0.141424	21.2897	0.419516	58.9366	0.698475	100.338	0.713801	106.835
0.279361	37.371	0.00404409	0.387374	0.279331	33.9826	0.357486	47.3872	0.559312	71.9971	0.838677	107.208	0.141918	18.7362	0.419586	52.1239	0.698397	88.4842	0.713987	93.7845
0.279323	33.2249	0.00477369	0.419795	0.279291	30.5185	0.357722	42.206	0.559387	64.2957	0.838715	95.8032	0.142473	16.7492	0.419665	46.7256	0.698311	79.1324	0.714195	83.5828
0.279282	29.9058	0.0055576	0.451721	0.279247	27.6942	0.357985	38.0538	0.559471	58.085	0.838758	86.5926	0.143086	15.1607	0.419753	42.343	0.698219	71.566	0.714424	75.3894
0.279238	27.1886	0.00639405	0.483122	0.279201	25.3475	0.358274	34.6526	0.559562	52.9707	0.838804	78.9987	0.143758	13.8633	0.41985	38.7141	0.698122	65.3184	0.714673	68.6648
0.279191	24.923	0.00728139	0.513985	0.279151	23.3665	0.358589	31.816	0.559663	48.6862	0.838856	72.6304	0.144485	12.7848	0.419955	35.6602	0.698019	60.0722	0.714941	63.0468
0.279141	23.0052	0.00821785	0.544292	0.279099	21.672	0.35893	29.4147	0.559772	45.0448	0.838911	67.2132	0.145268	11.875	0.420069	33.0548	0.697913	55.6045	0.715228	58.2835
0.279088	21.3607	0.00920161	0.574027	0.279045	20.206	0.359297	27.356	0.559889	41.9119	0.838971	62.5489	0.146103	11.0981	0.420191	30.8059	0.697804	51.7541	0.715532	54.1937
0.279034	19.9349	0.010231	0.603185	0.278989	18.9251	0.359688	25.5718	0.560015	39.1882	0.839035	58.4908	0.146989	10.4274	0.420323	28.8452	0.697693	48.4013	0.715853	50.6443
0.278977	18.6871	0.0113041	0.631751	0.278931	17.7965	0.360105	24.011	0.56015	36.7985	0.839103	54.928	0.147925	9.84321	0.420462	27.1208	0.69758	45.4554	0.71619	47.5349
0.27892	17.5857	0.0124195	0.659732	0.278873	16.7944	0.360545	22.6343	0.560292	34.6849	0.839176	51.775	0.148908	9.3302	0.420611	25.5923	0.697465	42.8467	0.716543	44.7887
0.278861	16.6065	0.0135751	0.687113	0.278813	15.8988	0.36101	21.4111	0.560444	32.8023	0.839252	48.9651	0.149937	8.8765	0.420768	24.2284	0.697351	40.5204	0.716911	42.3456
0.278801	15.7302	0.0147694	0.713899	0.278754	15.0935	0.361499	20.3174	0.560604	31.1149	0.839334	46.4451	0.151011	8.47271	0.420934	23.0038	0.697236	38.4331	0.717293	40.1581
0.278742	14.9414	0.0160009	0.740094	0.278694	14.3656	0.36201	19.3337	0.560772	29.5939	0.839419	44.1725	0.151981	8.15562	0.421108	21.8984	0.697122	36.5497	0.717689	38.1883
0.278682	14.2277	0.0172678	0.765695	0.278635	13.7044	0.362545	18.4445	0.560949	28.2159	0.839509	42.1125	0.152832	7.90761	0.421292	20.8955	0.697009	34.8419	0.718098	36.4053
0.278624	13.5788	0.0185686	0.790709	0.278577	13.1011	0.363102	17.6369	0.561134	26.9617	0.839603	40.2367	0.153553	7.7164	0.421484	19.9817	0.696898	33.2861	0.71852	34.7837
0.278566	12.9863	0.0199019	0.815143	0.27852	12.5486	0.363681	16.9002	0.561328	25.8153	0.839701	38.5214	0.154133	7.57332	0.421684	19.1455	0.696789	31.8629	0.718954	33.3027
0.278509	12.4432	0.0212661	0.839002	0.278465	12.0407	0.364281	16.2256	0.56153	24.7635	0.839804	36.947	0.154565	7.47239	0.421893	18.3776	0.696682	30.5562	0.7194	31.9447
0.278454	11.9436	0.0226599	0.862296	0.278412	11.5722	0.364903	15.6057	0.56174	23.7951	0.839911	35.4967	0.154844	7.4096	0.422111	17.67	0.696578	29.3522	0.719858	30.6951
0.278402	11.4824	0.024082	0.885032	0.278361	11.1388	0.365546	15.0341	0.561959	22.9006	0.840022	34.1565	0.155249	7.32171	0.422338	17.0158	0.696477	28.2393	0.720327	29.5415
0.278352	11.0556	0.025531	0.907222	0.278314	10.7366	0.366208	14.5055	0.562187	22.0719	0.840138	32.9142	0.155693	7.22922	0.422573	16.4093	0.696379	27.2075	0.720807	28.4732
0.278305	10.6592	0.0270058	0.928875	0.27827	10.3624	0.366891	14.0153	0.562423	21.3019	0.840258	31.7597	0.156305	7.10825	0.422817	15.8455	0.696285	26.2484	0.721297	27.4812
0.278261	10.2904	0.0285051	0.949999	0.278229	10.0135	0.367593	13.5596	0.562668	20.5848	0.840382	30.6838	0.15709	6.96273	0.423069	15.3201	0.696195	25.3544	0.721797	26.5575
0.278222	9.9462	0.0300278	0.970609	0.278193	9.68735	0.368315	13.1348	0.56292	19.9152	0.840511	29.6789	0.158056	6.79706	0.423331	14.8292	0.696109	24.5194	0.722308	25.6954
0.278186	9.62437	0.0315729	0.990715	0.278161	9.38185	0.369055	12.7379	0.563182	19.2887	0.840644	28.7381	0.159213	6.61582	0.4236	14.3697	0.696027	23.7375	0.722829	24.889
0.278155	9.32279	0.0331392	1.01033	0.278134	9.09514	0.369813	12.3664	0.563452	18.7012	0.840781	27.8556	0.160571	6.42354	0.423879	13.9386	0.69595	23.0039	0.723359	24.1331
0.278129	9.03964	0.0347259	1.02946	0.278112	8.82554	0.370589	12.0179	0.56373	18.1492	0.840922	27.0261	0.161958	6.24624	0.424166	13.5334	0.695878	22.3143	0.723898	23.423
0.278109	8.77331	0.0363319	1.04812	0.278096	8.57161	0.371383	11.6905	0.564017	17.6296	0.841068	26.2449	0.163375	6.08231	0.424462	13.1519	0.695811	21.6649	0.724447	22.7548
0.278094	8.52236	0.0379565	1.06633	0.278087	8.33203	0.372194	11.3822	0.564312	17.1397	0.841218	25.508	0.164819	5.93036	0.424767	12.792	0.695749	21.0522	0.725004	22.1248
0.278085	8.28552	0.0395987	1.08409	0.278083	8.13406	0.373021	11.0915	0.564616	16.677	0.841372	24.8117	0.166289	5.78919	0.42508	12.4521	0.695692	20.4733	0.725571	21.53
0.278083	8.06167	0.0412577	1.10141	0.278084	7.97269	0.373865	10.8169	0.564928	16.2393	0.841531	24.1528	0.167784	5.65773	0.425402	12.1304	0.69564	19.9255	0.726146	20.9673
0.278088	7.84978	0.0429328	1.11832	0.278088	7.84409	0.374725	10.5572	0.565248	15.8247	0.841694	23.5283	0.169303	5.53506	0.425733	11.8257	0.695594	19.4063	0.72673	20.4345
0.2781	7.64895	0.0446232	1.13481	0.278093	7.74536	0.3756	10.3112	0.565577	15.4314	0.841861	22.9356	0.170845	5.42037	0.426072	11.5366	0.695553	18.9135	0.727322	19.929
0.278119	7.45836	0.0463283	1.1509	0.278098	7.67437	0.376491	10.0779	0.565915	15.0578	0.842033	22.3724	0.172409	5.31293	0.42642	11.2619	0.695518	18.4453	0.727922	19.449
0.278147	7.27727	0.0480473	1.1666	0.278101	7.62963	0.377397	9.8563	0.566261	14.7025	0.842209	21.8365	0.173994	5.21212	0.426777	11.0006	0.695489	17.9997	0.728531	18.9924
0.278182	7.10501	0.0497798	1.18193	0.278107	7.56624	0.378317	9.64563	0.566615	14.3643	0.842389	21.326	0.175598	5.11735	0.427142	10.7518	0.695465	17.5753	0.729147	18.5578
0.278226	6.94096	0.051525	1.19689	0.278114	7.49856	0.379251	9.44509	0.566978	14.0418	0.842574	20.8392	0.177221	5.02813	0.427516	10.5146	0.695448	17.1706	0.729772	18.1434
0.278279	6.78459	0.0532824	1.21149	0.278126	7.40847	0.3802	9.25399	0.567349	13.7341	0.842763	20.3744	0.178862	4.94401	0.427899	10.2883	0.695436	16.7842	0.730404	17.748
0.278341	6.63537	0.0550514	1.22575	0.278143	7.29767	0.381162	9.07168	0.567728	13.4401	0.842956	19.9301	0.180521	4.86457	0.42829	10.0721	0.695431	16.415	0.731045	17.3704
0.278412	6.49287	0.0568315	1.23967	0.278168	7.16816	0.382137	8.89759	0.568116	13.1591	0.843153	19.5051	0.182195	4.78945	0.42869	9.86533	0.695432	16.0618	0.731693	17.0092
0.278494	6.35664	0.0586223	1.25326	0.278203	7.02215	0.383125	8.73119	0.568513	12.8901	0.843355	19.0982	0.183886	4.71832	0.429099	9.66746	0.695439	15.7236	0.732348	16.6635
0.278585	6.22631	0.0604233	1.26654	0.278251	6.86199	0.384126	8.57199	0.568917	12.6324	0.843561	18.7081	0.185591	4.65089	0.429516	9.47792	0.695452	15.3995	0.733011	16.3324
0.278686	6.10152	0.0622341	1.2795	0.278309	6.70925	0.385139	8.41955	0.569331	12.3854	0.843772	18.334	0.18731	4.58689	0.429942	9.2962	0.695472	15.0886	0.733682	16.0149
0.278798	5.98195	0.0640542	1.29217	0.278375	6.56344	0.386164	8.27345	0.569752	12.1483	0.843986	17.9747	0.189043	4.52606	0.430377	9.12184	0.695498	14.7902	0.734359	15.7102
0.278921	5.8673	0.0658832	1.30455	0.278452	6.42412	0.387068	8.15102	0.570182	11.9207	0.844206	17.6296	0.190789	4.46819	0.430821	8.95442	0.69553	14.5036	0.735045	15.4175
0.279055	5.75728	0.0677207	1.31664	0.278538	6.29088	0.387845	8.05005	0.570621	11.7019	0.844429	17.2977	0.192548	4.41308	0.431273	8.79353	0.695569	14.228	0.735737	15.1362
0.2792	5.65164	0.0695664	1.32846	0.278634	6.16336	0.388492	7.96882	0.571068	11.4915	0.844657	16.9783	0.194318	4.36054	0.431734	8.63882	0.695614	13.9628	0.736436	14.8657
0.279357	5.55014	0.0714199	1.34002	0.278741	6.04122	0.389007	7.90599	0.571523	11.289	0.844889	16.6708	0.1961	4.3104	0.432204	8.48994	0.695666	13.7075	0.737143	14.6053
0.279525	5.45256	0.073281	1.35131	0.278858	5.92413	0.389387	7.86056	0.571986	11.094	0.845125	16.3744	0.197892	4.2625	0.432682	8.34658	0.695724	13.4615	0.737857	14.3544
0.279706	5.35869	0.0751493	1.36236	0.278986	5.81183	0.389631	7.83182	0.572458	10.9061	0.845366	16.0887	0.199694	4.2167	0.433106	8.22592	0.695789	13.2243	0.738577	14.1126
0.279899	5.26835	0.0770244	1.37316	0.279126	5.70402	0.389983	7.79095	0.572939	10.7249	0.845611	15.8129	0.201507	4.17288	0.433472	8.12606	0.695861	12.9956	0.739305	13.8795
0.280104	5.18135	0.0789062	1.38372	0.279277	5.60048	0.390366	7.74712	0.573428	10.55	0.845861	15.5467	0.203328	4.1309	0.433779	8.04549	0.695939	12.7748	0.740039	13.6544
0.280322	5.09753	0.0807942	1.39406	0.279439	5.50096	0.39089	7.68847	0.573925	10.3812	0.846114	15.2896	0.205159	4.09066	0.434024	7.98303	0.696024	12.5615	0.74078	13.4371
0.280553	5.01673	0.0826884	1.40417	0.279614	5.40526	0.391557	7.61584	0.57443	10.2181	0.846372	15.041	0.206998	4.05206	0.434205	7.93778	0.696115	12.3554	0.741528	13.2271
0.280797	4.93882	0.0845884	1.41406	0.279801	5.31317	0.392368	7.53025	0.574944	10.0605	0.846635	14.8006	0.208846	4.015	0.434322	7.90913	0.696214	12.1561	0.742283	13.0241
0.281055	4.86365	0.086494	1.42374	0.28	5.22452	0.393327	7.43284	0.575466	9.90815	0.846902	14.568	0.210701	3.97939	0.434491	7.86833	0.696318	11.9633	0.743044	12.8278
0.281326	4.79109	0.088405	1.43321	0.280211	5.13913	0.394437	7.32484	0.575997	9.76071	0.847173	14.3428	0.212564	3.94515	0.434675	7.82452	0.69643	11.7767	0.743812	12.6378
0.281611	4.72104	0.0903211	1.44249	0.280436	5.05684	0.395557	7.2207	0.576536	9.61799	0.847448	14.1247	0.214434	3.9122	0.434927	7.7658	0.696548	11.596	0.744587	12.4538
0.28191	4.65337	0.0922421	1.45157	0.280673	4.9775	0.396686	7.12022	0.577083	9.47978	0.847728	13.9133	0.21631	3.88048	0.435249	7.69293	0.696674	11.421	0.745368	12.2756
0.282223	4.58798	0.0941679	1.46046	0.280924	4.90097	0.397825	7.02322	0.577639	9.34587	0.848012	13.7083	0.218194	3.84992	0.435643	7.60684	0.696805	11.2513	0.746156	12.1028
0.282551	4.52477	0.0960983	1.46917	0.281189	4.82712	0.398973	6.92951	0.578202	9.21607	0.8483	13.5095	0.220083	3.82045	0.436111	7.50857	0.696944	11.0867	0.74695	11.9353
0.282893	4.46365	0.0980331	1.4777	0.281467	4.75583	0.40013	6.83894	0.578775	9.09019	0.848593	13.3166	0.221978	3.79202	0.436656	7.39926	0.69709	10.9271	0.74775	11.7729
0.28325	4.40453	0.099972	1.48606	0.281759	4.68697	0.401297	6.75136	0.579355	8.96808	0.84889	13.1293	0.223879	3.76458	0.43721	7.2935	0.697242	10.7722	0.748557	11.6152
0.283622	4.34733	0.101915	1.49425	0.282065	4.62045	0.402471	6.66663	0.579944	8.84957	0.849192	12.9474	0.225786	3.73807	0.437773	7.19112	0.697401	10.6217	0.749371	11.4621
0.284009	4.29197	0.103862	1.50227	0.282385	4.55616	0.403655	6.58461	0.580542	8.7345	0.849497	12.7706	0.227698	3.71246	0.438345	7.09197	0.697567	10.4756	0.75019	11.3134
0.284411	4.23838	0.105812	1.51013	0.28272	4.49401	0.404846	6.50518	0.581147	8.62274	0.849808	12.5988	0.229614	3.68769	0.438925	6.9959	0.697739	10.3336	0.751016	11.1689
0.28483	4.18648	0.107767	1.51784	0.283069	4.4339	0.406046	6.42822	0.581761	8.51415	0.850122	12.4318	0.231536	3.66373	0.439514	6.90278	0.697919	10.1956	0.751848	11.0285
0.285264	4.13622	0.109724	1.5254	0.283434	4.37575	0.407253	6.35362	0.582303	8.422	0.850441	12.2693	0.233461	3.64053	0.440112	6.81249	0.698105	10.0614	0.752686	10.8919
0.285714	4.08753	0.111685	1.5328	0.283813	4.31948	0.408468	6.28128	0.582769	8.34522	0.850764	12.1111	0.235392	3.61806	0.440718	6.72489	0.698298	9.93079	0.75353	10.7591
0.28618	4.04034	0.113649	1.54007	0.284208	4.26501	0.409691	6.21109	0.583159	8.28291	0.851092	11.9572	0.237326	3.59629	0.441333	6.63988	0.698498	9.80373	0.754381	10.6298
0.2866	4.00041	0.115363	1.54628	0.284618	4.21227	0.410921	6.14297	0.583469	8.23439	0.851424	11.8073	0.239264	3.57518	0.441957	6.55735	0.698705	9.68005	0.755237	10.504
0.286967	3.96722	0.116826	1.5515	0.285044	4.1612	0.412159	6.07683	0.583698	8.19912	0.85176	11.6613	0.241206	3.55471	0.44259	6.47719	0.698918	9.55961	0.756099	10.3815
0.287279	3.94034	0.118037	1.55576	0.285486	4.11172	0.413403	6.01259	0.583845	8.17673	0.8521	11.519	0.243151	3.53485	0.443231	6.39932	0.699139	9.4423	0.756968	10.2621
0.287529	3.91945	0.118996	1.55909	0.285944	4.06379	0.414655	5.95016	0.584058	8.14478	0.852445	11.3804	0.2451	3.51556	0.443881	6.32365	0.699366	9.32799	0.757842	10.1458
0.287716	3.90429	0.119701	1.56152	0.286419	4.01734	0.415913	5.88947	0.58429	8.11039	0.852795	11.2452	0.247052	3.49683	0.44454	6.25007	0.6996	9.21658	0.758723	10.0325
0.287837	3.89467	0.120152	1.56306	0.28691	3.97232	0.417178	5.83046	0.584607	8.06413	0.853148	11.1133	0.249007	3.47863	0.445207	6.17852	0.699841	9.10796	0.759609	9.92194
0.288012	3.88097	0.120801	1.56527	0.287418	3.92867	0.418449	5.77306	0.585011	8.0065	0.853506	10.9846	0.250965	3.46093	0.445884	6.10892	0.700088	9.00203	0.760501	9.81416
0.288204	3.86622	0.121507	1.56766	0.287942	3.88635	0.419727	5.71719	0.585504	7.93805	0.853869	10.8591	0.252926	3.44372	0.446569	6.04119	0.700343	8.8987	0.761399	9.70901
0.288469	3.84643	0.122468	1.57088	0.288485	3.84531	0.42101	5.66282	0.586087	7.85945	0.854235	10.7365	0.254889	3.42698	0.447263	5.97527	0.700604	8.79786	0.762303	9.60641
0.288811	3.82182	0.123683	1.57491	0.289044	3.80552	0.4223	5.60986	0.586765	7.77144	0.854607	10.6169	0.256854	3.41068	0.447965	5.91108	0.700872	8.69945	0.763212	9.50625
0.289233	3.79267	0.125155	1.57973	0.289622	3.76691	0.423596	5.55828	0.587451	7.68568	0.854982	10.5	0.258823	3.39482	0.448677	5.84856	0.701111	8.61559	0.764127	9.40847
0.28974	3.75929	0.126882	1.58529	0.290217	3.72946	0.424897	5.50802	0.588145	7.60209	0.855362	10.3858	0.260793	3.37936	0.449397	5.78766	0.701319	8.54547	0.765048	9.31297
0.290339	3.72208	0.128867	1.59156	0.290831	3.69313	0.426205	5.45903	0.588847	7.5206	0.855746	10.2743	0.262765	3.3643	0.450126	5.72831	0.701494	8.4884	0.765975	9.21969
0.290957	3.68597	0.130854	1.59772	0.291464	3.65789	0.427517	5.41127	0.589558	7.44113	0.856135	10.1652	0.264739	3.34962	0.450864	5.67047	0.701634	8.44386	0.766907	9.12853
0.291593	3.65093	0.132843	1.60376	0.292115	3.62369	0.428835	5.36469	0.590276	7.36361	0.856527	10.0586	0.266715	3.33531	0.45161	5.61407	0.701738	8.41142	0.767845	9.03945
0.292248	3.61694	0.134835	1.60969	0.292786	3.59051	0.430159	5.31925	0.591003	7.28798	0.856925	9.95438	0.268693	3.32134	0.452365	5.55908	0.701805	8.39081	0.768788	8.95236
0.292923	3.58396	0.136828	1.61552	0.293476	3.55832	0.431487	5.2749	0.591738	7.21416	0.857326	9.85241	0.270672	3.30772	0.453129	5.50543	0.701902	8.36136	0.769737	8.86721
0.293617	3.55197	0.138823	1.62124	0.294186	3.52708	0.432821	5.23162	0.592482	7.14209	0.857732	9.75265	0.272653	3.29441	0.453902	5.45309	0.702008	8.32961	0.770691	8.78392
0.294331	3.52092	0.14082	1.62687	0.294916	3.49678	0.434159	5.18936	0.593233	7.07173	0.858143	9.65504	0.274635	3.28142	0.454684	5.40202	0.702154	8.28685	0.771527	8.71283
0.295065	3.4908	0.142819	1.63239	0.295667	3.46737	0.435503	5.14808	0.593993	7.00301	0.858558	9.55949	0.276619	3.26873	0.455474	5.35216	0.70234	8.23343	0.772243	8.65328
0.29582	3.46157	0.14482	1.63781	0.296438	3.43885	0.436851	5.10776	0.594761	6.93587	0.858977	9.46596	0.278604	3.25634	0.456274	5.30349	0.702569	8.16983	0.772838	8.60475
0.296596	3.43322	0.146822	1.64314	0.297231	3.41118	0.438204	5.06837	0.595537	6.87028	0.8594	9.37438	0.280589	3.24422	0.457082	5.25597	0.702843	8.09657	0.773309	8.56684
0.297393	3.40572	0.148826	1.64838	0.298046	3.38434	0.439561	5.02986	0.596321	6.80617	0.859828	9.28469	0.282576	3.23237	0.457899	5.20955	0.703163	8.01425	0.773656	8.53921
0.298212	3.37905	0.150831	1.65353	0.298883	3.35832	0.440922	4.99222	0.597113	6.7435	0.86026	9.19683	0.284564	3.22078	0.458724	5.1642	0.70349	7.93373	0.773879	8.52164
0.299054	3.35318	0.152838	1.65858	0.299742	3.33308	0.442288	4.95541	0.597914	6.68223	0.860697	9.11075	0.286552	3.20944	0.459559	5.11989	0.703824	7.85496	0.7742	8.49653
0.299918	3.32811	0.154846	1.66356	0.300625	3.30862	0.443658	4.91941	0.598722	6.62231	0.861138	9.02639	0.288541	3.19834	0.460402	5.0766	0.704165	7.77788	0.774549	8.46943
0.300805	3.3038	0.156855	1.66844	0.301531	3.28491	0.445033	4.88419	0.599539	6.56371	0.861583	8.94372	0.290531	3.18748	0.461254	5.03427	0.704512	7.70245	0.775025	8.4329
0.301716	3.28023	0.158866	1.67325	0.302462	3.26194	0.446411	4.84973	0.600364	6.50637	0.861975	8.873	0.292521	3.17684	0.462115	4.9929	0.704866	7.62861	0.775628	8.38724
0.302651	3.25741	0.160878	1.67797	0.303416	3.23968	0.447793	4.816	0.601197	6.45027	0.862311	8.81367	0.294512	3.16642	0.462985	4.95245	0.705226	7.55632	0.776361	8.3328
0.303611	3.23529	0.162891	1.68262	0.304396	3.21813	0.449179	4.78298	0.602038	6.39536	0.862592	8.76526	0.296503	3.15622	0.463864	4.91288	0.705594	7.48553	0.777224	8.27
0.304596	3.21388	0.164905	1.68718	0.305402	3.19726	0.450569	4.75064	0.602887	6.34161	0.862814	8.72739	0.298495	3.14621	0.464752	4.87419	0.705968	7.41619	0.77822	8.19931
0.305607	3.19315	0.16692	1.69168	0.306433	3.17708	0.451962	4.71898	0.603744	6.28899	0.862979	8.69977	0.300487	3.1364	0.465648	4.83633	0.706348	7.34827	0.779221	8.13005
0.306644	3.1731	0.168936	1.6961	0.307492	3.15755	0.453359	4.68796	0.604609	6.23747	0.863084	8.6822	0.302478	3.12679	0.466553	4.79929	0.706736	7.28172	0.780227	8.06217
0.307707	3.1537	0.170953	1.70044	0.308577	3.13866	0.45476	4.65757	0.605482	6.18701	0.863236	8.65707	0.30447	3.11735	0.467467	4.76304	0.70713	7.21651	0.781238	7.99564
0.308799	3.13495	0.172972	1.70472	0.30969	3.12042	0.456164	4.62779	0.606363	6.13758	0.863402	8.62993	0.306462	3.1081	0.468391	4.72757	0.707531	7.15259	0.782254	7.93042
0.309917	3.11683	0.174991	1.70892	0.310832	3.10279	0.457571	4.5986	0.607252	6.08916	0.863628	8.59332	0.308454	3.09902	0.469322	4.69285	0.707938	7.08993	0.783276	7.86647
0.311065	3.09932	0.17701	1.71306	0.312002	3.08578	0.458982	4.56999	0.60815	6.04171	0.863916	8.54751	0.310445	3.0901	0.470263	4.65885	0.708352	7.02849	0.784302	7.80376
0.312241	3.08243	0.179031	1.71714	0.313202	3.06936	0.460396	4.54193	0.609055	5.99521	0.864266	8.49282	0.312437	3.08135	0.471213	4.62556	0.708772	6.96825	0.785333	7.74225
0.313447	3.06613	0.181052	1.72114	0.314432	3.05353	0.461812	4.51441	0.609968	5.94963	0.86468	8.42963	0.314428	3.07275	0.472171	4.59297	0.709199	6.90916	0.78637	7.68191
0.314683	3.05042	0.183075	1.72509	0.315692	3.03828	0.463232	4.48742	0.610889	5.90495	0.865159	8.35839	0.316419	3.0643	0.473139	4.56104	0.709633	6.8512	0.787411	7.62271
0.315949	3.03528	0.185097	1.72897	0.316983	3.02359	0.464655	4.46094	0.611818	5.86115	0.865643	8.28845	0.318409	3.05601	0.474115	4.52977	0.710073	6.79433	0.788458	7.56461
0.317246	3.02071	0.187121	1.73279	0.318305	3.00946	0.466081	4.43496	0.612755	5.81819	0.866131	8.21979	0.320399	3.04785	0.4751	4.49913	0.71052	6.73853	0.789509	7.50758
0.318574	3.00668	0.189145	1.73655	0.319659	2.99586	0.467509	4.40946	0.613699	5.77606	0.866623	8.15238	0.322389	3.03983	0.476095	4.46911	0.710974	6.68378	0.790565	7.45161
0.319934	2.9932	0.19117	1.74025	0.321044	2.9828	0.468941	4.38443	0.614652	5.73474	0.86712	8.08618	0.324377	3.03195	0.477098	4.4397	0.711434	6.63003	0.791626	7.39665
0.321326	2.98024	0.193195	1.7439	0.322461	2.97026	0.470375	4.35986	0.615613	5.69421	0.867621	8.02116	0.326365	3.02419	0.47811	4.41088	0.7119	6.57727	0.792692	7.34269
0.32275	2.9678	0.195221	1.74749	0.323911	2.95823	0.471811	4.33574	0.616581	5.65443	0.868126	7.9573	0.328353	3.01657	0.47913	4.38262	0.712373	6.52547	0.793763	7.28969
0.324206	2.95587	0.197247	1.75102	0.325393	2.94669	0.473251	4.31204	0.617557	5.61541	0.868636	7.89455	0.330339	3.00906	0.48016	4.35493	0.712853	6.4746	0.794838	7.23764
0.325695	2.94443	0.199274	1.7545	0.326907	2.93563	0.474692	4.28877	0.618541	5.57711	0.86915	7.8329	0.332325	3.00168	0.481199	4.32778	0.713339	6.42465	0.795918	7.18651
0.327216	2.93347	0.201301	1.75793	0.328454	2.92505	0.476136	4.26591	0.619533	5.53951	0.869669	7.77231	0.33431	2.9944	0.482247	4.30116	0.713831	6.37559	0.797003	7.13627
0.328769	2.92298	0.203329	1.76131	0.330033	2.91492	0.477583	4.24345	0.620533	5.50261	0.870192	7.71276	0.336294	2.98724	0.483303	4.27506	0.71433	6.32739	0.798092	7.0869
0.330354	2.91294	0.205356	1.76463	0.331643	2.90524	0.479032	4.22138	0.62154	5.46638	0.870719	7.65423	0.338277	2.98019	0.484369	4.24946	0.714836	6.28004	0.799186	7.03839
0.331971	2.90335	0.207385	1.76791	0.333285	2.89599	0.480483	4.19968	0.622555	5.43081	0.871251	7.59668	0.340259	2.97325	0.485443	4.22436	0.715347	6.23351	0.800285	6.9907
0.333619	2.89418	0.209413	1.77113	0.334959	2.88715	0.481936	4.17836	0.623578	5.39588	0.871787	7.54011	0.342239	2.96641	0.486526	4.19974	0.715866	6.18779	0.801388	6.94383
0.335299	2.88543	0.211442	1.77431	0.336663	2.87872	0.483392	4.1574	0.624609	5.36157	0.872327	7.48447	0.344219	2.95966	0.487619	4.17558	0.71639	6.14286	0.802496	6.89774
0.337009	2.87708	0.213471	1.77744	0.338397	2.87068	0.48485	4.13679	0.625647	5.32787	0.872872	7.42975	0.346197	2.95302	0.48872	4.15189	0.716922	6.09869	0.803609	6.85243
0.338749	2.86911	0.215501	1.78053	0.34016	2.86301	0.48631	4.11652	0.626693	5.29477	0.873422	7.37593	0.348174	2.94646	0.48983	4.12864	0.717459	6.05527	0.804725	6.80787
0.340518	2.86152	0.21753	1.78357	0.341953	2.8557	0.487771	4.09658	0.627746	5.26225	0.873975	7.32299	0.35015	2.94	0.490949	4.10583	0.718003	6.01258	0.805847	6.76404
0.342316	2.85428	0.21956	1.78656	0.343773	2.84874	0.489235	4.07698	0.628808	5.23029	0.874533	7.27091	0.352124	2.93363	0.492077	4.08345	0.718553	5.9706	0.806972	6.72093
0.344142	2.84738	0.22159	1.78951	0.345621	2.84211	0.490701	4.05769	0.629876	5.1989	0.875096	7.21966	0.354097	2.92735	0.493214	4.06148	0.71911	5.92933	0.808103	6.67851
0.345995	2.84082	0.22362	1.79242	0.347495	2.83579	0.492168	4.03871	0.630953	5.16804	0.875663	7.16923	0.356069	2.92115	0.49436	4.03992	0.719673	5.88873	0.809237	6.63679
0.347874	2.83456	0.225651	1.79529	0.349394	2.82978	0.493638	4.02003	0.632037	5.13771	0.876234	7.1196	0.358039	2.91503	0.495515	4.01876	0.720242	5.8488	0.810376	6.59573
0.349779	2.82861	0.227681	1.79811	0.351319	2.82406	0.495109	4.00165	0.633128	5.10789	0.87681	7.07075	0.360007	2.90899	0.496679	3.99799	0.720817	5.80952	0.811519	6.55532
0.351708	2.82294	0.229712	1.8009	0.353267	2.8186	0.496582	3.98356	0.634227	5.07859	0.87739	7.02266	0.361974	2.90302	0.497852	3.9776	0.721399	5.77087	0.812666	6.51556
0.353661	2.81754	0.231742	1.80364	0.355238	2.81342	0.498057	3.96574	0.635334	5.04977	0.877974	6.97532	0.363939	2.89714	0.499033	3.95758	0.721987	5.73285	0.813818	6.47641
0.355636	2.8124	0.233773	1.80635	0.35723	2.80847	0.499533	3.94821	0.636448	5.02144	0.878563	6.92872	0.365903	2.89132	0.500224	3.93793	0.722581	5.69543	0.814974	6.43788
0.357633	2.80751	0.235803	1.80902	0.359244	2.80377	0.501011	3.93095	0.637569	4.99358	0.879157	6.88282	0.367865	2.88558	0.501424	3.91863	0.723182	5.65861	0.816134	6.39994
0.359651	2.80285	0.237834	1.81165	0.361278	2.79929	0.502491	3.91394	0.638698	4.96618	0.879754	6.83763	0.369825	2.87991	0.502632	3.89968	0.723789	5.62237	0.817298	6.36258
0.361689	2.79841	0.239865	1.81424	0.363331	2.79502	0.503972	3.8972	0.639834	4.93923	0.880356	6.79311	0.371783	2.8743	0.503849	3.88107	0.724402	5.5867	0.818467	6.32579
0.363746	2.79418	0.241895	1.8168	0.365402	2.79095	0.505455	3.88071	0.640977	4.91273	0.880963	6.74927	0.373739	2.86877	0.505076	3.86279	0.725021	5.55158	0.819639	6.28957
0.36582	2.79015	0.243926	1.81932	0.367491	2.78707	0.506939	3.86446	0.642128	4.88665	0.881574	6.70608	0.375694	2.86329	0.506311	3.84484	0.725646	5.51701	0.820816	6.25388
0.367912	2.78631	0.245957	1.8218	0.369596	2.78337	0.508425	3.84845	0.643286	4.861	0.882189	6.66354	0.377646	2.85788	0.507555	3.82721	0.726278	5.48298	0.821996	6.21873
0.370021	2.78264	0.247987	1.82425	0.371717	2.77983	0.509912	3.83268	0.644452	4.83576	0.882809	6.62162	0.379597	2.85253	0.508808	3.80989	0.726915	5.44946	0.823181	6.1841
0.372145	2.77914	0.250018	1.82667	0.373853	2.77646	0.511401	3.81714	0.645624	4.81093	0.883433	6.58032	0.381546	2.84724	0.51007	3.79288	0.727559	5.41645	0.824369	6.14999
0.374284	2.77581	0.252048	1.82905	0.376004	2.77324	0.512891	3.80182	0.646804	4.78649	0.884061	6.53961	0.383492	2.84201	0.511341	3.77617	0.728209	5.38395	0.825562	6.11637
0.376437	2.77262	0.254078	1.8314	0.378167	2.77017	0.514382	3.78672	0.647991	4.76244	0.884694	6.4995	0.385437	2.83683	0.51262	3.75975	0.728865	5.35193	0.826758	6.08324
0.378604	2.76957	0.256108	1.83372	0.380344	2.76723	0.515875	3.77184	0.649185	4.73876	0.885332	6.45997	0.38738	2.83171	0.513909	3.74362	0.729528	5.3204	0.827959	6.0506
0.380783	2.76665	0.258138	1.83601	0.382533	2.76441	0.517369	3.75717	0.650386	4.71546	0.885973	6.421	0.38932	2.82664	0.515206	3.72777	0.730196	5.28933	0.829163	6.01842
0.382974	2.76386	0.260168	1.83826	0.384734	2.76172	0.518864	3.74271	0.651595	4.69252	0.886619	6.38258	0.391258	2.82163	0.516512	3.7122	0.73087	5.25873	0.830371	5.9867
0.385177	2.76119	0.262198	1.84049	0.386945	2.75914	0.520361	3.72844	0.65281	4.66994	0.88727	6.34471	0.393195	2.81667	0.517827	3.69689	0.731551	5.22857	0.831583	5.95544
0.387391	2.75864	0.264227	1.84268	0.389167	2.75667	0.521859	3.71438	0.654033	4.64771	0.887925	6.30737	0.395128	2.81175	0.519151	3.68185	0.732237	5.19886	0.832798	5.92461
0.389614	2.75619	0.266256	1.84485	0.391398	2.7543	0.523358	3.70051	0.655262	4.62582	0.888584	6.27055	0.39706	2.80689	0.520484	3.66707	0.73293	5.16958	0.834018	5.89422
0.391848	2.75384	0.268285	1.84698	0.393639	2.75203	0.524858	3.68683	0.656498	4.60427	0.889248	6.23425	0.39899	2.80207	0.521825	3.65255	0.733628	5.14072	0.835241	5.86425
0.39409	2.75158	0.270314	1.84909	0.395889	2.74984	0.52636	3.67334	0.657742	4.58304	0.889916	6.19845	0.400917	2.79731	0.523175	3.63827	0.734333	5.11228	0.836467	5.83469
0.396342	2.74942	0.272343	1.85117	0.398147	2.74775	0.527862	3.66003	0.658992	4.56213	0.890589	6.16313	0.402842	2.79258	0.524534	3.62424	0.735043	5.08425	0.837698	5.80555
0.398602	2.74733	0.274371	1.85322	0.400413	2.74573	0.529366	3.6469	0.660249	4.54154	0.891265	6.12831	0.404764	2.7879	0.525902	3.61045	0.73576	5.05662	0.838932	5.7768
0.400869	2.74533	0.276399	1.85524	0.402686	2.74379	0.530871	3.63394	0.661513	4.52126	0.891947	6.09395	0.406685	2.78327	0.527278	3.59689	0.736482	5.02938	0.84017	5.74844
0.403144	2.74341	0.278427	1.85724	0.404967	2.74192	0.532377	3.62115	0.662783	4.50128	0.892633	6.06006	0.408603	2.77868	0.528663	3.58356	0.73721	5.00252	0.841411	5.72047
0.405426	2.74155	0.280454	1.85921	0.407254	2.74012	0.533885	3.60854	0.664061	4.4816	0.893323	6.02663	0.410518	2.77413	0.530057	3.57046	0.737945	4.97605	0.842656	5.69287
0.407715	2.73977	0.282481	1.86115	0.409548	2.73839	0.535393	3.59609	0.665345	4.46221	0.894017	5.99364	0.412432	2.76962	0.531459	3.55758	0.738685	4.94994	0.843904	5.66564
0.410009	2.73805	0.284508	1.86307	0.411847	2.73672	0.536903	3.5838	0.666636	4.4431	0.894716	5.96109	0.414342	2.76515	0.53287	3.54491	0.739431	4.9242	0.845156	5.63877
0.41231	2.73639	0.286535	1.86496	0.414153	2.7351	0.538413	3.57167	0.667933	4.42428	0.89542	5.92897	0.416251	2.76072	0.534289	3.53246	0.740183	4.89881	0.846411	5.61226
0.414617	2.73478	0.288561	1.86683	0.416464	2.73354	0.539925	3.5597	0.669237	4.40572	0.896127	5.89728	0.418157	2.75633	0.535717	3.52022	0.740941	4.87377	0.84767	5.5861
0.416929	2.73324	0.290587	1.86867	0.418779	2.73204	0.541438	3.54788	0.670548	4.38744	0.89684	5.866	0.42006	2.75198	0.537154	3.50818	0.741704	4.84908	0.848932	5.56028
0.419245	2.73174	0.292613	1.87049	0.4211	2.73058	0.542952	3.53621	0.671865	4.36942	0.897556	5.83513	0.421962	2.74766	0.538599	3.49634	0.742474	4.82472	0.850197	5.53479
0.421567	2.73029	0.294638	1.87228	0.423426	2.72917	0.544467	3.52469	0.673188	4.35166	0.898277	5.80466	0.42386	2.74338	0.540052	3.4847	0.743249	4.80069	0.851466	5.50963
0.423893	2.72889	0.296663	1.87406	0.425755	2.7278	0.545983	3.51332	0.674518	4.33416	0.899003	5.77458	0.425757	2.73914	0.541514	3.47325	0.74403	4.77699	0.852738	5.4848
0.426224	2.72753	0.298687	1.8758	0.428089	2.72648	0.547501	3.50208	0.675855	4.3169	0.899732	5.74488	0.42765	2.73493	0.542984	3.46199	0.744817	4.75361	0.854013	5.46028
0.428558	2.72622	0.300711	1.87753	0.430427	2.7252	0.549019	3.49099	0.677197	4.29989	0.900467	5.71557	0.429542	2.73075	0.544463	3.45092	0.74561	4.73054	0.855292	5.43607
0.430897	2.72495	0.302735	1.87923	0.432768	2.72395	0.550538	3.48004	0.678547	4.28311	0.901205	5.68663	0.431431	2.72661	0.54595	3.44003	0.746409	4.70778	0.856574	5.41217
0.433239	2.72371	0.304758	1.88092	0.435113	2.72275	0.552059	3.46922	0.679902	4.26658	0.901948	5.65805	0.433317	2.7225	0.547445	3.42932	0.747213	4.68532	0.857859	5.38857
0.435584	2.72251	0.306781	1.88257	0.437461	2.72157	0.553581	3.45853	0.681263	4.25027	0.902696	5.62984	0.435201	2.71843	0.548949	3.41879	0.748023	4.66315	0.859147	5.36526
0.437933	2.72134	0.308803	1.88421	0.439812	2.72043	0.555103	3.44797	0.682631	4.23419	0.903448	5.60198	0.437083	2.71438	0.55046	3.40843	0.748839	4.64128	0.860438	5.34224
0.440285	2.7202	0.310825	1.88583	0.442166	2.71932	0.556627	3.43754	0.684005	4.21834	0.904204	5.57446	0.438962	2.71037	0.55198	3.39823	0.74966	4.6197	0.861733	5.31951
0.442639	2.7191	0.312847	1.88742	0.444523	2.71824	0.558152	3.42724	0.685385	4.2027	0.904964	5.54729	0.440839	2.70639	0.553508	3.3882	0.750487	4.59839	0.863031	5.29705
0.444997	2.71803	0.314868	1.889	0.446883	2.71719	0.559678	3.41706	0.686771	4.18728	0.90573	5.52045	0.442713	2.70244	0.555044	3.37834	0.75132	4.57737	0.864331	5.27487
0.447357	2.71698	0.316889	1.89056	0.449245	2.71616	0.561205	3.40701	0.688163	4.17206	0.906499	5.49394	0.444585	2.69852	0.556589	3.36864	0.752159	4.55661	0.865635	5.25296
0.449719	2.71596	0.318909	1.89209	0.451609	2.71516	0.562733	3.39707	0.689561	4.15706	0.907273	5.46776	0.446454	2.69463	0.558141	3.35909	0.753003	4.53612	0.866942	5.23131
0.452084	2.71496	0.320929	1.89361	0.453975	2.71419	0.564263	3.38725	0.690965	4.14225	0.908051	5.44189	0.448321	2.69076	0.559701	3.34969	0.753853	4.51589	0.868251	5.20992
0.454451	2.71399	0.322948	1.8951	0.456344	2.71323	0.565793	3.37755	0.692375	4.12765	0.908834	5.41634	0.450186	2.68693	0.561269	3.34045	0.754708	4.49593	0.869564	5.18879
0.45682	2.71305	0.324967	1.89658	0.458715	2.7123	0.567325	3.36796	0.69379	4.11324	0.909621	5.39109	0.452048	2.68312	0.562844	3.33136	0.75557	4.47621	0.870879	5.16791
0.459191	2.71212	0.326985	1.89804	0.461087	2.71139	0.568858	3.35848	0.695212	4.09903	0.910413	5.36615	0.453908	2.67935	0.564428	3.32241	0.756436	4.45675	0.872198	5.14727
0.461564	2.71121	0.329003	1.89948	0.463461	2.7105	0.570392	3.34912	0.696639	4.085	0.911208	5.34151	0.455766	2.6756	0.566019	3.3136	0.757309	4.43753	0.873519	5.12688
0.463938	2.71033	0.33102	1.9009	0.465837	2.70963	0.571927	3.33986	0.698072	4.07116	0.912009	5.31716	0.457621	2.67187	0.567618	3.30494	0.758187	4.41855	0.874843	5.10673
0.466314	2.70946	0.333037	1.9023	0.468214	2.70878	0.573464	3.33071	0.69951	4.05751	0.912813	5.2931	0.459474	2.66818	0.569225	3.29641	0.75907	4.39981	0.87617	5.08681
0.468691	2.70861	0.335053	1.90369	0.470592	2.70794	0.575002	3.32167	0.700954	4.04403	0.913623	5.26933	0.461324	2.66451	0.570839	3.28802	0.759959	4.3813	0.8775	5.06712
0.47107	2.70778	0.337069	1.90506	0.472972	2.70712	0.576541	3.31273	0.702404	4.03072	0.914436	5.24583	0.463173	2.66086	0.572461	3.27976	0.760854	4.36303	0.878832	5.04766
0.47345	2.70696	0.339084	1.90641	0.475353	2.70632	0.578081	3.3039	0.703859	4.01759	0.915254	5.22261	0.465019	2.65725	0.57409	3.27163	0.761754	4.34497	0.880168	5.02842
0.475831	2.70616	0.341098	1.90774	0.477735	2.70553	0.579623	3.29516	0.705319	4.00463	0.916077	5.19966	0.466862	2.65366	0.575726	3.26362	0.76266	4.32714	0.881506	5.0094
0.478214	2.70537	0.343112	1.90906	0.480118	2.70476	0.581166	3.28652	0.706786	3.99184	0.916903	5.17697	0.468704	2.65009	0.57737	3.25575	0.763571	4.30953	0.882846	4.99059
0.480597	2.7046	0.345126	1.91036	0.482502	2.70399	0.58271	3.27799	0.708257	3.97921	0.917735	5.15455	0.470544	2.64655	0.579021	3.24799	0.764488	4.29214	0.884189	4.972
0.482981	2.70384	0.347139	1.91164	0.484887	2.70324	0.584255	3.26954	0.709734	3.96674	0.91857	5.13239	0.472381	2.64303	0.580679	3.24036	0.76541	4.27495	0.885535	4.95362
0.485366	2.70309	0.349151	1.91291	0.487272	2.7025	0.585802	3.2612	0.711215	3.95444	0.91941	5.11048	0.474216	2.63954	0.582345	3.23284	0.766338	4.25798	0.886884	4.93544
0.487751	2.70236	0.351163	1.91416	0.489658	2.70178	0.587351	3.25295	0.712703	3.94228	0.920255	5.08882	0.476049	2.63607	0.584017	3.22544	0.767271	4.24121	0.888235	4.91746
0.490138	2.70163	0.353174	1.9154	0.492045	2.70106	0.588901	3.24479	0.714195	3.93028	0.921104	5.0674	0.477881	2.63263	0.585696	3.21816	0.76821	4.22464	0.889588	4.89968
0.492525	2.70092	0.355185	1.91662	0.494432	2.70036	0.590452	3.23672	0.715692	3.91843	0.921957	5.04623	0.47971	2.62921	0.587383	3.21099	0.769154	4.20827	0.890944	4.8821
0.494912	2.70021	0.357195	1.91782	0.49682	2.69966	0.592005	3.22874	0.717195	3.90673	0.922814	5.0253	0.481537	2.62582	0.589076	3.20393	0.770104	4.1921	0.892303	4.8647
0.4973	2.69952	0.359205	1.91901	0.499208	2.69897	0.593559	3.22085	0.718702	3.89517	0.923677	5.0046	0.483362	2.62245	0.590776	3.19697	0.771059	4.17611	0.893664	4.8475
0.499688	2.69883	0.361214	1.92019	0.501597	2.69829	0.595115	3.21305	0.720215	3.88376	0.924543	4.98414	0.485185	2.6191	0.592482	3.19012	0.772019	4.16032	0.895027	4.83048
0.502076	2.69816	0.363222	1.92134	0.503985	2.69762	0.596673	3.20534	0.721732	3.87248	0.925414	4.9639	0.487006	2.61578	0.594196	3.18338	0.772985	4.14472	0.896393	4.81365
0.504465	2.69749	0.36523	1.92249	0.506374	2.69696	0.598232	3.19771	0.723254	3.86135	0.926289	4.94389	0.488826	2.61248	0.595915	3.17673	0.773956	4.1293	0.897762	4.797
0.506854	2.69682	0.367237	1.92362	0.508763	2.6963	0.599793	3.19016	0.724781	3.85035	0.927169	4.9241	0.490644	2.6092	0.597642	3.17019	0.774933	4.11406	0.899132	4.78052
0.509243	2.69617	0.369243	1.92474	0.511151	2.69565	0.601355	3.1827	0.726313	3.83948	0.928053	4.90452	0.49246	2.60594	0.599375	3.16375	0.775915	4.09899	0.900505	4.76422
0.511631	2.69552	0.371249	1.92584	0.51354	2.69501	0.60292	3.17532	0.72785	3.82875	0.928942	4.88517	0.494274	2.60271	0.601114	3.1574	0.776902	4.08411	0.90188	4.74809
0.51402	2.69488	0.373254	1.92693	0.515929	2.69437	0.604486	3.16803	0.729391	3.81814	0.929835	4.86602	0.496086	2.5995	0.602859	3.15115	0.777895	4.0694	0.903258	4.73213
0.516409	2.69424	0.375259	1.92801	0.518317	2.69373	0.606053	3.16081	0.730937	3.80766	0.930732	4.84708	0.497897	2.59632	0.60461	3.14499	0.778893	4.05485	0.904637	4.71634
0.518797	2.69361	0.377263	1.92907	0.520705	2.6931	0.607623	3.15367	0.732487	3.79731	0.931634	4.82835	0.499706	2.59315	0.606368	3.13892	0.779896	4.04048	0.906019	4.70071
0.521185	2.69298	0.379266	1.93012	0.523093	2.69248	0.609195	3.14661	0.734042	3.78708	0.93254	4.80982	0.501514	2.59001	0.608132	3.13293	0.780905	4.02627	0.907404	4.68525
0.523573	2.69236	0.381269	1.93115	0.525481	2.69186	0.610768	3.13963	0.735602	3.77697	0.933451	4.7915	0.50332	2.58689	0.609901	3.12704	0.781919	4.01223	0.90879	4.66994
0.52596	2.69174	0.383271	1.93217	0.527868	2.69124	0.612344	3.13272	0.737165	3.76698	0.934366	4.77336	0.505125	2.58379	0.611677	3.12124	0.782939	3.99834	0.910178	4.65479
0.528347	2.69112	0.385272	1.93318	0.530254	2.69063	0.613921	3.12589	0.738734	3.7571	0.935285	4.75543	0.506928	2.58072	0.613458	3.11551	0.783963	3.98462	0.911569	4.63979
0.530734	2.69051	0.387273	1.93418	0.53264	2.69002	0.615501	3.11914	0.740306	3.74735	0.936209	4.73768	0.50873	2.57766	0.615245	3.10987	0.784993	3.97105	0.912962	4.62495
0.53312	2.6899	0.389273	1.93516	0.535026	2.68941	0.617082	3.11246	0.741883	3.7377	0.937138	4.72013	0.51053	2.57463	0.617038	3.10431	0.786029	3.95763	0.914357	4.61026
0.535505	2.68929	0.391273	1.93614	0.53741	2.68881	0.618666	3.10585	0.743464	3.72816	0.93807	4.70275	0.512329	2.57162	0.618836	3.09884	0.787069	3.94437	0.915753	4.59571
0.537889	2.68868	0.393271	1.9371	0.539794	2.6882	0.620252	3.09932	0.745049	3.71874	0.939007	4.68557	0.514127	2.56863	0.620639	3.09344	0.788115	3.93125	0.917152	4.58131
0.540273	2.68808	0.39527	1.93804	0.542177	2.6876	0.62184	3.09286	0.746638	3.70942	0.939949	4.66856	0.515924	2.56567	0.622448	3.08811	0.789166	3.91829	0.918553	4.56705
0.542655	2.68748	0.397267	1.93898	0.544559	2.687	0.623431	3.08647	0.748232	3.70021	0.940895	4.65173	0.517719	2.56272	0.624263	3.08286	0.790223	3.90547	0.919956	4.55293
0.545037	2.68687	0.399264	1.9399	0.54694	2.68639	0.625024	3.08014	0.749829	3.6911	0.941845	4.63508	0.519513	2.5598	0.626082	3.07769	0.791285	3.89279	0.921361	4.53896
0.547418	2.68627	0.40126	1.94082	0.54932	2.68579	0.62662	3.07389	0.75143	3.6821	0.9428	4.6186	0.521306	2.55689	0.627907	3.07258	0.792352	3.88025	0.922767	4.52512
0.549798	2.68567	0.403255	1.94172	0.551699	2.68519	0.628217	3.06771	0.753036	3.67319	0.943759	4.6023	0.523099	2.55401	0.629737	3.06755	0.793424	3.86786	0.924176	4.51141
0.552176	2.68507	0.40525	1.94261	0.554076	2.68459	0.629818	3.0616	0.754645	3.66439	0.944723	4.58616	0.52489	2.55115	0.631571	3.06259	0.794501	3.8556	0.925586	4.49784
0.554554	2.68447	0.407244	1.94349	0.556453	2.68399	0.631421	3.05555	0.756258	3.65568	0.945691	4.57019	0.52668	2.54831	0.633411	3.0577	0.795584	3.84347	0.926999	4.4844
0.55693	2.68387	0.409237	1.94435	0.558828	2.68338	0.633027	3.04957	0.757874	3.64707	0.946664	4.55438	0.528469	2.5455	0.635255	3.05287	0.796672	3.83148	0.928413	4.47109
0.559305	2.68326	0.41123	1.94521	0.561201	2.68278	0.634635	3.04366	0.759495	3.63856	0.947641	4.53874	0.530257	2.5427	0.637104	3.04811	0.797765	3.81962	0.929829	4.45791
0.561678	2.68266	0.413222	1.94606	0.563573	2.68217	0.636247	3.03781	0.761119	3.63013	0.948622	4.52325	0.532045	2.53992	0.638958	3.04341	0.798863	3.8079	0.931246	4.44485
0.56405	2.68205	0.415213	1.94689	0.565944	2.68157	0.637861	3.03203	0.762747	3.6218	0.949608	4.50793	0.533832	2.53717	0.640817	3.03878	0.799966	3.7963	0.932666	4.43192
0.56642	2.68144	0.417204	1.94772	0.568313	2.68095	0.639478	3.02632	0.764378	3.61356	0.950598	4.49276	0.535618	2.53443	0.642679	3.0342	0.801075	3.78482	0.934087	4.4191
0.568789	2.68083	0.419194	1.94853	0.57068	2.68034	0.641098	3.02067	0.766013	3.60541	0.951593	4.47774	0.537403	2.53172	0.644547	3.02969	0.802189	3.77347	0.93551	4.40641
0.571156	2.68022	0.421183	1.94934	0.573045	2.67972	0.642721	3.01508	0.767651	3.59735	0.952592	4.46288	0.539188	2.52903	0.646418	3.02524	0.803308	3.76225	0.936935	4.39384
0.573521	2.6796	0.423171	1.95013	0.575409	2.6791	0.644348	3.00956	0.769293	3.58937	0.953595	4.44816	0.540972	2.52635	0.648294	3.02085	0.804432	3.75115	0.938361	4.38139
0.575884	2.67898	0.425159	1.95091	0.577771	2.67848	0.645978	3.00409	0.770938	3.58148	0.954603	4.43359	0.542755	2.5237	0.650174	3.01651	0.805562	3.74017	0.939789	4.36905
0.578245	2.67835	0.427146	1.95169	0.58013	2.67785	0.647611	2.9987	0.772586	3.57367	0.955615	4.41917	0.544538	2.52107	0.652058	3.01223	0.806697	3.7293	0.941218	4.35682
0.580604	2.67773	0.429132	1.95245	0.582487	2.67722	0.649247	2.99336	0.774238	3.56594	0.956632	4.4049	0.54632	2.51846	0.653946	3.00801	0.807836	3.71855	0.942649	4.34471
0.582961	2.67709	0.431118	1.95321	0.584842	2.67658	0.650887	2.98809	0.775893	3.55829	0.957653	4.39076	0.548103	2.51587	0.655838	3.00384	0.808981	3.70792	0.944082	4.33271
0.585315	2.67645	0.433103	1.95395	0.587195	2.67594	0.652531	2.98287	0.777551	3.55072	0.958679	4.37677	0.549884	2.5133	0.657733	2.99972	0.810132	3.6974	0.945516	4.32081
0.587668	2.67581	0.435087	1.95469	0.589546	2.67529	0.654178	2.97772	0.779212	3.54324	0.959709	4.36291	0.551665	2.51075	0.659633	2.99565	0.811287	3.687	0.946952	4.30903
0.590018	2.67516	0.43707	1.95541	0.591893	2.67464	0.655829	2.97263	0.780877	3.53582	0.960744	4.34919	0.553446	2.50822	0.661536	2.99164	0.812447	3.67671	0.948389	4.29735
0.592365	2.67451	0.439053	1.95613	0.594239	2.67398	0.657484	2.9676	0.782544	3.52849	0.961783	4.33561	0.555227	2.50571	0.663443	2.98767	0.813613	3.66652	0.949828	4.28577
0.59471	2.67384	0.441035	1.95684	0.596581	2.67331	0.659143	2.96263	0.784215	3.52123	0.962826	4.32216	0.557008	2.50322	0.665353	2.98375	0.814784	3.65645	0.951268	4.2743
0.597051	2.67318	0.443017	1.95753	0.598921	2.67264	0.660806	2.95771	0.785888	3.51404	0.963874	4.30884	0.558788	2.50075	0.667266	2.97989	0.81596	3.64648	0.952709	4.26293
0.599391	2.6725	0.444997	1.95822	0.601258	2.67196	0.662473	2.95286	0.787564	3.50693	0.964926	4.29566	0.560568	2.4983	0.669183	2.97606	0.817141	3.63661	0.954152	4.25167
0.601727	2.67182	0.446977	1.95891	0.603591	2.67127	0.664144	2.94807	0.789244	3.49988	0.965983	4.2826	0.562348	2.49587	0.671104	2.97229	0.818327	3.62685	0.955597	4.2405
0.60406	2.67113	0.448956	1.95958	0.605922	2.67057	0.66582	2.94333	0.790925	3.49291	0.967044	4.26967	0.564128	2.49346	0.673027	2.96856	0.819519	3.6172	0.957042	4.22943
0.60639	2.67043	0.450934	1.96024	0.608249	2.66986	0.6675	2.93866	0.79261	3.48601	0.968109	4.25686	0.565908	2.49106	0.674953	2.96487	0.820715	3.60764	0.95849	4.21845
0.608716	2.66972	0.452912	1.9609	0.610573	2.66915	0.669185	2.93404	0.794298	3.47917	0.969179	4.24418	0.567688	2.48869	0.676883	2.96123	0.821917	3.59819	0.959938	4.20757
0.61104	2.669	0.454889	1.96154	0.612894	2.66842	0.670875	2.92948	0.795988	3.47241	0.970254	4.23162	0.569468	2.48634	0.678816	2.95763	0.823124	3.58884	0.961388	4.19679
0.613359	2.66828	0.456865	1.96218	0.61521	2.66769	0.672569	2.92498	0.797681	3.4657	0.971333	4.21918	0.571248	2.48401	0.680751	2.95407	0.824336	3.57958	0.962839	4.1861
0.615676	2.66754	0.458841	1.96281	0.617524	2.66695	0.674268	2.92054	0.799376	3.45907	0.972416	4.20686	0.573028	2.48169	0.682689	2.95055	0.825553	3.57042	0.964291	4.1755
0.617988	2.66679	0.460816	1.96343	0.619833	2.66619	0.675973	2.91615	0.801074	3.4525	0.973504	4.19466	0.574808	2.4794	0.68463	2.94707	0.826776	3.56136	0.965745	4.16499
0.620296	2.66604	0.46279	1.96405	0.622138	2.66542	0.677683	2.91183	0.802774	3.44599	0.974596	4.18257	0.576589	2.47712	0.686573	2.94363	0.828003	3.55239	0.967199	4.15457
0.622601	2.66527	0.464763	1.96465	0.624439	2.66465	0.679398	2.90756	0.804477	3.43954	0.975693	4.1706	0.578369	2.47487	0.688519	2.94023	0.829236	3.54351	0.968655	4.14424
0.624901	2.66449	0.466735	1.96525	0.626736	2.66386	0.681118	2.90334	0.806183	3.43316	0.976794	4.15875	0.58015	2.47263	0.690468	2.93686	0.830474	3.53473	0.970112	4.13399
0.627197	2.6637	0.468707	1.96584	0.629029	2.66306	0.682844	2.89919	0.80789	3.42683	0.977899	4.147	0.581931	2.47041	0.692419	2.93354	0.831717	3.52604	0.971571	4.12384
0.629489	2.66289	0.470678	1.96643	0.631317	2.66224	0.684576	2.89509	0.8096	3.42057	0.979009	4.13537	0.583713	2.46821	0.694372	2.93025	0.832965	3.51743	0.97303	4.11376
0.631776	2.66208	0.472649	1.967	0.6336	2.66141	0.686314	2.89105	0.811313	3.41436	0.980124	4.12385	0.585495	2.46603	0.696328	2.92699	0.834218	3.50892	0.974491	4.10377
0.634058	2.66125	0.474618	1.96757	0.635879	2.66057	0.688058	2.88706	0.813027	3.40821	0.981243	4.11244	0.587277	2.46387	0.698286	2.92377	0.835477	3.5005	0.975952	4.09386
0.636336	2.6604	0.476587	1.96813	0.638152	2.65972	0.689808	2.88313	0.814744	3.40212	0.982366	4.10113	0.58906	2.46173	0.700246	2.92058	0.83674	3.49216	0.977415	4.08404
0.638609	2.65954	0.478555	1.96868	0.640421	2.65885	0.691564	2.87926	0.816463	3.39609	0.983494	4.08993	0.590843	2.4596	0.702208	2.91743	0.838009	3.48391	0.978879	4.07429
0.640876	2.65867	0.480523	1.96923	0.642684	2.65796	0.693327	2.87545	0.818184	3.39011	0.984626	4.07884	0.592627	2.4575	0.704172	2.91431	0.839283	3.47574	0.980344	4.06463
0.643138	2.65778	0.482489	1.96977	0.644942	2.65706	0.695097	2.87169	0.819907	3.38418	0.985763	4.06785	0.594411	2.45541	0.706138	2.91122	0.840562	3.46766	0.98181	4.05504
0.645395	2.65688	0.484455	1.9703	0.647195	2.65615	0.696873	2.86799	0.821632	3.37831	0.986904	4.05696	0.596195	2.45334	0.708105	2.90816	0.841846	3.45966	0.983277	4.04553
0.647646	2.65596	0.48642	1.97082	0.649441	2.65521	0.698656	2.86434	0.823359	3.3725	0.98805	4.04617	0.597981	2.45129	0.710075	2.90513	0.843136	3.45174	0.984745	4.0361
0.649892	2.65503	0.488385	1.97134	0.651682	2.65427	0.700446	2.86075	0.825089	3.36673	0.9892	4.03548	0.599766	2.44925	0.712046	2.90213	0.84443	3.4439	0.986214	4.02675
0.652132	2.65407	0.490349	1.97185	0.653917	2.6533	0.702243	2.85722	0.82682	3.36101	0.990354	4.02489	0.601553	2.44724	0.714019	2.89917	0.84573	3.43615	0.987684	4.01747
0.654365	2.6531	0.492312	1.97236	0.656146	2.65232	0.704048	2.85375	0.828552	3.35535	0.991513	4.0144	0.60334	2.44524	0.715993	2.89623	0.847035	3.42847	0.989155	4.00826
0.656593	2.65212	0.494274	1.97285	0.658369	2.65132	0.70586	2.85033	0.830287	3.34974	0.992677	4.00401	0.605128	2.44326	0.717969	2.89331	0.848345	3.42088	0.990626	3.99912
0.658814	2.65111	0.496235	1.97334	0.660585	2.6503	0.70768	2.84696	0.832024	3.34417	0.993845	3.99371	0.606916	2.4413	0.719946	2.89043	0.849661	3.41336	0.992099	3.99006
0.661029	2.65009	0.498196	1.97383	0.662795	2.64926	0.709507	2.84366	0.833762	3.33866	0.995017	3.98351	0.608705	2.43935	0.721925	2.88757	0.850981	3.40591	0.993573	3.98107
0.663238	2.64905	0.500156	1.97431	0.664998	2.6482	0.711343	2.84041	0.835502	3.33319	0.996194	3.9734	0.610495	2.43742	0.723904	2.88474	0.852307	3.39855	0.995047	3.97215
0.665439	2.64799	0.502116	1.97478	0.667194	2.64713	0.713186	2.83721	0.837244	3.32777	0.997375	3.96338	0.612286	2.43551	0.725886	2.88194	0.853638	3.39125	0.996522	3.9633
0.667634	2.64691	0.504074	1.97524	0.669383	2.64603	0.715038	2.83408	0.838987	3.32239	0.998561	3.95346	0.614077	2.43362	0.727868	2.87915	0.854974	3.38404	0.997999	3.95452
0.669822	2.64581	0.506032	1.9757	0.671565	2.64492	0.716898	2.83099	0.840732	3.31707	0.999751	3.94362	0.615869	2.43174	0.729851	2.8764	0.856316	3.37689	0.999476	3.9458
0.672003	2.64469	0.507989	1.97616	0.67374	2.64378	0.718766	2.82797	0.842479	3.31178	1.00095	3.93388	0.617662	2.42988	0.731835	2.87367	0.857662	3.36982	1.00095	3.93715
0.674176	2.64355	0.509946	1.9766	0.675908	2.64263	0.720643	2.825	0.844227	3.30654			0.619456	2.42804	0.733821	2.87096	0.859014	3.36282		
0.676342	2.64239	0.511901	1.97704	0.678068	2.64145	0.722529	2.82208	0.845976	3.30135			0.621251	2.42622	0.735807	2.86828	0.860371	3.3559		
0.678501	2.64121	0.513856	1.97748	0.680221	2.64025	0.724424	2.81922	0.847727	3.2962			0.623047	2.42441	0.737794	2.86561	0.861734	3.34904		
0.680652	2.64001	0.515811	1.97791	0.682366	2.63904	0.726327	2.81642	0.84948	3.29109			0.624843	2.42262	0.739782	2.86297	0.863101	3.34225		
0.682796	2.63879	0.517764	1.97833	0.684503	2.6378	0.72824	2.81367	0.851234	3.28602			0.626641	2.42084	0.74177	2.86036	0.864474	3.33554		
0.684932	2.63755	0.519717	1.97875	0.686633	2.63654	0.730161	2.81097	0.852989	3.281			0.628439	2.41908	0.743759	2.85776	0.865852	3.32889		
0.68706	2.63628	0.521669	1.97916	0.688754	2.63526	0.732092	2.80833	0.854745	3.27601			0.630239	2.41734	0.745749	2.85518	0.867236	3.3223		
0.68918	2.635	0.523621	1.97956	0.690868	2.63395	0.734032	2.80575	0.856503	3.27107			0.632039	2.41561	0.747739	2.85263	0.868624	3.31579		
0.691292	2.63369	0.525571	1.97997	0.692974	2.63263	0.735981	2.80322	0.858262	3.26617			0.633841	2.4139	0.749729	2.85009	0.870018	3.30934		
0.693396	2.63236	0.527521	1.98036	0.695071	2.63129	0.73794	2.80074	0.860022	3.2613			0.635643	2.41221	0.75172	2.84757	0.871418	3.30296		
0.695492	2.63101	0.529471	1.98075	0.697161	2.62992	0.739908	2.79831	0.861784	3.25648			0.637446	2.41053	0.753712	2.84507	0.872822	3.29664		
0.69758	2.62964	0.531419	1.98113	0.699242	2.62853	0.741886	2.79594	0.863546	3.25169			0.639251	2.40886	0.755703	2.84259	0.874232	3.29039		
0.69966	2.62825	0.533367	1.98151	0.701316	2.62713	0.743873	2.79362	0.86531	3.24694			0.641057	2.40722	0.757695	2.84013	0.875647	3.2842		
0.701731	2.62684	0.535314	1.98189	0.703381	2.6257	0.745869	2.79135	0.867075	3.24223			0.642863	2.40558	0.759687	2.83769	0.877068	3.27807		
0.703795	2.62541	0.537261	1.98226	0.705438	2.62425	0.747875	2.78913	0.868841	3.23755			0.644671	2.40397	0.761679	2.83526	0.878494	3.272		
0.70585	2.62396	0.539206	1.98262	0.707487	2.62278	0.74989	2.78696	0.870608	3.23291			0.64648	2.40237	0.763671	2.83285	0.879925	3.266		
0.707897	2.62249	0.541151	1.98298	0.709528	2.62129	0.751915	2.78485	0.872376	3.22831			0.64829	2.40078	0.765663	2.83046	0.881361	3.26006		
0.709937	2.62099	0.543096	1.98333	0.71156	2.61979	0.75395	2.78278	0.874144	3.22374			0.650101	2.39921	0.767655	2.82808	0.882803	3.25418		
0.711968	2.61948	0.545039	1.98368	0.713585	2.61826	0.755993	2.78076	0.875914	3.2192			0.651913	2.39765	0.769646	2.82572	0.884251	3.24836		
0.713991	2.61795	0.546982	1.98402	0.715602	2.61672	0.758046	2.77879	0.877685	3.2147			0.653727	2.39611	0.771638	2.82338	0.885703	3.24259		
0.716006	2.6164	0.548925	1.98436	0.717611	2.61515	0.760108	2.77686	0.879456	3.21024			0.655541	2.39459	0.773629	2.82104	0.887161	3.23689		
0.718014	2.61484	0.550866	1.9847	0.719612	2.61357	0.76218	2.77498	0.881229	3.2058			0.657357	2.39307	0.77562	2.81873	0.888625	3.23125		
0.720013	2.61325	0.552807	1.98503	0.721606	2.61197	0.76426	2.77315	0.883002	3.2014			0.659174	2.39158	0.777611	2.81643	0.890093	3.22566		
0.722005	2.61165	0.554747	1.98535	0.723592	2.61036	0.76635	2.77137	0.884776	3.19704			0.660992	2.39009	0.779601	2.81414	0.891568	3.22013		
0.72399	2.61003	0.556687	1.98567	0.72557	2.60873	0.768448	2.76962	0.886551	3.1927			0.662811	2.38862	0.781591	2.81186	0.893047	3.21466		
0.725966	2.6084	0.558626	1.98599	0.727541	2.60708	0.770555	2.76792	0.888326	3.1884			0.664632	2.38717	0.78358	2.8096	0.894532	3.20924		
0.727936	2.60675	0.560564	1.9863	0.729505	2.60542	0.772671	2.76626	0.890102	3.18412			0.666454	2.38573	0.785568	2.80735	0.896023	3.20388		
0.729898	2.60508	0.562501	1.98661	0.731461	2.60374	0.774796	2.76465	0.891879	3.17988			0.668277	2.3843	0.787556	2.80512	0.897519	3.19857		
0.731853	2.6034	0.564438	1.98691	0.733411	2.60205	0.776928	2.76307	0.893657	3.17567			0.670101	2.38289	0.789544	2.8029	0.89902	3.19332		
0.733802	2.60171	0.566374	1.98721	0.735354	2.60035	0.779069	2.76154	0.895435	3.17149			0.671926	2.38149	0.79153	2.80068	0.900527	3.18812		
0.735743	2.6	0.56831	1.9875	0.737289	2.59863	0.781219	2.76004	0.897214	3.16734			0.673753	2.38011	0.793516	2.79848	0.902039	3.18297		
0.737678	2.59829	0.570245	1.98779	0.739219	2.59691	0.783376	2.75858	0.898993	3.16321			0.675581	2.37874	0.795501	2.7963	0.903557	3.17788		
0.739606	2.59656	0.572179	1.98808	0.741142	2.59517	0.785541	2.75716	0.900773	3.15912			0.67741	2.37738	0.797485	2.79412	0.90508	3.17284		
0.741528	2.59482	0.574113	1.98836	0.743059	2.59342	0.787713	2.75577	0.902553	3.15505			0.679241	2.37603	0.799468	2.79195	0.906608	3.16785		
0.743443	2.59307	0.576045	1.98863	0.74497	2.59166	0.789893	2.75442	0.904334	3.15102			0.681073	2.3747	0.80145	2.7898	0.908142	3.16292		
0.745353	2.59131	0.577978	1.98891	0.746874	2.58989	0.792081	2.7531	0.906115	3.14701			0.682906	2.37338	0.803431	2.78766	0.909682	3.15803		
0.747256	2.58954	0.579909	1.98918	0.748773	2.58812	0.794275	2.75182	0.907897	3.14302			0.68474	2.37208	0.805412	2.78552	0.911227	3.1532		
0.749154	2.58776	0.58184	1.98944	0.750667	2.58633	0.796477	2.75057	0.909679	3.13907			0.686576	2.37078	0.807391	2.7834	0.912778	3.14841		
0.751047	2.58597	0.58377	1.9897	0.752555	2.58454	0.798685	2.74935	0.911462	3.13514			0.688413	2.3695	0.809368	2.78128	0.914334	3.14368		
0.752933	2.58418	0.5857	1.98996	0.754437	2.58274	0.8009	2.74816	0.913245	3.13124			0.690251	2.36824	0.811345	2.77918	0.915895	3.13899		
0.754815	2.58238	0.587629	1.99022	0.756315	2.58094	0.803121	2.747	0.915028	3.12736			0.69209	2.36698	0.81332	2.77708	0.917462	3.13435		
0.756692	2.58057	0.589558	1.99047	0.758188	2.57913	0.805349	2.74587	0.916812	3.12351			0.693931	2.36574	0.815294	2.77499	0.919035	3.12976		
0.758564	2.57876	0.591485	1.99071	0.760056	2.57731	0.807583	2.74477	0.918596	3.11969			0.695774	2.36451	0.817267	2.77291	0.920613	3.12522		
0.760431	2.57695	0.593413	1.99096	0.761919	2.57549	0.809823	2.74369	0.920381	3.11589			0.697617	2.36329	0.819238	2.77084	0.922197	3.12073		
0.762293	2.57513	0.595339	1.9912	0.763778	2.57367	0.812068	2.74264	0.922165	3.11212			0.699462	2.36209	0.821208	2.76878	0.923786	3.11628		
0.764151	2.57331	0.597265	1.99143	0.765633	2.57185	0.814319	2.74162	0.92395	3.10837			0.701308	2.36089	0.823177	2.76673	0.925381	3.11188		
0.766005	2.57148	0.59919	1.99166	0.767483	2.57002	0.816576	2.74062	0.925735	3.10464			0.703155	2.35971	0.825144	2.76468	0.926981	3.10752		
0.767855	2.56965	0.601115	1.99189	0.76933	2.56819	0.818838	2.73964	0.927521	3.10094			0.705004	2.35854	0.827109	2.76264	0.928587	3.10321		
0.7697	2.56782	0.603039	1.99212	0.771173	2.56636	0.821105	2.73869	0.929307	3.09726			0.706854	2.35738	0.829073	2.76061	0.930198	3.09895		
0.771542	2.56599	0.604963	1.99234	0.773012	2.56453	0.823377	2.73776	0.931092	3.09361			0.708706	2.35623	0.831036	2.75859	0.931815	3.09473		
0.773381	2.56416	0.606885	1.99256	0.774847	2.5627	0.825654	2.73685	0.932879	3.08998			0.710558	2.3551	0.832996	2.75657	0.933437	3.09056		
0.775216	2.56233	0.608808	1.99277	0.776679	2.56087	0.827935	2.73597	0.934665	3.08637			0.712412	2.35397	0.834956	2.75456	0.935065	3.08642		
0.777047	2.5605	0.610729	1.99299	0.778508	2.55904	0.830221	2.7351	0.936451	3.08278			0.714268	2.35286	0.836913	2.75256	0.936699	3.08234		
0.778875	2.55867	0.612651	1.9932	0.780334	2.55721	0.832511	2.73425	0.938238	3.07922			0.716125	2.35176	0.838868	2.75056	0.938338	3.07829		
0.780701	2.55684	0.614571	1.9934	0.782157	2.55538	0.834806	2.73342	0.940024	3.07568			0.717983	2.35067	0.840822	2.74857	0.939982	3.07429		
0.782523	2.55501	0.616491	1.9936	0.783977	2.55355	0.837104	2.73261	0.941811	3.07216			0.719842	2.34959	0.842774	2.74659	0.941632	3.07033		
0.784343	2.55319	0.61841	1.9938	0.785795	2.55173	0.839407	2.73182	0.943598	3.06866			0.721703	2.34852	0.844725	2.74461	0.943287	3.06641		
0.78616	2.55136	0.620329	1.994	0.787609	2.54991	0.841713	2.73104	0.945385	3.06519			0.723565	2.34746	0.846673	2.74264	0.944948	3.06254		
0.787974	2.54954	0.622247	1.99419	0.789422	2.54809	0.844023	2.73029	0.947172	3.06173			0.725428	2.34642	0.848619	2.74067	0.946615	3.0587		
0.789786	2.54772	0.624165	1.99439	0.791232	2.54627	0.846336	2.72954	0.94896	3.0583			0.727293	2.34538	0.850564	2.73871	0.948287	3.05491		
0.791595	2.54591	0.626082	1.99457	0.79304	2.54446	0.848653	2.72881	0.950747	3.05489			0.729159	2.34435	0.852507	2.73675	0.949964	3.05115		
0.793403	2.5441	0.627999	1.99476	0.794845	2.54265	0.850973	2.7281	0.952534	3.05149			0.731026	2.34334	0.854447	2.7348	0.951647	3.04744		
0.795208	2.54229	0.629915	1.99494	0.796649	2.54085	0.853296	2.7274	0.954321	3.04812			0.732895	2.34233	0.856386	2.73286	0.953336	3.04377		
0.797011	2.54049	0.63183	1.99512	0.798451	2.53905	0.855623	2.72672	0.956109	3.04477			0.734765	2.34134	0.858323	2.73092	0.95503	3.04013		
0.798813	2.53869	0.633745	1.9953	0.800251	2.53726	0.857952	2.72605	0.957896	3.04144			0.736636	2.34035	0.860258	2.72899	0.956729	3.03653		
0.800612	2.5369	0.635659	1.99547	0.802049	2.53547	0.860284	2.72539	0.959684	3.03813			0.738508	2.33938	0.86219	2.72706	0.958434	3.03298		
0.80241	2.53511	0.637573	1.99564	0.803846	2.53369	0.862618	2.72474	0.961471	3.03483			0.740382	2.33841	0.864121	2.72513	0.960144	3.02946		
0.804207	2.53333	0.639487	1.99581	0.805641	2.53191	0.864955	2.72411	0.963259	3.03156			0.742257	2.33745	0.86605	2.72321	0.96186	3.02597		
0.806002	2.53156	0.641399	1.99597	0.807435	2.53014	0.867295	2.72348	0.965046	3.02831			0.744134	2.33651	0.867976	2.7213	0.963581	3.02253		
0.807795	2.52979	0.643311	1.99614	0.809227	2.52838	0.869637	2.72287	0.966834	3.02507			0.746012	2.33557	0.8699	2.71939	0.965307	3.01912		
0.809587	2.52802	0.645223	1.9963	0.811019	2.52662	0.871981	2.72227	0.968622	3.02186			0.747891	2.33464	0.871823	2.71748	0.967039	3.01575		
0.811378	2.52627	0.647134	1.99646	0.812809	2.52487	0.874328	2.72168	0.970409	3.01866			0.749771	2.33373	0.873743	2.71558	0.968776	3.01241		
0.813168	2.52451	0.649045	1.99661	0.814598	2.52312	0.876676	2.7211	0.972197	3.01548			0.751653	2.33282	0.875661	2.71369	0.970518	3.00911		
0.814957	2.52277	0.650955	1.99677	0.816386	2.52138	0.879027	2.72053	0.973984	3.01232			0.753536	2.33192	0.877577	2.71179	0.972266	3.00585		
0.816745	2.52103	0.652865	1.99692	0.818173	2.51965	0.88138	2.71997	0.975772	3.00918			0.75542	2.33103	0.87949	2.7099	0.974019	3.00262		
0.818531	2.5193	0.654774	1.99706	0.819959	2.51793	0.883734	2.71941	0.977559	3.00605			0.757306	2.33015	0.881402	2.70802	0.975777	2.99943		
0.820317	2.51758	0.656683	1.99721	0.821744	2.51621	0.88609	2.71887	0.979347	3.00295			0.759192	2.32928	0.883311	2.70614	0.977541	2.99627		
0.822103	2.51587	0.658591	1.99735	0.823528	2.5145	0.888448	2.71833	0.981135	2.99986			0.761081	2.32841	0.885218	2.70426	0.979309	2.99314		
0.823887	2.51416	0.660498	1.9975	0.825312	2.5128	0.890807	2.7178	0.982922	2.99679			0.76297	2.32756	0.887123	2.70239	0.981083	2.99005		
0.825671	2.51246	0.662406	1.99763	0.827096	2.51111	0.893168	2.71728	0.98471	2.99373			0.764861	2.32672	0.889026	2.70052	0.982863	2.98699		
0.827454	2.51077	0.664312	1.99777	0.828878	2.50942	0.89553	2.71676	0.986498	2.9907			0.766753	2.32588	0.890926	2.69866	0.984647	2.98396		
0.829236	2.50908	0.666218	1.99791	0.83066	2.50774	0.897893	2.71626	0.988285	2.98768			0.768646	2.32505	0.892825	2.6968	0.986436	2.98097		
0.831018	2.50741	0.668124	1.99804	0.832442	2.50607	0.900258	2.71576	0.990073	2.98468			0.77054	2.32423	0.894721	2.69494	0.988231	2.978		
0.8328	2.50574	0.670029	1.99817	0.834224	2.50441	0.902624	2.71526	0.991861	2.98169			0.772436	2.32342	0.896614	2.69309	0.99003	2.97507		
0.834581	2.50408	0.671934	1.9983	0.836005	2.50276	0.904991	2.71477	0.993649	2.97872			0.774333	2.32262	0.898506	2.69124	0.991835	2.97218		
0.836362	2.50242	0.673839	1.99842	0.837785	2.50111	0.907359	2.71429	0.995437	2.97577			0.776231	2.32182	0.900396	2.68939	0.993644	2.96931		
0.838143	2.50078	0.675742	1.99855	0.839566	2.49947	0.909728	2.71381	0.997225	2.97283			0.77813	2.32103	0.902283	2.68755	0.995459	2.96647		
0.839923	2.49915	0.677646	1.99867	0.841346	2.49785	0.912098	2.71334	0.999013	2.96992			0.780031	2.32025	0.904168	2.68571	0.997278	2.96366		
0.841704	2.49752	0.679549	1.99879	0.843126	2.49623	0.914469	2.71288	1.0008	2.96701			0.781933	2.31948	0.906051	2.68388	0.999103	2.96089		
0.843484	2.4959	0.681451	1.99891	0.844906	2.49461	0.91684	2.71242					0.783836	2.31872	0.907932	2.68205	1.00093	2.95814		
0.845264	2.49429	0.683353	1.99902	0.846686	2.49301	0.919212	2.71196					0.78574	2.31796	0.90981	2.68022				
0.847044	2.49269	0.685255	1.99914	0.848466	2.49142	0.921585	2.71151					0.787646	2.31722	0.911687	2.6784				
0.848824	2.4911	0.687156	1.99925	0.850246	2.48983	0.923959	2.71106					0.789552	2.31648	0.913561	2.67658				
0.850603	2.48952	0.689057	1.99936	0.852026	2.48826	0.926333	2.71061					0.79146	2.31574	0.915433	2.67476				
0.852383	2.48794	0.690957	1.99947	0.853806	2.48669	0.928707	2.71017					0.793369	2.31502	0.917303	2.67295				
0.854163	2.48637	0.692857	1.99958	0.855586	2.48513	0.931082	2.70973					0.79528	2.3143	0.919171	2.67114				
0.855944	2.48482	0.694757	1.99968	0.857366	2.48358	0.933457	2.7093					0.797191	2.31359	0.921037	2.66933				
0.857724	2.48327	0.696656	1.99978	0.859147	2.48204	0.935833	2.70887					0.799104	2.31289	0.9229	2.66753				
0.859504	2.48173	0.698555	1.99989	0.860927	2.48051	0.938208	2.70844					0.801018	2.31219	0.924762	2.66573				
0.861285	2.4802	0.700453	1.99999	0.862708	2.47898	0.940584	2.70802					0.802933	2.3115	0.926621	2.66394				
0.863066	2.47868	0.702351	2.00008	0.864489	2.47747	0.94296	2.7076					0.804849	2.31082	0.928479	2.66215				
0.864847	2.47716	0.704248	2.00018	0.866271	2.47596	0.945336	2.70717					0.806766	2.31015	0.930334	2.66036				
0.866629	2.47566	0.706145	2.00028	0.868053	2.47447	0.947712	2.70676					0.808685	2.30948	0.932188	2.65858				
0.868411	2.47417	0.708042	2.00037	0.869835	2.47298	0.950088	2.70634					0.810604	2.30882	0.934039	2.6568				
0.870193	2.47268	0.709938	2.00046	0.871617	2.4715	0.952463	2.70593					0.812525	2.30816	0.935889	2.65502				
0.871975	2.4712	0.711834	2.00055	0.8734	2.47003	0.954839	2.70551					0.814447	2.30752	0.937736	2.65325				
0.873758	2.46973	0.71373	2.00064	0.875183	2.46857	0.957214	2.7051					0.81637	2.30688	0.939582	2.65148				
0.875542	2.46827	0.715625	2.00073	0.876967	2.46712	0.959589	2.70469					0.818294	2.30624	0.941425	2.64972				
0.877326	2.46682	0.71752	2.00081	0.878751	2.46567	0.961964	2.70428					0.820219	2.30561	0.943267	2.64796				
0.87911	2.46538	0.719414	2.0009	0.880536	2.46424	0.964338	2.70388					0.822146	2.30499	0.945107	2.6462				
0.880895	2.46395	0.721308	2.00098	0.882321	2.46281	0.966712	2.70347					0.824073	2.30438	0.946945	2.64445				
0.88268	2.46253	0.723202	2.00106	0.884107	2.46139	0.969085	2.70306					0.826002	2.30377	0.948781	2.6427				
0.884466	2.46111	0.725095	2.00114	0.885893	2.45999	0.971457	2.70266					0.827931	2.30316	0.950616	2.64096				
0.886252	2.45971	0.726988	2.00122	0.88768	2.45859	0.973829	2.70225					0.829862	2.30257	0.952449	2.63922				
0.888039	2.45831	0.728881	2.0013	0.889467	2.4572	0.9762	2.70185					0.831794	2.30198	0.95428	2.63748				
0.889826	2.45692	0.730773	2.00137	0.891255	2.45582	0.97857	2.70144					0.833727	2.30139	0.956109	2.63575				
0.891614	2.45554	0.732665	2.00145	0.893044	2.45444	0.98094	2.70103					0.835661	2.30081	0.957936	2.63402				
0.893403	2.45417	0.734556	2.00152	0.894833	2.45308	0.983308	2.70063					0.837596	2.30024	0.959762	2.6323				
0.895192	2.45281	0.736448	2.00159	0.896622	2.45172	0.985676	2.70022					0.839532	2.29967	0.961586	2.63058				
0.896982	2.45145	0.738339	2.00166	0.898413	2.45038	0.988042	2.69981					0.841469	2.29911	0.963409	2.62887				
0.898773	2.45011	0.740229	2.00173	0.900204	2.44904	0.990408	2.6994					0.843407	2.29855	0.96523	2.62716				
0.900564	2.44877	0.74212	2.0018	0.901996	2.44771	0.992772	2.69899					0.845346	2.298	0.967049	2.62545				
0.902356	2.44744	0.74401	2.00187	0.903788	2.44639	0.995135	2.69858					0.847287	2.29746	0.968867	2.62375				
0.904148	2.44612	0.745899	2.00193	0.905581	2.44507	0.997497	2.69817					0.849228	2.29692	0.970684	2.62205				
0.905942	2.44481	0.747789	2.002	0.907375	2.44377	0.999857	2.69776					0.85117	2.29639	0.972499	2.62036				
0.907736	2.44351	0.749678	2.00206	0.90917	2.44247	1.00222	2.69734					0.853113	2.29586	0.974312	2.61868				
0.90953	2.44221	0.751566	2.00212	0.910965	2.44119							0.855058	2.29534	0.976124	2.61699				
0.911326	2.44093	0.753455	2.00218	0.912761	2.43991							0.857003	2.29482	0.977935	2.61531				
0.913122	2.43965	0.755343	2.00224	0.914558	2.43864							0.858949	2.29431	0.979744	2.61364				
0.914919	2.43838	0.757231	2.0023	0.916355	2.43738							0.860896	2.2938	0.981552	2.61197				
0.916717	2.43712	0.759118	2.00236	0.918154	2.43612							0.862845	2.2933	0.983359	2.61031				
0.918515	2.43587	0.761006	2.00242	0.919953	2.43488							0.864794	2.2928	0.985164	2.60865				
0.920314	2.43463	0.762892	2.00247	0.921753	2.43364							0.866744	2.29231	0.986968	2.60699				
0.922114	2.43339	0.764779	2.00253	0.923553	2.43241							0.868695	2.29182	0.988771	2.60534				
0.923915	2.43216	0.766666	2.00258	0.925355	2.43119							0.870647	2.29134	0.990573	2.6037				
0.925717	2.43094	0.768552	2.00264	0.927157	2.42997							0.8726	2.29086	0.992373	2.60206				
0.927519	2.42973	0.770438	2.00269	0.92896	2.42877							0.874554	2.29039	0.994173	2.60042				
0.929322	2.42853	0.772323	2.00274	0.930764	2.42757							0.876509	2.28992	0.995971	2.5988				
0.931126	2.42733	0.774208	2.00279	0.932569	2.42638							0.878465	2.28946	0.997768	2.59717				
0.932931	2.42615	0.776094	2.00284	0.934374	2.4252							0.880422	2.289	0.999564	2.59555				
0.934737	2.42497	0.777978	2.00289	0.93618	2.42403							0.882379	2.28855	1.00136	2.59394				
0.936544	2.42379	0.779863	2.00293	0.937988	2.42286							0.884338	2.2881						
0.938351	2.42263	0.781747	2.00298	0.939796	2.42171							0.886297	2.28765						
0.940159	2.42147	0.783631	2.00303	0.941605	2.42056							0.888258	2.28721						
0.941968	2.42033	0.785515	2.00307	0.943414	2.41941							0.890219	2.28678						
0.943778	2.41918	0.787399	2.00312	0.945225	2.41828							0.892181	2.28634						
0.945589	2.41805	0.789282	2.00316	0.947037	2.41715							0.894144	2.28592						
0.947401	2.41693	0.791165	2.0032	0.948849	2.41603							0.896108	2.28549						
0.949213	2.41581	0.793048	2.00324	0.950662	2.41492							0.898073	2.28508						
0.951027	2.4147	0.794931	2.00328	0.952476	2.41382							0.900039	2.28466						
0.952841	2.41359	0.796813	2.00332	0.954291	2.41272							0.902005	2.28425						
0.954656	2.4125	0.798695	2.00336	0.956107	2.41163							0.903973	2.28384						
0.956472	2.41141	0.800577	2.0034	0.957924	2.41055							0.905941	2.28344						
0.958289	2.41033	0.802459	2.00344	0.959742	2.40947							0.90791	2.28304						
0.960107	2.40926	0.80434	2.00348	0.96156	2.4084							0.90988	2.28265						
0.961926	2.40819	0.806222	2.00351	0.96338	2.40734							0.91185	2.28226						
0.963745	2.40713	0.808103	2.00355	0.9652	2.40629							0.913822	2.28187						
0.965566	2.40608	0.809983	2.00358	0.967021	2.40524							0.915794	2.28149						
0.967388	2.40503	0.811864	2.00362	0.968844	2.4042							0.917767	2.28111						
0.96921	2.404	0.813745	2.00365	0.970667	2.40317							0.919741	2.28073						
0.971033	2.40297	0.815625	2.00369	0.972491	2.40215							0.921716	2.28036						
0.972857	2.40194	0.817505	2.00372	0.974316	2.40113							0.923691	2.27999						
0.974682	2.40092	0.819385	2.00375	0.976141	2.40012							0.925668	2.27963						
0.976508	2.39991	0.821264	2.00378	0.977968	2.39911							0.927645	2.27927						
0.978335	2.39891	0.823144	2.00381	0.979796	2.39811							0.929623	2.27891						
0.980163	2.39791	0.825023	2.00384	0.981624	2.39712							0.931601	2.27856						
0.981992	2.39693	0.826902	2.00387	0.983454	2.39614							0.933581	2.27821						
0.983821	2.39594	0.828781	2.0039	0.985284	2.39516							0.935561	2.27786						
0.985652	2.39497	0.83066	2.00393	0.987115	2.39419							0.937542	2.27752						
0.987483	2.394	0.832539	2.00396	0.988948	2.39323							0.939523	2.27718						
0.989316	2.39303	0.834417	2.00398	0.990781	2.39227							0.941506	2.27684						
0.991149	2.39208	0.836295	2.00401	0.992615	2.39132							0.943489	2.27651						
0.992983	2.39113	0.838173	2.00404	0.99445	2.39037							0.945473	2.27618						
0.994818	2.39018	0.840051	2.00406	0.996286	2.38943							0.947457	2.27585						
0.996654	2.38925	0.841929	2.00409	0.998122	2.3885							0.949442	2.27553						
0.998491	2.38832	0.843807	2.00411	0.99996	2.38758							0.951428	2.27521						
1.00033	2.38739	0.845684	2.00414	1.0018	2.38666							0.953415	2.27489						
		0.847561	2.00416									0.955403	2.27457						
		0.849438	2.00418									0.957391	2.27426						
		0.851315	2.00421									0.959379	2.27395						
		0.853192	2.00423									0.961369	2.27365						
		0.855069	2.00425									0.963359	2.27335						
		0.856945	2.00427									0.96535	2.27305						
		0.858822	2.00429									0.967341	2.27275						
		0.860698	2.00431									0.969333	2.27246						
		0.862574	2.00433									0.971326	2.27216						
		0.86445	2.00435									0.97332	2.27188						
		0.866326	2.00437									0.975314	2.27159						
		0.868201	2.00439									0.977309	2.27131						
		0.870077	2.00441									0.979304	2.27103						
		0.871952	2.00443									0.9813	2.27075						
		0.873828	2.00445									0.983297	2.27048						
		0.875703	2.00446									0.985294	2.2702						
		0.877578	2.00448									0.987292	2.26993						
		0.879453	2.0045									0.98929	2.26967						
		0.881327	2.00451									0.99129	2.2694						
		0.883202	2.00453									0.993289	2.26914						
		0.885077	2.00454									0.99529	2.26888						
		0.886951	2.00456									0.99729	2.26862						
		0.888825	2.00457									0.999292	2.26837						
		0.890699	2.00459									1.00129	2.26812						
		0.892574	2.0046																
		0.894448	2.00462																
		0.896321	2.00463																
		0.898195	2.00465																
		0.900069	2.00466																
		0.901942	2.00467																
		0.903816	2.00468																
		0.905689	2.0047																
		0.907562	2.00471																
		0.909436	2.00472																
		0.911309	2.00473																
		0.913182	2.00474																
		0.915055	2.00475																
		0.916927	2.00477																
		0.9188	2.00478																
		0.920673	2.00479																
		0.922545	2.0048																
		0.924418	2.00481																
		0.92629	2.00482																
		0.928162	2.00483																
		0.930035	2.00484																
		0.931907	2.00484																
		0.933779	2.00485																
		0.935651	2.00486																
		0.937523	2.00487																
		0.939394	2.00488																
		0.941266	2.00489																
		0.943138	2.00489																
		0.945009	2.0049																
		0.946881	2.00491																
		0.948752	2.00492																
		0.950624	2.00493																
		0.952495	2.00493																
		0.954366	2.00494																
		0.956238	2.00495																
		0.958109	2.00495																
		0.95998	2.00496																
		0.961851	2.00497																
		0.963722	2.00497																
		0.965593	2.00498																
		0.967464	2.00498																
		0.969335	2.00499																
		0.971205	2.00499																
		0.973076	2.005																
		0.974947	2.00501																
		0.976817	2.00501																
		0.978688	2.00502																
		0.980558	2.00502																
		0.982429	2.00503																
		0.984299	2.00503																
		0.986169	2.00503																
		0.98804	2.00504																
		0.98991	2.00504																
		0.99178	2.00505																
		0.99365	2.00505																
		0.99552	2.00506																
		0.99739	2.00506																
		0.99926	2.00506																
		1.00113	2.00507																
