Sym0		Asym0		Sym1		Sym2		Asym1		Asym3	
350  Points		351  Points		201  Points		141  Points		294  Points		146  Points	
Freq (MHz)	Vph (m/ms)	Freq (MHz)	Vph (m/ms)	Freq (MHz)	Vph (m/ms)	Freq (MHz)	Vph (m/ms)	Freq (MHz)	Vph (m/ms)	Freq (MHz)	Vph (m/ms)
0.00260078	9.01436	0.000239062	0.176748	0.459098	820.886	0.577351	6233.31	0.28868	1570.74	0.866007	2323.13
0.00869336	9.01391	0.00053695	0.264705	0.459031	371.627	0.57743	751.327	0.288791	335.917	0.86588	825.671
0.0147849	9.01319	0.0009528	0.352314	0.458914	240.129	0.577631	399.891	0.289044	188.225	0.865634	501.927
0.0208745	9.01209	0.00148515	0.439352	0.458749	177.326	0.577953	272.569	0.289439	130.876	0.865275	360.45
0.0269616	9.01061	0.0021326	0.525755	0.458537	140.528	0.578397	206.843	0.289975	100.425	0.864809	281.105
0.0330454	9.00878	0.00289326	0.611401	0.45828	116.348	0.578959	166.74	0.29065	81.5654	0.864244	230.318
0.0391248	9.00653	0.00376489	0.696158	0.45798	99.2415	0.579639	139.734	0.291463	68.7523	0.863589	195.015
0.0451994	9.00392	0.00474506	0.779922	0.457641	86.4987	0.580433	120.32	0.292412	59.4909	0.862854	169.047
0.0512682	9.0009	0.0058312	0.862611	0.457266	76.6369	0.581339	105.698	0.293494	52.4925	0.862047	149.139
0.0573304	8.9975	0.00702052	0.944143	0.456857	68.777	0.582354	94.2942	0.294707	47.0246	0.86118	133.391
0.0633851	8.99367	0.00830987	1.02442	0.456418	62.365	0.583475	85.1559	0.296048	42.6397	0.860259	120.62
0.0694314	8.98944	0.00969624	1.10339	0.455954	57.0341	0.584699	77.6722	0.297514	39.0493	0.859294	110.054
0.0754684	8.98478	0.0111762	1.18096	0.455468	52.5317	0.586022	71.4339	0.299101	36.0586	0.858293	101.168
0.0814953	8.97969	0.0127466	1.25712	0.454964	48.6787	0.587441	66.1561	0.300806	33.5318	0.857261	93.5898
0.0875108	8.97415	0.0144039	1.33179	0.454446	45.344	0.588952	61.6346	0.302626	31.3709	0.856206	87.0509
0.0935142	8.96816	0.0161449	1.40495	0.453919	42.4298	0.590552	57.7192	0.304557	29.5038	0.855133	81.3513
0.0995042	8.9617	0.0179658	1.47656	0.453386	39.8615	0.592237	54.2969	0.306595	27.876	0.854047	76.3392
0.10548	8.95476	0.0198635	1.54661	0.452851	37.5811	0.594004	51.281	0.308737	26.4455	0.852953	71.8975
0.11144	8.94732	0.0218346	1.61508	0.452318	35.5432	0.59585	48.6042	0.310979	25.1797	0.851855	67.9344
0.117383	8.93936	0.0238756	1.68196	0.451792	33.7113	0.597771	46.2129	0.313317	24.0526	0.850756	64.3766
0.123308	8.93087	0.0259833	1.74724	0.451277	32.0561	0.599765	44.0645	0.315747	23.0434	0.84966	61.1652
0.129214	8.92183	0.0281544	1.81093	0.450776	30.5535	0.601827	42.1241	0.318266	22.1354	0.848569	58.2522
0.135099	8.91222	0.030386	1.87304	0.450293	29.1837	0.603956	40.3635	0.32087	21.3145	0.847486	55.5981
0.140961	8.90201	0.0326749	1.93357	0.449832	27.9303	0.606149	38.7592	0.323555	20.5693	0.846413	53.17
0.146799	8.89119	0.0350182	1.99254	0.449397	26.7795	0.608402	37.2915	0.326318	19.8903	0.845353	50.9405
0.152612	8.87972	0.0374131	2.04996	0.448992	25.7194	0.610714	35.944	0.329156	19.2694	0.844307	48.8863
0.158397	8.86759	0.0398568	2.10587	0.448621	24.7402	0.613081	34.7028	0.332066	18.6997	0.843278	46.9877
0.164153	8.85475	0.0423467	2.16028	0.448287	23.8334	0.615502	33.556	0.335043	18.1755	0.842266	45.228
0.169878	8.84119	0.0448804	2.21321	0.447994	22.9916	0.617974	32.4934	0.338084	17.6918	0.841274	43.5925
0.175569	8.82687	0.0474553	2.2647	0.447746	22.2085	0.620496	31.5062	0.341188	17.2443	0.840302	42.0687
0.181224	8.81175	0.0500692	2.31478	0.447547	21.4785	0.623065	30.5869	0.34435	16.8292	0.839353	40.6457
0.186842	8.79581	0.0527198	2.36347	0.447401	20.7969	0.625679	29.7288	0.347567	16.4432	0.838426	39.314
0.192418	8.77899	0.0554052	2.4108	0.447311	20.1593	0.628337	28.9261	0.350838	16.0837	0.837524	38.0653
0.197952	8.76127	0.0581232	2.45681	0.447282	19.5621	0.631037	28.1737	0.354158	15.7479	0.836646	36.8921
0.203439	8.7426	0.060872	2.50153	0.447318	19.0019	0.633777	27.4671	0.357527	15.4338	0.835795	35.7879
0.208878	8.72293	0.0636498	2.54499	0.447422	18.4759	0.636555	26.8024	0.36094	15.1394	0.834972	34.747
0.214264	8.70222	0.0664548	2.58722	0.4476	17.9813	0.639371	26.176	0.364395	14.863	0.834176	33.7641
0.219595	8.68043	0.0692855	2.62826	0.447855	17.5159	0.642223	25.5848	0.367891	14.6029	0.833409	32.8348
0.224867	8.65751	0.0721402	2.66814	0.448191	17.0776	0.64511	25.0259	0.371424	14.358	0.832672	31.9548
0.230076	8.63341	0.0750176	2.70689	0.448614	16.6645	0.64803	24.4968	0.374992	14.1268	0.831966	31.1204
0.235219	8.60807	0.0779162	2.74455	0.449127	16.275	0.650981	23.9953	0.378594	13.9083	0.831291	30.3284
0.240292	8.58145	0.0808347	2.78113	0.449736	15.9074	0.653964	23.5193	0.382227	13.7015	0.830648	29.5756
0.245291	8.55351	0.0837719	2.81668	0.450445	15.5605	0.656977	23.0669	0.385889	13.5056	0.830037	28.8593
0.250212	8.52418	0.0867266	2.85123	0.451259	15.2329	0.660018	22.6365	0.389577	13.3196	0.82946	28.1771
0.25505	8.49343	0.0896976	2.8848	0.452182	14.9236	0.663087	22.2265	0.393291	13.1428	0.828918	27.5266
0.259801	8.4612	0.0926841	2.91743	0.45322	14.6314	0.666183	21.8355	0.397028	12.9747	0.82841	26.9058
0.264462	8.42747	0.0956849	2.94914	0.454376	14.3555	0.669305	21.4624	0.400787	12.8144	0.827938	26.3128
0.269028	8.39219	0.098699	2.97996	0.455657	14.095	0.672452	21.1058	0.404564	12.6616	0.827503	25.7459
0.273494	8.35534	0.101726	3.00992	0.457065	13.849	0.675623	20.7648	0.40836	12.5156	0.827104	25.2035
0.277857	8.31689	0.104764	3.03904	0.458605	13.6167	0.678817	20.4384	0.412171	12.376	0.826743	24.6841
0.282113	8.27683	0.107813	3.06735	0.460281	13.3976	0.682034	20.1257	0.415996	12.2424	0.826421	24.1863
0.286258	8.23514	0.110873	3.09488	0.462097	13.191	0.685272	19.8258	0.419835	12.1144	0.826137	23.709
0.29029	8.19185	0.113942	3.12165	0.464056	12.9961	0.688532	19.538	0.423684	11.9916	0.825894	23.251
0.294206	8.14696	0.11702	3.14768	0.466159	12.8125	0.691812	19.2617	0.427542	11.8736	0.82569	22.8112
0.298004	8.1005	0.119709	3.16979	0.468411	12.6396	0.695111	18.996	0.431408	11.7603	0.825528	22.3887
0.301682	8.05252	0.122005	3.18821	0.470811	12.4768	0.69843	18.7405	0.435281	11.6511	0.825407	21.9824
0.305238	8.00306	0.123907	3.20316	0.473361	12.3236	0.701766	18.4947	0.439158	11.546	0.825329	21.5917
0.308674	7.9522	0.125413	3.21481	0.47606	12.1795	0.705121	18.2578	0.443039	11.4447	0.825294	21.2156
0.311988	7.90002	0.126522	3.22327	0.478909	12.0442	0.708493	18.0296	0.446921	11.3468	0.825303	20.8535
0.315182	7.8466	0.127231	3.22865	0.481906	11.9169	0.711881	17.8095	0.450803	11.2523	0.825356	20.5046
0.318258	7.79206	0.128252	3.23631	0.485048	11.7975	0.715285	17.5971	0.454684	11.1609	0.825455	20.1684
0.321217	7.73649	0.129363	3.24457	0.488334	11.6853	0.718704	17.392	0.458563	11.0724	0.825599	19.8442
0.324064	7.68001	0.130874	3.25566	0.49176	11.58	0.722139	17.1939	0.462438	10.9866	0.825791	19.5315
0.3268	7.62276	0.132787	3.26949	0.495322	11.4811	0.725588	17.0023	0.466307	10.9034	0.826029	19.2297
0.329431	7.56486	0.135104	3.28591	0.499016	11.3883	0.729051	16.8171	0.470169	10.8227	0.826315	18.9384
0.33196	7.50643	0.137825	3.30474	0.502837	11.3012	0.732527	16.6379	0.474023	10.7443	0.82665	18.657
0.334393	7.4476	0.140952	3.32582	0.50678	11.2194	0.736017	16.4644	0.477868	10.668	0.827035	18.3852
0.336734	7.38851	0.144083	3.34634	0.51084	11.1425	0.739518	16.2963	0.481702	10.5937	0.82747	18.1226
0.338988	7.32927	0.147219	3.36632	0.515011	11.0703	0.743032	16.1335	0.485524	10.5214	0.827955	17.8687
0.341161	7.27	0.150358	3.38577	0.519287	11.0023	0.746558	15.9756	0.489332	10.4508	0.828492	17.6232
0.343258	7.21083	0.153501	3.40472	0.523663	10.9384	0.750095	15.8224	0.493126	10.382	0.829082	17.3858
0.345284	7.15185	0.156646	3.42317	0.528133	10.8782	0.753643	15.6738	0.496419	10.3233	0.829724	17.1561
0.347245	7.09316	0.159795	3.44114	0.532691	10.8214	0.757202	15.5295	0.499215	10.2741	0.83042	16.9338
0.349146	7.03486	0.162946	3.45865	0.537332	10.7678	0.760771	15.3893	0.501521	10.2341	0.83117	16.7186
0.350992	6.97704	0.166099	3.47571	0.542051	10.7172	0.76435	15.2532	0.503338	10.2029	0.831975	16.5104
0.352788	6.91976	0.169254	3.49234	0.546841	10.6693	0.767939	15.1208	0.504672	10.1801	0.832835	16.3087
0.354538	6.8631	0.172411	3.50854	0.551698	10.624	0.771536	14.9921	0.505524	10.1656	0.833752	16.1134
0.356247	6.80712	0.175569	3.52434	0.556616	10.581	0.775143	14.867	0.506748	10.1449	0.834725	15.9242
0.35792	6.75187	0.178729	3.53973	0.561592	10.5402	0.778759	14.7452	0.508075	10.1225	0.835756	15.7408
0.359559	6.6974	0.181889	3.55475	0.566621	10.5013	0.782384	14.6266	0.509875	10.0924	0.836845	15.5632
0.36117	6.64375	0.185051	3.56939	0.571698	10.4643	0.786016	14.5111	0.512145	10.0547	0.837992	15.3911
0.362754	6.59095	0.188214	3.58366	0.576158	10.4335	0.789657	14.3987	0.514879	10.0097	0.839199	15.2242
0.364317	6.53904	0.191377	3.59759	0.579984	10.4081	0.793307	14.2891	0.51807	9.9577	0.840465	15.0625
0.365861	6.48804	0.19454	3.61117	0.583164	10.3878	0.796964	14.1823	0.521709	9.89904	0.84179	14.9057
0.367388	6.43796	0.197704	3.62443	0.585688	10.3721	0.800628	14.0782	0.525323	9.84139	0.843176	14.7537
0.368903	6.38882	0.200868	3.63736	0.587549	10.3607	0.804301	13.9766	0.52891	9.7847	0.844623	14.6062
0.370406	6.34063	0.204032	3.64998	0.588742	10.3536	0.807981	13.8776	0.532471	9.72892	0.846131	14.4632
0.3719	6.29339	0.207196	3.6623	0.59046	10.3434	0.811668	13.7809	0.536003	9.67398	0.8477	14.3246
0.373388	6.24712	0.21036	3.67433	0.592331	10.3325	0.815364	13.6866	0.539506	9.61986	0.84933	14.19
0.374872	6.20181	0.213524	3.68607	0.594882	10.3179	0.819067	13.5945	0.542979	9.56649	0.851022	14.0595
0.376353	6.15745	0.216687	3.69753	0.598117	10.2998	0.822777	13.5046	0.546422	9.51383	0.852776	13.9329
0.377833	6.11405	0.21985	3.70873	0.602042	10.2785	0.826495	13.4168	0.549832	9.46186	0.854592	13.8101
0.379313	6.0716	0.223012	3.71966	0.606663	10.2543	0.830221	13.331	0.55321	9.41053	0.856469	13.6909
0.380796	6.03009	0.226174	3.73034	0.611985	10.2274	0.833955	13.2472	0.556554	9.3598	0.858408	13.5752
0.382282	5.98951	0.229335	3.74077	0.617325	10.2014	0.837698	13.1653	0.559865	9.30965	0.860409	13.4629
0.383772	5.94985	0.232495	3.75096	0.62268	10.1762	0.841448	13.0852	0.563141	9.26004	0.862471	13.354
0.385076	5.91603	0.235655	3.76092	0.628047	10.1518	0.845208	13.007	0.566381	9.21095	0.864595	13.2482
0.386191	5.88774	0.238813	3.77065	0.633424	10.1281	0.848976	12.9305	0.569586	9.16236	0.866779	13.1455
0.387116	5.86472	0.241971	3.78017	0.638808	10.105	0.852754	12.8556	0.572755	9.11423	0.869024	13.0458
0.387849	5.84675	0.245127	3.78947	0.644196	10.0824	0.856542	12.7825	0.575887	9.06656	0.871329	12.949
0.388389	5.83367	0.248283	3.79856	0.649588	10.0603	0.86034	12.711	0.578982	9.01931	0.873693	12.855
0.388736	5.82535	0.251437	3.80744	0.654979	10.0388	0.864148	12.641	0.582041	8.97248	0.876116	12.7638
0.389235	5.81348	0.254591	3.81614	0.660368	10.0176	0.867968	12.5725	0.585062	8.92604	0.878598	12.6751
0.389778	5.80068	0.257743	3.82463	0.665753	9.99676	0.871799	12.5056	0.588045	8.87998	0.881136	12.589
0.390519	5.78345	0.260894	3.83295	0.671132	9.97627	0.875643	12.4401	0.590991	8.83429	0.883732	12.5053
0.391459	5.76194	0.264044	3.84108	0.676502	9.95606	0.8795	12.3761	0.593899	8.78897	0.886384	12.424
0.392601	5.73635	0.267192	3.84904	0.681861	9.93609	0.88337	12.3134	0.59677	8.74399	0.88909	12.3449
0.393947	5.70691	0.27034	3.85682	0.687208	9.91634	0.887256	12.2521	0.599604	8.69935	0.89185	12.2681
0.395503	5.67389	0.273485	3.86444	0.69254	9.89675	0.891156	12.1922	0.6024	8.65504	0.894664	12.1935
0.39707	5.64166	0.27663	3.87189	0.697856	9.8773	0.895073	12.1336	0.60516	8.61107	0.897529	12.1209
0.398648	5.61021	0.279773	3.87918	0.703152	9.85796	0.899006	12.0763	0.607882	8.56741	0.900445	12.0502
0.400239	5.57953	0.282915	3.88633	0.708429	9.8387	0.902958	12.0202	0.610569	8.52407	0.903411	11.9815
0.401843	5.54959	0.286056	3.89332	0.713682	9.81948	0.906929	11.9654	0.61322	8.48105	0.906425	11.9147
0.403459	5.52038	0.289195	3.90016	0.718911	9.80029	0.910919	11.9118	0.615836	8.43834	0.909486	11.8497
0.405089	5.49189	0.292332	3.90686	0.724114	9.78109	0.914931	11.8595	0.618417	8.39595	0.912592	11.7863
0.406732	5.46409	0.295469	3.91343	0.729288	9.76185	0.918964	11.8083	0.620964	8.35386	0.915744	11.7247
0.408389	5.43698	0.298603	3.91985	0.734432	9.74256	0.92302	11.7583	0.623477	8.31209	0.918938	11.6646
0.410059	5.41053	0.301737	3.92615	0.739544	9.72319	0.927101	11.7094	0.625957	8.27063	0.922174	11.6061
0.411744	5.38474	0.304868	3.93231	0.744622	9.70371	0.931206	11.6617	0.628405	8.22948	0.925451	11.5491
0.413443	5.35958	0.307999	3.93835	0.749663	9.68411	0.935338	11.6152	0.630822	8.18865	0.928766	11.4936
0.415156	5.33504	0.311128	3.94427	0.754667	9.66437	0.939497	11.5697	0.633208	8.14813	0.932119	11.4394
0.416883	5.31111	0.314255	3.95007	0.759631	9.64446	0.943685	11.5253	0.635564	8.10793	0.935508	11.3865
0.418625	5.28776	0.317381	3.95576	0.764554	9.62437	0.947902	11.482	0.637892	8.06805	0.938931	11.3349
0.420381	5.26499	0.320506	3.96133	0.769434	9.60408	0.952149	11.4398	0.640191	8.02849	0.941941	11.291
0.422152	5.24279	0.323629	3.96679	0.774269	9.58357	0.956427	11.3987	0.642462	7.98925	0.944526	11.2542
0.423937	5.22113	0.32675	3.97214	0.779057	9.56283	0.960738	11.3585	0.644708	7.95035	0.946676	11.2243
0.425737	5.20001	0.32987	3.97738	0.783798	9.54185	0.964521	11.3244	0.646927	7.91178	0.948384	11.2009
0.427551	5.17941	0.332989	3.98253	0.788488	9.52061	0.967766	11.2959	0.649122	7.87353	0.949644	11.1839
0.42938	5.15931	0.336105	3.98757	0.793128	9.49911	0.970464	11.2728	0.651294	7.83563	0.950453	11.1731
0.431223	5.13971	0.339221	3.99252	0.797715	9.47732	0.972607	11.2547	0.653442	7.79806	0.951618	11.1577
0.43308	5.1206	0.342335	3.99737	0.802248	9.45525	0.974187	11.2416	0.655568	7.76084	0.952887	11.1411
0.434951	5.10195	0.345448	4.00213	0.806726	9.43288	0.975201	11.2333	0.657674	7.72396	0.954619	11.1186
0.436837	5.08376	0.348559	4.00679	0.811148	9.41021	0.976662	11.2214	0.659759	7.68742	0.956818	11.0906
0.438737	5.06602	0.351668	4.01137	0.815512	9.38724	0.978254	11.2086	0.661825	7.65124	0.959491	11.0572
0.440651	5.04871	0.354776	4.01586	0.819819	9.36395	0.980427	11.1914	0.663873	7.6154	0.962642	11.0188
0.442578	5.03183	0.357883	4.02026	0.824066	9.34036	0.983187	11.17	0.665903	7.57992	0.96628	10.9755
0.444519	5.01536	0.360988	4.02459	0.828254	9.31645	0.986543	11.1445	0.667917	7.54479	0.96994	10.9331
0.446475	4.99929	0.364092	4.02883	0.832382	9.29223	0.990505	11.1153	0.669915	7.51002	0.973619	10.8916
0.448443	4.98362	0.367194	4.03299	0.836449	9.26771	0.995087	11.0827	0.671898	7.47561	0.977317	10.8509
0.450425	4.96832	0.370295	4.03708	0.840456	9.24287	0.999705	11.0509	0.673867	7.44155	0.981031	10.811
0.45242	4.9534	0.373394	4.04109	0.844401	9.21774	1.00436	11.0201	0.675822	7.40785	0.984761	10.7719
0.454429	4.93884	0.376492	4.04503	0.848285	9.19231			0.677766	7.37451	0.988506	10.7335
0.45645	4.92464	0.379588	4.04889	0.852108	9.1666			0.679697	7.34153	0.992262	10.6958
0.458485	4.91077	0.382683	4.05269	0.85587	9.14061			0.681617	7.30892	0.99603	10.6587
0.460532	4.89724	0.385777	4.05641	0.859571	9.11434			0.683527	7.27666	0.999807	10.6223
0.462592	4.88404	0.388869	4.06007	0.863212	9.08782			0.685428	7.24476	1.00359	10.5865
0.464664	4.87116	0.39196	4.06366	0.866794	9.06105			0.68732	7.21322		
0.466748	4.85859	0.395049	4.06719	0.870317	9.03404			0.689204	7.18205		
0.468845	4.84631	0.398137	4.07065	0.873781	9.0068			0.69108	7.15123		
0.470954	4.83433	0.401224	4.07406	0.877187	8.97935			0.692949	7.12077		
0.473075	4.82264	0.404309	4.0774	0.880537	8.95171			0.694812	7.09066		
0.475207	4.81123	0.407393	4.08068	0.883832	8.92388			0.69667	7.06091		
0.477351	4.80008	0.410476	4.08391	0.887071	8.89588			0.698522	7.03151		
0.479506	4.78921	0.413557	4.08708	0.890257	8.86772			0.70037	7.00247		
0.481673	4.77859	0.416637	4.0902	0.893391	8.83942			0.702214	6.97378		
0.483851	4.76822	0.419715	4.09326	0.896473	8.81099			0.704054	6.94543		
0.486039	4.75809	0.422792	4.09626	0.899505	8.78244			0.705892	6.91744		
0.488239	4.74821	0.425868	4.09922	0.902488	8.7538			0.707727	6.88978		
0.490449	4.73855	0.428943	4.10212	0.905424	8.72507			0.70956	6.86247		
0.49267	4.72912	0.432016	4.10498	0.908314	8.69627			0.711392	6.8355		
0.494901	4.71992	0.435088	4.10779	0.911158	8.66742			0.713222	6.80887		
0.497142	4.71093	0.438158	4.11055	0.913959	8.63852			0.715052	6.78257		
0.499394	4.70214	0.441228	4.11326	0.916717	8.60958			0.716881	6.7566		
0.501655	4.69356	0.444296	4.11593	0.919434	8.58063			0.718711	6.73096		
0.503926	4.68519	0.447363	4.11855	0.922111	8.55167			0.72054	6.70565		
0.506207	4.677	0.450428	4.12112	0.92475	8.52272			0.722371	6.68067		
0.508498	4.669	0.453493	4.12366	0.927352	8.49378			0.724203	6.656		
0.510797	4.66119	0.456556	4.12615	0.929917	8.46488			0.726036	6.63165		
0.513106	4.65356	0.459618	4.1286	0.932448	8.43601			0.727871	6.60762		
0.515424	4.6461	0.462678	4.13101	0.934945	8.40719			0.729708	6.5839		
0.517751	4.63881	0.465738	4.13339	0.93741	8.37843			0.731548	6.56048		
0.520087	4.63169	0.468796	4.13572	0.939843	8.34974			0.73339	6.53737		
0.522431	4.62473	0.471853	4.13801	0.942247	8.32112			0.735235	6.51457		
0.524784	4.61793	0.474909	4.14027	0.944622	8.29259			0.737083	6.49206		
0.527146	4.61128	0.477963	4.14249	0.946969	8.26416			0.738934	6.46985		
0.529516	4.60478	0.481017	4.14467	0.949289	8.23583			0.740789	6.44793		
0.531893	4.59843	0.484069	4.14682	0.951583	8.2076			0.742648	6.4263		
0.534279	4.59222	0.48712	4.14894	0.953853	8.17949			0.74451	6.40496		
0.536673	4.58615	0.490171	4.15102	0.956099	8.15151			0.746377	6.38389		
0.539075	4.58022	0.493219	4.15307	0.958323	8.12365			0.748248	6.36311		
0.541484	4.57442	0.496267	4.15508	0.960524	8.09592			0.750124	6.3426		
0.543901	4.56875	0.499314	4.15706	0.962705	8.06834			0.752004	6.32237		
0.546325	4.5632	0.502359	4.15902	0.964866	8.0409			0.753889	6.3024		
0.548756	4.55778	0.505404	4.16094	0.967008	8.01361			0.755779	6.2827		
0.551195	4.55247	0.508447	4.16283	0.969132	7.98647			0.757675	6.26327		
0.553641	4.54729	0.511489	4.16469	0.971238	7.95949			0.759575	6.24409		
0.556093	4.54222	0.514531	4.16652	0.973327	7.93267			0.761481	6.22517		
0.558553	4.53726	0.517571	4.16832	0.975401	7.90602			0.763392	6.2065		
0.561019	4.5324	0.52061	4.17009	0.977459	7.87954			0.76531	6.18808		
0.563492	4.52766	0.523648	4.17184	0.979503	7.85322			0.767232	6.1699		
0.565971	4.52302	0.526684	4.17356	0.981533	7.82708			0.769161	6.15197		
0.568457	4.51848	0.52972	4.17525	0.98355	7.80112			0.771095	6.13428		
0.57095	4.51403	0.532755	4.17692	0.985555	7.77533			0.773036	6.11683		
0.573448	4.50969	0.535789	4.17856	0.987548	7.74973			0.774982	6.09961		
0.575952	4.50543	0.538822	4.18018	0.989529	7.72431			0.776935	6.08262		
0.578463	4.50127	0.541853	4.18177	0.9915	7.69907			0.778894	6.06585		
0.580979	4.4972	0.544884	4.18334	0.993461	7.67402			0.780859	6.04931		
0.583502	4.49321	0.547914	4.18488	0.995412	7.64916			0.78283	6.033		
0.58603	4.48931	0.550942	4.1864	0.997355	7.62448			0.784808	6.0169		
0.588563	4.4855	0.55397	4.1879	0.999289	7.59999			0.786793	6.00101		
0.591103	4.48176	0.556997	4.18937	1.00121	7.5757			0.788783	5.98534		
0.593647	4.47811	0.560023	4.19083					0.790781	5.96988		
0.596197	4.47453	0.563047	4.19226					0.792785	5.95462		
0.598753	4.47103	0.566071	4.19366					0.794795	5.93957		
0.601313	4.4676	0.569094	4.19505					0.796812	5.92471		
0.603879	4.46424	0.572116	4.19642					0.798836	5.91006		
0.60645	4.46095	0.575137	4.19777					0.800867	5.8956		
0.609025	4.45774	0.578157	4.19909					0.802904	5.88133		
0.611606	4.45459	0.581176	4.2004					0.804948	5.86726		
0.614191	4.4515	0.584194	4.20169					0.806999	5.85337		
0.616781	4.44848	0.587211	4.20295					0.809056	5.83966		
0.619376	4.44552	0.590227	4.2042					0.811121	5.82613		
0.621975	4.44262	0.593243	4.20543					0.813192	5.81279		
0.624579	4.43979	0.596257	4.20665					0.81527	5.79962		
0.627187	4.43701	0.599271	4.20784					0.817354	5.78663		
0.629799	4.43429	0.602284	4.20902					0.819446	5.7738		
0.632416	4.43162	0.605295	4.21018					0.821544	5.76115		
0.635037	4.42901	0.608306	4.21132					0.823649	5.74866		
0.637662	4.42645	0.611316	4.21245					0.825761	5.73634		
0.640292	4.42395	0.614326	4.21356					0.827879	5.72418		
0.642925	4.42149	0.617334	4.21466					0.830005	5.71218		
0.645562	4.41909	0.620341	4.21573					0.832137	5.70034		
0.648203	4.41673	0.623348	4.2168					0.834276	5.68865		
0.650848	4.41442	0.626354	4.21784					0.836421	5.67711		
0.653497	4.41216	0.629359	4.21888					0.838574	5.66573		
0.656149	4.40994	0.632363	4.21989					0.840733	5.65449		
0.658805	4.40777	0.635366	4.2209					0.842898	5.64341		
0.661465	4.40564	0.638368	4.22188					0.845071	5.63246		
0.664128	4.40355	0.64137	4.22286					0.84725	5.62166		
0.666795	4.40151	0.644371	4.22382					0.849435	5.611		
0.669465	4.3995	0.647371	4.22476					0.851628	5.60047		
0.672138	4.39754	0.65037	4.2257					0.853827	5.59008		
0.674815	4.39561	0.653368	4.22662					0.856032	5.57983		
0.677495	4.39372	0.656366	4.22752					0.858244	5.56971		
0.680178	4.39187	0.659363	4.22842					0.860462	5.55972		
0.682865	4.39006	0.662358	4.2293					0.862687	5.54986		
0.685554	4.38828	0.665354	4.23016					0.864919	5.54012		
0.688247	4.38654	0.668348	4.23102					0.867156	5.53051		
0.690942	4.38483	0.671342	4.23186					0.869401	5.52102		
0.693641	4.38315	0.674335	4.2327					0.871651	5.51166		
0.696342	4.38151	0.677327	4.23352					0.873908	5.50241		
0.699047	4.3799	0.680318	4.23432					0.876171	5.49328		
0.701754	4.37831	0.683309	4.23512					0.878441	5.48427		
0.704464	4.37676	0.686299	4.23591					0.880716	5.47537		
0.707176	4.37524	0.689288	4.23668					0.882998	5.46658		
0.709892	4.37375	0.692276	4.23744					0.885286	5.45791		
0.71261	4.37229	0.695264	4.2382					0.88758	5.44935		
0.71533	4.37086	0.698251	4.23894					0.889881	5.44089		
0.718053	4.36945	0.701237	4.23967					0.892187	5.43254		
0.720779	4.36807	0.704223	4.24039					0.8945	5.4243		
0.723507	4.36672	0.707208	4.2411					0.896818	5.41615		
0.726238	4.36539	0.710192	4.24181					0.899142	5.40812		
0.728971	4.36409	0.713175	4.2425					0.901473	5.40018		
0.731707	4.36281	0.716158	4.24318					0.903809	5.39234		
0.734445	4.36156	0.71914	4.24385					0.906151	5.3846		
0.737185	4.36033	0.722121	4.24451					0.908499	5.37695		
0.739927	4.35912	0.725102	4.24517					0.910853	5.3694		
0.742672	4.35794	0.728082	4.24581					0.913212	5.36195		
0.745419	4.35677	0.731061	4.24645					0.915577	5.35458		
0.748168	4.35563	0.73404	4.24708					0.917948	5.34731		
0.750919	4.35452	0.737017	4.24769					0.920324	5.34013		
0.753672	4.35342	0.739995	4.2483					0.922707	5.33303		
0.756427	4.35234	0.742971	4.2489					0.925094	5.32603		
0.759185	4.35128	0.745947	4.2495					0.927487	5.31911		
0.761944	4.35025	0.748923	4.25008					0.929886	5.31227		
0.764706	4.34923	0.751897	4.25066					0.93229	5.30552		
0.767469	4.34823	0.754871	4.25123					0.9347	5.29885		
0.770234	4.34725	0.757845	4.25179					0.937115	5.29226		
0.773001	4.34628	0.760817	4.25234					0.939535	5.28575		
0.77577	4.34534	0.763789	4.25288					0.94196	5.27932		
0.778541	4.34441	0.766761	4.25342					0.944391	5.27297		
0.781314	4.3435	0.769732	4.25395					0.946827	5.26669		
0.784088	4.34261	0.772702	4.25447					0.949269	5.26049		
0.786865	4.34173	0.775672	4.25499					0.951715	5.25437		
0.789643	4.34087	0.778641	4.2555					0.954166	5.24832		
0.792422	4.34002	0.781609	4.256					0.956623	5.24234		
0.795203	4.33919	0.784577	4.25649					0.959085	5.23644		
0.797986	4.33838	0.787544	4.25698					0.961551	5.2306		
0.800771	4.33757	0.790511	4.25746					0.964023	5.22483		
0.803557	4.33679	0.793477	4.25793					0.9665	5.21914		
0.806345	4.33602	0.796442	4.2584					0.968981	5.21351		
0.809134	4.33526	0.799407	4.25886					0.971467	5.20795		
0.811925	4.33451	0.802371	4.25932					0.973959	5.20245		
0.814718	4.33378	0.805335	4.25976					0.976455	5.19702		
0.817511	4.33307	0.808298	4.26021					0.978955	5.19165		
0.820307	4.33236	0.811261	4.26064					0.981461	5.18635		
0.823104	4.33167	0.814223	4.26107					0.983971	5.1811		
0.825902	4.33099	0.817184	4.2615					0.986486	5.17592		
0.828701	4.33032	0.820145	4.26191					0.989005	5.17081		
0.831502	4.32966	0.823105	4.26233					0.991529	5.16575		
0.834305	4.32902	0.826065	4.26273					0.994057	5.16075		
0.837108	4.32839	0.829024	4.26313					0.99659	5.1558		
0.839913	4.32777	0.831983	4.26353					0.999128	5.15092		
0.84272	4.32716	0.834941	4.26392					1.00167	5.14609		
0.845527	4.32656	0.837899	4.2643								
0.848336	4.32597	0.840856	4.26468								
0.851146	4.32539	0.843813	4.26506								
0.853958	4.32482	0.846769	4.26543								
0.85677	4.32426	0.849724	4.26579								
0.859584	4.32371	0.852679	4.26615								
0.862399	4.32317	0.855634	4.2665								
0.865215	4.32264	0.858588	4.26685								
0.868032	4.32212	0.861541	4.26719								
0.870851	4.32161	0.864494	4.26753								
0.87367	4.32111	0.867447	4.26787								
0.876491	4.32061	0.870399	4.2682								
0.879312	4.32013	0.873351	4.26852								
0.882135	4.31965	0.876302	4.26884								
0.884959	4.31918	0.879252	4.26916								
0.887784	4.31872	0.882202	4.26947								
0.89061	4.31827	0.885152	4.26978								
0.893436	4.31783	0.888101	4.27008								
0.896264	4.31739	0.89105	4.27038								
0.899093	4.31696	0.893998	4.27068								
0.901923	4.31654	0.896946	4.27097								
0.904753	4.31612	0.899893	4.27126								
0.907585	4.31572	0.90284	4.27154								
0.910418	4.31532	0.905786	4.27182								
0.913251	4.31492	0.908732	4.27209								
0.916086	4.31454	0.911678	4.27236								
0.918921	4.31416	0.914623	4.27263								
0.921757	4.31378	0.917567	4.2729								
0.924594	4.31341	0.920512	4.27316								
0.927432	4.31305	0.923455	4.27341								
0.930271	4.3127	0.926399	4.27367								
0.93311	4.31235	0.929342	4.27392								
0.93595	4.312	0.932284	4.27416								
0.938792	4.31167	0.935226	4.2744								
0.941633	4.31134	0.938168	4.27464								
0.944476	4.31101	0.941109	4.27488								
0.94732	4.31069	0.94405	4.27511								
0.950164	4.31037	0.94699	4.27534								
0.953009	4.31006	0.949931	4.27557								
0.955854	4.30976	0.95287	4.27579								
0.958701	4.30946	0.955809	4.27601								
0.961548	4.30917	0.958748	4.27623								
0.964396	4.30888	0.961687	4.27644								
0.967244	4.30859	0.964625	4.27665								
0.970094	4.30831	0.967563	4.27686								
0.972944	4.30804	0.9705	4.27706								
0.975794	4.30777	0.973437	4.27727								
0.978646	4.3075	0.976373	4.27747								
0.981497	4.30724	0.97931	4.27766								
0.98435	4.30698	0.982245	4.27786								
0.987203	4.30673	0.985181	4.27805								
0.990057	4.30648	0.988116	4.27824								
0.992911	4.30623	0.991051	4.27842								
0.995766	4.30599	0.993985	4.2786								
0.998622	4.30576	0.996919	4.27878								
1.00148	4.30552	0.999853	4.27896								
		1.00279	4.27914								
