Sym0		Asym0		Sym1		Sym2		Asym1		Asym3	
376  Points		391  Points		169  Points		122  Points		292  Points		135  Points	
Freq (MHz)	Vph (m/ms)	Freq (MHz)	Vph (m/ms)	Freq (MHz)	Vph (m/ms)	Freq (MHz)	Vph (m/ms)	Freq (MHz)	Vph (m/ms)	Freq (MHz)	Vph (m/ms)
0.00525513	9.0142	0.000398705	0.228007	0.408244	873.245	0.459151	885.959	0.204175	416.121	0.612381	1368.29
0.0126201	9.01349	0.0008553	0.333346	0.408213	317.761	0.459352	343.98	0.204484	156.356	0.612438	484.255
0.0199828	9.01229	0.00147945	0.437326	0.408155	194.193	0.459728	213.573	0.205073	96.5068	0.612551	294.234
0.0273418	9.01051	0.00226635	0.539594	0.408073	139.801	0.460277	154.991	0.205938	69.9967	0.612719	211.355
0.0346959	9.00821	0.00321004	0.639801	0.40797	109.197	0.460995	121.736	0.207075	55.0838	0.612942	164.94
0.0420435	9.00533	0.00430369	0.73764	0.40785	89.5732	0.461879	100.321	0.208476	45.5543	0.613219	135.27
0.0493834	9.00189	0.00553976	0.832851	0.407718	75.9194	0.462922	85.3917	0.210134	38.9601	0.613552	114.673
0.0567139	8.99786	0.00691026	0.925228	0.40758	65.8708	0.46412	74.3983	0.212042	34.1413	0.613938	99.5424
0.0640336	8.99324	0.00840686	1.0146	0.407441	58.1667	0.465466	65.9725	0.214189	30.4771	0.614379	87.96
0.0713409	8.98801	0.0100211	1.10086	0.407307	52.073	0.466956	59.314	0.216567	27.6056	0.614875	78.8108
0.0786342	8.98216	0.0117444	1.1839	0.407185	47.1333	0.468583	53.9236	0.219164	25.3013	0.615423	71.4026
0.0859118	8.97566	0.0135687	1.26369	0.407079	43.0491	0.470343	49.4738	0.221971	23.4164	0.616026	65.2832
0.093172	8.96851	0.0154855	1.34021	0.406996	39.6168	0.472229	45.7406	0.224978	21.85	0.616682	60.1444
0.100413	8.96067	0.0174871	1.41349	0.40694	36.6928	0.474236	42.566	0.228173	20.5309	0.61739	55.7689
0.107632	8.95212	0.0195663	1.48356	0.406916	34.1728	0.476361	39.835	0.231546	19.4075	0.618151	51.9994
0.114828	8.94284	0.0217157	1.55047	0.40693	31.9794	0.478599	37.4622	0.235089	18.4413	0.618965	48.7189
0.121999	8.93278	0.023929	1.61431	0.406986	30.0538	0.480945	35.3827	0.238789	17.6033	0.61983	45.8387
0.129141	8.92193	0.0262	1.67517	0.407088	28.3506	0.483397	33.5464	0.24264	16.8708	0.620746	43.2904
0.136253	8.91023	0.0285229	1.73314	0.40724	26.8341	0.48595	31.9138	0.246631	16.2264	0.621714	41.0203
0.143331	8.89766	0.0308926	1.78833	0.407447	25.476	0.488602	30.4536	0.250753	15.6559	0.622732	38.9855
0.150373	8.88417	0.0333042	1.84086	0.407713	24.2535	0.491349	29.1407	0.255	15.1482	0.6238	37.1518
0.157377	8.86972	0.0357533	1.89083	0.408041	23.1478	0.494189	27.9544	0.259363	14.6941	0.624918	35.4911
0.164337	8.85425	0.0382359	1.93835	0.408436	22.1437	0.497119	26.8777	0.263834	14.286	0.626084	33.9804
0.171252	8.8377	0.0407484	1.98355	0.408902	21.2285	0.500137	25.8968	0.268407	13.9178	0.6273	32.6005
0.178117	8.82003	0.0432873	2.02654	0.409443	20.3915	0.50324	24.9997	0.273075	13.5843	0.628563	31.3355
0.184928	8.80117	0.0458499	2.06741	0.410062	19.6237	0.506427	24.1766	0.277832	13.281	0.629875	30.1717
0.19168	8.78104	0.0484332	2.10629	0.410766	18.9176	0.509696	23.419	0.282671	13.0044	0.631233	29.0978
0.19837	8.75959	0.0510349	2.14327	0.411557	18.2666	0.513044	22.7198	0.287588	12.7513	0.632638	28.104
0.204992	8.73674	0.0536529	2.17846	0.412441	17.6652	0.51647	22.0728	0.292577	12.5189	0.634089	27.1817
0.21154	8.7124	0.055946	2.20773	0.413424	17.1085	0.519973	21.4726	0.297633	12.305	0.635586	26.3238
0.218009	8.68649	0.0579084	2.23171	0.41451	16.5923	0.52355	20.9146	0.302752	12.1076	0.637127	25.5238
0.224393	8.65894	0.0595359	2.25089	0.415705	16.1131	0.5272	20.3946	0.307927	11.9248	0.638714	24.7763
0.230686	8.62965	0.0608256	2.26565	0.417016	15.6677	0.530921	19.9092	0.313156	11.7553	0.640344	24.0764
0.23688	8.59853	0.0617755	2.27629	0.418447	15.2532	0.534713	19.4553	0.318434	11.5977	0.642019	23.4198
0.24297	8.5655	0.062384	2.283	0.420006	14.8671	0.538573	19.0299	0.323758	11.4508	0.643736	22.8027
0.248947	8.53047	0.0632596	2.29252	0.421699	14.5075	0.542501	18.6308	0.329123	11.3136	0.645496	22.2218
0.254804	8.49335	0.0642123	2.30269	0.423533	14.1721	0.546494	18.2556	0.334525	11.1851	0.647299	21.6742
0.260534	8.45407	0.0655097	2.31625	0.425515	13.8595	0.550553	17.9025	0.339962	11.0646	0.649143	21.1571
0.266129	8.41257	0.0671532	2.33295	0.427652	13.568	0.554675	17.5697	0.34543	10.9513	0.651029	20.6681
0.271583	8.36878	0.0691442	2.35251	0.42995	13.2962	0.558859	17.2556	0.350926	10.8446	0.652957	20.2051
0.276887	8.32267	0.0714841	2.37459	0.432415	13.0428	0.563105	16.9588	0.356446	10.7439	0.654925	19.7662
0.282036	8.2742	0.0741742	2.39884	0.435053	12.8067	0.56741	16.678	0.361988	10.6486	0.656933	19.3496
0.287023	8.22339	0.0768691	2.42198	0.437869	12.5869	0.571775	16.4121	0.367549	10.5584	0.658983	18.9538
0.291845	8.17024	0.0795678	2.44409	0.440869	12.3822	0.576197	16.16	0.373126	10.4728	0.661072	18.5772
0.296496	8.11481	0.0822698	2.46521	0.444055	12.1919	0.580676	15.9208	0.378716	10.3913	0.663201	18.2187
0.300973	8.05717	0.0849745	2.48539	0.447429	12.015	0.585211	15.6935	0.384316	10.3138	0.66537	17.877
0.305276	7.99741	0.0876814	2.5047	0.450992	11.8506	0.5898	15.4774	0.389924	10.2397	0.667579	17.551
0.309404	7.93566	0.09039	2.52318	0.454744	11.698	0.594444	15.2718	0.395537	10.1689	0.669827	17.2398
0.313358	7.87208	0.0930999	2.54087	0.458684	11.5564	0.59914	15.0759	0.40043	10.1096	0.672115	16.9423
0.317139	7.80682	0.0958108	2.55781	0.462807	11.4251	0.603888	14.8892	0.404602	10.0608	0.674443	16.6579
0.320753	7.74009	0.0985224	2.57405	0.46711	11.3033	0.608686	14.7112	0.408052	10.0215	0.67681	16.3856
0.324204	7.67208	0.101234	2.58962	0.471587	11.1904	0.613535	14.5412	0.410778	9.99102	0.679217	16.1249
0.327498	7.603	0.103947	2.60455	0.476232	11.0856	0.618433	14.3788	0.412782	9.96901	0.681665	15.875
0.330641	7.53307	0.106659	2.61889	0.481035	10.9884	0.62338	14.2236	0.414065	9.95507	0.684153	15.6354
0.333641	7.46249	0.109371	2.63266	0.48599	10.8982	0.628374	14.0751	0.415908	9.93525	0.686681	15.4055
0.336506	7.39148	0.112082	2.64589	0.491088	10.8143	0.633415	13.933	0.41791	9.91396	0.68925	15.1848
0.339245	7.32023	0.114794	2.6586	0.496319	10.7363	0.638502	13.7969	0.420631	9.88545	0.691861	14.9728
0.341864	7.24894	0.117504	2.67083	0.501673	10.6637	0.643635	13.6665	0.424071	9.85007	0.694514	14.769
0.344374	7.17778	0.120214	2.6826	0.507142	10.5959	0.648812	13.5415	0.428224	9.80826	0.69721	14.5731
0.346781	7.10691	0.122923	2.69394	0.512717	10.5325	0.654033	13.4215	0.433089	9.76049	0.699948	14.3846
0.349094	7.03647	0.125632	2.70485	0.518388	10.4732	0.659297	13.3064	0.438658	9.70723	0.70273	14.2033
0.35132	6.9666	0.128339	2.71537	0.524146	10.4176	0.664604	13.1959	0.444211	9.65551	0.705556	14.0287
0.353467	6.89741	0.131046	2.72551	0.529228	10.3718	0.669953	13.0897	0.449745	9.6052	0.708428	13.8606
0.355542	6.82901	0.133751	2.7353	0.533604	10.3346	0.675343	12.9877	0.455259	9.55618	0.711345	13.6987
0.357551	6.76147	0.136456	2.74474	0.53725	10.305	0.680775	12.8896	0.460749	9.50832	0.714309	13.5426
0.359499	6.69487	0.139159	2.75385	0.54015	10.2824	0.686246	12.7952	0.466213	9.46153	0.71732	13.3922
0.361394	6.62927	0.141862	2.76266	0.542291	10.2661	0.691758	12.7044	0.471649	9.41571	0.72038	13.2473
0.36324	6.56473	0.144563	2.77117	0.543664	10.2558	0.697308	12.617	0.477055	9.37077	0.723489	13.1075
0.365041	6.50127	0.147264	2.7794	0.545644	10.2413	0.702898	12.5328	0.482428	9.32661	0.726648	12.9727
0.366803	6.43894	0.149963	2.78736	0.547803	10.2258	0.708526	12.4518	0.487767	9.28316	0.729858	12.8426
0.368529	6.37776	0.152662	2.79506	0.550748	10.2052	0.714191	12.3736	0.493068	9.24035	0.73312	12.7172
0.370223	6.31773	0.155359	2.80252	0.554488	10.1798	0.719894	12.2983	0.498329	9.19809	0.736435	12.5961
0.371889	6.25888	0.158055	2.80974	0.559032	10.1501	0.725634	12.2257	0.503549	9.15633	0.739804	12.4793
0.37353	6.20121	0.160751	2.81674	0.564389	10.1166	0.73141	12.1557	0.508725	9.11501	0.743227	12.3666
0.375148	6.14471	0.163445	2.82352	0.570566	10.0796	0.737222	12.0881	0.513854	9.07406	0.746705	12.2578
0.376746	6.08938	0.166138	2.8301	0.57677	10.0443	0.743069	12.0229	0.518936	9.03344	0.75024	12.1528
0.378326	6.03522	0.168831	2.83648	0.582996	10.0102	0.748952	11.9599	0.523966	8.99309	0.753831	12.0515
0.379892	5.98222	0.171522	2.84267	0.589239	9.97743	0.754869	11.8992	0.528945	8.95298	0.75748	11.9536
0.381445	5.93035	0.174212	2.84868	0.595494	9.94573	0.76082	11.8405	0.533869	8.91305	0.761186	11.8592
0.382986	5.87961	0.176902	2.85452	0.601757	9.91502	0.766805	11.7837	0.538737	8.87327	0.764951	11.768
0.384517	5.82999	0.17959	2.86019	0.608025	9.88519	0.772823	11.7289	0.543547	8.8336	0.768774	11.68
0.386041	5.78146	0.182278	2.8657	0.614292	9.85614	0.778873	11.676	0.548298	8.79402	0.772656	11.595
0.387557	5.734	0.184965	2.87106	0.620556	9.8278	0.784956	11.6247	0.552987	8.75449	0.776597	11.513
0.389069	5.6876	0.187651	2.87627	0.626813	9.80007	0.79107	11.5752	0.557613	8.71499	0.780597	11.4338
0.390576	5.64223	0.190336	2.88134	0.633061	9.77288	0.797215	11.5273	0.562176	8.6755	0.784656	11.3573
0.39208	5.59787	0.193021	2.88627	0.639295	9.74618	0.80339	11.4809	0.566673	8.636	0.788772	11.2834
0.393581	5.55451	0.195704	2.89107	0.645513	9.71989	0.809595	11.4361	0.571104	8.59647	0.792947	11.2121
0.395082	5.51212	0.198387	2.89575	0.651712	9.69396	0.815829	11.3926	0.575468	8.55691	0.797179	11.1432
0.396582	5.47068	0.201069	2.9003	0.65789	9.66834	0.822091	11.3505	0.579764	8.51729	0.801468	11.0766
0.398082	5.43017	0.203751	2.90474	0.664044	9.64298	0.82838	11.3098	0.583991	8.47762	0.80525	11.0204
0.399583	5.39056	0.206431	2.90907	0.670172	9.61784	0.834696	11.2703	0.588149	8.43789	0.808508	10.9738
0.401086	5.35184	0.209111	2.91329	0.676272	9.59287	0.841038	11.232	0.592238	8.39809	0.811224	10.9362
0.402591	5.31398	0.211791	2.9174	0.682341	9.56805	0.847404	11.1948	0.596257	8.35824	0.813386	10.907
0.403905	5.28168	0.214469	2.92142	0.688377	9.54334	0.853794	11.1588	0.600206	8.31832	0.814983	10.8858
0.405027	5.25464	0.217147	2.92534	0.694378	9.51871	0.860207	11.1238	0.604087	8.27834	0.816009	10.8724
0.405956	5.23261	0.219825	2.92916	0.700343	9.49413	0.865813	11.0941	0.607898	8.23832	0.817489	10.8533
0.406692	5.21542	0.222501	2.93289	0.70627	9.46957	0.870605	11.0694	0.611641	8.19825	0.819103	10.8327
0.407233	5.20289	0.225178	2.93654	0.712156	9.44502	0.874575	11.0494	0.615315	8.15815	0.82131	10.8052
0.40758	5.19492	0.227853	2.9401	0.718002	9.42045	0.877719	11.0338	0.618923	8.11803	0.824117	10.771
0.408079	5.18354	0.230528	2.94358	0.723804	9.39584	0.880034	11.0224	0.622464	8.0779	0.827536	10.7306
0.408622	5.17127	0.233203	2.94698	0.729562	9.37118	0.881517	11.0152	0.62594	8.03777	0.831581	10.6844
0.409361	5.15473	0.235877	2.95031	0.735274	9.34644	0.88365	11.005	0.629352	7.99766	0.836267	10.6329
0.410298	5.13407	0.23855	2.95356	0.740939	9.32163	0.88597	10.9939	0.6327	7.95758	0.840997	10.5831
0.411433	5.10946	0.241223	2.95674	0.746555	9.29672	0.88913	10.979	0.635987	7.91754	0.845771	10.5348
0.412767	5.0811	0.243896	2.95985	0.752123	9.2717	0.893131	10.9605	0.639213	7.87757	0.850586	10.4881
0.414304	5.04923	0.246568	2.96289	0.75764	9.24657	0.897977	10.9385	0.64238	7.83767	0.85544	10.4427
0.415846	5.01805	0.249239	2.96587	0.763106	9.22132	0.903671	10.9132	0.645489	7.79786	0.860332	10.3987
0.417394	4.98755	0.25191	2.96879	0.76852	9.19593	0.910217	10.8848	0.648542	7.75815	0.865259	10.356
0.418948	4.9577	0.254581	2.97164	0.773881	9.17041	0.916774	10.8572	0.65154	7.71857	0.870219	10.3144
0.420507	4.92851	0.257251	2.97444	0.779188	9.14475	0.923341	10.8301	0.654485	7.67912	0.87521	10.2741
0.422074	4.89993	0.259921	2.97718	0.784441	9.11895	0.929915	10.8037	0.657379	7.63982	0.88023	10.2349
0.423646	4.87197	0.26259	2.97987	0.789639	9.093	0.936495	10.7778	0.660222	7.60069	0.885277	10.1967
0.425226	4.84461	0.265259	2.9825	0.794781	9.0669	0.943078	10.7524	0.663017	7.56173	0.890349	10.1595
0.426812	4.81782	0.267928	2.98508	0.799868	9.04065	0.949664	10.7276	0.665765	7.52296	0.895444	10.1232
0.428404	4.79161	0.270596	2.9876	0.804898	9.01425	0.956249	10.7032	0.668468	7.48439	0.900559	10.0878
0.430004	4.76594	0.273264	2.99008	0.809872	8.9877	0.962832	10.6792	0.671127	7.44604	0.905692	10.0533
0.431611	4.74081	0.275931	2.99251	0.814789	8.96101	0.969411	10.6556	0.673744	7.40792	0.910842	10.0196
0.433225	4.71621	0.278598	2.9949	0.819649	8.93416	0.975984	10.6323	0.67632	7.37002	0.916006	9.98663
0.434846	4.69212	0.281265	2.99724	0.824452	8.90718	0.982548	10.6094	0.678857	7.33238	0.921183	9.95438
0.436474	4.66852	0.283932	2.99953	0.829197	8.88005	0.989102	10.5868	0.681357	7.29498	0.92637	9.92281
0.43811	4.64541	0.286598	3.00178	0.833886	8.85279	0.995643	10.5644	0.683819	7.25785	0.931565	9.89187
0.439753	4.62278	0.289264	3.00399	0.838517	8.82539	1.00217	10.5422	0.686247	7.221	0.936766	9.86154
0.441403	4.60061	0.291929	3.00617	0.843091	8.79787			0.688641	7.18441	0.941972	9.83176
0.44306	4.57889	0.294594	3.0083	0.847608	8.77022			0.691003	7.14812	0.94718	9.80252
0.444725	4.5576	0.297259	3.01039	0.852069	8.74246			0.693334	7.11211	0.952389	9.77377
0.446398	4.53675	0.299924	3.01245	0.856473	8.71459			0.695635	7.0764	0.957597	9.7455
0.448078	4.51632	0.302588	3.01446	0.860821	8.6866			0.697907	7.04098	0.962802	9.71766
0.449765	4.49629	0.305252	3.01645	0.865114	8.65852			0.700152	7.00588	0.968003	9.69022
0.451459	4.47666	0.307916	3.0184	0.869351	8.63035			0.702371	6.97108	0.973197	9.66318
0.453161	4.45742	0.31058	3.02032	0.873534	8.60209			0.704565	6.93659	0.978383	9.63648
0.454871	4.43856	0.313243	3.0222	0.877662	8.57375			0.706734	6.90242	0.98356	9.61013
0.456588	4.42007	0.315906	3.02405	0.881737	8.54534			0.70888	6.86856	0.988726	9.58408
0.458312	4.40194	0.318569	3.02587	0.885758	8.51687			0.711004	6.83502	0.993879	9.55832
0.460043	4.38416	0.321231	3.02766	0.889727	8.48834			0.713107	6.80181	0.999018	9.53283
0.461782	4.36672	0.323893	3.02942	0.893645	8.45976			0.715189	6.76891	1.00414	9.50758
0.463528	4.34962	0.326556	3.03115	0.897511	8.43114			0.717252	6.73634		
0.465282	4.33285	0.329217	3.03286	0.901326	8.40248			0.719296	6.70409		
0.467042	4.3164	0.331879	3.03453	0.905092	8.3738			0.721323	6.67216		
0.46881	4.30027	0.33454	3.03618	0.908809	8.3451			0.723333	6.64056		
0.470585	4.28443	0.337202	3.03781	0.912478	8.31639			0.725326	6.60928		
0.472367	4.2689	0.339863	3.0394	0.9161	8.28767			0.727304	6.57832		
0.474156	4.25366	0.342523	3.04098	0.919675	8.25896			0.729267	6.54768		
0.475953	4.2387	0.345184	3.04253	0.923204	8.23026			0.731216	6.51736		
0.477756	4.22402	0.347844	3.04405	0.926689	8.20157			0.733152	6.48736		
0.479566	4.20961	0.350505	3.04555	0.930129	8.17292			0.735075	6.45768		
0.481383	4.19546	0.353165	3.04703	0.933526	8.14429			0.736985	6.42832		
0.483207	4.18158	0.355824	3.04848	0.936881	8.1157			0.738884	6.39927		
0.485038	4.16795	0.358484	3.04992	0.940195	8.08716			0.740771	6.37053		
0.486875	4.15457	0.361144	3.05133	0.943467	8.05867			0.742648	6.34211		
0.48872	4.14143	0.363803	3.05272	0.9467	8.03023			0.744515	6.31399		
0.490571	4.12852	0.366462	3.0541	0.949894	8.00186			0.746373	6.28618		
0.492428	4.11585	0.369121	3.05545	0.953051	7.97356			0.748221	6.25867		
0.494292	4.10341	0.37178	3.05678	0.956169	7.94533			0.75006	6.23146		
0.496163	4.09118	0.374438	3.05809	0.959252	7.91719			0.751892	6.20456		
0.49804	4.07918	0.377097	3.05939	0.962298	7.88913			0.753715	6.17795		
0.499924	4.06738	0.379755	3.06066	0.96531	7.86116			0.755531	6.15163		
0.501814	4.05579	0.382413	3.06192	0.968288	7.83328			0.757341	6.1256		
0.50371	4.04441	0.385071	3.06316	0.971233	7.80551			0.759143	6.09987		
0.505612	4.03322	0.387729	3.06439	0.974146	7.77784			0.760939	6.07442		
0.507521	4.02223	0.390387	3.06559	0.977027	7.75027			0.76273	6.04925		
0.509436	4.01143	0.393045	3.06678	0.979877	7.72282			0.764514	6.02436		
0.511357	4.00081	0.395702	3.06796	0.982697	7.69548			0.766294	5.99975		
0.513284	3.99038	0.398359	3.06912	0.985487	7.66827			0.768069	5.97541		
0.515217	3.98012	0.401017	3.07026	0.988249	7.64117			0.769838	5.95135		
0.517156	3.97004	0.403674	3.07139	0.990984	7.61421			0.771604	5.92755		
0.519101	3.96012	0.40633	3.0725	0.99369	7.58737			0.773366	5.90402		
0.521051	3.95038	0.408987	3.0736	0.996371	7.56066			0.775123	5.88075		
0.523008	3.9408	0.411644	3.07468	0.999025	7.53408			0.776877	5.85775		
0.52497	3.93138	0.4143	3.07575	1.00165	7.50765			0.778628	5.835		
0.526938	3.92211	0.416957	3.0768					0.780376	5.8125		
0.528911	3.913	0.419613	3.07785					0.782121	5.79026		
0.53089	3.90404	0.422269	3.07888					0.783863	5.76826		
0.532875	3.89523	0.424925	3.07989					0.785603	5.74651		
0.534865	3.88656	0.427581	3.08089					0.787341	5.725		
0.536861	3.87803	0.430237	3.08188					0.789076	5.70373		
0.538861	3.86964	0.432893	3.08286					0.79081	5.68269		
0.540867	3.86139	0.435548	3.08383					0.792542	5.6619		
0.542879	3.85327	0.438204	3.08478					0.794273	5.64133		
0.544895	3.84528	0.440859	3.08572					0.796003	5.62099		
0.546917	3.83742	0.443514	3.08666					0.797731	5.60087		
0.548944	3.82969	0.44617	3.08758					0.799458	5.58098		
0.550976	3.82207	0.448825	3.08848					0.801185	5.56131		
0.553013	3.81458	0.45148	3.08938					0.802911	5.54186		
0.555055	3.80721	0.454134	3.09027					0.804636	5.52262		
0.557102	3.79995	0.456789	3.09115					0.806361	5.50359		
0.559154	3.7928	0.459444	3.09201					0.808086	5.48477		
0.56121	3.78577	0.462098	3.09287					0.809811	5.46616		
0.563271	3.77884	0.464753	3.09371					0.811535	5.44776		
0.565337	3.77202	0.467407	3.09455					0.81326	5.42955		
0.567408	3.76531	0.470061	3.09538					0.814985	5.41154		
0.569483	3.7587	0.472716	3.09619					0.81671	5.39373		
0.571563	3.75219	0.47537	3.097					0.818436	5.37612		
0.573648	3.74578	0.478024	3.0978					0.820162	5.35869		
0.575737	3.73947	0.480678	3.09859					0.821889	5.34146		
0.57783	3.73325	0.483332	3.09937					0.823617	5.32441		
0.579928	3.72713	0.485985	3.10014					0.825345	5.30755		
0.58203	3.7211	0.488639	3.10091					0.827075	5.29087		
0.584137	3.71516	0.491292	3.10166					0.828805	5.27436		
0.586247	3.7093	0.493946	3.10241					0.830537	5.25804		
0.588362	3.70354	0.496599	3.10315					0.832269	5.24189		
0.590482	3.69786	0.499253	3.10388					0.834003	5.22592		
0.592605	3.69226	0.501906	3.1046					0.835738	5.21011		
0.594732	3.68674	0.504559	3.10532					0.837475	5.19448		
0.596864	3.68131	0.507212	3.10603					0.839213	5.17901		
0.598999	3.67595	0.509865	3.10673					0.840952	5.1637		
0.601139	3.67068	0.512518	3.10742					0.842694	5.14856		
0.603282	3.66547	0.515171	3.1081					0.844436	5.13358		
0.60543	3.66035	0.517823	3.10878					0.846181	5.11875		
0.607581	3.6553	0.520476	3.10945					0.847927	5.10408		
0.609736	3.65032	0.523129	3.11012					0.849675	5.08957		
0.611895	3.64541	0.525781	3.11078					0.851424	5.07521		
0.614058	3.64057	0.528434	3.11143					0.853176	5.061		
0.616224	3.6358	0.531086	3.11207					0.85493	5.04694		
0.618394	3.63109	0.533738	3.11271					0.856685	5.03302		
0.620568	3.62646	0.536391	3.11334					0.858443	5.01925		
0.622745	3.62188	0.539043	3.11396					0.860202	5.00563		
0.624926	3.61738	0.541695	3.11458					0.861964	4.99214		
0.62711	3.61293	0.544347	3.11519					0.863728	4.97879		
0.629298	3.60855	0.546999	3.1158					0.865494	4.96558		
0.631489	3.60422	0.549651	3.1164					0.867263	4.95251		
0.633684	3.59996	0.552303	3.11699					0.869033	4.93957		
0.635882	3.59576	0.554954	3.11758					0.870806	4.92677		
0.638083	3.59161	0.557606	3.11816					0.872581	4.91409		
0.640288	3.58752	0.560258	3.11874					0.874359	4.90154		
0.642496	3.58348	0.562909	3.11931					0.876139	4.88913		
0.644708	3.5795	0.565561	3.11988					0.877921	4.87683		
0.646922	3.57558	0.568212	3.12044					0.879706	4.86467		
0.64914	3.5717	0.570863	3.12099					0.881493	4.85262		
0.651361	3.56788	0.573515	3.12154					0.883283	4.8407		
0.653585	3.56411	0.576166	3.12209					0.885075	4.8289		
0.655812	3.56039	0.578817	3.12262					0.88687	4.81721		
0.658042	3.55672	0.581468	3.12316					0.888667	4.80564		
0.660276	3.5531	0.584119	3.12369					0.890467	4.79419		
0.662512	3.54952	0.58677	3.12421					0.892269	4.78285		
0.664751	3.546	0.589421	3.12473					0.894074	4.77163		
0.666994	3.54252	0.592072	3.12525					0.895882	4.76051		
0.669239	3.53908	0.594723	3.12576					0.897692	4.74951		
0.671487	3.53569	0.597374	3.12626					0.899505	4.73862		
0.673738	3.53234	0.600024	3.12676					0.901321	4.72783		
0.675992	3.52904	0.602675	3.12726					0.903139	4.71715		
0.678248	3.52578	0.605326	3.12775					0.90496	4.70657		
0.680508	3.52256	0.607976	3.12824					0.906784	4.6961		
0.68277	3.51939	0.610626	3.12872					0.90861	4.68573		
0.685034	3.51625	0.613277	3.1292					0.910439	4.67546		
0.687302	3.51315	0.615927	3.12967					0.912271	4.66528		
0.689572	3.5101	0.618577	3.13014					0.914105	4.65521		
0.691845	3.50708	0.621228	3.13061					0.915943	4.64524		
0.694121	3.5041	0.623878	3.13107					0.917783	4.63536		
0.696399	3.50116	0.626528	3.13153					0.919626	4.62558		
0.698679	3.49825	0.629178	3.13198					0.921471	4.61589		
0.700963	3.49538	0.631828	3.13243					0.923319	4.60629		
0.703248	3.49255	0.634478	3.13288					0.925171	4.59679		
0.705537	3.48975	0.637128	3.13332					0.927025	4.58737		
0.707827	3.48699	0.639778	3.13376					0.928881	4.57805		
0.710121	3.48426	0.642428	3.13419					0.930741	4.56881		
0.712416	3.48156	0.645077	3.13462					0.932603	4.55967		
0.714714	3.4789	0.647727	3.13505					0.934468	4.55061		
0.717015	3.47627	0.650377	3.13547					0.936336	4.54163		
0.719317	3.47367	0.653026	3.13589					0.938207	4.53274		
0.721623	3.47111	0.655676	3.13631					0.94008	4.52393		
0.72393	3.46857	0.658325	3.13672					0.941957	4.5152		
0.72624	3.46607	0.660975	3.13713					0.943836	4.50656		
0.728552	3.46359	0.663624	3.13754					0.945718	4.49799		
0.730866	3.46115	0.666273	3.13794					0.947602	4.48951		
0.733182	3.45874	0.668923	3.13834					0.94949	4.4811		
0.735501	3.45635	0.671572	3.13873					0.95138	4.47278		
0.737822	3.45399	0.674221	3.13913					0.953274	4.46453		
0.740145	3.45167	0.67687	3.13952					0.95517	4.45635		
0.74247	3.44936	0.679519	3.1399					0.957068	4.44825		
0.744798	3.44709	0.682168	3.14029					0.95897	4.44023		
0.747127	3.44484	0.684817	3.14067					0.960874	4.43227		
0.749459	3.44262	0.687466	3.14104					0.962782	4.42439		
0.751792	3.44043	0.690115	3.14142					0.964692	4.41659		
0.754128	3.43826	0.692764	3.14179					0.966604	4.40885		
0.756466	3.43612	0.695413	3.14216					0.96852	4.40118		
0.758805	3.434	0.698061	3.14252					0.970438	4.39359		
0.761147	3.4319	0.70071	3.14288					0.972359	4.38606		
0.763491	3.42983	0.703359	3.14324					0.974283	4.3786		
0.765836	3.42779	0.706007	3.1436					0.97621	4.3712		
0.768184	3.42577	0.708656	3.14395					0.978139	4.36387		
0.770533	3.42377	0.711304	3.1443					0.980072	4.35661		
0.772885	3.42179	0.713953	3.14465					0.982007	4.34941		
0.775238	3.41984	0.716601	3.145					0.983944	4.34228		
0.777593	3.41791	0.71925	3.14534					0.985885	4.33521		
0.77995	3.416	0.721898	3.14568					0.987828	4.3282		
0.782309	3.41411	0.724546	3.14602					0.989774	4.32126		
0.78467	3.41224	0.727194	3.14635					0.991723	4.31437		
0.787032	3.4104	0.729842	3.14669					0.993674	4.30755		
0.789397	3.40857	0.732491	3.14702					0.995628	4.30079		
0.791763	3.40677	0.735139	3.14734					0.997585	4.29408		
0.79413	3.40499	0.737787	3.14767					0.999544	4.28744		
0.7965	3.40322	0.740435	3.14799					1.00151	4.28085		
0.798871	3.40148	0.743083	3.14831								
0.801244	3.39975	0.745731	3.14863								
0.803619	3.39805	0.748378	3.14895								
0.805995	3.39636	0.751026	3.14926								
0.808373	3.39469	0.753674	3.14957								
0.810753	3.39304	0.756322	3.14988								
0.813134	3.39141	0.758969	3.15018								
0.815517	3.38979	0.761617	3.15049								
0.817902	3.3882	0.764265	3.15079								
0.820288	3.38662	0.766912	3.15109								
0.822676	3.38506	0.76956	3.15139								
0.825065	3.38351	0.772207	3.15168								
0.827456	3.38198	0.774855	3.15197								
0.829848	3.38047	0.777502	3.15227								
0.832242	3.37897	0.780149	3.15255								
0.834637	3.37749	0.782797	3.15284								
0.837034	3.37603	0.785444	3.15313								
0.839432	3.37458	0.788091	3.15341								
0.841832	3.37315	0.790738	3.15369								
0.844234	3.37173	0.793385	3.15397								
0.846636	3.37033	0.796033	3.15424								
0.849041	3.36894	0.79868	3.15452								
0.851446	3.36756	0.801327	3.15479								
0.853853	3.36621	0.803974	3.15506								
0.856262	3.36486	0.80662	3.15533								
0.858671	3.36353	0.809267	3.1556								
0.861083	3.36221	0.811914	3.15586								
0.863495	3.36091	0.814561	3.15613								
0.865909	3.35962	0.817208	3.15639								
0.868324	3.35834	0.819854	3.15665								
0.870741	3.35708	0.822501	3.15691								
0.873159	3.35583	0.825148	3.15716								
0.875578	3.35459	0.827794	3.15742								
0.877998	3.35337	0.830441	3.15767								
0.88042	3.35215	0.833087	3.15792								
0.882843	3.35095	0.835734	3.15817								
0.885267	3.34976	0.83838	3.15842								
0.887693	3.34859	0.841027	3.15866								
0.89012	3.34743	0.843673	3.15891								
0.892548	3.34627	0.846319	3.15915								
0.894977	3.34513	0.848966	3.15939								
0.897407	3.344	0.851612	3.15963								
0.899839	3.34289	0.854258	3.15987								
0.902272	3.34178	0.856904	3.16011								
0.904706	3.34068	0.85955	3.16034								
0.907141	3.3396	0.862196	3.16057								
0.909578	3.33852	0.864842	3.1608								
0.912015	3.33746	0.867488	3.16103								
0.914454	3.33641	0.870134	3.16126								
0.916894	3.33537	0.87278	3.16149								
0.919335	3.33433	0.875426	3.16172								
0.921777	3.33331	0.878072	3.16194								
0.92422	3.3323	0.880718	3.16216								
0.926664	3.3313	0.883364	3.16238								
0.929109	3.33031	0.886009	3.1626								
0.931556	3.32932	0.888655	3.16282								
0.934003	3.32835	0.891301	3.16304								
0.936452	3.32739	0.893946	3.16325								
0.938902	3.32643	0.896592	3.16347								
0.941352	3.32549	0.899237	3.16368								
0.943804	3.32455	0.901883	3.16389								
0.946257	3.32363	0.904528	3.1641								
0.948711	3.32271	0.907174	3.16431								
0.951165	3.3218	0.909819	3.16452								
0.953621	3.3209	0.912464	3.16473								
0.956078	3.32001	0.91511	3.16493								
0.958536	3.31912	0.917755	3.16513								
0.960995	3.31825	0.9204	3.16534								
0.963454	3.31738	0.923045	3.16554								
0.965915	3.31652	0.925691	3.16574								
0.968377	3.31567	0.928336	3.16594								
0.970839	3.31483	0.930981	3.16613								
0.973303	3.31399	0.933626	3.16633								
0.975767	3.31317	0.936271	3.16652								
0.978233	3.31235	0.938916	3.16672								
0.980699	3.31154	0.941561	3.16691								
0.983166	3.31073	0.944205	3.1671								
0.985635	3.30994	0.94685	3.16729								
0.988104	3.30915	0.949495	3.16748								
0.990574	3.30836	0.95214	3.16767								
0.993045	3.30759	0.954785	3.16786								
0.995516	3.30682	0.957429	3.16804								
0.997989	3.30606	0.960074	3.16823								
1.00046	3.30531	0.962719	3.16841								
		0.965363	3.16859								
		0.968008	3.16877								
		0.970652	3.16895								
		0.973297	3.16913								
		0.975941	3.16931								
		0.978586	3.16949								
		0.98123	3.16966								
		0.983874	3.16984								
		0.986519	3.17001								
		0.989163	3.17018								
		0.991807	3.17035								
		0.994451	3.17053								
		0.997095	3.1707								
		0.999739	3.17086								
		1.00238	3.17103								
