Sym0		Asym0		Sym1		Sym2		Asym1		Asym2	
291  Points		388  Points		291  Points		232  Points		339  Points		226  Points	
Freq (MHz)	Vph (m/ms)	Freq (MHz)	Vph (m/ms)	Freq (MHz)	Vph (m/ms)	Freq (MHz)	Vph (m/ms)	Freq (MHz)	Vph (m/ms)	Freq (MHz)	Vph (m/ms)
0.488346	5044.09	0.000262569	0.144583	1.0018	5.20115	0.577379	1022.98	0.288698	522.449	0.866019	1971.42
0.488309	631.921	0.000494002	0.198238	0.999845	5.20928	0.577489	465.593	0.28879	235.074	0.865982	776.52
0.488217	337.012	0.000797466	0.251734	0.997882	5.21742	0.577681	301.464	0.288952	151.726	0.865914	483.445
0.488068	229.724	0.00117266	0.305077	0.995911	5.22559	0.577955	222.961	0.289183	112.071	0.865815	350.951
0.487865	174.206	0.00161883	0.358171	0.993932	5.23377	0.578308	176.955	0.289483	88.8999	0.865684	275.434
0.487608	140.261	0.00213547	0.41101	0.991945	5.24196	0.57874	146.739	0.289851	73.7122	0.865523	226.642
0.487299	117.355	0.0027219	0.463573	0.989948	5.25016	0.579249	125.38	0.290288	62.9948	0.865331	192.517
0.48694	100.852	0.00337712	0.515788	0.987943	5.25837	0.579832	109.488	0.290792	55.032	0.86511	167.309
0.486533	88.3931	0.00410042	0.567657	0.985927	5.26659	0.580489	97.2052	0.291362	48.8865	0.86486	147.924
0.48608	78.6522	0.00489071	0.619128	0.983901	5.27481	0.581216	87.431	0.291998	44.0028	0.864582	132.552
0.485583	70.8256	0.00574699	0.670182	0.981864	5.28304	0.582011	79.4702	0.292699	40.031	0.864277	120.063
0.485046	64.3983	0.00666812	0.720785	0.979815	5.29126	0.582871	72.863	0.293464	36.7393	0.863945	109.715
0.484469	59.0249	0.00765302	0.770921	0.977755	5.29948	0.583795	67.2925	0.294291	33.9685	0.863587	101
0.483858	54.4651	0.00870037	0.820555	0.975683	5.30769	0.584779	62.5338	0.295181	31.6053	0.863205	93.5593
0.483212	50.5467	0.00980902	0.869675	0.973598	5.3159	0.585821	58.4224	0.29613	29.5672	0.862799	87.132
0.482537	47.1427	0.0109776	0.918254	0.9715	5.32409	0.586917	54.8355	0.297139	27.7923	0.86237	81.5239
0.481833	44.158	0.0122048	0.966276	0.969388	5.33227	0.588067	51.6793	0.298206	26.2336	0.86192	76.5876
0.481104	41.5193	0.0134894	1.01373	0.967262	5.34043	0.589267	48.8812	0.29933	24.8545	0.86145	72.2089
0.480353	39.1695	0.0148298	1.06058	0.965122	5.34857	0.590515	46.3839	0.300508	23.6264	0.86096	68.2982
0.479581	37.0637	0.0162248	1.10684	0.962966	5.35669	0.591808	44.1419	0.301741	22.5262	0.860451	64.7842
0.478791	35.1657	0.0176729	1.15249	0.960795	5.36479	0.593145	42.1182	0.303026	21.5355	0.859926	61.6093
0.477985	33.4461	0.0191727	1.19752	0.958608	5.37285	0.594523	40.2826	0.304363	20.639	0.859384	58.7265
0.477165	31.8809	0.020723	1.24192	0.956405	5.38089	0.59594	38.6104	0.305749	19.8243	0.858828	56.0974
0.476335	30.4503	0.0223222	1.28567	0.954184	5.38889	0.597394	37.0807	0.307183	19.0811	0.858257	53.6897
0.475494	29.1375	0.023969	1.32879	0.951946	5.39685	0.598884	35.6764	0.308664	18.4005	0.857673	51.4766
0.474647	27.9288	0.0256621	1.37127	0.949691	5.40478	0.600407	34.3827	0.310191	17.7753	0.857077	49.4353
0.473793	26.8122	0.0274	1.4131	0.947417	5.41266	0.601963	33.1872	0.311762	17.1991	0.856471	47.5466
0.472936	25.7777	0.0291815	1.45428	0.945124	5.42049	0.603549	32.0792	0.313375	16.6667	0.855854	45.7941
0.472076	24.8165	0.0310052	1.49481	0.942813	5.42828	0.605164	31.0496	0.31503	16.1733	0.855229	44.1634
0.471216	23.9213	0.0328698	1.5347	0.940482	5.43601	0.606806	30.0903	0.316724	15.7149	0.854595	42.6423
0.470357	23.0856	0.0347741	1.57394	0.938131	5.44369	0.608475	29.1945	0.318457	15.2882	0.853955	41.2201
0.469499	22.3036	0.0367169	1.61254	0.935761	5.45132	0.610169	28.3562	0.320228	14.89	0.853308	39.8875
0.468646	21.5704	0.0386969	1.6505	0.933369	5.45888	0.611887	27.57	0.322034	14.5177	0.852656	38.6362
0.467797	20.8817	0.0407129	1.68783	0.930958	5.46639	0.613628	26.8313	0.323875	14.169	0.851999	37.4592
0.466955	20.2336	0.0427638	1.72453	0.928525	5.47383	0.61539	26.1359	0.32575	13.8417	0.851339	36.3499
0.46612	19.6227	0.0448484	1.7606	0.92607	5.4812	0.617173	25.4802	0.327656	13.534	0.850676	35.3028
0.465294	19.046	0.0469658	1.79607	0.923595	5.4885	0.618976	24.8608	0.329594	13.2443	0.850011	34.3127
0.464477	18.5007	0.0491147	1.83092	0.921097	5.49574	0.620798	24.275	0.331562	12.971	0.849345	33.3751
0.463671	17.9844	0.0512941	1.86517	0.918578	5.5029	0.622638	23.72	0.333558	12.713	0.848677	32.4861
0.462877	17.4949	0.0535032	1.89882	0.916037	5.50999	0.624495	23.1935	0.335582	12.4689	0.84801	31.6419
0.462096	17.0303	0.0557407	1.93189	0.913474	5.517	0.626368	22.6934	0.337632	12.2377	0.847344	30.8392
0.461328	16.5888	0.058006	1.96438	0.910888	5.52393	0.628258	22.2178	0.339708	12.0185	0.846679	30.0751
0.460575	16.1687	0.060298	1.9963	0.90828	5.53079	0.630163	21.7649	0.341809	11.8104	0.846016	29.347
0.459838	15.7687	0.0626157	2.02766	0.90565	5.53756	0.632082	21.3332	0.343933	11.6126	0.845356	28.6523
0.459117	15.3873	0.0649584	2.05847	0.902997	5.54426	0.634015	20.9211	0.346079	11.4243	0.844699	27.9888
0.458413	15.0234	0.0673253	2.08874	0.900323	5.55087	0.635961	20.5275	0.348247	11.245	0.844046	27.3545
0.457727	14.6758	0.0697155	2.11847	0.897626	5.5574	0.63792	20.1511	0.350436	11.074	0.843397	26.7476
0.457061	14.3436	0.0721282	2.14767	0.894906	5.56385	0.639892	19.7908	0.352644	10.9107	0.842753	26.1662
0.456414	14.0258	0.0745628	2.17636	0.892165	5.57022	0.641875	19.4456	0.354584	10.7744	0.842114	25.609
0.455788	13.7215	0.0770184	2.20454	0.889402	5.5765	0.643869	19.1146	0.356249	10.6623	0.841481	25.0743
0.455183	13.43	0.0794944	2.23223	0.886617	5.5827	0.645874	18.797	0.357633	10.5723	0.840855	24.561
0.4546	13.1506	0.0819902	2.25942	0.88381	5.58881	0.647889	18.4919	0.358732	10.5029	0.840236	24.0677
0.45404	12.8825	0.084505	2.28614	0.880982	5.59484	0.649914	18.1986	0.359542	10.4527	0.839624	23.5934
0.453504	12.6252	0.0870381	2.31239	0.878133	5.60079	0.651949	17.9164	0.360062	10.421	0.839019	23.1369
0.452993	12.378	0.0895892	2.33818	0.875263	5.60665	0.653993	17.6448	0.360811	10.376	0.838423	22.6974
0.452506	12.1405	0.0921575	2.36351	0.872372	5.61244	0.656045	17.3832	0.361627	10.3278	0.837836	22.274
0.452046	11.9121	0.0947424	2.3884	0.869461	5.61814	0.658106	17.131	0.362739	10.2633	0.837258	21.8657
0.451612	11.6924	0.0973434	2.41286	0.86653	5.62376	0.660175	16.8877	0.364152	10.1836	0.836689	21.4718
0.451206	11.481	0.0999601	2.43689	0.86358	5.62931	0.662251	16.6529	0.365867	10.0899	0.83613	21.0916
0.450828	11.2774	0.102592	2.4605	0.860609	5.63477	0.664335	16.4261	0.36789	9.98355	0.835581	20.7244
0.450479	11.0813	0.105238	2.4837	0.85762	5.64016	0.666425	16.2069	0.370224	9.86592	0.835042	20.3695
0.45016	10.8924	0.107899	2.50651	0.854612	5.64548	0.668523	15.995	0.372571	9.75279	0.834515	20.0265
0.449872	10.7102	0.110573	2.52892	0.851586	5.65072	0.670626	15.79	0.374931	9.64392	0.833999	19.6946
0.449615	10.5346	0.11326	2.55095	0.848542	5.65589	0.672736	15.5915	0.377302	9.53908	0.833495	19.3735
0.44939	10.3652	0.11596	2.5726	0.845481	5.66099	0.674852	15.3993	0.379685	9.43803	0.833002	19.0626
0.449199	10.2017	0.118672	2.59388	0.842402	5.66601	0.676973	15.2131	0.382078	9.34058	0.832523	18.7614
0.449041	10.0439	0.121397	2.6148	0.839307	5.67098	0.679099	15.0325	0.384482	9.24655	0.832055	18.4695
0.448919	9.89164	0.124133	2.63536	0.836195	5.67587	0.681231	14.8574	0.386894	9.15574	0.831601	18.1866
0.448831	9.74459	0.12688	2.65558	0.833067	5.68071	0.683367	14.6875	0.389316	9.068	0.83116	17.9121
0.448781	9.60257	0.129639	2.67546	0.829924	5.68548	0.685508	14.5225	0.391746	8.98318	0.830732	17.6459
0.448768	9.4654	0.132407	2.69501	0.826766	5.69019	0.687653	14.3623	0.394184	8.90112	0.830319	17.3875
0.448793	9.33287	0.135186	2.71423	0.823593	5.69485	0.689802	14.2066	0.396629	8.82169	0.829919	17.1365
0.448857	9.20483	0.137975	2.73313	0.820406	5.69945	0.691954	14.0553	0.399081	8.74476	0.829535	16.8928
0.448962	9.0811	0.140774	2.75172	0.817205	5.70399	0.694111	13.9081	0.40154	8.67022	0.829165	16.656
0.449108	8.96154	0.143581	2.77	0.81399	5.70849	0.69627	13.765	0.404004	8.59795	0.82881	16.4259
0.449296	8.84598	0.146398	2.78799	0.810763	5.71293	0.698433	13.6257	0.406474	8.52784	0.82847	16.2021
0.449528	8.7343	0.149223	2.80568	0.807523	5.71733	0.700599	13.49	0.408949	8.45979	0.828146	15.9845
0.449803	8.62636	0.152057	2.82308	0.80427	5.72169	0.702767	13.3579	0.411428	8.39372	0.827838	15.7727
0.450124	8.52204	0.154899	2.8402	0.801006	5.726	0.704938	13.2292	0.413912	8.32952	0.827546	15.5667
0.450491	8.42123	0.157749	2.85705	0.79773	5.73027	0.707111	13.1038	0.416399	8.26712	0.82727	15.3662
0.450905	8.3238	0.160606	2.87363	0.794444	5.7345	0.709286	12.9815	0.41889	8.20644	0.827011	15.1709
0.451368	8.22965	0.163471	2.88994	0.791146	5.7387	0.711463	12.8622	0.421383	8.1474	0.826769	14.9807
0.45188	8.13869	0.166344	2.90599	0.787839	5.74287	0.713642	12.7459	0.423879	8.08994	0.826544	14.7954
0.452443	8.05082	0.169223	2.92178	0.784521	5.747	0.715823	12.6323	0.426377	8.03397	0.826337	14.6149
0.453057	7.96594	0.172109	2.93733	0.781194	5.7511	0.718004	12.5215	0.428877	7.97945	0.826148	14.4389
0.453724	7.88396	0.175001	2.95264	0.777858	5.75518	0.720187	12.4132	0.431378	7.92631	0.825976	14.2674
0.454444	7.80481	0.1779	2.9677	0.774513	5.75924	0.722371	12.3075	0.433881	7.87449	0.825822	14.1001
0.45522	7.72841	0.180805	2.98253	0.77116	5.76327	0.724555	12.2041	0.436384	7.82394	0.825687	13.9369
0.45605	7.65468	0.183716	2.99713	0.767798	5.76728	0.726741	12.1031	0.438887	7.7746	0.825571	13.7778
0.456938	7.58353	0.186633	3.01151	0.764429	5.77127	0.728926	12.0044	0.441391	7.72644	0.825473	13.6225
0.457883	7.51491	0.189555	3.02566	0.761052	5.77525	0.731112	11.9079	0.443894	7.67939	0.825395	13.4709
0.458886	7.44875	0.192483	3.0396	0.757669	5.77922	0.733298	11.8134	0.446396	7.63342	0.825336	13.323
0.459948	7.38497	0.195416	3.05333	0.754278	5.78317	0.735484	11.721	0.448898	7.58849	0.825297	13.1786
0.461071	7.32352	0.198354	3.06684	0.750882	5.78712	0.73767	11.6305	0.451398	7.54455	0.825277	13.0375
0.462254	7.26432	0.201297	3.08016	0.747479	5.79106	0.739574	11.5533	0.453897	7.50157	0.825277	12.8998
0.463499	7.20732	0.204245	3.09327	0.74407	5.795	0.741197	11.4885	0.456394	7.45951	0.825298	12.7652
0.464805	7.15246	0.207197	3.10619	0.740657	5.79894	0.742539	11.4357	0.458889	7.41833	0.825339	12.6338
0.466174	7.09967	0.210154	3.11891	0.737238	5.80288	0.7436	11.3944	0.461381	7.378	0.825401	12.5054
0.467605	7.04891	0.213115	3.13145	0.733814	5.80683	0.74438	11.3644	0.463871	7.33849	0.825484	12.3798
0.469099	7.0001	0.216081	3.1438	0.730386	5.81078	0.744879	11.3452	0.466357	7.29977	0.825587	12.2571
0.470656	6.9532	0.21905	3.15596	0.726953	5.81474	0.745596	11.3179	0.468841	7.26181	0.825713	12.1372
0.472276	6.90815	0.222024	3.16795	0.723517	5.81871	0.746375	11.2883	0.47132	7.22459	0.825859	12.0199
0.473958	6.86489	0.225001	3.17977	0.720077	5.8227	0.747435	11.2485	0.473796	7.18807	0.826027	11.9053
0.475703	6.82336	0.227982	3.19141	0.716634	5.82671	0.748776	11.1987	0.476268	7.15223	0.826192	11.8074
0.47751	6.78351	0.230582	3.20142	0.713189	5.83074	0.750396	11.1393	0.478736	7.11704	0.826346	11.7255
0.479379	6.74529	0.232801	3.20985	0.70974	5.83479	0.752295	11.0707	0.481199	7.08249	0.826482	11.6587
0.481309	6.70864	0.234638	3.21675	0.706289	5.83886	0.754474	10.9934	0.483657	7.04855	0.826595	11.6065
0.483299	6.6735	0.23609	3.22217	0.702837	5.84297	0.756651	10.9176	0.486111	7.0152	0.826682	11.5686
0.485348	6.63983	0.237159	3.22612	0.699382	5.84711	0.758826	10.8432	0.488559	6.98242	0.826739	11.5444
0.487456	6.60756	0.237843	3.22865	0.695926	5.85128	0.760999	10.7702	0.491001	6.95018	0.826824	11.5099
0.489621	6.57665	0.238827	3.23226	0.692469	5.85549	0.76317	10.6986	0.493438	6.91848	0.826918	11.4726
0.491842	6.54705	0.239897	3.23616	0.689012	5.85975	0.765339	10.6283	0.495868	6.88729	0.827051	11.4224
0.494118	6.51869	0.241353	3.24144	0.685553	5.86404	0.767506	10.5593	0.498293	6.85659	0.827226	11.3597
0.496448	6.49154	0.243195	3.24807	0.682095	5.86839	0.76967	10.4915	0.500711	6.82637	0.82745	11.285
0.498829	6.46554	0.245424	3.256	0.678637	5.87279	0.771832	10.4249	0.503122	6.79662	0.827729	11.1988
0.501262	6.44065	0.24804	3.2652	0.675179	5.87725	0.773991	10.3595	0.505527	6.76731	0.828071	11.1019
0.503744	6.41681	0.251046	3.27562	0.671723	5.88176	0.776147	10.2952	0.507925	6.73844	0.828436	11.0071
0.506274	6.39398	0.254054	3.28589	0.668267	5.88634	0.7783	10.232	0.510315	6.70998	0.828825	10.9142
0.50885	6.37212	0.257065	3.29602	0.664813	5.89099	0.780449	10.1699	0.512698	6.68193	0.829237	10.8233
0.511471	6.35118	0.260078	3.30601	0.66136	5.89571	0.782596	10.1089	0.515074	6.65427	0.829673	10.7343
0.514134	6.33112	0.263094	3.31585	0.65791	5.90051	0.784739	10.0488	0.517441	6.62699	0.830133	10.6471
0.51684	6.3119	0.266112	3.32556	0.654463	5.90539	0.786879	9.98975	0.519801	6.60008	0.830616	10.5618
0.519585	6.29347	0.269133	3.33513	0.651018	5.91035	0.789015	9.93164	0.522153	6.57352	0.831124	10.4782
0.522369	6.27581	0.272155	3.34458	0.647576	5.91541	0.791148	9.87447	0.524497	6.54731	0.831657	10.3963
0.52519	6.25887	0.27518	3.35389	0.644139	5.92056	0.793276	9.81821	0.526832	6.52144	0.832214	10.3161
0.528046	6.24263	0.278207	3.36307	0.640705	5.92582	0.795401	9.76283	0.529158	6.49589	0.832795	10.2375
0.530936	6.22703	0.281235	3.37213	0.637276	5.93118	0.797521	9.70831	0.531476	6.47065	0.833401	10.1606
0.533858	6.21206	0.284266	3.38106	0.633852	5.93666	0.799637	9.65464	0.533785	6.44572	0.834032	10.0851
0.536812	6.19769	0.287298	3.38988	0.630433	5.94225	0.801749	9.60178	0.536085	6.42108	0.834688	10.0113
0.539795	6.18387	0.290332	3.39857	0.627019	5.94798	0.803857	9.54971	0.538376	6.39674	0.835369	9.93884
0.542807	6.17059	0.293367	3.40715	0.623612	5.95383	0.80596	9.49843	0.540658	6.37267	0.836075	9.86789
0.545846	6.15782	0.296404	3.4156	0.620212	5.95983	0.808058	9.4479	0.542931	6.34888	0.836806	9.79835
0.54891	6.14553	0.299443	3.42395	0.616819	5.96597	0.810152	9.3981	0.545194	6.32534	0.837562	9.73019
0.552	6.1337	0.302483	3.43218	0.613434	5.97228	0.812241	9.34903	0.547448	6.30207	0.838344	9.66339
0.555112	6.12231	0.305524	3.4403	0.610057	5.97874	0.814325	9.30066	0.549692	6.27905	0.839151	9.59792
0.558247	6.11132	0.308567	3.44832	0.606689	5.98538	0.816405	9.25298	0.551926	6.25627	0.839983	9.53373
0.561403	6.10073	0.31161	3.45622	0.60333	5.9922	0.818479	9.20596	0.554151	6.23372	0.840841	9.47081
0.56458	6.09051	0.314655	3.46403	0.599981	5.99921	0.820548	9.15959	0.556366	6.21141	0.841725	9.40913
0.567363	6.0819	0.317701	3.47172	0.596643	6.00643	0.822612	9.11387	0.558571	6.18933	0.842634	9.34866
0.569747	6.07475	0.320747	3.47932	0.593315	6.01386	0.82467	9.06876	0.560767	6.16746	0.843568	9.28936
0.571726	6.06898	0.323795	3.48681	0.59	6.02151	0.826723	9.02426	0.562952	6.14581	0.844529	9.23123
0.573295	6.06451	0.326844	3.49421	0.586698	6.0294	0.828771	8.98036	0.565128	6.12437	0.845514	9.17422
0.574451	6.06126	0.329893	3.5015	0.583408	6.03753	0.830814	8.93703	0.567293	6.10313	0.846526	9.11832
0.575193	6.0592	0.332943	3.5087	0.580133	6.04593	0.832851	8.89428	0.569449	6.08209	0.847562	9.0635
0.576259	6.05627	0.335994	3.51581	0.576873	6.0546	0.834882	8.85207	0.571594	6.06125	0.848625	9.00974
0.577421	6.05312	0.339045	3.52282	0.573629	6.06357	0.836908	8.81041	0.57373	6.0406	0.849713	8.95701
0.579004	6.0489	0.342097	3.52974	0.570401	6.07283	0.838928	8.76928	0.575856	6.02014	0.850826	8.90529
0.581011	6.04365	0.345149	3.53657	0.56719	6.08242	0.840943	8.72866	0.577972	5.99986	0.851965	8.85457
0.583445	6.03744	0.348202	3.54331	0.563998	6.09235	0.842951	8.68856	0.580078	5.97977	0.853129	8.80481
0.586311	6.03034	0.351255	3.54996	0.560825	6.10264	0.844954	8.64895	0.582174	5.95985	0.854318	8.756
0.589612	6.02242	0.354308	3.55652	0.557673	6.1133	0.846952	8.60982	0.58426	5.9401	0.855532	8.70813
0.592926	6.01474	0.357362	3.563	0.554542	6.12436	0.848943	8.57117	0.586337	5.92053	0.856772	8.66115
0.596252	6.00729	0.360416	3.56939	0.551433	6.13583	0.850929	8.53299	0.588404	5.90112	0.858036	8.61507
0.599589	6.00005	0.363469	3.5757	0.548349	6.14774	0.852909	8.49527	0.590461	5.88188	0.859326	8.56986
0.602936	5.99301	0.366523	3.58193	0.545289	6.16012	0.854884	8.45799	0.592509	5.86281	0.86064	8.5255
0.606294	5.98617	0.369577	3.58807	0.542255	6.17298	0.856852	8.42115	0.594547	5.84389	0.861979	8.48197
0.609661	5.97951	0.372631	3.59414	0.539248	6.18636	0.858815	8.38474	0.596577	5.82514	0.863342	8.43925
0.613037	5.97303	0.375685	3.60012	0.53627	6.20027	0.860772	8.34875	0.598597	5.80654	0.86473	8.39733
0.616422	5.96671	0.378739	3.60603	0.533322	6.21475	0.862724	8.31318	0.600607	5.7881	0.866142	8.35619
0.619814	5.96054	0.381793	3.61186	0.530406	6.22983	0.864669	8.27801	0.602609	5.76981	0.867578	8.31582
0.623213	5.95453	0.384846	3.61761	0.527522	6.24554	0.866609	8.24325	0.604603	5.75167	0.869038	8.27619
0.626619	5.94866	0.387899	3.62329	0.524672	6.26192	0.868544	8.20887	0.606587	5.73368	0.870521	8.2373
0.630032	5.94292	0.390951	3.62889	0.521858	6.27898	0.870473	8.17488	0.608563	5.71584	0.872028	8.19911
0.63345	5.93731	0.394004	3.63442	0.519081	6.29678	0.872397	8.14126	0.610531	5.69815	0.873558	8.16163
0.636874	5.93182	0.397055	3.63987	0.516343	6.31535	0.874315	8.10802	0.612491	5.6806	0.875112	8.12484
0.640302	5.92644	0.400106	3.64526	0.513645	6.33472	0.876228	8.07514	0.614443	5.6632	0.876688	8.08871
0.643736	5.92117	0.403157	3.65057	0.510989	6.35494	0.878136	8.04263	0.616386	5.64594	0.878287	8.05324
0.647173	5.91601	0.406207	3.65581	0.508376	6.37604	0.880038	8.01046	0.618323	5.62883	0.879908	8.01841
0.650614	5.91094	0.409256	3.66098	0.505808	6.39808	0.881936	7.97865	0.620252	5.61186	0.881551	7.98421
0.654058	5.90597	0.412305	3.66609	0.503287	6.42109	0.883828	7.94717	0.622173	5.59503	0.883217	7.95062
0.657506	5.90108	0.415353	3.67112	0.500814	6.44511	0.885716	7.91603	0.624088	5.57834	0.884904	7.91763
0.660955	5.89627	0.418399	3.67609	0.49839	6.47021	0.887599	7.88523	0.625996	5.56179	0.886613	7.88523
0.664408	5.89154	0.421446	3.68099	0.496018	6.49641	0.889478	7.85475	0.627897	5.54538	0.888342	7.8534
0.667862	5.88689	0.424491	3.68583	0.493698	6.52378	0.891352	7.8246	0.629792	5.52911	0.890093	7.82214
0.671317	5.8823	0.427535	3.6906	0.491432	6.55236	0.893222	7.79476	0.631681	5.51298	0.891864	7.79143
0.674774	5.87777	0.430578	3.69531	0.489221	6.5822	0.895087	7.76524	0.633564	5.49698	0.893656	7.76125
0.678231	5.87331	0.433619	3.69995	0.487066	6.61335	0.896949	7.73603	0.635441	5.48113	0.895468	7.7316
0.681689	5.86891	0.43666	3.70453	0.484969	6.64587	0.898807	7.70712	0.637313	5.46541	0.897299	7.70246
0.685148	5.86455	0.4397	3.70905	0.482931	6.67981	0.900661	7.67852	0.63918	5.44982	0.89915	7.67382
0.688606	5.86025	0.442738	3.7135	0.480952	6.71522	0.902512	7.65021	0.641041	5.43438	0.901021	7.64568
0.692064	5.85599	0.445775	3.7179	0.479033	6.75216	0.90436	7.6222	0.642899	5.41907	0.90291	7.61801
0.695521	5.85177	0.44881	3.72223	0.477176	6.79067	0.906204	7.59449	0.644751	5.4039	0.904817	7.59082
0.698977	5.8476	0.451844	3.7265	0.47538	6.83082	0.908046	7.56706	0.6466	5.38887	0.906743	7.56409
0.702431	5.84345	0.454877	3.73071	0.473646	6.87266	0.909886	7.53992	0.648445	5.37397	0.908687	7.5378
0.705884	5.83934	0.457908	3.73487	0.471975	6.91624	0.911723	7.51306	0.650286	5.3592	0.910649	7.51195
0.709335	5.83526	0.460937	3.73896	0.470367	6.96163	0.913558	7.48648	0.652123	5.34458	0.912628	7.48654
0.712784	5.83121	0.463965	3.743	0.468821	7.00887	0.91539	7.46018	0.653958	5.33009	0.914624	7.46154
0.71623	5.82718	0.466991	3.74698	0.467339	7.05803	0.917222	7.43415	0.65579	5.31573	0.916637	7.43695
0.719674	5.82317	0.470015	3.7509	0.465919	7.10916	0.919052	7.4084	0.657619	5.30151	0.918666	7.41276
0.723114	5.81918	0.473037	3.75477	0.464562	7.16232	0.920881	7.38291	0.659446	5.28743	0.920711	7.38896
0.72655	5.81521	0.476058	3.75858	0.463267	7.21757	0.92271	7.3577	0.661271	5.27348	0.922772	7.36555
0.729983	5.81124	0.479076	3.76233	0.462034	7.27497	0.924537	7.33275	0.663094	5.25967	0.924848	7.3425
0.733412	5.80729	0.482093	3.76603	0.460861	7.33457	0.926365	7.30807	0.664916	5.24599	0.926939	7.31983
0.736836	5.80334	0.485107	3.76968	0.45975	7.39644	0.928193	7.28366	0.666736	5.23245	0.929045	7.29751
0.740256	5.7994	0.48812	3.77327	0.458698	7.46065	0.930022	7.2595	0.668555	5.21904	0.931166	7.27554
0.74367	5.79546	0.49113	3.7768	0.457706	7.52726	0.931851	7.2356	0.670374	5.20577	0.9333	7.2539
0.747079	5.79153	0.494138	3.78028	0.456771	7.59634	0.933681	7.21196	0.672192	5.19264	0.935449	7.2326
0.750483	5.78758	0.497144	3.78371	0.455894	7.66795	0.935514	7.18858	0.674011	5.17964	0.93761	7.21163
0.75388	5.78364	0.500147	3.78709	0.455074	7.74217	0.937348	7.16546	0.675829	5.16677	0.939785	7.19097
0.757271	5.77968	0.503148	3.79041	0.454309	7.81907	0.939184	7.14259	0.677648	5.15404	0.941973	7.17063
0.760656	5.77572	0.506146	3.79368	0.453598	7.89872	0.941023	7.11998	0.679467	5.14145	0.944173	7.15058
0.764033	5.77174	0.509142	3.7969	0.452941	7.98122	0.942865	7.09762	0.681287	5.12899	0.946385	7.13083
0.767403	5.76775	0.512135	3.80007	0.452336	8.06664	0.94471	7.07551	0.683108	5.11667	0.948609	7.11137
0.770766	5.76374	0.515126	3.80318	0.451783	8.15507	0.94656	7.05365	0.684931	5.10448	0.950845	7.09219
0.77412	5.75971	0.518114	3.80625	0.45128	8.24661	0.948414	7.03205	0.686756	5.09242	0.953091	7.07329
0.777466	5.75566	0.521099	3.80926	0.450826	8.34135	0.950272	7.01069	0.688582	5.0805	0.955349	7.05465
0.780803	5.75158	0.524081	3.81223	0.45042	8.43939	0.952136	6.98958	0.69041	5.06871	0.957617	7.03628
0.784131	5.74748	0.52706	3.81514	0.450062	8.54083	0.954005	6.96873	0.692241	5.05706	0.959895	7.01817
0.78745	5.74335	0.530037	3.81801	0.449749	8.6458	0.95588	6.94812	0.694075	5.04554	0.962183	7.0003
0.790759	5.73919	0.53301	3.82082	0.449482	8.75442	0.957762	6.92776	0.695911	5.03415	0.96448	6.98268
0.794057	5.735	0.53598	3.82359	0.449259	8.86679	0.959651	6.90765	0.697751	5.0229	0.966787	6.96529
0.797345	5.73077	0.538948	3.8263	0.449078	8.98307	0.961548	6.88779	0.699594	5.01178	0.969103	6.94814
0.800622	5.7265	0.541911	3.82897	0.44894	9.10339	0.963452	6.86818	0.701441	5.0008	0.971427	6.93121
0.803888	5.72219	0.544872	3.83159	0.448843	9.22789	0.965365	6.84882	0.703291	4.98994	0.97376	6.91451
0.807142	5.71785	0.547829	3.83416	0.448785	9.35674	0.967287	6.8297	0.705145	4.97922	0.9761	6.89802
0.810383	5.71345	0.550783	3.83668	0.448767	9.4901	0.969218	6.81083	0.707004	4.96863	0.978448	6.88175
0.813612	5.70901	0.553733	3.83916	0.448787	9.62815	0.971159	6.79221	0.708868	4.95817	0.980804	6.86568
0.816828	5.70452	0.55668	3.84159	0.448845	9.77107	0.973111	6.77384	0.710736	4.94785	0.983167	6.84981
0.820031	5.69998	0.559623	3.84397	0.448938	9.91906	0.975074	6.75572	0.712609	4.93765	0.985536	6.83413
0.82322	5.69539	0.562562	3.8463	0.449068	10.0723	0.977048	6.73784	0.714487	4.92759	0.987913	6.81865
0.826394	5.69074	0.565498	3.84858	0.449208	10.2104	0.979035	6.72022	0.716371	4.91766	0.990295	6.80335
0.829554	5.68603	0.56843	3.85082	0.449349	10.3315	0.981034	6.70284	0.71826	4.90785	0.992683	6.78824
0.832699	5.68127	0.571358	3.85302	0.449479	10.4341	0.983046	6.68571	0.720155	4.89818	0.995077	6.7733
0.835829	5.67644	0.574282	3.85516	0.44959	10.5168	0.985072	6.66883	0.722056	4.88863	0.997476	6.75853
0.838942	5.67155	0.577202	3.85726	0.449677	10.5786	0.987112	6.6522	0.723963	4.87922	0.99988	6.74394
0.84204	5.6666	0.580118	3.85932	0.449761	10.6361	0.989166	6.63582	0.725876	4.86993	1.00229	6.72951
0.84512	5.66158	0.58303	3.86132	0.449821	10.6766	0.991236	6.61969	0.727796	4.86077		
0.848184	5.65649	0.585937	3.86329	0.449918	10.7404	0.993322	6.60381	0.729723	4.85173		
0.85123	5.65133	0.588841	3.8652	0.450057	10.8286	0.995424	6.58818	0.731657	4.84283		
0.854258	5.6461	0.59174	3.86708	0.450243	10.9424	0.997542	6.5728	0.733598	4.83405		
0.857268	5.64079	0.594634	3.8689	0.450483	11.0835	0.999678	6.55766	0.735546	4.82539		
0.86026	5.63541	0.597525	3.87069	0.450786	11.254	1.00183	6.54278	0.737502	4.81686		
0.863232	5.62995	0.60041	3.87242	0.45116	11.4567			0.739465	4.80846		
0.866185	5.62442	0.603291	3.87412	0.451563	11.6672			0.741436	4.80018		
0.869119	5.61881	0.606168	3.87576	0.451994	11.8859			0.743415	4.79202		
0.872032	5.61311	0.60904	3.87737	0.452451	12.1132			0.745402	4.78399		
0.874925	5.60734	0.611907	3.87893	0.452934	12.3496			0.747398	4.77607		
0.877797	5.60148	0.614769	3.88045	0.453443	12.5956			0.749402	4.76828		
0.880649	5.59554	0.617626	3.88192	0.453976	12.8517			0.751414	4.76061		
0.883479	5.58952	0.620478	3.88335	0.454533	13.1185			0.753435	4.75306		
0.886289	5.58342	0.623326	3.88474	0.455113	13.3966			0.755465	4.74564		
0.889076	5.57723	0.626168	3.88608	0.455716	13.6867			0.757504	4.73832		
0.891842	5.57096	0.629006	3.88738	0.456339	13.9894			0.759552	4.73113		
0.894586	5.5646	0.631838	3.88864	0.456984	14.3056			0.76161	4.72406		
0.897308	5.55817	0.634665	3.88986	0.457648	14.636			0.763676	4.7171		
0.900007	5.55164	0.637487	3.89104	0.458331	14.9818			0.765753	4.71026		
0.902685	5.54504	0.640303	3.89217	0.459033	15.3437			0.767838	4.70353		
0.90534	5.53835	0.643114	3.89326	0.459752	15.723			0.769934	4.69692		
0.907973	5.53159	0.64592	3.89431	0.460488	16.1208			0.772039	4.69042		
0.910583	5.52474	0.648721	3.89532	0.461239	16.5384			0.774154	4.68404		
0.913171	5.51782	0.651516	3.89629	0.462005	16.9773			0.776279	4.67776		
0.915737	5.51081	0.654305	3.89722	0.462785	17.4392			0.778414	4.6716		
0.918281	5.50373	0.657089	3.89811	0.463577	17.9256			0.780559	4.66555		
0.920803	5.49658	0.659868	3.89896	0.464382	18.4386			0.782715	4.65961		
0.923303	5.48936	0.662641	3.89977	0.465197	18.9804			0.784881	4.65378		
0.925781	5.48206	0.665409	3.90054	0.466023	19.5533			0.787057	4.64806		
0.928238	5.47469	0.66817	3.90127	0.466857	20.1601			0.789244	4.64244		
0.930673	5.46726	0.670927	3.90197	0.467698	20.8036			0.791441	4.63693		
0.933087	5.45977	0.673677	3.90262	0.468546	21.4874			0.793649	4.63152		
0.935481	5.45221	0.676422	3.90324	0.469399	22.2151			0.795868	4.62622		
0.937854	5.44459	0.679162	3.90382	0.470256	22.9911			0.798097	4.62102		
0.940207	5.43692	0.681895	3.90437	0.471115	23.8203			0.800337	4.61593		
0.94254	5.42919	0.684623	3.90487	0.471975	24.7082			0.802588	4.61093		
0.944854	5.42141	0.687346	3.90534	0.472835	25.6613			0.804849	4.60604		
0.947149	5.41358	0.690062	3.90578	0.473693	26.6867			0.807122	4.60125		
0.949425	5.4057	0.692774	3.90618	0.474547	27.7932			0.809405	4.59655		
0.951683	5.39778	0.695479	3.90655	0.475395	28.9906			0.811699	4.59195		
0.953922	5.38983	0.698179	3.90688	0.476236	30.2904			0.814004	4.58745		
0.956145	5.38183	0.700873	3.90718	0.477068	31.7064			0.81632	4.58304		
0.95835	5.3738	0.703561	3.90744	0.477889	33.2549			0.818647	4.57873		
0.960539	5.36574	0.706244	3.90767	0.478697	34.9552			0.820985	4.57451		
0.962712	5.35765	0.708922	3.90787	0.479489	36.8309			0.823334	4.57039		
0.96487	5.34953	0.711594	3.90804	0.480263	38.9106			0.825693	4.56635		
0.967012	5.34139	0.71426	3.90818	0.481017	41.2295			0.828064	4.56241		
0.969139	5.33323	0.716921	3.90828	0.481749	43.8317			0.830445	4.55855		
0.971253	5.32505	0.719577	3.90836	0.482456	46.7724			0.832837	4.55478		
0.973353	5.31686	0.722227	3.9084	0.483135	50.1227			0.83524	4.5511		
0.975439	5.30866	0.724872	3.90842	0.483783	53.9749			0.837654	4.54751		
0.977513	5.30044	0.727511	3.90841	0.484399	58.4515			0.840079	4.544		
0.979574	5.29223	0.730146	3.90837	0.48498	63.7186			0.842514	4.54057		
0.981624	5.284	0.732775	3.9083	0.485522	70.0068			0.84496	4.53722		
0.983662	5.27578	0.735399	3.9082	0.486024	77.6467			0.847417	4.53396		
0.985689	5.26756	0.738018	3.90808	0.486482	87.1284			0.849884	4.53077		
0.987707	5.25934	0.740631	3.90794	0.486895	99.2127			0.852361	4.52766		
0.989714	5.25113	0.74324	3.90777	0.48726	115.146			0.854849	4.52464		
0.991711	5.24292	0.745845	3.90757	0.487575	137.123			0.857348	4.52168		
0.9937	5.23473	0.748444	3.90735	0.487838	169.399			0.859857	4.51881		
0.995679	5.22655	0.751038	3.90711	0.488047	221.448			0.862376	4.516		
0.997651	5.21838	0.753628	3.90685	0.488202	319.51			0.864905	4.51327		
0.999615	5.21023	0.756214	3.90656	0.488301	573.09			0.867444	4.51061		
1.00157	5.2021	0.758794	3.90625	0.488344	2772.67			0.869994	4.50802		
		0.761371	3.90593					0.872553	4.50551		
		0.763943	3.90558					0.875122	4.50305		
		0.766511	3.90521					0.877701	4.50067		
		0.769074	3.90482					0.880289	4.49835		
		0.771634	3.90442					0.882887	4.4961		
		0.774189	3.904					0.885494	4.49391		
		0.776741	3.90356					0.888111	4.49178		
		0.779289	3.90311					0.890737	4.48971		
		0.781833	3.90264					0.893373	4.48771		
		0.784373	3.90215					0.896017	4.48576		
		0.78691	3.90165					0.89867	4.48387		
		0.789443	3.90114					0.901332	4.48204		
		0.791973	3.90061					0.904003	4.48026		
		0.7945	3.90007					0.906682	4.47853		
		0.797024	3.89952					0.90937	4.47686		
		0.799544	3.89896					0.912067	4.47525		
		0.802062	3.89839					0.914771	4.47368		
		0.804577	3.89781					0.917484	4.47216		
		0.807088	3.89721					0.920205	4.4707		
		0.809598	3.89661					0.922933	4.46928		
		0.812104	3.896					0.92567	4.4679		
		0.814608	3.89538					0.928414	4.46658		
		0.81711	3.89476					0.931166	4.4653		
		0.819609	3.89412					0.933925	4.46406		
		0.822106	3.89348					0.936692	4.46286		
		0.824601	3.89284					0.939466	4.46171		
		0.827094	3.89219					0.942247	4.4606		
		0.829585	3.89153					0.945035	4.45953		
		0.832074	3.89087					0.947829	4.4585		
		0.834561	3.8902					0.950631	4.4575		
		0.837047	3.88954					0.95344	4.45655		
		0.839531	3.88886					0.956255	4.45563		
		0.842013	3.88819					0.959076	4.45474		
		0.844494	3.88751					0.961904	4.45389		
		0.846974	3.88683					0.964738	4.45308		
		0.849452	3.88615					0.967578	4.4523		
		0.851929	3.88547					0.970424	4.45155		
		0.854405	3.88478					0.973276	4.45083		
		0.85688	3.8841					0.976134	4.45014		
		0.859354	3.88342					0.978997	4.44949		
		0.861827	3.88273					0.981866	4.44886		
		0.864299	3.88205					0.984741	4.44826		
		0.86677	3.88136					0.987621	4.44769		
		0.869241	3.88068					0.990506	4.44715		
		0.871711	3.88					0.993397	4.44663		
		0.87418	3.87932					0.996292	4.44614		
		0.876649	3.87864					0.999193	4.44568		
		0.879118	3.87797					1.0021	4.44523		
		0.881586	3.87729								
		0.884054	3.87662								
		0.886521	3.87596								
		0.888989	3.87529								
		0.891456	3.87463								
		0.893923	3.87397								
		0.89639	3.87332								
		0.898857	3.87267								
		0.901325	3.87202								
		0.903792	3.87138								
		0.906259	3.87074								
		0.908727	3.87011								
		0.911195	3.86948								
		0.913663	3.86886								
		0.916132	3.86824								
		0.918601	3.86763								
		0.92107	3.86702								
		0.92354	3.86642								
		0.926011	3.86582								
		0.928481	3.86523								
		0.930953	3.86464								
		0.933425	3.86406								
		0.935897	3.86349								
		0.938371	3.86292								
		0.940845	3.86236								
		0.94332	3.8618								
		0.945795	3.86125								
		0.948271	3.8607								
		0.950748	3.86017								
		0.953226	3.85963								
		0.955705	3.85911								
		0.958184	3.85859								
		0.960665	3.85808								
		0.963146	3.85757								
		0.965628	3.85707								
		0.968112	3.85658								
		0.970596	3.85609								
		0.973081	3.85561								
		0.975567	3.85514								
		0.978054	3.85467								
		0.980543	3.85421								
		0.983032	3.85375								
		0.985522	3.85331								
		0.988014	3.85287								
		0.990506	3.85243								
		0.993	3.852								
		0.995494	3.85158								
		0.99799	3.85116								
		1.00049	3.85076								
