Sym0		Asym0		Sym1		Sym2		Sym3		Asym1		Asym2	
253  Points		398  Points		253  Points		211  Points		148  Points		321  Points		218  Points	
Freq (MHz)	Vph (m/ms)	Freq (MHz)	Vph (m/ms)	Freq (MHz)	Vph (m/ms)	Freq (MHz)	Vph (m/ms)	Freq (MHz)	Vph (m/ms)	Freq (MHz)	Vph (m/ms)	Freq (MHz)	Vph (m/ms)
0.433012	2400.52	0.000269531	0.14645	0.433012	2714.82	0.488358	1253.85	0.866026	5369.71	0.216545	326.454	0.649525	902.961
0.432979	447.381	0.000548718	0.208808	0.43298	457.249	0.488448	415.025	0.866035	912.86	0.216692	149.365	0.649543	431.088
0.432901	246.634	0.000924998	0.270841	0.432904	249.605	0.488628	248.75	0.866058	498.844	0.216947	96.9303	0.649575	283.14
0.432779	170.207	0.00139734	0.332485	0.432783	171.618	0.488898	177.667	0.866095	343.204	0.21731	71.8239	0.64962	210.806
0.432615	129.911	0.00196435	0.393646	0.43262	130.732	0.489255	138.239	0.866145	261.597	0.217781	57.115	0.649679	167.918
0.432411	105.017	0.00262435	0.454231	0.432417	105.554	0.489698	113.183	0.866208	211.352	0.218357	47.4643	0.64975	139.537
0.432168	88.1087	0.00337547	0.514163	0.432175	88.4869	0.490224	95.8584	0.866285	177.305	0.219038	40.6538	0.649835	119.37
0.431889	75.8717	0.00421577	0.573386	0.431897	76.1524	0.490831	83.171	0.866375	152.712	0.219821	35.5967	0.649933	104.301
0.431578	66.6037	0.00514297	0.631827	0.431586	66.8203	0.491516	73.4823	0.866479	134.116	0.220704	31.698	0.650044	92.6156
0.431236	59.3399	0.00615472	0.689429	0.431246	59.5123	0.492275	65.8446	0.866596	119.562	0.221686	28.6041	0.650169	83.2892
0.430868	53.4931	0.00724849	0.746137	0.430878	53.6334	0.493106	59.671	0.866727	107.862	0.222764	26.0922	0.650306	75.6735
0.430476	48.685	0.0084217	0.801905	0.430487	48.8014	0.494006	54.5792	0.866871	98.2516	0.223936	24.0146	0.650457	69.3376
0.430063	44.6611	0.00967175	0.8567	0.430075	44.7593	0.494971	50.3091	0.867028	90.2178	0.225199	22.2695	0.650622	63.9844
0.429633	41.2438	0.0109958	0.910475	0.429645	41.3278	0.495999	46.6778	0.8672	83.4021	0.22655	20.7846	0.650799	59.4019
0.429189	38.3056	0.0123911	0.963206	0.429201	38.3782	0.497086	43.5526	0.867384	77.5472	0.227986	19.5072	0.65099	55.435
0.428733	35.7523	0.0138549	1.01488	0.428746	35.8157	0.49823	40.8356	0.867582	72.4635	0.229505	18.3976	0.651194	51.9678
0.428269	33.513	0.0153845	1.06546	0.428282	33.5688	0.499427	38.4521	0.867793	68.0084	0.231104	17.4259	0.651411	48.9116
0.427799	31.5332	0.0169771	1.11496	0.427812	31.5827	0.500675	36.3448	0.868018	64.0721	0.23278	16.5685	0.651642	46.1975
0.427326	29.7704	0.0186299	1.16335	0.427338	29.8146	0.501973	34.4687	0.868257	60.5692	0.234531	15.8072	0.651886	43.7713
0.426851	28.1908	0.0203404	1.21063	0.426864	28.2306	0.503316	32.7881	0.868509	57.432	0.236353	15.1272	0.652143	41.5896
0.426378	26.7676	0.0221058	1.2568	0.42639	26.8035	0.504704	31.2743	0.868774	54.6062	0.238244	14.5166	0.652413	39.6174
0.425908	25.4786	0.0239237	1.30187	0.42592	25.5112	0.506134	29.9038	0.869052	52.0477	0.2402	13.9657	0.652697	37.8259
0.425444	24.3058	0.0257916	1.34585	0.425456	24.3356	0.507605	28.6574	0.869344	49.7204	0.24222	13.4666	0.652994	36.1916
0.424987	23.2345	0.027707	1.38874	0.424999	23.2617	0.509114	27.5192	0.86965	47.5945	0.244301	13.0127	0.653305	34.6947
0.424539	22.2521	0.0296676	1.43055	0.42455	22.2771	0.510659	26.4759	0.869969	45.6449	0.24644	12.5982	0.653629	33.3186
0.424101	21.3481	0.0316713	1.4713	0.424113	21.3711	0.512241	25.5162	0.870301	43.8507	0.248635	12.2186	0.653966	32.0493
0.423676	20.5136	0.0337158	1.51101	0.423687	20.5349	0.513856	24.6305	0.870647	42.1941	0.250883	11.8697	0.654316	30.875
0.423265	19.741	0.0357992	1.54968	0.423276	19.7608	0.515503	23.8108	0.871006	40.6599	0.253183	11.5483	0.65468	29.7855
0.422869	19.0239	0.0379193	1.58735	0.422879	19.0422	0.517182	23.05	0.871379	39.235	0.255531	11.2513	0.655058	28.7719
0.422489	18.3565	0.0400744	1.62404	0.422499	18.3736	0.518891	22.3421	0.871765	37.9084	0.257926	10.9762	0.655449	27.8267
0.422126	17.734	0.0422625	1.65975	0.422136	17.75	0.52063	21.6818	0.872165	36.6701	0.26005	10.7526	0.655853	26.9431
0.421783	17.1522	0.0444821	1.69451	0.421792	17.1671	0.522396	21.0646	0.872578	35.5118	0.261886	10.5728	0.656271	26.1155
0.421459	16.6072	0.0467313	1.72835	0.421467	16.6212	0.52419	20.4865	0.873004	34.4259	0.263422	10.4311	0.656702	25.3387
0.421156	16.0959	0.0490087	1.76129	0.421164	16.109	0.52601	19.9438	0.873444	33.406	0.264648	10.3233	0.657146	24.6082
0.420875	15.6152	0.0513128	1.79334	0.420882	15.6276	0.527855	19.4336	0.873897	32.4461	0.265555	10.2463	0.657605	23.92
0.420616	15.1627	0.0536421	1.82454	0.420623	15.1743	0.529725	18.953	0.874363	31.5413	0.266138	10.1979	0.658076	23.2707
0.420382	14.7359	0.0559954	1.8549	0.420388	14.7469	0.531619	18.4996	0.874843	30.687	0.266979	10.1298	0.658562	22.6569
0.420172	14.3329	0.0583712	1.88445	0.420177	14.3433	0.533536	18.0711	0.875337	29.879	0.267899	10.0573	0.659061	22.0761
0.419987	13.9519	0.0607684	1.91321	0.419992	13.9617	0.535476	17.6657	0.875843	29.1138	0.269157	9.96155	0.659573	21.5255
0.419829	13.5911	0.0631859	1.94119	0.419833	13.6004	0.537438	17.2815	0.876363	28.388	0.270761	9.84467	0.660099	21.0029
0.419698	13.2491	0.0656226	1.96843	0.419701	13.258	0.539421	16.9169	0.876897	27.6988	0.272718	9.70933	0.660639	20.5063
0.419595	12.9246	0.0680773	1.99494	0.419598	12.933	0.541426	16.5706	0.877444	27.0434	0.275038	9.55843	0.661193	20.0338
0.419521	12.6163	0.0705492	2.02075	0.419523	12.6243	0.54345	16.2411	0.878004	26.4195	0.277732	9.39494	0.66176	19.5838
0.419476	12.3232	0.0730372	2.04587	0.419477	12.3307	0.545494	15.9274	0.878577	25.8249	0.280457	9.24098	0.662341	19.1546
0.419462	12.0441	0.0755406	2.07033	0.419462	12.0513	0.547558	15.6283	0.879164	25.2575	0.283213	9.09578	0.662935	18.745
0.419479	11.7783	0.0780584	2.09414	0.419478	11.7852	0.549641	15.343	0.879765	24.7157	0.285997	8.95865	0.663544	18.3535
0.419528	11.5249	0.0805899	2.11733	0.419526	11.5314	0.551742	15.0704	0.880378	24.1976	0.288809	8.82897	0.664166	17.9791
0.41961	11.283	0.0831344	2.13991	0.419607	11.2893	0.553861	14.8097	0.881005	23.7019	0.291648	8.70618	0.664802	17.6208
0.419725	11.0521	0.085691	2.1619	0.419705	11.0873	0.555998	14.5603	0.881646	23.227	0.294512	8.58977	0.665452	17.2774
0.419875	10.8315	0.0882591	2.18332	0.419809	10.9212	0.558153	14.3214	0.8823	22.7719	0.297401	8.47928	0.666116	16.9481
0.420059	10.6205	0.0908382	2.20418	0.419909	10.7881	0.560324	14.0924	0.882967	22.3352	0.300312	8.37429	0.666794	16.6322
0.42028	10.4187	0.0934275	2.22451	0.419998	10.6854	0.562512	13.8727	0.883647	21.9158	0.303246	8.27441	0.667486	16.3287
0.420538	10.2255	0.0960266	2.24432	0.420068	10.6113	0.564716	13.6617	0.884341	21.5129	0.306201	8.1793	0.668192	16.0371
0.420834	10.0404	0.0986348	2.26362	0.420116	10.5644	0.566936	13.459	0.885048	21.1255	0.309176	8.08864	0.668912	15.7566
0.421168	9.86311	0.101252	2.28243	0.420188	10.4979	0.569171	13.2641	0.885769	20.7526	0.312171	8.00213	0.669646	15.4866
0.421543	9.69313	0.103877	2.30076	0.42027	10.4267	0.571422	13.0766	0.886503	20.3936	0.315184	7.91952	0.670394	15.2266
0.421958	9.53011	0.106509	2.31863	0.42039	10.3317	0.573688	12.8961	0.88725	20.0476	0.318215	7.84054	0.671157	14.9761
0.422414	9.37372	0.109149	2.33606	0.420555	10.2143	0.575968	12.7222	0.88801	19.714	0.321262	7.76498	0.671934	14.7345
0.422913	9.22363	0.111796	2.35305	0.420772	10.0764	0.578263	12.5545	0.888784	19.3922	0.324326	7.69262	0.672725	14.5015
0.423457	9.07955	0.11445	2.36963	0.421055	9.92018	0.580572	12.3928	0.889572	19.0816	0.327405	7.62328	0.67353	14.2765
0.424045	8.94119	0.116767	2.38373	0.421416	9.74785	0.582896	12.2367	0.890372	18.7815	0.330499	7.55677	0.67435	14.0592
0.424679	8.80832	0.118745	2.39552	0.421818	9.5826	0.585232	12.086	0.891186	18.4915	0.333607	7.49293	0.675184	13.8493
0.42536	8.68067	0.120384	2.40511	0.42226	9.42408	0.587582	11.9403	0.892014	18.2112	0.336728	7.4316	0.676033	13.6463
0.426089	8.55804	0.121681	2.41259	0.422746	9.27196	0.589946	11.7995	0.892854	17.9399	0.339863	7.37264	0.676896	13.4499
0.426869	8.4402	0.122635	2.41803	0.423274	9.12595	0.592322	11.6634	0.893708	17.6774	0.343009	7.31592	0.677774	13.2599
0.427699	8.32697	0.123247	2.42149	0.423848	8.98575	0.59471	11.5316	0.894576	17.4232	0.346166	7.26132	0.678666	13.0759
0.428581	8.21816	0.124126	2.42642	0.424466	8.85112	0.597112	11.4041	0.895456	17.1769	0.349335	7.20872	0.679574	12.8977
0.429517	8.1136	0.125082	2.43174	0.425132	8.72179	0.599214	11.2962	0.89635	16.9382	0.352514	7.15801	0.680496	12.7251
0.430508	8.01313	0.126383	2.43891	0.425846	8.59754	0.601014	11.2065	0.897258	16.7068	0.355703	7.1091	0.681433	12.5577
0.431556	7.9166	0.12803	2.44784	0.426609	8.47816	0.602507	11.1339	0.898179	16.4823	0.358902	7.06188	0.682385	12.3953
0.432661	7.82385	0.130024	2.45848	0.427422	8.36345	0.60369	11.0775	0.899113	16.2644	0.362109	7.01628	0.683352	12.2379
0.433825	7.73477	0.132367	2.47071	0.428287	8.25322	0.604562	11.0366	0.900061	16.0529	0.365324	6.97221	0.684333	12.085
0.43505	7.64922	0.135058	2.48444	0.429206	8.14729	0.605121	11.0106	0.901022	15.8474	0.368548	6.92959	0.685331	11.9366
0.436336	7.56707	0.137754	2.49784	0.430179	8.0455	0.605926	10.9736	0.901996	15.6479	0.371779	6.88836	0.686343	11.7925
0.437686	7.48823	0.140453	2.51093	0.431207	7.94769	0.606802	10.9337	0.902984	15.4539	0.375017	6.84844	0.68737	11.6525
0.439101	7.41257	0.143155	2.52371	0.432293	7.85373	0.607995	10.8803	0.903985	15.2653	0.378261	6.80976	0.688278	11.5338
0.440581	7.34	0.14586	2.5362	0.433438	7.76346	0.609508	10.8137	0.904999	15.0819	0.381512	6.77228	0.689062	11.4348
0.442129	7.27041	0.148568	2.54839	0.434643	7.67677	0.611344	10.7349	0.906027	14.9035	0.384768	6.73593	0.689716	11.3545
0.443745	7.2037	0.151279	2.56031	0.435909	7.59353	0.613505	10.6446	0.907069	14.7298	0.38803	6.70066	0.690237	11.292
0.445431	7.1398	0.153993	2.57196	0.437238	7.51362	0.615995	10.5437	0.908124	14.5607	0.391296	6.66642	0.690623	11.2466
0.447187	7.0786	0.156709	2.58334	0.438632	7.43693	0.618496	10.4458	0.909192	14.3961	0.394567	6.63316	0.690871	11.2177
0.449014	7.02002	0.159426	2.59447	0.440091	7.36336	0.621007	10.3505	0.910273	14.2358	0.397842	6.60084	0.691229	11.1766
0.450913	6.96397	0.162146	2.60535	0.441616	7.2928	0.623528	10.2579	0.911369	14.0795	0.401121	6.56941	0.69162	11.1323
0.452884	6.91038	0.164868	2.61598	0.44321	7.22517	0.626059	10.1678	0.912477	13.9272	0.404403	6.53884	0.692154	11.0727
0.454928	6.85916	0.167592	2.62638	0.444873	7.16036	0.628601	10.0802	0.913599	13.7787	0.407688	6.50908	0.692836	10.9985
0.457045	6.81023	0.170317	2.63655	0.446606	7.09829	0.631152	9.99491	0.914735	13.6339	0.410975	6.4801	0.693668	10.9104
0.459235	6.7635	0.173043	2.6465	0.448409	7.03886	0.633712	9.91186	0.915884	13.4927	0.414265	6.45186	0.694656	10.8093
0.461498	6.71891	0.175771	2.65623	0.450285	6.982	0.636282	9.83098	0.917047	13.3549	0.417557	6.42434	0.695804	10.6961
0.463833	6.67637	0.1785	2.66575	0.452232	6.92762	0.638862	9.75218	0.918223	13.2204	0.42085	6.39751	0.696968	10.5859
0.466241	6.63581	0.181231	2.67507	0.454253	6.87563	0.64145	9.67539	0.919412	13.0892	0.424144	6.37132	0.698148	10.4785
0.468719	6.59714	0.183962	2.68419	0.456346	6.82596	0.644047	9.60054	0.920616	12.961	0.42744	6.34576	0.699345	10.3738
0.471267	6.5603	0.186694	2.69311	0.458512	6.77852	0.646653	9.52756	0.921832	12.8358	0.430735	6.3208	0.700557	10.2718
0.473884	6.52521	0.189427	2.70184	0.460751	6.73324	0.649268	9.45637	0.923063	12.7136	0.434031	6.29641	0.701787	10.1724
0.476568	6.49179	0.192161	2.71039	0.463063	6.69004	0.651891	9.38692	0.924307	12.5941	0.437327	6.27256	0.703033	10.0755
0.479319	6.45996	0.194895	2.71877	0.465447	6.64884	0.654522	9.31914	0.925564	12.4774	0.440622	6.24925	0.704295	9.98094
0.482134	6.42967	0.19763	2.72696	0.467902	6.60956	0.657162	9.25298	0.926835	12.3633	0.443916	6.22643	0.705574	9.88872
0.485012	6.40083	0.200365	2.73499	0.470427	6.57214	0.659809	9.18838	0.92812	12.2517	0.447209	6.2041	0.70687	9.79874
0.487951	6.37338	0.203101	2.74286	0.473022	6.53648	0.662464	9.1253	0.929419	12.1427	0.450501	6.18223	0.708183	9.71095
0.490948	6.34725	0.205837	2.75056	0.475685	6.50252	0.665127	9.06367	0.930562	12.0496	0.453791	6.1608	0.709514	9.62526
0.494002	6.32238	0.208574	2.7581	0.478414	6.47018	0.667798	9.00345	0.931544	11.9716	0.457078	6.1398	0.710861	9.54161
0.497111	6.29869	0.211311	2.7655	0.481208	6.4394	0.670475	8.9446	0.932362	11.9081	0.460364	6.11921	0.712226	9.45995
0.500273	6.27613	0.214048	2.77274	0.484066	6.41009	0.673161	8.88706	0.933012	11.8585	0.463646	6.099	0.713608	9.3802
0.503485	6.25464	0.216785	2.77984	0.486985	6.3822	0.675853	8.8308	0.933493	11.8223	0.466925	6.07917	0.715008	9.30232
0.506746	6.23416	0.219522	2.7868	0.489963	6.35564	0.678552	8.77578	0.933801	11.7993	0.470201	6.0597	0.716425	9.22624
0.510052	6.21464	0.222259	2.79362	0.492999	6.33036	0.681259	8.72196	0.934246	11.7665	0.473474	6.04057	0.717861	9.15192
0.513403	6.19602	0.224996	2.80031	0.49609	6.3063	0.683972	8.6693	0.934731	11.731	0.476742	6.02177	0.719314	9.0793
0.516795	6.17825	0.227733	2.80687	0.499235	6.28338	0.686691	8.61776	0.935393	11.6833	0.480006	6.00329	0.720786	9.00834
0.520228	6.16128	0.23047	2.81329	0.502431	6.26154	0.689417	8.56731	0.936235	11.6236	0.483265	5.98511	0.722275	8.93899
0.523698	6.14508	0.233206	2.8196	0.505676	6.24074	0.69215	8.51791	0.93726	11.5524	0.48652	5.96723	0.723783	8.8712
0.527204	6.12958	0.235943	2.82578	0.508968	6.22091	0.694889	8.46955	0.938473	11.4703	0.489769	5.94962	0.72531	8.80493
0.530745	6.11476	0.238679	2.83185	0.512304	6.202	0.697634	8.42217	0.939877	11.378	0.493012	5.93227	0.726855	8.74014
0.534317	6.10058	0.241415	2.8378	0.515683	6.18396	0.700385	8.37576	0.941296	11.2876	0.49625	5.91519	0.728419	8.67679
0.53792	6.08699	0.244151	2.84364	0.519103	6.16674	0.703142	8.33029	0.942728	11.199	0.499482	5.89835	0.730002	8.61484
0.541551	6.07396	0.246886	2.84936	0.522561	6.15029	0.705905	8.28573	0.944174	11.1122	0.502707	5.88174	0.731603	8.55425
0.54521	6.06146	0.249621	2.85498	0.526056	6.13457	0.708673	8.24205	0.945634	11.0272	0.505926	5.86536	0.733224	8.49499
0.548894	6.04946	0.252356	2.8605	0.529585	6.11953	0.711447	8.19922	0.947108	10.9439	0.509137	5.8492	0.734865	8.43703
0.552602	6.03793	0.25509	2.86591	0.533147	6.10514	0.714227	8.15723	0.948595	10.8623	0.512341	5.83324	0.736525	8.38032
0.556332	6.02683	0.257824	2.87122	0.53674	6.09136	0.717013	8.11605	0.950097	10.7823	0.515538	5.81748	0.738204	8.32484
0.560084	6.01615	0.260558	2.87644	0.540363	6.07816	0.719803	8.07566	0.951613	10.7038	0.518727	5.80191	0.739903	8.27056
0.563855	6.00586	0.263291	2.88156	0.544013	6.06549	0.722599	8.03604	0.953143	10.6269	0.521907	5.78652	0.741622	8.21744
0.567644	5.99594	0.266023	2.88659	0.547688	6.05333	0.7254	7.99716	0.954687	10.5515	0.52508	5.77131	0.74336	8.16547
0.571451	5.98636	0.268755	2.89153	0.551389	6.04164	0.728206	7.959	0.956245	10.4775	0.528243	5.75626	0.745119	8.1146
0.575274	5.9771	0.271486	2.89638	0.555112	6.03041	0.731018	7.92155	0.957817	10.405	0.531398	5.74137	0.746898	8.06482
0.579112	5.96815	0.274217	2.90114	0.558857	6.0196	0.733834	7.88479	0.959403	10.3338	0.534543	5.72663	0.748698	8.01609
0.582964	5.95948	0.276947	2.90582	0.562621	6.00918	0.736655	7.8487	0.961004	10.264	0.537679	5.71204	0.750517	7.96839
0.586828	5.95108	0.279677	2.91041	0.566405	5.99914	0.739481	7.81326	0.962619	10.1955	0.540805	5.69758	0.752358	7.92171
0.590705	5.94294	0.282406	2.91493	0.570206	5.98945	0.742311	7.77845	0.964247	10.1283	0.54392	5.68326	0.754219	7.876
0.594592	5.93503	0.285135	2.91936	0.574024	5.98009	0.745147	7.74426	0.965891	10.0623	0.547026	5.66907	0.756101	7.83126
0.598489	5.92734	0.287863	2.92372	0.577857	5.97104	0.747987	7.71067	0.967548	9.99756	0.550121	5.655	0.758004	7.78745
0.602396	5.91987	0.29059	2.92801	0.581704	5.96228	0.750831	7.67768	0.96922	9.934	0.553206	5.64105	0.759927	7.74457
0.606311	5.91259	0.293317	2.93221	0.585565	5.9538	0.753681	7.64525	0.970906	9.87161	0.556279	5.6272	0.761872	7.70258
0.610233	5.90549	0.296043	2.93635	0.589438	5.94557	0.756534	7.61339	0.972606	9.81036	0.559341	5.61346	0.763838	7.66146
0.614163	5.89857	0.298768	2.94042	0.593321	5.93759	0.759392	7.58207	0.974321	9.75022	0.562392	5.59983	0.765826	7.6212
0.618098	5.89181	0.301493	2.94442	0.597216	5.92983	0.762255	7.55128	0.97605	9.69115	0.565431	5.58629	0.767834	7.58178
0.622039	5.8852	0.304217	2.94835	0.601119	5.92229	0.765122	7.52102	0.977794	9.63315	0.568458	5.57284	0.769864	7.54318
0.625985	5.87873	0.30694	2.95221	0.605032	5.91494	0.767993	7.49126	0.979552	9.57618	0.571473	5.55949	0.771916	7.50537
0.629934	5.8724	0.309663	2.95601	0.608952	5.90779	0.770869	7.46199	0.981325	9.52023	0.574476	5.54621	0.773989	7.46835
0.633887	5.86619	0.312385	2.95975	0.612879	5.90081	0.773749	7.43322	0.983112	9.46526	0.577467	5.53302	0.776084	7.43209
0.637843	5.86009	0.315106	2.96342	0.616813	5.894	0.776634	7.40491	0.984913	9.41126	0.580445	5.51991	0.7782	7.39659
0.641801	5.85411	0.317827	2.96704	0.620752	5.88734	0.779523	7.37707	0.98673	9.3582	0.58341	5.50687	0.780339	7.36181
0.64576	5.84822	0.320547	2.97059	0.624696	5.88083	0.782416	7.34968	0.98856	9.30606	0.586362	5.4939	0.782498	7.32775
0.649721	5.84242	0.323266	2.97409	0.628644	5.87445	0.785314	7.32274	0.990406	9.25483	0.589301	5.481	0.78468	7.29439
0.653682	5.83671	0.325985	2.97753	0.632596	5.8682	0.788216	7.29623	0.992266	9.20449	0.592227	5.46817	0.786883	7.26172
0.657643	5.83108	0.328703	2.98092	0.636551	5.86207	0.791122	7.27014	0.99414	9.155	0.595139	5.45539	0.789108	7.22972
0.661603	5.82553	0.33142	2.98425	0.640508	5.85605	0.794033	7.24447	0.99603	9.10637	0.598038	5.44268	0.791355	7.19837
0.665563	5.82004	0.334136	2.98753	0.644467	5.85013	0.796949	7.2192	0.997934	9.05856	0.600924	5.43003	0.793623	7.16766
0.66952	5.81461	0.336852	2.99075	0.648428	5.84431	0.799869	7.19434	0.999852	9.01157	0.603796	5.41743	0.795914	7.13759
0.673476	5.80923	0.339567	2.99393	0.652389	5.83857	0.802793	7.16986	1.00179	8.96537	0.606654	5.40489	0.798225	7.10813
0.677429	5.80391	0.342281	2.99705	0.65635	5.83291	0.805722	7.14577			0.609498	5.3924	0.800559	7.07926
0.681379	5.79863	0.344995	3.00013	0.66031	5.82733	0.808656	7.12205			0.612328	5.37996	0.802914	7.05099
0.685325	5.79339	0.347708	3.00315	0.66427	5.82182	0.811595	7.0987			0.615145	5.36757	0.80529	7.02329
0.689267	5.78819	0.35042	3.00613	0.668228	5.81637	0.814538	7.07571			0.617947	5.35523	0.807687	6.99616
0.693205	5.78302	0.353132	3.00907	0.672185	5.81098	0.817487	7.05308			0.620735	5.34294	0.810106	6.96957
0.697138	5.77787	0.355842	3.01196	0.676139	5.80564	0.82044	7.0308			0.62351	5.33069	0.812546	6.94353
0.701065	5.77275	0.358552	3.0148	0.68009	5.80035	0.823399	7.00886			0.62627	5.31848	0.815007	6.91801
0.704987	5.76764	0.361262	3.0176	0.684037	5.7951	0.826363	6.98726			0.629017	5.30632	0.817489	6.893
0.708902	5.76255	0.36397	3.02036	0.687981	5.78989	0.829332	6.96598			0.631749	5.2942	0.819992	6.8685
0.712811	5.75747	0.366678	3.02308	0.69192	5.7847	0.832307	6.94504			0.634467	5.28213	0.822515	6.84449
0.716712	5.75239	0.369385	3.02576	0.695855	5.77955	0.835287	6.92441			0.637172	5.2701	0.825059	6.82097
0.720605	5.74732	0.372092	3.02839	0.699784	5.77442	0.838274	6.9041			0.639862	5.2581	0.827623	6.79791
0.72449	5.74224	0.374798	3.03099	0.703707	5.76931	0.841266	6.88409			0.642539	5.24615	0.830207	6.77531
0.728367	5.73716	0.377503	3.03355	0.707624	5.76421	0.844264	6.8644			0.645202	5.23424	0.832811	6.75316
0.732235	5.73208	0.380207	3.03607	0.711535	5.75913	0.847268	6.845			0.647851	5.22238	0.835434	6.73146
0.736093	5.72698	0.382911	3.03855	0.715439	5.75405	0.850279	6.8259			0.650487	5.21055	0.838077	6.71018
0.739942	5.72187	0.385614	3.041	0.719335	5.74897	0.853297	6.8071			0.653109	5.19876	0.840739	6.68932
0.74378	5.71674	0.388316	3.04341	0.723223	5.7439	0.856321	6.78858			0.655718	5.18702	0.84342	6.66887
0.747608	5.71159	0.391018	3.04579	0.727102	5.73882	0.859352	6.77035			0.658314	5.17531	0.84612	6.64882
0.751424	5.70642	0.393719	3.04813	0.730973	5.73374	0.862391	6.7524			0.660896	5.16365	0.848838	6.62916
0.755229	5.70122	0.396419	3.05044	0.734835	5.72865	0.865437	6.73472			0.663466	5.15203	0.851575	6.60989
0.759021	5.69599	0.399118	3.05272	0.738686	5.72354	0.86849	6.71732			0.666023	5.14046	0.854329	6.59098
0.762802	5.69073	0.401817	3.05496	0.742528	5.71842	0.871551	6.70019			0.668567	5.12892	0.857101	6.57244
0.766569	5.68544	0.404515	3.05717	0.746359	5.71327	0.874621	6.68333			0.671099	5.11743	0.85989	6.55425
0.770323	5.68011	0.407213	3.05935	0.750179	5.70811	0.877698	6.66674			0.673618	5.10598	0.862697	6.53641
0.774064	5.67474	0.40991	3.0615	0.753988	5.70292	0.880785	6.6504			0.676125	5.09458	0.86552	6.51891
0.77779	5.66933	0.412606	3.06362	0.757784	5.6977	0.88388	6.63433			0.67862	5.08322	0.868359	6.50173
0.781502	5.66388	0.415301	3.06571	0.761569	5.69245	0.886984	6.61851			0.681103	5.0719	0.871215	6.48488
0.785199	5.65839	0.417996	3.06777	0.76534	5.68717	0.890097	6.60294			0.683575	5.06064	0.874086	6.46834
0.788881	5.65284	0.42069	3.0698	0.769099	5.68185	0.89322	6.58763			0.686036	5.04942	0.876973	6.45211
0.792547	5.64725	0.423384	3.07181	0.772844	5.6765	0.896352	6.57256			0.688485	5.03824	0.879875	6.43617
0.796198	5.6416	0.426077	3.07378	0.776575	5.67111	0.899495	6.55774			0.690923	5.02712	0.882791	6.42052
0.799831	5.63591	0.428769	3.07573	0.780292	5.66567	0.902648	6.54316			0.69335	5.01604	0.885722	6.40516
0.803449	5.63016	0.431461	3.07766	0.783994	5.66019	0.905811	6.52883			0.695767	5.00501	0.888667	6.39007
0.807049	5.62435	0.434151	3.07956	0.787681	5.65466	0.908985	6.51473			0.698174	4.99404	0.891626	6.37525
0.810632	5.61849	0.436842	3.08143	0.791352	5.64908	0.912171	6.50087			0.70057	4.98311	0.894598	6.36069
0.814197	5.61257	0.439531	3.08327	0.795007	5.64345	0.915367	6.48725			0.702957	4.97224	0.897583	6.34638
0.817744	5.60658	0.44222	3.0851	0.798647	5.63777	0.918575	6.47386			0.705334	4.96142	0.900581	6.33232
0.821273	5.60054	0.444909	3.08689	0.802269	5.63204	0.921795	6.4607			0.707701	4.95065	0.903591	6.3185
0.824783	5.59444	0.447596	3.08867	0.805875	5.62625	0.925027	6.44776			0.710059	4.93993	0.906613	6.30492
0.828275	5.58828	0.450284	3.09042	0.809464	5.62041	0.928271	6.43506			0.712408	4.92927	0.909647	6.29156
0.831747	5.58205	0.45297	3.09214	0.813035	5.61451	0.931527	6.42257			0.714748	4.91867	0.912692	6.27843
0.8352	5.57576	0.455656	3.09385	0.816588	5.60854	0.934797	6.41031			0.71708	4.90812	0.915747	6.26551
0.838634	5.56941	0.458341	3.09553	0.820122	5.60252	0.938079	6.39827			0.719404	4.89762	0.918813	6.2528
0.842048	5.56299	0.461026	3.09719	0.823639	5.59644	0.941374	6.38644			0.721719	4.88719	0.921889	6.24029
0.845442	5.55651	0.46371	3.09883	0.827137	5.5903	0.944682	6.37483			0.724026	4.87681	0.924975	6.22798
0.848817	5.54996	0.466393	3.10045	0.830615	5.58409	0.948004	6.36343			0.726326	4.86649	0.928071	6.21587
0.852171	5.54335	0.469076	3.10204	0.834075	5.57782	0.951339	6.35224			0.728618	4.85622	0.931175	6.20394
0.855077	5.53754	0.471758	3.10362	0.837515	5.57149	0.954688	6.34126			0.730903	4.84602	0.934288	6.1922
0.857543	5.53255	0.47444	3.10518	0.840936	5.56509	0.95805	6.33049			0.733181	4.83588	0.937409	6.18063
0.859573	5.5284	0.477121	3.10671	0.844336	5.55863	0.961427	6.31992			0.735453	4.82579	0.940538	6.16923
0.861173	5.52509	0.479801	3.10823	0.847717	5.55211	0.964817	6.30955			0.737717	4.81577	0.943675	6.158
0.862346	5.52266	0.482481	3.10973	0.851078	5.54552	0.968222	6.29937			0.739975	4.80581	0.946819	6.14693
0.863096	5.52109	0.485161	3.11121	0.854419	5.53887	0.971641	6.28939			0.742227	4.79591	0.94997	6.13602
0.864172	5.51884	0.487839	3.11267	0.857739	5.53215	0.975073	6.27961			0.744474	4.78607	0.953127	6.12526
0.865338	5.51638	0.490518	3.11411	0.861039	5.52537	0.97852	6.27001			0.746714	4.7763	0.95629	6.11464
0.866921	5.51303	0.493195	3.11553	0.864318	5.51853	0.981981	6.2606			0.748949	4.76658	0.959459	6.10417
0.868915	5.50877	0.495872	3.11694	0.867578	5.51163	0.985457	6.25137			0.751178	4.75693	0.962634	6.09384
0.871317	5.50359	0.498549	3.11833	0.870816	5.50467	0.988946	6.24233			0.753402	4.74734	0.965814	6.08365
0.87412	5.49746	0.501224	3.1197	0.874034	5.49765	0.992449	6.23346			0.755621	4.73782	0.968998	6.07358
0.877317	5.49038	0.5039	3.12106	0.877232	5.49057	0.995967	6.22476			0.757836	4.72836	0.972187	6.06364
0.880494	5.48324	0.506575	3.12239	0.88041	5.48343	0.999498	6.21624			0.760046	4.71896	0.97538	6.05383
0.88365	5.47605	0.509249	3.12372	0.883567	5.47624	1.00304	6.20789			0.762251	4.70963	0.978577	6.04413
0.886787	5.4688	0.511922	3.12502	0.886704	5.46899					0.764452	4.70036	0.981777	6.03454
0.889903	5.46149	0.514596	3.12631	0.889821	5.46169					0.766649	4.69116	0.98498	6.02507
0.892999	5.45414	0.517268	3.12759	0.892918	5.45433					0.768842	4.68202	0.988187	6.01571
0.896076	5.44673	0.51994	3.12885	0.895995	5.44693					0.771031	4.67294	0.991395	6.00645
0.899133	5.43928	0.522612	3.13009	0.899052	5.43948					0.773217	4.66393	0.994606	5.99729
0.90217	5.43178	0.525283	3.13132	0.90209	5.43198					0.775399	4.65498	0.997818	5.98823
0.905188	5.42423	0.527953	3.13254	0.905108	5.42443					0.777578	4.6461	1.00103	5.97926
0.908186	5.41664	0.530623	3.13374	0.908107	5.41685					0.779754	4.63728		
0.911166	5.40901	0.533293	3.13492	0.911087	5.40922					0.781927	4.62853		
0.914127	5.40134	0.535961	3.1361	0.914049	5.40155					0.784097	4.61984		
0.91707	5.39363	0.53863	3.13726	0.916992	5.39384					0.786264	4.61122		
0.919994	5.38589	0.541298	3.1384	0.919917	5.3861					0.788429	4.60266		
0.922901	5.37811	0.543965	3.13953	0.922824	5.37832					0.790591	4.59417		
0.925789	5.3703	0.546632	3.14065	0.925713	5.37051					0.792751	4.58573		
0.92866	5.36247	0.549298	3.14176	0.928584	5.36267					0.794909	4.57737		
0.931514	5.3546	0.551964	3.14285	0.931439	5.35481					0.797065	4.56906		
0.934351	5.34671	0.554629	3.14393	0.934276	5.34692					0.799219	4.56083		
0.937172	5.33879	0.557294	3.145	0.937097	5.339					0.801372	4.55265		
0.939976	5.33085	0.559959	3.14605	0.939902	5.33106					0.803522	4.54454		
0.942764	5.32289	0.562622	3.1471	0.942691	5.32311					0.805671	4.53649		
0.945537	5.31492	0.565286	3.14813	0.945464	5.31513					0.807819	4.5285		
0.948294	5.30693	0.567949	3.14915	0.948221	5.30714					0.809965	4.52058		
0.951036	5.29892	0.570611	3.15016	0.950963	5.29913					0.81211	4.51272		
0.953763	5.2909	0.573273	3.15115	0.953691	5.29112					0.814254	4.50492		
0.956476	5.28287	0.575934	3.15214	0.956404	5.28309					0.816397	4.49718		
0.959174	5.27484	0.578595	3.15312	0.959103	5.27505					0.818538	4.48951		
0.961859	5.26679	0.581256	3.15408	0.961788	5.26701					0.82068	4.4819		
0.96453	5.25874	0.583916	3.15503	0.964459	5.25896					0.82282	4.47434		
0.967187	5.25069	0.586575	3.15597	0.967117	5.25091					0.824959	4.46685		
0.969832	5.24264	0.589235	3.15691	0.969762	5.24285					0.827099	4.45942		
0.972464	5.23458	0.591893	3.15783	0.972394	5.2348					0.829237	4.45205		
0.975083	5.22653	0.594551	3.15874	0.975014	5.22675					0.831375	4.44474		
0.977691	5.21848	0.597209	3.15964	0.977622	5.2187					0.833513	4.43749		
0.980286	5.21044	0.599866	3.16053	0.980218	5.21065					0.835651	4.4303		
0.98287	5.2024	0.602523	3.16142	0.982802	5.20261					0.837788	4.42316		
0.985443	5.19437	0.605179	3.16229	0.985375	5.19458					0.839926	4.41609		
0.988005	5.18634	0.607835	3.16315	0.987937	5.18655					0.842063	4.40907		
0.990556	5.17833	0.610491	3.16401	0.990488	5.17854					0.8442	4.40211		
0.993096	5.17033	0.613146	3.16485	0.993029	5.17054					0.846338	4.39521		
0.995626	5.16234	0.6158	3.16569	0.995559	5.16255					0.848475	4.38837		
0.998147	5.15436	0.618454	3.16651	0.99808	5.15457					0.850613	4.38158		
1.00066	5.1464	0.621108	3.16733	1.00059	5.14661					0.852751	4.37485		
		0.623761	3.16814							0.85489	4.36817		
		0.626414	3.16894							0.857029	4.36156		
		0.629067	3.16973							0.859168	4.35499		
		0.631719	3.17051							0.861308	4.34848		
		0.63437	3.17129							0.863449	4.34203		
		0.637021	3.17205							0.86559	4.33563		
		0.639672	3.17281							0.867731	4.32928		
		0.642322	3.17356							0.869874	4.32298		
		0.644972	3.17431							0.872017	4.31674		
		0.647622	3.17504							0.874161	4.31055		
		0.650271	3.17577							0.876306	4.30442		
		0.652919	3.17649							0.878452	4.29833		
		0.655567	3.1772							0.880598	4.2923		
		0.658215	3.1779							0.882746	4.28631		
		0.660863	3.1786							0.884895	4.28038		
		0.66351	3.17929							0.887044	4.2745		
		0.666156	3.17998							0.889195	4.26867		
		0.668802	3.18065							0.891347	4.26288		
		0.671448	3.18132							0.8935	4.25715		
		0.674093	3.18198							0.895654	4.25146		
		0.676738	3.18264							0.89781	4.24582		
		0.679383	3.18329							0.899966	4.24023		
		0.682027	3.18393							0.902124	4.23469		
		0.684671	3.18457							0.904283	4.22919		
		0.687315	3.1852							0.906444	4.22374		
		0.689958	3.18582							0.908606	4.21833		
		0.6926	3.18644							0.910769	4.21298		
		0.695242	3.18705							0.912933	4.20766		
		0.697884	3.18765							0.915099	4.20239		
		0.700526	3.18825							0.917267	4.19717		
		0.703167	3.18884							0.919436	4.19199		
		0.705808	3.18943							0.921606	4.18685		
		0.708448	3.19001							0.923778	4.18176		
		0.711088	3.19058							0.925951	4.17671		
		0.713728	3.19115							0.928126	4.17171		
		0.716367	3.19172							0.930303	4.16674		
		0.719006	3.19227							0.932481	4.16182		
		0.721644	3.19283							0.93466	4.15694		
		0.724283	3.19337							0.936841	4.1521		
		0.72692	3.19391							0.939024	4.1473		
		0.729558	3.19445							0.941208	4.14254		
		0.732195	3.19498							0.943394	4.13782		
		0.734832	3.19551							0.945582	4.13314		
		0.737468	3.19603							0.947771	4.1285		
		0.740104	3.19654							0.949962	4.1239		
		0.74274	3.19705							0.952155	4.11934		
		0.745375	3.19756							0.95435	4.11481		
		0.74801	3.19806							0.956546	4.11033		
		0.750644	3.19856							0.958744	4.10588		
		0.753279	3.19905							0.960943	4.10147		
		0.755913	3.19953							0.963144	4.09709		
		0.758546	3.20001							0.965347	4.09275		
		0.761179	3.20049							0.967552	4.08845		
		0.763812	3.20096							0.969759	4.08419		
		0.766445	3.20143							0.971967	4.07996		
		0.769077	3.20189							0.974177	4.07576		
		0.771709	3.20235							0.976389	4.0716		
		0.77434	3.20281							0.978602	4.06748		
		0.776971	3.20326							0.980818	4.06338		
		0.779602	3.2037							0.983035	4.05933		
		0.782233	3.20415							0.985254	4.0553		
		0.784863	3.20458							0.987474	4.05131		
		0.787493	3.20502							0.989697	4.04736		
		0.790122	3.20545							0.991921	4.04343		
		0.792751	3.20587							0.994148	4.03954		
		0.79538	3.20629							0.996376	4.03568		
		0.798008	3.20671							0.998605	4.03186		
		0.800637	3.20712							1.00084	4.02806		
		0.803264	3.20753										
		0.805892	3.20794										
		0.808519	3.20834										
		0.811146	3.20873										
		0.813773	3.20913										
		0.816399	3.20952										
		0.819025	3.20991										
		0.82165	3.21029										
		0.824276	3.21067										
		0.826901	3.21104										
		0.829525	3.21142										
		0.83215	3.21179										
		0.834774	3.21215										
		0.837397	3.21251										
		0.840021	3.21287										
		0.842644	3.21323										
		0.845267	3.21358										
		0.847889	3.21393										
		0.850511	3.21427										
		0.853133	3.21462										
		0.855755	3.21496										
		0.858376	3.21529										
		0.860997	3.21562										
		0.863618	3.21595										
		0.866238	3.21628										
		0.868858	3.21661										
		0.871478	3.21693										
		0.874097	3.21724										
		0.876717	3.21756										
		0.879336	3.21787										
		0.881954	3.21818										
		0.884573	3.21849										
		0.887191	3.21879										
		0.889808	3.21909										
		0.892426	3.21939										
		0.895043	3.21969										
		0.89766	3.21998										
		0.900276	3.22027										
		0.902893	3.22056										
		0.905509	3.22084										
		0.908125	3.22112										
		0.91074	3.2214										
		0.913355	3.22168										
		0.91597	3.22196										
		0.918585	3.22223										
		0.921199	3.2225										
		0.923813	3.22276										
		0.926427	3.22303										
		0.929041	3.22329										
		0.931654	3.22355										
		0.934267	3.22381										
		0.936879	3.22406										
		0.939492	3.22432										
		0.942104	3.22457										
		0.944716	3.22482										
		0.947328	3.22506										
		0.949939	3.22531										
		0.95255	3.22555										
		0.955161	3.22579										
		0.957772	3.22603										
		0.960382	3.22626										
		0.962992	3.2265										
		0.965602	3.22673										
		0.968211	3.22696										
		0.970821	3.22718										
		0.97343	3.22741										
		0.976039	3.22763										
		0.978647	3.22785										
		0.981255	3.22807										
		0.983863	3.22829										
		0.986471	3.2285										
		0.989079	3.22872										
		0.991686	3.22893										
		0.994293	3.22914										
		0.9969	3.22934										
		0.999506	3.22955										
		1.00211	3.22975										
