Sym0		Asym0		Sym1		Sym2		Sym3		Sym4		Asym1		Asym2		Asym3	
453  Points		492  Points		168  Points		137  Points		121  Points		91  Points		286  Points		149  Points		120  Points	
Freq (MHz)	Vph (m/ms)	Freq (MHz)	Vph (m/ms)	Freq (MHz)	Vph (m/ms)	Freq (MHz)	Vph (m/ms)	Freq (MHz)	Vph (m/ms)	Freq (MHz)	Vph (m/ms)	Freq (MHz)	Vph (m/ms)	Freq (MHz)	Vph (m/ms)	Freq (MHz)	Vph (m/ms)
0.00668931	7.44333	0.000350429	0.194082	0.279518	840.375	0.536833	754.287	0.559047	779.112	0.838526	9235.99	0.139796	312.154	0.419289	618.015	0.698775	2068.22
0.0136232	7.4428	0.000800447	0.292426	0.279639	221.18	0.536862	326.677	0.559175	339.05	0.838556	820.116	0.14015	101.592	0.419413	260.482	0.698826	550.448
0.0205552	7.44192	0.00142581	0.388615	0.279903	127.461	0.536916	208.503	0.559403	216.744	0.838636	429.15	0.140861	60.9462	0.419637	165.092	0.698937	317.518
0.0274843	7.44068	0.00221784	0.48207	0.280309	89.6215	0.536996	153.13	0.55973	159.348	0.838767	290.646	0.141923	43.7637	0.419962	120.904	0.699106	223.146
0.0344093	7.43907	0.00316602	0.572274	0.280855	69.1865	0.537101	121.01	0.560155	126.038	0.838949	219.76	0.143325	34.3324	0.420387	95.4292	0.699335	172.053
0.0413292	7.4371	0.0042588	0.658844	0.281541	56.4087	0.537235	100.04	0.560676	104.292	0.839181	176.697	0.145055	28.407	0.420912	78.8679	0.699623	140.027
0.0482432	7.43476	0.0054838	0.741481	0.282365	47.6744	0.537399	85.2761	0.561292	88.985	0.839463	147.768	0.1471	24.3623	0.421536	67.2455	0.699969	118.078
0.0551499	7.43204	0.00682861	0.820013	0.283326	41.3345	0.537596	74.3195	0.562001	77.6307	0.839795	126.998	0.149442	21.4417	0.422259	58.6445	0.700375	102.1
0.0620485	7.42895	0.00828075	0.894333	0.284423	36.5292	0.537827	65.8676	0.5628	68.8768	0.840178	111.365	0.152066	19.2454	0.42308	52.0265	0.700839	89.9501
0.0689376	7.42546	0.0098283	0.964426	0.285652	32.7663	0.538094	59.151	0.563687	61.9246	0.84061	99.1748	0.154954	17.5424	0.423999	46.7799	0.701362	80.4027
0.0758163	7.42159	0.0114601	1.03035	0.287013	29.7437	0.538402	53.6863	0.564661	56.272	0.841093	89.4044	0.158089	16.1897	0.425015	42.521	0.701944	72.704
0.0826833	7.41731	0.0131655	1.09219	0.288503	27.2655	0.53875	49.1544	0.565719	51.5876	0.841626	81.3996	0.161454	15.0941	0.426126	38.9972	0.702584	66.3659
0.0895374	7.41262	0.0149352	1.15011	0.290119	25.1993	0.539143	45.3364	0.56686	47.6438	0.842208	74.7226	0.165033	14.1925	0.427333	36.0352	0.703281	61.0583
0.0963772	7.40752	0.0167605	1.20427	0.291858	23.4525	0.539581	42.0767	0.568081	44.279	0.84284	69.0693	0.168811	13.4405	0.428634	33.512	0.704037	56.5496
0.103202	7.40198	0.0186336	1.25485	0.293718	21.958	0.540068	39.2622	0.569381	41.3756	0.843522	64.2217	0.172772	12.8059	0.430029	31.3382	0.704851	52.6732
0.110009	7.39599	0.0205476	1.30205	0.295697	20.6665	0.540606	36.8081	0.570758	38.8457	0.844252	60.0199	0.176903	12.2651	0.431515	29.4472	0.705722	49.3053
0.116798	7.38955	0.0224967	1.34608	0.29779	19.5404	0.541196	34.6502	0.57221	36.6223	0.845033	56.3434	0.180632	11.8562	0.433093	27.7881	0.70665	46.3529
0.123567	7.38264	0.0244755	1.38715	0.299995	18.551	0.54184	32.7385	0.573737	34.6536	0.845862	53.1	0.183898	11.5461	0.43476	26.3216	0.707635	43.7441
0.130315	7.37524	0.0264794	1.42546	0.30231	17.6757	0.542541	31.0339	0.575336	32.8988	0.84674	50.218	0.186657	11.3128	0.436517	25.0168	0.708677	41.4228
0.137039	7.36735	0.0285044	1.46118	0.30473	16.8968	0.5433	29.5049	0.577006	31.3254	0.847667	47.6405	0.188873	11.1416	0.43836	23.849	0.709775	39.3443
0.143739	7.35892	0.0302836	1.49036	0.307253	16.1998	0.544119	28.1262	0.578747	29.9072	0.848643	45.3221	0.190522	11.0225	0.44029	22.7984	0.710929	37.473
0.150412	7.34997	0.0318096	1.51389	0.309876	15.5731	0.545	26.8774	0.580557	28.6226	0.849667	43.226	0.191586	10.9491	0.442305	21.8486	0.712138	35.7796
0.157056	7.34045	0.0330769	1.53246	0.312596	15.0071	0.545945	25.7412	0.582434	27.4541	0.850739	41.3219	0.193125	10.8473	0.444403	20.9864	0.713404	34.2404
0.16367	7.33035	0.0340821	1.54661	0.315409	14.4938	0.546955	24.7036	0.584379	26.3869	0.851859	39.5849	0.194813	10.7414	0.446583	20.2006	0.714724	32.8354
0.17025	7.31964	0.0348229	1.55672	0.318314	14.0268	0.548032	23.7527	0.58639	25.4088	0.853027	37.9943	0.197132	10.6046	0.448844	19.4818	0.716099	31.5482
0.176796	7.3083	0.0352976	1.56306	0.321306	13.6003	0.549177	22.8785	0.588466	24.5093	0.854242	36.5323	0.200102	10.4429	0.451184	18.8222	0.717528	30.3648
0.183303	7.2963	0.0359809	1.57201	0.324384	13.2096	0.550393	22.0724	0.590606	23.6795	0.855504	35.1844	0.203745	10.2623	0.453602	18.2151	0.719011	29.2734
0.189771	7.28362	0.0367248	1.58152	0.327545	12.8508	0.55168	21.3272	0.59281	22.912	0.856814	33.9379	0.208088	10.0693	0.456096	17.6547	0.720547	28.2638
0.196195	7.27023	0.0377381	1.59409	0.330787	12.5203	0.553041	20.6365	0.595077	22.2002	0.85817	32.7818	0.213157	9.86961	0.458665	17.1362	0.722137	27.3275
0.202574	7.25609	0.0390221	1.60942	0.334107	12.2152	0.554477	19.9949	0.597406	21.5385	0.859573	31.7069	0.21831	9.69018	0.461307	16.6551	0.723779	26.4568
0.208904	7.24116	0.0405783	1.62715	0.337063	11.968	0.555989	19.3978	0.599796	20.9219	0.861022	30.7051	0.223541	9.52833	0.464022	16.2079	0.725474	25.6453
0.215182	7.22543	0.0424076	1.64689	0.339628	11.7698	0.55758	18.8408	0.602248	20.3461	0.862517	29.7693	0.228844	9.38177	0.466806	15.7913	0.72722	24.8874
0.221405	7.20886	0.0445111	1.66822	0.341779	11.614	0.55925	18.3205	0.604759	19.8075	0.864057	28.8934	0.234213	9.24861	0.46966	15.4024	0.729018	24.178
0.227569	7.19139	0.0466183	1.68824	0.3435	11.4957	0.561001	17.8335	0.60733	19.3027	0.865643	28.0718	0.239642	9.12722	0.472581	15.0387	0.730867	23.5128
0.233671	7.17302	0.0487282	1.70705	0.344776	11.4114	0.562834	17.3771	0.60996	18.8287	0.867274	27.2999	0.245128	9.01621	0.475568	14.6979	0.732766	22.8878
0.239706	7.15368	0.0508403	1.72475	0.345597	11.3585	0.564751	16.9488	0.612648	18.383	0.86895	26.5733	0.250665	8.91438	0.478619	14.3782	0.734715	22.2998
0.245671	7.13336	0.0529539	1.74141	0.346785	11.284	0.566753	16.5462	0.615394	17.9632	0.87067	25.8883	0.25625	8.82071	0.481734	14.0778	0.736713	21.7455
0.251561	7.112	0.0550685	1.75712	0.348084	11.2049	0.568842	16.1674	0.618198	17.5673	0.872435	25.2415	0.261877	8.73432	0.48491	13.795	0.738761	21.2223
0.257374	7.08958	0.0571838	1.77193	0.349866	11.1006	0.571018	15.8106	0.621058	17.1934	0.874243	24.6299	0.267545	8.65441	0.488146	13.5285	0.740857	20.7278
0.263104	7.06607	0.0592995	1.78593	0.352142	10.9736	0.573282	15.4741	0.623974	16.8398	0.876095	24.0508	0.273249	8.58033	0.491441	13.277	0.743001	20.2596
0.268747	7.04143	0.0614151	1.79916	0.354931	10.8269	0.575636	15.1565	0.626946	16.505	0.87799	23.5017	0.278986	8.51146	0.494793	13.0393	0.745193	19.816
0.274299	7.01564	0.0635306	1.81169	0.358251	10.6641	0.578081	14.8564	0.629974	16.1876	0.879928	22.9805	0.284753	8.4473	0.498201	12.8145	0.747432	19.395
0.279756	6.98867	0.0656457	1.82355	0.362125	10.4885	0.580617	14.5727	0.633056	15.8865	0.881909	22.4851	0.290547	8.38737	0.501664	12.6016	0.749717	18.9951
0.285113	6.96051	0.0677604	1.83481	0.366068	10.3241	0.583245	14.3041	0.636193	15.6005	0.883931	22.0137	0.296366	8.33128	0.505181	12.3997	0.752048	18.6147
0.290368	6.93114	0.0698744	1.84549	0.37008	10.17	0.585965	14.0498	0.639384	15.3285	0.885996	21.5648	0.302208	8.27865	0.508287	12.2322	0.754425	18.2526
0.295516	6.90056	0.0719878	1.85565	0.37416	10.0255	0.588779	13.8088	0.642629	15.0697	0.888102	21.1367	0.308068	8.22917	0.510966	12.0952	0.756847	17.9075
0.300554	6.86877	0.0741004	1.86531	0.37831	9.88979	0.591685	13.5802	0.645927	14.8232	0.890249	20.7282	0.313947	8.18255	0.513202	11.9858	0.759313	17.5784
0.30548	6.83578	0.0762123	1.87451	0.38253	9.76232	0.594684	13.3633	0.649279	14.5882	0.892438	20.3379	0.31984	8.13853	0.514984	11.9016	0.761823	17.2641
0.310289	6.8016	0.0783232	1.88327	0.38682	9.64253	0.597776	13.1573	0.652683	14.364	0.894666	19.9648	0.325747	8.09688	0.516301	11.841	0.764377	16.9638
0.314982	6.76627	0.0804333	1.89163	0.391181	9.52991	0.600962	12.9616	0.65614	14.1499	0.896935	19.6078	0.331665	8.05738	0.517147	11.8027	0.766973	16.6766
0.319555	6.72982	0.0825426	1.89961	0.395613	9.42399	0.604239	12.7756	0.659649	13.9454	0.899243	19.2658	0.337593	8.01986	0.518368	11.7485	0.769612	16.4017
0.324008	6.69229	0.084651	1.90724	0.400118	9.32435	0.607608	12.5986	0.66321	13.7498	0.901591	18.9381	0.343528	7.98413	0.519701	11.6905	0.772293	16.1384
0.328341	6.65373	0.0867586	1.91454	0.404696	9.23061	0.610618	12.4514	0.666823	13.5628	0.903978	18.6238	0.349469	7.95006	0.521523	11.6133	0.775015	15.886
0.332553	6.61421	0.0888653	1.92152	0.409346	9.1424	0.613238	12.3308	0.670488	13.3837	0.906404	18.3221	0.355413	7.91748	0.523843	11.5182	0.777778	15.6439
0.336644	6.57377	0.0909712	1.92821	0.41407	9.05939	0.615442	12.2343	0.674205	13.2122	0.908868	18.0323	0.361361	7.88628	0.526673	11.4068	0.780581	15.4115
0.340617	6.5325	0.0930762	1.93462	0.418867	8.98127	0.617208	12.16	0.677974	13.0478	0.91137	17.7537	0.367309	7.85635	0.530023	11.281	0.783424	15.1882
0.344472	6.49046	0.0951804	1.94077	0.423736	8.90772	0.61852	12.1065	0.681795	12.8902	0.913909	17.4858	0.373256	7.82757	0.53391	11.1428	0.786307	14.9736
0.348212	6.44774	0.0972839	1.94668	0.428678	8.83849	0.619365	12.0727	0.685668	12.739	0.916486	17.228	0.379201	7.79984	0.537839	11.0107	0.789228	14.7672
0.351838	6.4044	0.0993866	1.95236	0.43369	8.7733	0.620588	12.0248	0.689085	12.6123	0.919099	16.9798	0.385142	7.77308	0.541811	10.8844	0.792187	14.5686
0.355354	6.36053	0.101489	1.95782	0.438771	8.71189	0.621928	11.9736	0.69203	12.5077	0.921749	16.7406	0.391078	7.7472	0.545824	10.7635	0.795184	14.3774
0.358763	6.3162	0.10359	1.96307	0.44392	8.65404	0.623769	11.9053	0.694487	12.4236	0.924436	16.51	0.397007	7.72214	0.549877	10.6478	0.798219	14.1932
0.362067	6.2715	0.10569	1.96813	0.449135	8.5995	0.626124	11.8211	0.696443	12.3586	0.927157	16.2876	0.402928	7.69781	0.55397	10.537	0.80129	14.0156
0.36527	6.2265	0.10779	1.973	0.454412	8.54806	0.629016	11.7226	0.69789	12.3115	0.929915	16.073	0.40884	7.67415	0.558102	10.4307	0.804397	13.8443
0.368375	6.18126	0.10989	1.9777	0.459751	8.49951	0.632465	11.6112	0.698819	12.2818	0.932707	15.8657	0.41474	7.6511	0.562271	10.3288	0.80754	13.6791
0.371387	6.13587	0.111988	1.98223	0.465147	8.45366	0.636499	11.4887	0.70016	12.2395	0.935534	15.6655	0.420629	7.62861	0.566477	10.231	0.810718	13.5196
0.374308	6.09039	0.114086	1.9866	0.470597	8.41031	0.640612	11.3717	0.701624	12.1942	0.938395	15.4721	0.426504	7.60662	0.57072	10.137	0.813932	13.3655
0.377143	6.04487	0.116184	1.99083	0.4761	8.36929	0.644801	11.2598	0.703625	12.1335	0.94129	15.285	0.432363	7.58509	0.574998	10.0467	0.817179	13.2166
0.379895	5.99938	0.118281	1.99491	0.481651	8.33043	0.649064	11.1528	0.706175	12.0585	0.944218	15.104	0.438206	7.56397	0.579311	9.95995	0.82046	13.0727
0.382567	5.95398	0.120377	1.99886	0.487247	8.29358	0.653398	11.0504	0.709285	11.9701	0.94718	14.9289	0.444032	7.54321	0.583658	9.87649	0.823347	12.9511
0.385163	5.90871	0.122473	2.00268	0.492885	8.25857	0.6578	10.9523	0.712972	11.8697	0.950175	14.7594	0.449839	7.52278	0.588039	9.79618	0.825828	12.8503
0.387687	5.86362	0.124568	2.00638	0.498561	8.22529	0.662268	10.8582	0.717253	11.7586	0.953202	14.5952	0.455625	7.50265	0.592454	9.71887	0.827893	12.7687
0.390142	5.81875	0.126663	2.00996	0.504274	8.19358	0.666799	10.768	0.721589	11.6517	0.956261	14.4361	0.461389	7.48276	0.596901	9.64442	0.829534	12.7053
0.392531	5.77415	0.128758	2.01342	0.510019	8.16335	0.671389	10.6814	0.72598	11.5489	0.959352	14.2818	0.46713	7.4631	0.60138	9.57269	0.830746	12.6594
0.394857	5.72984	0.130852	2.01679	0.515793	8.13447	0.676036	10.5983	0.730428	11.4499	0.962474	14.1323	0.472847	7.44364	0.605891	9.50355	0.831523	12.6302
0.397124	5.68586	0.132945	2.02005	0.521594	8.10683	0.680737	10.5183	0.734933	11.3547	0.965627	13.9873	0.478538	7.42433	0.610434	9.43689	0.832644	12.5887
0.399334	5.64224	0.135039	2.02321	0.527419	8.08035	0.685487	10.4414	0.739495	11.2631	0.968811	13.8465	0.484201	7.40516	0.615007	9.3726	0.833866	12.5441
0.40149	5.599	0.137131	2.02628	0.533264	8.05494	0.690285	10.3674	0.744115	11.1749	0.972025	13.7099	0.489837	7.3861	0.619612	9.31057	0.835535	12.4842
0.403596	5.55617	0.139224	2.02926	0.539129	8.0305	0.695126	10.296	0.748795	11.09	0.975269	13.5772	0.495442	7.36713	0.624246	9.2507	0.837656	12.4098
0.405652	5.51376	0.141316	2.03216	0.545009	8.00697	0.700008	10.2272	0.753534	11.0083	0.978543	13.4484	0.501017	7.34822	0.628911	9.19291	0.840236	12.3216
0.407663	5.4718	0.143408	2.03498	0.550903	7.98427	0.704927	10.1607	0.758334	10.9296	0.98142	13.3391	0.506559	7.32935	0.633606	9.13709	0.843285	12.2208
0.40938	5.43561	0.145499	2.03772	0.556808	7.96234	0.70988	10.0965	0.763196	10.8539	0.98389	13.248	0.512068	7.31051	0.63833	9.08318	0.846811	12.1085
0.410818	5.40504	0.147591	2.04038	0.562723	7.94112	0.714864	10.0344	0.768119	10.7811	0.985944	13.1741	0.517542	7.29167	0.643083	9.03109	0.850368	11.9995
0.411991	5.37995	0.149681	2.04297	0.568646	7.92056	0.719875	9.97434	0.773106	10.711	0.987576	13.1166	0.522979	7.27281	0.647866	8.98074	0.853955	11.8937
0.412908	5.36025	0.151772	2.04549	0.574574	7.9006	0.724912	9.91611	0.778156	10.6436	0.988781	13.0748	0.52838	7.25393	0.652677	8.93208	0.857571	11.7911
0.413577	5.34584	0.153862	2.04795	0.580506	7.8812	0.72997	9.85964	0.78327	10.5787	0.989553	13.0483	0.533742	7.23499	0.657517	8.88502	0.861215	11.6914
0.414002	5.33665	0.155952	2.05034	0.58644	7.86231	0.735047	9.80483	0.788449	10.5164	0.990667	13.0105	0.539064	7.21601	0.662385	8.83952	0.864888	11.5946
0.41461	5.32348	0.158042	2.05267	0.592374	7.8439	0.740141	9.75159	0.793693	10.4564	0.99188	12.9697	0.544345	7.19694	0.667282	8.79551	0.868589	11.5006
0.415267	5.30923	0.160132	2.05494	0.598308	7.82592	0.745248	9.69982	0.799002	10.3987	0.993536	12.915	0.549585	7.1778	0.672206	8.75292	0.872318	11.4092
0.416153	5.28995	0.162221	2.05716	0.60424	7.80835	0.750368	9.64944	0.804377	10.3432	0.99564	12.8467	0.554781	7.15856	0.677158	8.71172	0.876074	11.3204
0.417262	5.26573	0.16431	2.05932	0.610167	7.79115	0.755497	9.60037	0.809817	10.2899	0.998198	12.7658	0.559934	7.13922	0.682138	8.67184	0.879857	11.234
0.418586	5.23671	0.166399	2.06143	0.61609	7.77429	0.760635	9.55256	0.815322	10.2386	1.00122	12.6728	0.565041	7.11976	0.687145	8.63323	0.883666	11.15
0.420117	5.20302	0.168487	2.06348	0.622007	7.75775	0.765778	9.50593	0.820892	10.1893			0.570103	7.10019	0.692178	8.59585	0.887502	11.0683
0.421846	5.16483	0.170576	2.06549	0.627917	7.7415	0.770926	9.46042	0.826527	10.142			0.575118	7.08049	0.697238	8.55965	0.891363	10.9888
0.423547	5.12716	0.172664	2.06745	0.633818	7.72551	0.776078	9.41598	0.832225	10.0965			0.580086	7.06065	0.702325	8.52459	0.895251	10.9114
0.42522	5.09001	0.174752	2.06937	0.63971	7.70977	0.781232	9.37256	0.837987	10.0528			0.585005	7.04068	0.707437	8.49062	0.899163	10.836
0.426868	5.05338	0.17684	2.07124	0.645592	7.69426	0.786387	9.33013	0.843811	10.0107			0.589875	7.02057	0.712574	8.45771	0.9031	10.7626
0.428491	5.01726	0.178927	2.07307	0.651462	7.67895	0.791544	9.28863	0.849697	9.97036			0.594695	7.00032	0.717737	8.42581	0.907062	10.6911
0.430092	4.98166	0.181015	2.07486	0.65732	7.66384	0.7967	9.24803	0.855642	9.93155			0.599466	6.97993	0.722924	8.39488	0.911049	10.6215
0.431672	4.94657	0.183102	2.07661	0.663165	7.64889	0.801857	9.2083	0.861647	9.89424			0.604186	6.95938	0.728135	8.36489	0.915059	10.5536
0.433231	4.912	0.185189	2.07832	0.668995	7.63411	0.807014	9.16941	0.867709	9.85838			0.608854	6.9387	0.73337	8.3358	0.919093	10.4874
0.434771	4.87793	0.187276	2.07999	0.674811	7.61947	0.81217	9.13133	0.873827	9.8239			0.613471	6.91786	0.738627	8.30758	0.92315	10.4229
0.436293	4.84436	0.189363	2.08163	0.680612	7.60495	0.817326	9.09403	0.879999	9.79074			0.618037	6.89688	0.743907	8.2802	0.927231	10.36
0.437798	4.8113	0.19145	2.08323	0.686395	7.59056	0.822481	9.0575	0.886225	9.75885			0.62255	6.87576	0.749208	8.25361	0.931334	10.2986
0.439286	4.77873	0.193536	2.0848	0.692162	7.57627	0.827637	9.02172	0.892502	9.72816			0.627011	6.8545	0.75453	8.22779	0.93546	10.2388
0.44076	4.74666	0.195622	2.08633	0.697911	7.56207	0.832793	8.98665	0.898829	9.69863			0.63142	6.8331	0.759873	8.20272	0.939608	10.1804
0.44222	4.71507	0.197709	2.08784	0.703641	7.54796	0.83795	8.9523	0.905204	9.6702			0.635777	6.81156	0.765235	8.17835	0.943779	10.1234
0.443666	4.68396	0.199795	2.08931	0.709351	7.53392	0.843108	8.91863	0.911625	9.64282			0.640081	6.7899	0.770616	8.15465	0.947971	10.0677
0.4451	4.65333	0.201881	2.09075	0.715042	7.51995	0.848268	8.88563	0.918091	9.61645			0.644332	6.76811	0.776015	8.13161	0.952185	10.0134
0.446522	4.62316	0.203967	2.09217	0.720712	7.50604	0.853429	8.8533	0.9246	9.59103			0.648532	6.7462	0.781431	8.1092	0.95642	9.96033
0.447934	4.59346	0.206052	2.09355	0.726361	7.49217	0.858593	8.8216	0.931151	9.56652			0.652679	6.72417	0.786863	8.08738	0.960676	9.90851
0.449335	4.56422	0.208138	2.09491	0.731988	7.47834	0.86376	8.79054	0.937742	9.54289			0.656775	6.70203	0.792311	8.06613	0.964953	9.85789
0.450726	4.53543	0.210224	2.09625	0.737592	7.46454	0.868931	8.7601	0.94437	9.52008			0.660818	6.67979	0.797774	8.04543	0.96925	9.80843
0.452108	4.50708	0.212309	2.09755	0.743173	7.45077	0.874105	8.73026	0.951036	9.49807			0.664811	6.65745	0.80325	8.02525	0.973568	9.76011
0.453482	4.47918	0.214394	2.09884	0.74873	7.43702	0.879284	8.70102	0.957736	9.47681			0.668752	6.63502	0.808739	8.00557	0.977906	9.71288
0.454848	4.4517	0.216479	2.10009	0.754263	7.42328	0.884467	8.67235	0.96447	9.45626			0.672643	6.61249	0.81424	7.98637	0.982264	9.6667
0.456206	4.42465	0.218565	2.10133	0.759771	7.40954	0.889656	8.64426	0.971237	9.4364			0.676484	6.58989	0.819752	7.96763	0.986642	9.62157
0.457558	4.39802	0.22065	2.10254	0.765254	7.39581	0.89485	8.61672	0.978034	9.41719			0.680275	6.56721	0.825275	7.94932	0.991039	9.57743
0.458904	4.3718	0.222735	2.10373	0.770711	7.38208	0.90005	8.58974	0.98486	9.3986			0.684016	6.54447	0.830806	7.93142	0.995455	9.53426
0.460244	4.34599	0.224819	2.1049	0.776141	7.36833	0.905257	8.56328	0.991714	9.38061			0.687708	6.52166	0.836346	7.91392	0.99989	9.49204
0.461578	4.32058	0.226904	2.10605	0.781544	7.35458	0.91047	8.53736	0.998594	9.36317			0.691353	6.4988	0.841894	7.89679	1.00434	9.45074
0.462908	4.29557	0.228989	2.10717	0.78692	7.3408	0.91569	8.51194	1.0055	9.34627			0.694949	6.47589	0.847448	7.88002		
0.464233	4.27094	0.231073	2.10828	0.792267	7.32701	0.920918	8.48703					0.698498	6.45294	0.853008	7.86359		
0.465554	4.24669	0.233158	2.10937	0.797586	7.31319	0.926153	8.46262					0.702	6.42995	0.858572	7.84749		
0.466871	4.22281	0.235242	2.11044	0.802877	7.29934	0.931396	8.43868					0.705456	6.40693	0.864141	7.83169		
0.468184	4.1993	0.237326	2.11149	0.808138	7.28546	0.936647	8.41522					0.708867	6.38389	0.869712	7.81619		
0.469495	4.17616	0.239411	2.11252	0.81337	7.27155	0.941906	8.39222					0.712233	6.36082	0.875286	7.80096		
0.470802	4.15337	0.241495	2.11353	0.818571	7.2576	0.947174	8.36968					0.715554	6.33775	0.880861	7.78599		
0.472107	4.13093	0.243579	2.11453	0.823742	7.24361	0.952449	8.34757					0.718831	6.31467	0.886436	7.77128		
0.47341	4.10883	0.245663	2.11551	0.828882	7.22958	0.957733	8.3259					0.722066	6.29159	0.892011	7.7568		
0.474711	4.08708	0.247747	2.11648	0.833992	7.2155	0.963026	8.30464					0.725258	6.26852	0.897585	7.74254		
0.476011	4.06565	0.249831	2.11743	0.839069	7.20139	0.968327	8.2838					0.728408	6.24545	0.903158	7.72849		
0.477308	4.04455	0.251915	2.11836	0.844115	7.18722	0.973637	8.26336					0.731517	6.2224	0.908727	7.71464		
0.478605	4.02377	0.253998	2.11928	0.849129	7.17301	0.978955	8.24332					0.734586	6.19937	0.914293	7.70098		
0.479901	4.0033	0.256082	2.12018	0.854111	7.15875	0.984282	8.22365					0.737615	6.17637	0.919854	7.68749		
0.481196	3.98315	0.258166	2.12107	0.85906	7.14444	0.989617	8.20436					0.740605	6.1534	0.925411	7.67418		
0.48249	3.9633	0.260249	2.12195	0.863977	7.13008	0.99496	8.18543					0.743556	6.13046	0.930961	7.66102		
0.483784	3.94374	0.262333	2.12281	0.868861	7.11568	1.00031	8.16686					0.746469	6.10757	0.936506	7.648		
0.485078	3.92448	0.264416	2.12366	0.873711	7.10122							0.749345	6.08471	0.942043	7.63513		
0.486372	3.90551	0.2665	2.12449	0.878529	7.08671							0.752184	6.06191	0.947572	7.62238		
0.487666	3.88682	0.268583	2.12532	0.883313	7.07215							0.754988	6.03916	0.953093	7.60976		
0.48896	3.86841	0.270666	2.12613	0.888064	7.05754							0.757756	6.01646	0.958604	7.59725		
0.490255	3.85028	0.27275	2.12693	0.892781	7.04288							0.76049	5.99383	0.964106	7.58485		
0.49155	3.83241	0.274833	2.12771	0.897464	7.02817							0.76319	5.97126	0.969597	7.57254		
0.492846	3.8148	0.276916	2.12849	0.902114	7.01341							0.765856	5.94875	0.975077	7.56033		
0.494143	3.79746	0.278999	2.12925	0.90673	6.99861							0.76849	5.92632	0.980545	7.5482		
0.495441	3.78036	0.281082	2.13	0.911313	6.98375							0.771091	5.90397	0.986001	7.53615		
0.49674	3.76352	0.283165	2.13074	0.915861	6.96885							0.773661	5.88169	0.991445	7.52417		
0.498041	3.74693	0.285248	2.13147	0.920376	6.95391							0.776201	5.85949	0.996874	7.51226		
0.499343	3.73057	0.287331	2.13219	0.924857	6.93892							0.77871	5.83737	1.00229	7.50041		
0.500646	3.71445	0.289414	2.1329	0.929304	6.92388							0.781189	5.81534				
0.501951	3.69857	0.291497	2.1336	0.933717	6.90881							0.78364	5.7934				
0.503257	3.68291	0.293579	2.13429	0.938097	6.89369							0.786061	5.77155				
0.504565	3.66748	0.295662	2.13497	0.942444	6.87853							0.788456	5.7498				
0.505875	3.65226	0.297745	2.13564	0.946756	6.86334							0.790823	5.72814				
0.507187	3.63727	0.299828	2.13631	0.951036	6.84811							0.793163	5.70658				
0.508501	3.62249	0.30191	2.13696	0.955282	6.83284							0.795477	5.68512				
0.509817	3.60792	0.303993	2.1376	0.959495	6.81755							0.797765	5.66376				
0.511135	3.59355	0.306075	2.13824	0.963675	6.80221							0.800029	5.64251				
0.512455	3.57939	0.308158	2.13887	0.967822	6.78685							0.802268	5.62136				
0.513778	3.56542	0.31024	2.13948	0.971936	6.77146							0.804483	5.60032				
0.515102	3.55165	0.312323	2.14009	0.976017	6.75604							0.806675	5.57939				
0.51643	3.53807	0.314405	2.1407	0.980066	6.7406							0.808843	5.55857				
0.517759	3.52468	0.316488	2.14129	0.984083	6.72513							0.81099	5.53787				
0.519091	3.51148	0.31857	2.14188	0.988067	6.70964							0.813114	5.51727				
0.520426	3.49845	0.320652	2.14246	0.99202	6.69412							0.815218	5.49679				
0.521762	3.48561	0.322735	2.14303	0.99594	6.67859							0.8173	5.47643				
0.523102	3.47294	0.324817	2.1436	0.999829	6.66304							0.819362	5.45618				
0.524444	3.46045	0.326899	2.14415	1.00369	6.64747							0.821404	5.43605				
0.525789	3.44813	0.328981	2.1447									0.823426	5.41604				
0.527137	3.43597	0.331063	2.14525									0.82543	5.39615				
0.528487	3.42398	0.333146	2.14579									0.827414	5.37638				
0.52984	3.41215	0.335228	2.14632									0.829381	5.35673				
0.531196	3.40047	0.33731	2.14684									0.83133	5.3372				
0.532554	3.38896	0.339392	2.14736									0.833262	5.3178				
0.533916	3.3776	0.341474	2.14787									0.835177	5.29851				
0.53528	3.36639	0.343556	2.14838									0.837075	5.27935				
0.536647	3.35532	0.345638	2.14888									0.838957	5.26031				
0.538017	3.34441	0.34772	2.14937									0.840824	5.24139				
0.53939	3.33364	0.349802	2.14986									0.842675	5.2226				
0.540766	3.323	0.351883	2.15034									0.844512	5.20394				
0.542145	3.31251	0.353965	2.15082									0.846333	5.18539				
0.543527	3.30216	0.356047	2.15129									0.848141	5.16697				
0.544912	3.29194	0.358129	2.15175									0.849935	5.14868				
0.5463	3.28185	0.360211	2.15221									0.851715	5.1305				
0.54769	3.27189	0.362293	2.15267									0.853482	5.11246				
0.549084	3.26206	0.364374	2.15312									0.855237	5.09453				
0.550481	3.25236	0.366456	2.15356									0.856979	5.07673				
0.551881	3.24278	0.368538	2.154									0.858708	5.05906				
0.553284	3.23332	0.370619	2.15444									0.860426	5.0415				
0.554689	3.22398	0.372701	2.15487									0.862132	5.02407				
0.556098	3.21476	0.374783	2.15529									0.863827	5.00677				
0.55751	3.20566	0.376864	2.15571									0.865511	4.98958				
0.558925	3.19667	0.378946	2.15613									0.867185	4.97252				
0.560343	3.18779	0.381028	2.15654									0.868848	4.95558				
0.561765	3.17903	0.383109	2.15695									0.870501	4.93877				
0.563189	3.17037	0.385191	2.15735									0.872143	4.92207				
0.564616	3.16182	0.387272	2.15775									0.873777	4.90549				
0.566046	3.15338	0.389354	2.15814									0.875401	4.88904				
0.567479	3.14504	0.391435	2.15853									0.877016	4.8727				
0.568916	3.1368	0.393517	2.15892									0.878622	4.85649				
0.570355	3.12867	0.395598	2.1593									0.880219	4.84039				
0.571798	3.12063	0.39768	2.15968									0.881808	4.82441				
0.573243	3.11269	0.399761	2.16005									0.883389	4.80855				
0.574691	3.10485	0.401843	2.16042									0.884962	4.7928				
0.576143	3.0971	0.403924	2.16079									0.886528	4.77718				
0.577598	3.08945	0.406005	2.16115									0.888085	4.76167				
0.579055	3.08189	0.408087	2.16151									0.889636	4.74627				
0.580516	3.07441	0.410168	2.16187									0.891179	4.73099				
0.581979	3.06703	0.412249	2.16222									0.892716	4.71582				
0.583446	3.05974	0.414331	2.16257									0.894246	4.70077				
0.584915	3.05253	0.416412	2.16291									0.895769	4.68582				
0.586388	3.0454	0.418493	2.16326									0.897287	4.671				
0.587863	3.03837	0.420574	2.16359									0.898797	4.65628				
0.589342	3.03141	0.422656	2.16393									0.900303	4.64167				
0.590823	3.02454	0.424737	2.16426									0.901802	4.62717				
0.592307	3.01774	0.426818	2.16459									0.903295	4.61279				
0.593795	3.01103	0.428899	2.16491									0.904784	4.59851				
0.595285	3.00439	0.430981	2.16524									0.906267	4.58434				
0.596778	2.99783	0.433062	2.16556									0.907744	4.57027				
0.598274	2.99134	0.435143	2.16587									0.909217	4.55631				
0.599773	2.98493	0.437224	2.16619									0.910685	4.54246				
0.601275	2.97859	0.439305	2.1665									0.912149	4.52872				
0.60278	2.97233	0.441386	2.1668									0.913608	4.51507				
0.604287	2.96614	0.443467	2.16711									0.915062	4.50153				
0.605798	2.96001	0.445548	2.16741									0.916512	4.4881				
0.607311	2.95396	0.44763	2.16771									0.917958	4.47476				
0.608827	2.94798	0.449711	2.168									0.919401	4.46153				
0.610346	2.94206	0.451792	2.1683									0.920839	4.4484				
0.611868	2.93621	0.453873	2.16859									0.922274	4.43537				
0.613392	2.93042	0.455954	2.16888									0.923705	4.42243				
0.61492	2.9247	0.458035	2.16916									0.925132	4.4096				
0.61645	2.91904	0.460116	2.16945									0.926556	4.39686				
0.617982	2.91345	0.462197	2.16973									0.927977	4.38422				
0.619518	2.90791	0.464278	2.17									0.929395	4.37167				
0.621056	2.90244	0.466359	2.17028									0.93081	4.35922				
0.622597	2.89703	0.46844	2.17055									0.932222	4.34687				
0.624141	2.89167	0.470521	2.17082									0.933631	4.33461				
0.625688	2.88638	0.472602	2.17109									0.935037	4.32244				
0.627237	2.88114	0.474683	2.17136									0.936441	4.31036				
0.628789	2.87596	0.476763	2.17162									0.937842	4.29838				
0.630343	2.87084	0.478844	2.17188									0.93924	4.28649				
0.6319	2.86577	0.480925	2.17214									0.940637	4.27468				
0.63346	2.86076	0.483006	2.1724									0.942031	4.26297				
0.635022	2.8558	0.485087	2.17265									0.943423	4.25134				
0.636587	2.85089	0.487168	2.17291									0.944813	4.23981				
0.638155	2.84604	0.489249	2.17316									0.946201	4.22836				
0.639725	2.84123	0.49133	2.1734									0.947587	4.21699				
0.641298	2.83648	0.49341	2.17365									0.948972	4.20572				
0.642873	2.83178	0.495491	2.17389									0.950354	4.19452				
0.644451	2.82713	0.497572	2.17414									0.951735	4.18342				
0.646032	2.82252	0.499653	2.17438									0.953114	4.17239				
0.647615	2.81797	0.501734	2.17461									0.954492	4.16145				
0.6492	2.81346	0.503815	2.17485									0.955868	4.15059				
0.650788	2.809	0.505895	2.17509									0.957243	4.13981				
0.652378	2.80459	0.507976	2.17532									0.958617	4.12912				
0.653971	2.80022	0.510057	2.17555									0.95999	4.1185				
0.655566	2.79589	0.512138	2.17578									0.961361	4.10796				
0.657164	2.79162	0.514218	2.176									0.962731	4.0975				
0.658764	2.78738	0.516299	2.17623									0.9641	4.08712				
0.660367	2.78319	0.51838	2.17645									0.965468	4.07682				
0.661972	2.77904	0.520461	2.17667									0.966836	4.0666				
0.663579	2.77494	0.522541	2.17689									0.968202	4.05645				
0.665189	2.77087	0.524622	2.17711									0.969568	4.04637				
0.666801	2.76685	0.526703	2.17733									0.970932	4.03637				
0.668415	2.76287	0.528783	2.17754									0.972297	4.02645				
0.670032	2.75892	0.530864	2.17775									0.97366	4.0166				
0.671651	2.75502	0.532945	2.17797									0.975023	4.00682				
0.673272	2.75116	0.535025	2.17817									0.976385	3.99712				
0.674896	2.74733	0.537106	2.17838									0.977747	3.98748				
0.676522	2.74355	0.539187	2.17859									0.979109	3.97792				
0.67815	2.7398	0.541267	2.17879									0.98047	3.96843				
0.679781	2.73609	0.543348	2.179									0.98183	3.95901				
0.681413	2.73241	0.545429	2.1792									0.983191	3.94965				
0.683048	2.72877	0.547509	2.1794									0.984551	3.94037				
0.684686	2.72517	0.54959	2.1796									0.985911	3.93115				
0.686325	2.7216	0.55167	2.17979									0.98727	3.922				
0.687966	2.71807	0.553751	2.17999									0.98863	3.91292				
0.68961	2.71457	0.555832	2.18018									0.989989	3.90391				
0.691256	2.71111	0.557912	2.18038									0.991349	3.89496				
0.692904	2.70768	0.559993	2.18057									0.992708	3.88607				
0.694554	2.70428	0.562073	2.18076									0.994068	3.87725				
0.696207	2.70091	0.564154	2.18095									0.995427	3.8685				
0.697861	2.69758	0.566234	2.18113									0.996787	3.85981				
0.699517	2.69428	0.568315	2.18132									0.998146	3.85118				
0.701176	2.69101	0.570395	2.1815									0.999506	3.84261				
0.702837	2.68778	0.572476	2.18169									1.00087	3.83411				
0.704499	2.68457	0.574557	2.18187														
0.706164	2.68139	0.576637	2.18205														
0.707831	2.67825	0.578718	2.18223														
0.7095	2.67513	0.580798	2.18241														
0.711171	2.67205	0.582879	2.18258														
0.712844	2.66899	0.584959	2.18276														
0.714519	2.66596	0.58704	2.18293														
0.716195	2.66296	0.58912	2.1831														
0.717874	2.65999	0.5912	2.18328														
0.719555	2.65704	0.593281	2.18345														
0.721238	2.65412	0.595361	2.18362														
0.722922	2.65123	0.597442	2.18378														
0.724609	2.64837	0.599522	2.18395														
0.726298	2.64553	0.601603	2.18412														
0.727988	2.64272	0.603683	2.18428														
0.72968	2.63993	0.605764	2.18445														
0.731374	2.63717	0.607844	2.18461														
0.73307	2.63444	0.609925	2.18477														
0.734768	2.63173	0.612005	2.18493														
0.736468	2.62904	0.614085	2.18509														
0.738169	2.62638	0.616166	2.18525														
0.739873	2.62375	0.618246	2.1854														
0.741578	2.62113	0.620326	2.18556														
0.743285	2.61854	0.622407	2.18571														
0.744994	2.61598	0.624487	2.18587														
0.746704	2.61343	0.626568	2.18602														
0.748417	2.61091	0.628648	2.18617														
0.750131	2.60841	0.630728	2.18632														
0.751846	2.60594	0.632809	2.18647														
0.753564	2.60348	0.634889	2.18662														
0.755283	2.60105	0.636969	2.18677														
0.757004	2.59864	0.63905	2.18692														
0.758727	2.59625	0.64113	2.18706														
0.760451	2.59388	0.64321	2.18721														
0.762177	2.59153	0.645291	2.18735														
0.763905	2.5892	0.647371	2.1875														
0.765634	2.58689	0.649451	2.18764														
0.767365	2.58461	0.651532	2.18778														
0.769098	2.58234	0.653612	2.18792														
0.770832	2.58009	0.655692	2.18806														
0.772568	2.57786	0.657773	2.1882														
0.774306	2.57565	0.659853	2.18834														
0.776045	2.57346	0.661933	2.18847														
0.777785	2.57129	0.664013	2.18861														
0.779528	2.56914	0.666094	2.18874														
0.781272	2.567	0.668174	2.18888														
0.783017	2.56489	0.670254	2.18901														
0.784764	2.56279	0.672335	2.18914														
0.786513	2.56071	0.674415	2.18928														
0.788263	2.55864	0.676495	2.18941														
0.790014	2.5566	0.678575	2.18954														
0.791767	2.55457	0.680656	2.18967														
0.793522	2.55255	0.682736	2.1898														
0.795278	2.55056	0.684816	2.18992														
0.797036	2.54858	0.686896	2.19005														
0.798795	2.54662	0.688977	2.19018														
0.800555	2.54467	0.691057	2.1903														
0.802317	2.54274	0.693137	2.19043														
0.804081	2.54083	0.695217	2.19055														
0.805846	2.53893	0.697297	2.19068														
0.807612	2.53705	0.699378	2.1908														
0.80938	2.53518	0.701458	2.19092														
0.811149	2.53333	0.703538	2.19104														
0.81292	2.5315	0.705618	2.19116														
0.814692	2.52967	0.707698	2.19128														
0.816465	2.52787	0.709779	2.1914														
0.81824	2.52608	0.711859	2.19152														
0.820016	2.5243	0.713939	2.19164														
0.821793	2.52254	0.716019	2.19175														
0.823572	2.52079	0.718099	2.19187														
0.825353	2.51905	0.720179	2.19199														
0.827134	2.51733	0.722259	2.1921														
0.828917	2.51562	0.72434	2.19222														
0.830701	2.51393	0.72642	2.19233														
0.832487	2.51225	0.7285	2.19244														
0.834274	2.51058	0.73058	2.19255														
0.836062	2.50893	0.73266	2.19267														
0.837851	2.50729	0.73474	2.19278														
0.839642	2.50566	0.73682	2.19289														
0.841434	2.50405	0.738901	2.193														
0.843228	2.50245	0.740981	2.19311														
0.845022	2.50086	0.743061	2.19322														
0.846818	2.49928	0.745141	2.19332														
0.848615	2.49772	0.747221	2.19343														
0.850413	2.49617	0.749301	2.19354														
0.852213	2.49463	0.751381	2.19364														
0.854014	2.4931	0.753461	2.19375														
0.855816	2.49158	0.755541	2.19386														
0.857619	2.49008	0.757622	2.19396														
0.859423	2.48858	0.759702	2.19406														
0.861229	2.4871	0.761782	2.19417														
0.863036	2.48563	0.763862	2.19427														
0.864844	2.48417	0.765942	2.19437														
0.866653	2.48273	0.768022	2.19447														
0.868464	2.48129	0.770102	2.19458														
0.870275	2.47986	0.772182	2.19468														
0.872088	2.47845	0.774262	2.19478														
0.873902	2.47705	0.776342	2.19488														
0.875717	2.47565	0.778422	2.19497														
0.877533	2.47427	0.780502	2.19507														
0.87935	2.4729	0.782582	2.19517														
0.881168	2.47154	0.784662	2.19527														
0.882988	2.47018	0.786742	2.19536														
0.884808	2.46884	0.788822	2.19546														
0.88663	2.46751	0.790902	2.19556														
0.888453	2.46619	0.792983	2.19565														
0.890277	2.46488	0.795063	2.19575														
0.892102	2.46357	0.797143	2.19584														
0.893928	2.46228	0.799223	2.19594														
0.895755	2.461	0.801303	2.19603														
0.897583	2.45973	0.803383	2.19612														
0.899412	2.45846	0.805463	2.19621														
0.901243	2.45721	0.807543	2.19631														
0.903074	2.45596	0.809623	2.1964														
0.904907	2.45472	0.811703	2.19649														
0.90674	2.4535	0.813783	2.19658														
0.908574	2.45228	0.815863	2.19667														
0.91041	2.45107	0.817943	2.19676														
0.912246	2.44987	0.820023	2.19685														
0.914084	2.44868	0.822103	2.19694														
0.915923	2.44749	0.824183	2.19702														
0.917762	2.44632	0.826263	2.19711														
0.919603	2.44515	0.828343	2.1972														
0.921444	2.44399	0.830423	2.19729														
0.923287	2.44284	0.832502	2.19737														
0.92513	2.4417	0.834582	2.19746														
0.926975	2.44057	0.836662	2.19754														
0.92882	2.43944	0.838742	2.19763														
0.930666	2.43833	0.840822	2.19772														
0.932514	2.43722	0.842902	2.1978														
0.934362	2.43612	0.844982	2.19788														
0.936211	2.43502	0.847062	2.19797														
0.938061	2.43394	0.849142	2.19805														
0.939913	2.43286	0.851222	2.19813														
0.941765	2.43179	0.853302	2.19822														
0.943618	2.43072	0.855382	2.1983														
0.945471	2.42967	0.857462	2.19838														
0.947326	2.42862	0.859542	2.19846														
0.949182	2.42758	0.861622	2.19854														
0.951039	2.42655	0.863702	2.19862														
0.952896	2.42552	0.865782	2.1987														
0.954754	2.4245	0.867861	2.19878														
0.956614	2.42349	0.869941	2.19886														
0.958474	2.42248	0.872021	2.19894														
0.960335	2.42148	0.874101	2.19902														
0.962197	2.42049	0.876181	2.19909														
0.96406	2.41951	0.878261	2.19917														
0.965923	2.41853	0.880341	2.19925														
0.967788	2.41756	0.882421	2.19933														
0.969653	2.41659	0.884501	2.1994														
0.971519	2.41563	0.88658	2.19948														
0.973386	2.41468	0.88866	2.19955														
0.975254	2.41374	0.89074	2.19963														
0.977123	2.4128	0.89282	2.19971														
0.978993	2.41187	0.8949	2.19978														
0.980863	2.41094	0.89698	2.19985														
0.982734	2.41002	0.89906	2.19993														
0.984606	2.40911	0.90114	2.2														
0.986479	2.4082	0.903219	2.20008														
0.988353	2.4073	0.905299	2.20015														
0.990227	2.4064	0.907379	2.20022														
0.992102	2.40551	0.909459	2.20029														
0.993979	2.40463	0.911539	2.20037														
0.995855	2.40375	0.913619	2.20044														
0.997733	2.40288	0.915699	2.20051														
0.999611	2.40202	0.917778	2.20058														
1.00149	2.40116	0.919858	2.20065														
		0.921938	2.20072														
		0.924018	2.20079														
		0.926098	2.20086														
		0.928178	2.20093														
		0.930257	2.201														
		0.932337	2.20107														
		0.934417	2.20114														
		0.936497	2.20121														
		0.938577	2.20127														
		0.940657	2.20134														
		0.942736	2.20141														
		0.944816	2.20148														
		0.946896	2.20154														
		0.948976	2.20161														
		0.951056	2.20167														
		0.953135	2.20174														
		0.955215	2.20181														
		0.957295	2.20187														
		0.959375	2.20194														
		0.961455	2.202														
		0.963534	2.20207														
		0.965614	2.20213														
		0.967694	2.20219														
		0.969774	2.20226														
		0.971853	2.20232														
		0.973933	2.20238														
		0.976013	2.20245														
		0.978093	2.20251														
		0.980173	2.20257														
		0.982252	2.20263														
		0.984332	2.20269														
		0.986412	2.20276														
		0.988492	2.20282														
		0.990571	2.20288														
		0.992651	2.20294														
		0.994731	2.203														
		0.996811	2.20306														
		0.99889	2.20312														
		1.00097	2.20318														
