Sym0		Asym0		Sym1		Sym2		Sym3		Asym1		Asym2		Asym3	
464  Points		493  Points		185  Points		139  Points		118  Points		339  Points		153  Points		121  Points	
Freq (MHz)	Vph (m/ms)	Freq (MHz)	Vph (m/ms)	Freq (MHz)	Vph (m/ms)	Freq (MHz)	Vph (m/ms)	Freq (MHz)	Vph (m/ms)	Freq (MHz)	Vph (m/ms)	Freq (MHz)	Vph (m/ms)	Freq (MHz)	Vph (m/ms)
0.0043722	7.5204	3.8426e-005	0.0647529	0.279575	302.932	0.494111	799.501	0.559018	4758.18	0.139813	264.493	0.419263	16468.4	0.698786	1060.06
0.011378	7.5198	0.000252922	0.165838	0.279777	150.856	0.494178	318.882	0.55907	532.864	0.140203	96.0099	0.419315	438.085	0.698855	439.285
0.0183813	7.51863	0.000652776	0.2657	0.280115	100.533	0.494302	199.202	0.559206	282.303	0.140955	58.9279	0.419465	222.075	0.698982	277.089
0.0253807	7.51694	0.00123187	0.363542	0.280586	75.4673	0.494485	144.878	0.559426	192.073	0.142062	42.7421	0.419714	148.806	0.699166	202.406
0.0323745	7.51468	0.0019819	0.458752	0.281192	60.4755	0.494725	113.866	0.559729	145.601	0.143512	33.7247	0.420061	111.95	0.699408	159.465
0.0393612	7.51189	0.00289273	0.550797	0.281929	50.5125	0.495024	93.8168	0.560115	117.278	0.145293	28.0105	0.420506	89.7764	0.699707	131.582
0.0463392	7.50853	0.00395263	0.639212	0.282798	43.4201	0.495383	79.795	0.560584	98.2161	0.14739	24.0881	0.421049	74.9781	0.700064	112.022
0.053307	7.5046	0.00514922	0.723683	0.283796	38.1202	0.495802	69.4411	0.561135	84.5165	0.149786	21.2448	0.421689	64.4063	0.700477	97.5451
0.0602628	7.5001	0.00646987	0.804012	0.284921	34.0145	0.496282	61.485	0.561768	74.1996	0.152465	19.1007	0.422425	56.4813	0.700948	86.4007
0.0672049	7.495	0.00790177	0.880059	0.286172	30.7442	0.496823	55.1825	0.562483	66.1532	0.155408	17.4344	0.423257	50.3235	0.701475	77.5586
0.0741316	7.48931	0.00943264	0.951795	0.287546	28.0811	0.497428	50.0684	0.56328	59.7046	0.158599	16.1086	0.424184	45.4041	0.702059	70.3738
0.0810411	7.483	0.0110509	1.01926	0.28904	25.8729	0.498097	45.8372	0.564156	54.423	0.162019	15.0334	0.425206	41.3862	0.7027	64.4215
0.0879314	7.47606	0.0127458	1.08256	0.290653	24.0145	0.498832	42.2797	0.565113	50.0196	0.165652	14.1475	0.426321	38.0447	0.703397	59.4108
0.0948005	7.46848	0.0145072	1.14181	0.292382	22.4307	0.499633	39.2483	0.566149	46.2936	0.169483	13.4078	0.427529	35.2238	0.704149	55.1356
0.101647	7.46023	0.0163263	1.19719	0.294224	21.0662	0.500502	36.6353	0.567264	43.1012	0.173495	12.783	0.428828	32.8122	0.704958	51.4458
0.108467	7.4513	0.0181949	1.24889	0.296175	19.8798	0.501441	34.3607	0.568456	40.3363	0.177676	12.2501	0.430219	30.728	0.705823	48.2297
0.11526	7.44167	0.0201061	1.29712	0.298235	18.8398	0.502452	32.3637	0.569726	37.9195	0.182012	11.7916	0.431699	28.9098	0.706742	45.402
0.122024	7.43131	0.0220534	1.34208	0.300399	17.9217	0.503535	30.5973	0.571072	35.7898	0.18649	11.394	0.433267	27.3109	0.707717	42.8971
0.128754	7.42019	0.0240313	1.38398	0.302665	17.1061	0.504693	29.0245	0.572494	33.8995	0.1911	11.0468	0.434923	25.8945	0.708747	40.6632
0.13545	7.40828	0.0260353	1.42303	0.30503	16.3773	0.505927	27.6157	0.573991	32.211	0.195216	10.7788	0.436664	24.6318	0.709831	38.6589
0.142108	7.39557	0.028061	1.45943	0.307492	15.723	0.507239	26.3474	0.575562	30.6944	0.198792	10.5723	0.438491	23.4998	0.710969	36.851
0.148725	7.382	0.0298412	1.48914	0.310048	15.1328	0.508631	25.2002	0.577206	29.325	0.201793	10.4149	0.4404	22.4797	0.712162	35.2123
0.155298	7.36756	0.0313682	1.51308	0.312696	14.5982	0.510105	24.158	0.578922	28.0829	0.204192	10.2982	0.442392	21.5562	0.713407	33.7205
0.161825	7.35221	0.0326365	1.53197	0.315434	14.1122	0.511662	23.2078	0.580711	26.9516	0.205971	10.2164	0.444465	20.7167	0.714706	32.3569
0.168301	7.3359	0.0336427	1.54635	0.318259	13.6688	0.513304	22.3382	0.58257	25.9171	0.207116	10.1658	0.446617	19.9506	0.716058	31.1061
0.174722	7.3186	0.0343841	1.55662	0.321171	13.2632	0.515033	21.5401	0.584499	24.9681	0.20877	10.0953	0.448847	19.2491	0.717461	29.9547
0.181086	7.30026	0.0348593	1.56306	0.324168	12.8909	0.516851	20.8054	0.586498	24.0945	0.210578	10.0215	0.451154	18.6046	0.718917	28.8916
0.187388	7.28085	0.0355433	1.57215	0.327248	12.5485	0.518759	20.1274	0.588565	23.288	0.213055	9.92565	0.453535	18.0108	0.720425	27.9073
0.193624	7.26032	0.0362879	1.58181	0.33041	12.2327	0.520759	19.5001	0.590699	22.5415	0.216216	9.81129	0.45599	17.4622	0.721984	26.9934
0.19979	7.23862	0.0373022	1.59457	0.333654	11.9409	0.522853	18.9185	0.592901	21.8487	0.220077	9.68241	0.458517	16.9541	0.723593	26.1429
0.20588	7.2157	0.0385876	1.61012	0.33698	11.6708	0.525042	18.3781	0.595168	21.2043	0.224658	9.54306	0.461115	16.4823	0.725253	25.3496
0.211891	7.19153	0.0401454	1.6281	0.340388	11.4203	0.527327	17.8752	0.597502	20.6035	0.229977	9.39712	0.463782	16.0434	0.726963	24.608
0.217817	7.16605	0.0419767	1.6481	0.343877	11.1877	0.52971	17.4062	0.5999	20.0423	0.235359	9.26431	0.466517	15.6341	0.728722	23.9133
0.223653	7.13923	0.0440825	1.6697	0.346985	10.9983	0.532192	16.9683	0.602361	19.517	0.240796	9.14304	0.469317	15.2517	0.73053	23.2615
0.229395	7.11103	0.0461919	1.68996	0.349684	10.8459	0.534774	16.5587	0.604887	19.0245	0.246285	9.03194	0.472183	14.8939	0.732387	22.6487
0.235037	7.08141	0.0483041	1.70899	0.351951	10.7258	0.537456	16.1751	0.607475	18.562	0.251821	8.92983	0.475112	14.5585	0.734292	22.0717
0.240574	7.05033	0.0504184	1.72687	0.353766	10.6345	0.540239	15.8154	0.610125	18.1269	0.257399	8.8357	0.478103	14.2435	0.736244	21.5275
0.246002	7.01778	0.0525341	1.74369	0.355113	10.5692	0.543124	15.4777	0.612837	17.7171	0.263014	8.74868	0.481155	13.9473	0.738243	21.0135
0.251315	6.98373	0.0546508	1.75953	0.355981	10.5283	0.546111	15.1603	0.61561	17.3304	0.268664	8.66799	0.484266	13.6683	0.74029	20.5273
0.25651	6.94819	0.056768	1.77447	0.357237	10.4707	0.5492	14.8617	0.618444	16.9652	0.274345	8.59296	0.487435	13.4052	0.742382	20.0669
0.261581	6.91114	0.0588855	1.78857	0.358612	10.4094	0.552391	14.5804	0.621338	16.6199	0.280053	8.52301	0.49066	13.1568	0.74452	19.6303
0.266526	6.87261	0.0610029	1.80189	0.3605	10.3286	0.555684	14.3153	0.624292	16.2928	0.285784	8.45763	0.493941	12.9219	0.746703	19.2159
0.271341	6.83262	0.0631201	1.81449	0.362917	10.2301	0.559077	14.0651	0.627305	15.9828	0.291537	8.39635	0.497275	12.6996	0.748931	18.8219
0.276024	6.79121	0.0652369	1.82643	0.365884	10.1164	0.562571	13.8289	0.630377	15.6887	0.297307	8.33878	0.500662	12.489	0.751204	18.4471
0.280572	6.74843	0.0673531	1.83774	0.369427	9.99006	0.566164	13.6056	0.633508	15.4093	0.303092	8.28454	0.504101	12.2892	0.753519	18.0901
0.284986	6.70434	0.0694685	1.84847	0.373577	9.85401	0.569854	13.3944	0.636699	15.1437	0.308889	8.23333	0.507591	12.0994	0.755879	17.7497
0.289263	6.659	0.0715832	1.85866	0.377817	9.72681	0.573642	13.1944	0.639947	14.891	0.314696	8.18486	0.51113	11.9191	0.75828	17.4249
0.293404	6.61251	0.0736971	1.86835	0.382148	9.60785	0.577524	13.005	0.643255	14.6503	0.320511	8.13887	0.514717	11.7475	0.760724	17.1146
0.297411	6.56496	0.0758101	1.87757	0.38657	9.49658	0.581498	12.8255	0.646621	14.421	0.32633	8.09512	0.518351	11.5841	0.76321	16.818
0.301284	6.51644	0.0779222	1.88635	0.391083	9.39247	0.585563	12.6551	0.650046	14.2023	0.332152	8.05341	0.522032	11.4284	0.765737	16.5342
0.305027	6.46707	0.0800334	1.89472	0.395687	9.29504	0.589717	12.4933	0.653531	13.9936	0.337975	8.01355	0.525277	11.2986	0.768305	16.2625
0.308641	6.41694	0.0821436	1.90271	0.400379	9.20383	0.593956	12.3395	0.657074	13.7942	0.343795	7.97538	0.528069	11.192	0.770913	16.0021
0.312131	6.36618	0.0842529	1.91034	0.405159	9.11842	0.598277	12.1933	0.660678	13.6038	0.349612	7.93873	0.530397	11.1067	0.773561	15.7525
0.315499	6.31489	0.0863612	1.91764	0.410024	9.03839	0.602679	12.0541	0.664342	13.4218	0.355423	7.90347	0.532249	11.0408	0.776248	15.5129
0.318751	6.26317	0.0884687	1.92461	0.414972	8.96337	0.607156	11.9215	0.668067	13.2477	0.361225	7.86946	0.533617	10.9933	0.778974	15.2828
0.32189	6.21114	0.0905753	1.9313	0.42	8.893	0.611707	11.7951	0.671854	13.0811	0.367018	7.8366	0.534496	10.9633	0.781739	15.0617
0.324921	6.1589	0.0926809	1.9377	0.425104	8.82694	0.616328	11.6744	0.675704	12.9216	0.372799	7.80476	0.535763	10.9207	0.784541	14.8491
0.327848	6.10655	0.0947857	1.94384	0.43028	8.76485	0.621013	11.5592	0.679617	12.769	0.378566	7.77386	0.537145	10.8751	0.787381	14.6446
0.330677	6.05417	0.0968897	1.94974	0.435525	8.70645	0.625147	11.4629	0.683596	12.6228	0.384317	7.7438	0.539034	10.8143	0.790258	14.4478
0.333411	6.00186	0.0989929	1.9554	0.440834	8.65145	0.628706	11.3837	0.68764	12.4827	0.39005	7.7145	0.541436	10.7392	0.793171	14.2582
0.336057	5.94969	0.101095	1.96084	0.446202	8.59957	0.631672	11.3201	0.691752	12.3485	0.395764	7.68589	0.544362	10.651	0.79612	14.0754
0.338617	5.89773	0.103197	1.96607	0.451627	8.55057	0.634031	11.271	0.695934	12.2199	0.401457	7.65788	0.547824	10.5511	0.799105	13.8993
0.341096	5.84605	0.105298	1.97111	0.457102	8.50422	0.635774	11.2355	0.700186	12.0967	0.407126	7.63041	0.551834	10.441	0.802125	13.7293
0.3435	5.79471	0.107398	1.97596	0.462624	8.46031	0.636892	11.213	0.704511	11.9786	0.41277	7.60343	0.555884	10.3354	0.80518	13.5653
0.345832	5.74377	0.109497	1.98064	0.468188	8.41863	0.638504	11.1812	0.70891	11.8654	0.418388	7.57687	0.559973	10.2342	0.808269	13.4069
0.348095	5.69327	0.111596	1.98515	0.473791	8.37899	0.640261	11.147	0.713386	11.757	0.423977	7.55068	0.564101	10.137	0.811392	13.2538
0.350295	5.64325	0.113695	1.9895	0.479428	8.34124	0.642661	11.1013	0.71735	11.6662	0.429535	7.52482	0.568267	10.0437	0.814548	13.1059
0.352434	5.59375	0.115792	1.9937	0.485095	8.30522	0.64571	11.0448	0.720777	11.5915	0.435062	7.49923	0.572472	9.95412	0.817738	12.9629
0.354516	5.5448	0.117889	1.99776	0.490789	8.27077	0.649417	10.9782	0.723645	11.5315	0.440555	7.47388	0.576714	9.86801	0.82096	12.8246
0.356545	5.49643	0.119986	2.00168	0.496506	8.23777	0.65379	10.9025	0.725935	11.4851	0.446012	7.44873	0.580993	9.78524	0.824215	12.6907
0.358523	5.44867	0.122082	2.00548	0.502242	8.20609	0.658838	10.8186	0.727631	11.4517	0.451432	7.42373	0.585309	9.70564	0.827501	12.5611
0.360453	5.40153	0.124177	2.00915	0.507995	8.17564	0.663914	10.7377	0.728722	11.4305	0.456813	7.39886	0.589663	9.62906	0.830819	12.4356
0.362339	5.35502	0.126272	2.0127	0.513762	8.1463	0.669011	10.6595	0.730298	11.4005	0.462153	7.37408	0.594052	9.55536	0.834168	12.314
0.364183	5.30917	0.128366	2.01614	0.51954	8.11798	0.674127	10.5839	0.732022	11.3684	0.467452	7.34937	0.598478	9.48442	0.837548	12.1962
0.365988	5.26398	0.13046	2.01948	0.525325	8.0906	0.679256	10.5107	0.734385	11.3255	0.472706	7.32469	0.60294	9.4161	0.840959	12.0819
0.367756	5.21946	0.132554	2.02272	0.531116	8.06408	0.684394	10.4396	0.737401	11.2725	0.477916	7.30002	0.607438	9.35029	0.843955	11.9852
0.369488	5.17562	0.134647	2.02586	0.536911	8.03834	0.689536	10.3707	0.741094	11.2103	0.483079	7.27535	0.611971	9.28688	0.846527	11.9047
0.371189	5.13245	0.13674	2.0289	0.542706	8.01333	0.69468	10.3037	0.745488	11.14	0.488194	7.25065	0.616539	9.22576	0.848666	11.8395
0.372645	5.09539	0.138832	2.03186	0.548501	7.98899	0.699822	10.2385	0.750614	11.0626	0.49326	7.2259	0.621143	9.16685	0.850366	11.7888
0.37387	5.06421	0.140924	2.03473	0.554292	7.96525	0.704958	10.1749	0.755831	10.9886	0.498276	7.20108	0.625781	9.11004	0.851619	11.7519
0.374871	5.0387	0.143016	2.03752	0.560079	7.94207	0.710085	10.1129	0.76114	10.9179	0.503239	7.17619	0.630454	9.05524	0.852424	11.7286
0.375655	5.01872	0.145107	2.04023	0.565859	7.9194	0.715203	10.0524	0.76654	10.8503	0.50815	7.15121	0.635161	9.00238	0.853583	11.6953
0.376228	5.00412	0.147198	2.04287	0.57163	7.8972	0.720308	9.99331	0.772032	10.7858	0.513007	7.12612	0.639901	8.95136	0.854846	11.6594
0.376593	4.99483	0.149288	2.04543	0.577392	7.87544	0.725399	9.93551	0.777614	10.7242	0.517809	7.10092	0.644675	8.90212	0.85657	11.6113
0.377115	4.98153	0.151379	2.04793	0.583143	7.85407	0.730476	9.87898	0.783287	10.6654	0.522555	7.07561	0.649482	8.85458	0.85876	11.5513
0.37768	4.96716	0.153469	2.05036	0.588881	7.83305	0.735537	9.82365	0.789048	10.6093	0.527245	7.05017	0.654322	8.80867	0.861423	11.4803
0.378443	4.94775	0.155558	2.05273	0.594605	7.81237	0.740583	9.76947	0.794897	10.5557	0.531877	7.0246	0.659193	8.76433	0.864566	11.3988
0.3794	4.92343	0.157648	2.05504	0.600313	7.79199	0.745614	9.71642	0.80083	10.5045	0.536452	6.9989	0.664096	8.72148	0.868199	11.3078
0.380547	4.89435	0.159737	2.05728	0.606005	7.77188	0.75063	9.66445	0.806847	10.4556	0.540969	6.97307	0.66903	8.68006	0.871859	11.2193
0.381878	4.86071	0.161826	2.05948	0.61168	7.75203	0.755632	9.61353	0.812944	10.409	0.545427	6.94711	0.673993	8.64002	0.875547	11.1333
0.383387	4.82272	0.163915	2.06161	0.617335	7.7324	0.760621	9.56364	0.819119	10.3644	0.549827	6.92101	0.678986	8.60129	0.879262	11.0496
0.384877	4.78538	0.166003	2.0637	0.622971	7.71298	0.765598	9.51476	0.82537	10.3218	0.554167	6.89478	0.684008	8.56383	0.883003	10.9682
0.38635	4.74868	0.168091	2.06573	0.628585	7.69374	0.770565	9.46687	0.831692	10.2811	0.558448	6.86843	0.689057	8.52757	0.88677	10.889
0.387807	4.71262	0.170179	2.06772	0.634178	7.67467	0.775523	9.41995	0.838084	10.2421	0.56267	6.84195	0.694132	8.49246	0.890564	10.8119
0.389248	4.67719	0.172267	2.06965	0.639748	7.65576	0.780472	9.37399	0.844543	10.2049	0.566833	6.81536	0.699234	8.45846	0.894383	10.7368
0.390676	4.64237	0.174355	2.07155	0.645293	7.63697	0.785415	9.32896	0.851065	10.1692	0.570937	6.78866	0.70436	8.42551	0.898228	10.6637
0.392091	4.60817	0.176442	2.0734	0.650814	7.61831	0.790353	9.28486	0.857648	10.135	0.574982	6.76185	0.70951	8.39357	0.902097	10.5925
0.393494	4.57456	0.178529	2.0752	0.65631	7.59975	0.795288	9.24168	0.864289	10.1023	0.578969	6.73494	0.714683	8.3626	0.905992	10.5231
0.394885	4.54154	0.180616	2.07697	0.661778	7.58129	0.80022	9.19939	0.870984	10.0709	0.582898	6.70794	0.719878	8.33254	0.909911	10.4555
0.396266	4.50911	0.182703	2.07869	0.66722	7.5629	0.805151	9.15799	0.877733	10.0407	0.586769	6.68086	0.725092	8.30335	0.913855	10.3896
0.397637	4.47724	0.18479	2.08038	0.672633	7.54459	0.810082	9.11746	0.88453	10.0118	0.590584	6.65371	0.730326	8.275	0.917823	10.3253
0.398999	4.44594	0.186876	2.08203	0.678018	7.52633	0.815014	9.07778	0.891375	9.98396	0.594341	6.62648	0.735579	8.24744	0.921815	10.2626
0.400353	4.41519	0.188963	2.08365	0.683373	7.50812	0.819949	9.03895	0.898265	9.95722	0.598043	6.59921	0.740848	8.22065	0.92583	10.2015
0.4017	4.38499	0.191049	2.08523	0.688697	7.48995	0.824888	9.00094	0.905196	9.93149	0.60169	6.57188	0.746132	8.19457	0.929868	10.1419
0.403039	4.35531	0.193135	2.08678	0.693991	7.47181	0.829831	8.96375	0.912168	9.90671	0.605282	6.54451	0.751431	8.16917	0.93393	10.0837
0.404372	4.32616	0.195221	2.08829	0.699253	7.4537	0.834779	8.92735	0.919178	9.88284	0.60882	6.51712	0.756743	8.14443	0.938014	10.027
0.405699	4.29752	0.197307	2.08978	0.704482	7.43559	0.839733	8.89174	0.926223	9.85981	0.612305	6.4897	0.762068	8.12031	0.942121	9.97156
0.407021	4.26939	0.199392	2.09123	0.709679	7.4175	0.844694	8.85689	0.933301	9.8376	0.615738	6.46227	0.767402	8.09677	0.946251	9.91746
0.408338	4.24175	0.201478	2.09266	0.714842	7.39941	0.849663	8.8228	0.940411	9.81614	0.61912	6.43484	0.772747	8.07379	0.950402	9.86465
0.409651	4.21459	0.203563	2.09405	0.719971	7.38131	0.85464	8.78944	0.947551	9.7954	0.622451	6.40741	0.778099	8.05134	0.954576	9.81307
0.410959	4.18791	0.205648	2.09542	0.725065	7.36321	0.859625	8.75681	0.954718	9.77534	0.625732	6.38	0.783459	8.02938	0.958771	9.76269
0.412264	4.1617	0.207733	2.09676	0.730124	7.34509	0.864619	8.72487	0.961911	9.75592	0.628964	6.35261	0.788824	8.00791	0.962988	9.71347
0.413566	4.13594	0.209818	2.09807	0.735148	7.32695	0.869623	8.69363	0.969128	9.73711	0.632148	6.32525	0.794193	7.98688	0.967225	9.66539
0.414866	4.11064	0.211903	2.09936	0.740135	7.30879	0.874636	8.66306	0.976366	9.71885	0.635285	6.29792	0.799567	7.96627	0.971484	9.61839
0.416162	4.08577	0.213988	2.10063	0.745086	7.2906	0.87966	8.63315	0.983625	9.70114	0.638376	6.27065	0.804942	7.94606	0.975764	9.57246
0.417457	4.06133	0.216073	2.10187	0.75	7.27239	0.884693	8.60388	0.990901	9.68392	0.641421	6.24342	0.810318	7.92624	0.980064	9.52757
0.41875	4.03732	0.218157	2.10308	0.754878	7.25415	0.889737	8.57523	0.998194	9.66716	0.644422	6.21626	0.815694	7.90677	0.984385	9.48367
0.420042	4.01371	0.220242	2.10428	0.759717	7.23587	0.894792	8.5472	1.0055	9.65084	0.64738	6.18916	0.821069	7.88763	0.988725	9.44075
0.421333	3.99052	0.222326	2.10545	0.764519	7.21756	0.899857	8.51975			0.650294	6.16214	0.826442	7.86882	0.993086	9.39878
0.422622	3.96772	0.22441	2.1066	0.769283	7.19921	0.904932	8.49289			0.653167	6.13519	0.831811	7.8503	0.997467	9.35772
0.423911	3.94531	0.226494	2.10773	0.774009	7.18082	0.910018	8.46659			0.655999	6.10834	0.837176	7.83206	1.00187	9.31756
0.4252	3.92329	0.228578	2.10884	0.778696	7.1624	0.915115	8.44084			0.658791	6.08157	0.842535	7.81409		
0.426489	3.90164	0.230662	2.10993	0.783344	7.14393	0.920221	8.41562			0.661543	6.05491	0.847888	7.79637		
0.427777	3.88035	0.232746	2.111	0.787954	7.12543	0.925338	8.39091			0.664258	6.02834	0.853234	7.77888		
0.429066	3.85943	0.23483	2.11205	0.792525	7.10689	0.930464	8.36671			0.666934	6.00188	0.858571	7.76161		
0.430356	3.83885	0.236914	2.11309	0.797057	7.0883	0.9356	8.343			0.669574	5.97554	0.863898	7.74454		
0.431646	3.81862	0.238997	2.1141	0.80155	7.06968	0.940745	8.31976			0.672178	5.94931	0.869215	7.72766		
0.432937	3.79873	0.241081	2.1151	0.806004	7.05103	0.9459	8.29698			0.674747	5.92321	0.874521	7.71096		
0.434229	3.77918	0.243164	2.11608	0.810419	7.03233	0.951063	8.27464			0.677282	5.89723	0.879815	7.69443		
0.435522	3.75994	0.245248	2.11705	0.814796	7.01361	0.956234	8.25273			0.679783	5.87137	0.885097	7.67806		
0.436816	3.74103	0.247331	2.118	0.819133	6.99484	0.961413	8.23124			0.682252	5.84566	0.890364	7.66182		
0.438112	3.72242	0.249414	2.11893	0.823432	6.97605	0.966599	8.21016			0.684689	5.82007	0.895617	7.64573		
0.43941	3.70412	0.251498	2.11985	0.827691	6.95722	0.971792	8.18946			0.687095	5.79463	0.900854	7.62976		
0.440709	3.68613	0.253581	2.12076	0.831913	6.93837	0.976992	8.16914			0.68947	5.76933	0.906076	7.6139		
0.44201	3.66842	0.255664	2.12165	0.836096	6.91949	0.982197	8.14918			0.691815	5.74417	0.911281	7.59815		
0.443313	3.651	0.257747	2.12252	0.84024	6.90058	0.987408	8.12957			0.694132	5.71917	0.916468	7.58249		
0.444618	3.63387	0.25983	2.12338	0.844347	6.88165	0.992624	8.1103			0.69642	5.69431	0.921637	7.56693		
0.445925	3.61701	0.261913	2.12423	0.848416	6.8627	0.997844	8.09135			0.698681	5.6696	0.926787	7.55145		
0.447235	3.60042	0.263995	2.12506	0.852447	6.84373	1.00307	8.07272			0.700915	5.64505	0.931918	7.53605		
0.448547	3.5841	0.266078	2.12589	0.856441	6.82475					0.703123	5.62066	0.937029	7.52071		
0.449861	3.56804	0.268161	2.12669	0.860398	6.80575					0.705305	5.59642	0.942119	7.50544		
0.451178	3.55224	0.270243	2.12749	0.864317	6.78674					0.707462	5.57234	0.947188	7.49023		
0.452497	3.53668	0.272326	2.12828	0.8682	6.76772					0.709595	5.54842	0.952235	7.47507		
0.45382	3.52137	0.274408	2.12905	0.872047	6.74869					0.711705	5.52467	0.95726	7.45995		
0.455144	3.5063	0.276491	2.12981	0.875858	6.72966					0.713791	5.50108	0.962262	7.44488		
0.456472	3.49147	0.278573	2.13056	0.879633	6.71062					0.715855	5.47765	0.967241	7.42984		
0.457802	3.47687	0.280656	2.1313	0.883372	6.69159					0.717897	5.45439	0.972196	7.41484		
0.459136	3.4625	0.282738	2.13203	0.887077	6.67256					0.719917	5.4313	0.977127	7.39986		
0.460472	3.44834	0.28482	2.13275	0.890746	6.65353					0.721917	5.40837	0.982034	7.38492		
0.461811	3.43441	0.286903	2.13345	0.894381	6.63451					0.723897	5.38561	0.986916	7.36999		
0.463154	3.42069	0.288985	2.13415	0.897982	6.6155					0.725856	5.36301	0.991773	7.35509		
0.464499	3.40719	0.291067	2.13484	0.901549	6.5965					0.727797	5.34059	0.996604	7.3402		
0.465848	3.39388	0.293149	2.13552	0.905082	6.57751					0.729719	5.31833	1.00141	7.32532		
0.4672	3.38078	0.295231	2.13619	0.908583	6.55854					0.731623	5.29624				
0.468555	3.36788	0.297313	2.13684	0.91205	6.53959					0.733509	5.27433				
0.469913	3.35517	0.299395	2.1375	0.915485	6.52066					0.735378	5.25258				
0.471274	3.34266	0.301477	2.13814	0.918888	6.50175					0.737231	5.231				
0.472639	3.33033	0.303559	2.13877	0.922259	6.48287					0.739067	5.20958				
0.474007	3.31819	0.305641	2.13939	0.925599	6.46401					0.740887	5.18834				
0.475378	3.30622	0.307722	2.14001	0.928907	6.44518					0.742691	5.16726				
0.476753	3.29444	0.309804	2.14062	0.932185	6.42637					0.744481	5.14636				
0.478131	3.28282	0.311886	2.14122	0.935432	6.4076					0.746256	5.12562				
0.479512	3.27138	0.313968	2.14181	0.938649	6.38887					0.748018	5.10504				
0.480897	3.26011	0.316049	2.14239	0.941837	6.37017					0.749765	5.08464				
0.482285	3.249	0.318131	2.14297	0.944995	6.3515					0.751499	5.0644				
0.483677	3.23805	0.320213	2.14354	0.948124	6.33288					0.75322	5.04432				
0.485072	3.22726	0.322294	2.1441	0.951225	6.31429					0.754928	5.02441				
0.486471	3.21662	0.324376	2.14465	0.954297	6.29575					0.756624	5.00467				
0.487873	3.20614	0.326457	2.1452	0.957341	6.27725					0.758308	4.98508				
0.489278	3.19581	0.328538	2.14574	0.960357	6.25879					0.759981	4.96567				
0.490687	3.18563	0.33062	2.14628	0.963346	6.24038					0.761642	4.94641				
0.492099	3.17559	0.332701	2.1468	0.966309	6.22202					0.763292	4.92731				
0.493515	3.16569	0.334783	2.14732	0.969244	6.2037					0.764932	4.90838				
0.494935	3.15593	0.336864	2.14784	0.972154	6.18544					0.766561	4.8896				
0.496357	3.14631	0.338945	2.14835	0.975037	6.16722					0.768181	4.87098				
0.497784	3.13683	0.341027	2.14885	0.977895	6.14906					0.769791	4.85252				
0.499213	3.12748	0.343108	2.14934	0.980727	6.13095					0.771391	4.83422				
0.500646	3.11825	0.345189	2.14983	0.983534	6.1129					0.772982	4.81607				
0.502083	3.10916	0.34727	2.15032	0.986317	6.0949					0.774564	4.79807				
0.503523	3.10019	0.349351	2.1508	0.989076	6.07696					0.776138	4.78024				
0.504967	3.09135	0.351433	2.15127	0.99181	6.05907					0.777704	4.76255				
0.506414	3.08262	0.353514	2.15174	0.994521	6.04125					0.779261	4.74501				
0.507864	3.07402	0.355595	2.1522	0.997208	6.02348					0.780811	4.72763				
0.509318	3.06553	0.357676	2.15266	0.999873	6.00578					0.782352	4.71039				
0.510775	3.05715	0.359757	2.15311	1.00251	5.98814					0.783887	4.6933				
0.512236	3.04889	0.361838	2.15355							0.785415	4.67636				
0.5137	3.04075	0.363919	2.15399							0.786935	4.65957				
0.515167	3.03271	0.366	2.15443							0.788449	4.64292				
0.516638	3.02478	0.368081	2.15486							0.789957	4.62641				
0.518112	3.01695	0.370162	2.15529							0.791458	4.61005				
0.51959	3.00923	0.372243	2.15571							0.792953	4.59383				
0.521071	3.00161	0.374323	2.15613							0.794442	4.57775				
0.522555	2.99409	0.376404	2.15654							0.795926	4.56181				
0.524043	2.98667	0.378485	2.15695							0.797404	4.546				
0.525533	2.97935	0.380566	2.15735							0.798877	4.53034				
0.527028	2.97212	0.382647	2.15775							0.800345	4.5148				
0.528525	2.96498	0.384727	2.15815							0.801807	4.49941				
0.530026	2.95794	0.386808	2.15854							0.803265	4.48415				
0.53153	2.95099	0.388889	2.15892							0.804719	4.46902				
0.533037	2.94413	0.39097	2.1593							0.806168	4.45402				
0.534548	2.93736	0.39305	2.15968							0.807613	4.43915				
0.536062	2.93067	0.395131	2.16006							0.809053	4.42441				
0.537579	2.92407	0.397212	2.16043							0.81049	4.4098				
0.539099	2.91756	0.399292	2.16079							0.811922	4.39531				
0.540622	2.91112	0.401373	2.16116							0.813352	4.38095				
0.542148	2.90477	0.403453	2.16152							0.814777	4.36671				
0.543678	2.89849	0.405534	2.16187							0.816199	4.3526				
0.545211	2.8923	0.407615	2.16222							0.817618	4.33861				
0.546747	2.88618	0.409695	2.16257							0.819033	4.32474				
0.548286	2.88014	0.411776	2.16292							0.820446	4.31099				
0.549828	2.87417	0.413856	2.16326							0.821856	4.29736				
0.551373	2.86828	0.415937	2.1636							0.823263	4.28385				
0.552921	2.86246	0.418017	2.16393							0.824667	4.27045				
0.554472	2.85671	0.420098	2.16426							0.826068	4.25717				
0.556026	2.85104	0.422178	2.16459							0.827468	4.244				
0.557584	2.84543	0.424258	2.16492							0.828864	4.23095				
0.559144	2.83989	0.426339	2.16524							0.830259	4.21801				
0.560707	2.83441	0.428419	2.16556							0.831651	4.20518				
0.562273	2.82901	0.4305	2.16587							0.833042	4.19246				
0.563842	2.82366	0.43258	2.16619							0.83443	4.17985				
0.565414	2.81838	0.43466	2.16649							0.835817	4.16734				
0.566989	2.81317	0.436741	2.1668							0.837202	4.15495				
0.568566	2.80802	0.438821	2.16711							0.838585	4.14265				
0.570147	2.80293	0.440901	2.16741							0.839966	4.13047				
0.57173	2.7979	0.442982	2.1677							0.841346	4.11839				
0.573317	2.79292	0.445062	2.168							0.842725	4.10641				
0.574906	2.78801	0.447142	2.16829							0.844102	4.09453				
0.576498	2.78316	0.449222	2.16858							0.845478	4.08275				
0.578092	2.77836	0.451302	2.16887							0.846853	4.07108				
0.57969	2.77361	0.453383	2.16915							0.848227	4.0595				
0.58129	2.76893	0.455463	2.16944							0.8496	4.04802				
0.582893	2.76429	0.457543	2.16972							0.850972	4.03663				
0.584498	2.75971	0.459623	2.16999							0.852343	4.02535				
0.586107	2.75519	0.461703	2.17027							0.853713	4.01416				
0.587718	2.75071	0.463784	2.17054							0.855082	4.00306				
0.589331	2.74629	0.465864	2.17081							0.856451	3.99205				
0.590947	2.74192	0.467944	2.17108							0.857819	3.98114				
0.592566	2.73759	0.470024	2.17134							0.859186	3.97032				
0.594188	2.73332	0.472104	2.1716							0.860553	3.95959				
0.595812	2.72909	0.474184	2.17186							0.86192	3.94895				
0.597438	2.72492	0.476264	2.17212							0.863286	3.93839				
0.599068	2.72079	0.478344	2.17238							0.864652	3.92793				
0.600699	2.7167	0.480424	2.17263							0.866017	3.91755				
0.602334	2.71266	0.482504	2.17288							0.867383	3.90726				
0.603971	2.70867	0.484584	2.17313							0.868748	3.89705				
0.60561	2.70472	0.486664	2.17338							0.870113	3.88693				
0.607252	2.70081	0.488745	2.17362							0.871478	3.87689				
0.608896	2.69695	0.490825	2.17387							0.872842	3.86694				
0.610542	2.69313	0.492904	2.17411							0.874207	3.85706				
0.612192	2.68935	0.494984	2.17435							0.875572	3.84727				
0.613843	2.68561	0.497064	2.17458							0.876937	3.83756				
0.615497	2.68192	0.499144	2.17482							0.878303	3.82793				
0.617153	2.67826	0.501224	2.17505							0.879668	3.81837				
0.618812	2.67465	0.503304	2.17528							0.881034	3.8089				
0.620473	2.67107	0.505384	2.17551							0.8824	3.7995				
0.622136	2.66753	0.507464	2.17574							0.883766	3.79018				
0.623802	2.66403	0.509544	2.17596							0.885133	3.78093				
0.62547	2.66057	0.511624	2.17619							0.8865	3.77176				
0.62714	2.65714	0.513704	2.17641							0.887867	3.76266				
0.628812	2.65375	0.515784	2.17663							0.889235	3.75364				
0.630487	2.6504	0.517864	2.17685							0.890603	3.74468				
0.632164	2.64708	0.519943	2.17706							0.891972	3.7358				
0.633843	2.6438	0.522023	2.17728							0.893341	3.727				
0.635525	2.64055	0.524103	2.17749							0.894711	3.71826				
0.637208	2.63733	0.526183	2.1777							0.896082	3.70959				
0.638894	2.63415	0.528263	2.17791							0.897453	3.70099				
0.640582	2.63101	0.530343	2.17812							0.898825	3.69246				
0.642272	2.62789	0.532422	2.17833							0.900198	3.684				
0.643964	2.62481	0.534502	2.17853							0.901571	3.67561				
0.645659	2.62176	0.536582	2.17873							0.902945	3.66728				
0.647355	2.61874	0.538662	2.17894							0.90432	3.65902				
0.649054	2.61575	0.540741	2.17914							0.905696	3.65082				
0.650754	2.6128	0.542821	2.17934							0.907073	3.64269				
0.652457	2.60987	0.544901	2.17953							0.90845	3.63462				
0.654162	2.60697	0.546981	2.17973							0.909828	3.62662				
0.655869	2.60411	0.54906	2.17992							0.911208	3.61868				
0.657577	2.60127	0.55114	2.18011							0.912588	3.6108				
0.659288	2.59846	0.55322	2.18031							0.913969	3.60298				
0.661001	2.59568	0.5553	2.1805							0.915351	3.59523				
0.662716	2.59292	0.557379	2.18068							0.916734	3.58753				
0.664433	2.5902	0.559459	2.18087							0.918118	3.57989				
0.666151	2.5875	0.561539	2.18106							0.919503	3.57232				
0.667872	2.58483	0.563618	2.18124							0.920889	3.5648				
0.669595	2.58219	0.565698	2.18142							0.922276	3.55734				
0.671319	2.57957	0.567778	2.1816							0.923665	3.54993				
0.673045	2.57698	0.569857	2.18179							0.925054	3.54259				
0.674774	2.57441	0.571937	2.18196							0.926444	3.5353				
0.676504	2.57187	0.574016	2.18214							0.927836	3.52807				
0.678236	2.56935	0.576096	2.18232							0.929229	3.52089				
0.67997	2.56686	0.578176	2.18249							0.930623	3.51377				
0.681705	2.56439	0.580255	2.18267							0.932018	3.5067				
0.683443	2.56195	0.582335	2.18284							0.933414	3.49968				
0.685182	2.55953	0.584415	2.18301							0.934812	3.49272				
0.686923	2.55713	0.586494	2.18318							0.93621	3.48581				
0.688666	2.55476	0.588574	2.18335							0.93761	3.47896				
0.690411	2.55241	0.590653	2.18352							0.939011	3.47215				
0.692157	2.55008	0.592733	2.18368							0.940414	3.4654				
0.693905	2.54778	0.594812	2.18385							0.941818	3.4587				
0.695655	2.5455	0.596892	2.18401							0.943223	3.45205				
0.697407	2.54324	0.598971	2.18418							0.944629	3.44545				
0.69916	2.541	0.601051	2.18434							0.946036	3.43889				
0.700915	2.53878	0.60313	2.1845							0.947445	3.43239				
0.702672	2.53658	0.60521	2.18466							0.948855	3.42593				
0.70443	2.53441	0.60729	2.18482							0.950267	3.41953				
0.70619	2.53225	0.609369	2.18497							0.95168	3.41317				
0.707952	2.53011	0.611449	2.18513							0.953094	3.40686				
0.709715	2.528	0.613528	2.18529							0.95451	3.40059				
0.71148	2.5259	0.615608	2.18544							0.955927	3.39437				
0.713247	2.52383	0.617687	2.18559							0.957345	3.3882				
0.715015	2.52177	0.619766	2.18575							0.958765	3.38207				
0.716785	2.51973	0.621846	2.1859							0.960186	3.37599				
0.718557	2.51771	0.623925	2.18605							0.961608	3.36995				
0.72033	2.51571	0.626005	2.1862							0.963032	3.36396				
0.722104	2.51373	0.628084	2.18634							0.964458	3.35801				
0.72388	2.51177	0.630164	2.18649							0.965884	3.3521				
0.725658	2.50982	0.632243	2.18664							0.967313	3.34624				
0.727437	2.50789	0.634323	2.18678							0.968742	3.34042				
0.729218	2.50598	0.636402	2.18693							0.970173	3.33464				
0.731	2.50409	0.638481	2.18707							0.971606	3.3289				
0.732784	2.50221	0.640561	2.18721							0.97304	3.32321				
0.734569	2.50036	0.64264	2.18736							0.974475	3.31755				
0.736356	2.49851	0.64472	2.1875							0.975912	3.31194				
0.738144	2.49669	0.646799	2.18764							0.97735	3.30637				
0.739934	2.49488	0.648878	2.18777							0.97879	3.30083				
0.741725	2.49309	0.650958	2.18791							0.980231	3.29534				
0.743517	2.49131	0.653037	2.18805							0.981674	3.28989				
0.745311	2.48955	0.655117	2.18819							0.983118	3.28447				
0.747107	2.4878	0.657196	2.18832							0.984564	3.27909				
0.748903	2.48607	0.659275	2.18846							0.986011	3.27376				
0.750702	2.48436	0.661355	2.18859							0.98746	3.26845				
0.752501	2.48266	0.663434	2.18872							0.98891	3.26319				
0.754302	2.48098	0.665513	2.18885							0.990362	3.25797				
0.756105	2.47931	0.667593	2.18898							0.991815	3.25278				
0.757908	2.47765	0.669672	2.18912							0.99327	3.24762				
0.759714	2.47601	0.671751	2.18924							0.994726	3.24251				
0.76152	2.47439	0.673831	2.18937							0.996184	3.23743				
0.763328	2.47277	0.67591	2.1895							0.997643	3.23238				
0.765137	2.47118	0.677989	2.18963							0.999104	3.22737				
0.766947	2.46959	0.680069	2.18975							1.00057	3.2224				
0.768759	2.46802	0.682148	2.18988												
0.770572	2.46646	0.684227	2.19												
0.772387	2.46492	0.686306	2.19013												
0.774202	2.46339	0.688386	2.19025												
0.776019	2.46187	0.690465	2.19037												
0.777837	2.46037	0.692544	2.1905												
0.779657	2.45888	0.694623	2.19062												
0.781478	2.4574	0.696703	2.19074												
0.7833	2.45593	0.698782	2.19086												
0.785123	2.45448	0.700861	2.19098												
0.786947	2.45304	0.70294	2.19109												
0.788773	2.45161	0.70502	2.19121												
0.7906	2.45019	0.707099	2.19133												
0.792428	2.44879	0.709178	2.19145												
0.794257	2.44739	0.711257	2.19156												
0.796088	2.44601	0.713337	2.19168												
0.797919	2.44464	0.715416	2.19179												
0.799752	2.44328	0.717495	2.1919												
0.801586	2.44194	0.719574	2.19202												
0.803421	2.4406	0.721653	2.19213												
0.805257	2.43927	0.723733	2.19224												
0.807095	2.43796	0.725812	2.19235												
0.808933	2.43665	0.727891	2.19246												
0.810773	2.43536	0.72997	2.19257												
0.812614	2.43408	0.732049	2.19268												
0.814456	2.43281	0.734128	2.19279												
0.816299	2.43154	0.736208	2.19289												
0.818143	2.43029	0.738287	2.193												
0.819988	2.42905	0.740366	2.19311												
0.821835	2.42782	0.742445	2.19321												
0.823682	2.4266	0.744524	2.19332												
0.82553	2.42539	0.746603	2.19342												
0.82738	2.42419	0.748682	2.19353												
0.829231	2.42299	0.750761	2.19363												
0.831082	2.42181	0.752841	2.19373												
0.832935	2.42064	0.75492	2.19384												
0.834789	2.41947	0.756999	2.19394												
0.836643	2.41832	0.759078	2.19404												
0.838499	2.41717	0.761157	2.19414												
0.840356	2.41604	0.763236	2.19424												
0.842214	2.41491	0.765315	2.19434												
0.844073	2.41379	0.767394	2.19444												
0.845932	2.41268	0.769473	2.19454												
0.847793	2.41158	0.771552	2.19464												
0.849655	2.41049	0.773632	2.19473												
0.851518	2.4094	0.775711	2.19483												
0.853381	2.40833	0.77779	2.19493												
0.855246	2.40726	0.779869	2.19502												
0.857112	2.4062	0.781948	2.19512												
0.858978	2.40515	0.784027	2.19521												
0.860846	2.40411	0.786106	2.19531												
0.862715	2.40307	0.788185	2.1954												
0.864584	2.40205	0.790264	2.19549												
0.866454	2.40103	0.792343	2.19559												
0.868326	2.40002	0.794422	2.19568												
0.870198	2.39902	0.796501	2.19577												
0.872071	2.39802	0.79858	2.19586												
0.873945	2.39703	0.800659	2.19595												
0.87582	2.39605	0.802738	2.19604												
0.877696	2.39508	0.804817	2.19613												
0.879573	2.39411	0.806896	2.19622												
0.88145	2.39316	0.808975	2.19631												
0.883329	2.3922	0.811054	2.1964												
0.885208	2.39126	0.813133	2.19649												
0.887089	2.39032	0.815212	2.19658												
0.88897	2.38939	0.817291	2.19666												
0.890852	2.38847	0.81937	2.19675												
0.892734	2.38756	0.821449	2.19684												
0.894618	2.38665	0.823528	2.19692												
0.896503	2.38574	0.825607	2.19701												
0.898388	2.38485	0.827686	2.19709												
0.900274	2.38396	0.829765	2.19718												
0.902161	2.38308	0.831844	2.19726												
0.904049	2.3822	0.833923	2.19735												
0.905938	2.38133	0.836002	2.19743												
0.907827	2.38047	0.838081	2.19751												
0.909718	2.37961	0.84016	2.19759												
0.911609	2.37876	0.842238	2.19768												
0.913501	2.37792	0.844317	2.19776												
0.915393	2.37708	0.846396	2.19784												
0.917287	2.37625	0.848475	2.19792												
0.919181	2.37542	0.850554	2.198												
0.921076	2.3746	0.852633	2.19808												
0.922972	2.37378	0.854712	2.19816												
0.924868	2.37298	0.856791	2.19824												
0.926766	2.37217	0.85887	2.19832												
0.928664	2.37138	0.860949	2.1984												
0.930563	2.37059	0.863028	2.19847												
0.932462	2.3698	0.865106	2.19855												
0.934363	2.36902	0.867185	2.19863												
0.936264	2.36825	0.869264	2.19871												
0.938166	2.36748	0.871343	2.19878												
0.940068	2.36671	0.873422	2.19886												
0.941972	2.36596	0.875501	2.19894												
0.943876	2.3652	0.87758	2.19901												
0.94578	2.36446	0.879659	2.19909												
0.947686	2.36371	0.881737	2.19916												
0.949592	2.36298	0.883816	2.19923												
0.951499	2.36225	0.885895	2.19931												
0.953407	2.36152	0.887974	2.19938												
0.955315	2.3608	0.890053	2.19946												
0.957224	2.36008	0.892132	2.19953												
0.959134	2.35937	0.89421	2.1996												
0.961044	2.35866	0.896289	2.19967												
0.962955	2.35796	0.898368	2.19975												
0.964867	2.35727	0.900447	2.19982												
0.966779	2.35657	0.902526	2.19989												
0.968692	2.35589	0.904605	2.19996												
0.970606	2.35521	0.906683	2.20003												
0.97252	2.35453	0.908762	2.2001												
0.974436	2.35385	0.910841	2.20017												
0.976351	2.35319	0.91292	2.20024												
0.978268	2.35252	0.914999	2.20031												
0.980185	2.35186	0.917077	2.20038												
0.982102	2.35121	0.919156	2.20045												
0.984021	2.35056	0.921235	2.20052												
0.98594	2.34991	0.923314	2.20058												
0.987859	2.34927	0.925393	2.20065												
0.98978	2.34863	0.927471	2.20072												
0.9917	2.348	0.92955	2.20079												
0.993622	2.34737	0.931629	2.20085												
0.995544	2.34675	0.933708	2.20092												
0.997467	2.34613	0.935786	2.20099												
0.99939	2.34551	0.937865	2.20105												
1.00131	2.3449	0.939944	2.20112												
		0.942023	2.20118												
		0.944101	2.20125												
		0.94618	2.20131												
		0.948259	2.20138												
		0.950338	2.20144												
		0.952416	2.20151												
		0.954495	2.20157												
		0.956574	2.20163												
		0.958652	2.2017												
		0.960731	2.20176												
		0.96281	2.20182												
		0.964889	2.20188												
		0.966967	2.20195												
		0.969046	2.20201												
		0.971125	2.20207												
		0.973203	2.20213												
		0.975282	2.20219												
		0.977361	2.20225												
		0.979439	2.20231												
		0.981518	2.20237												
		0.983597	2.20243												
		0.985676	2.20249												
		0.987754	2.20255												
		0.989833	2.20261												
		0.991911	2.20267												
		0.99399	2.20273												
		0.996069	2.20279												
		0.998147	2.20284												
		1.00023	2.2029												
