Sym0		Asym0		Sym1		Sym2		Sym3		Sym4		Asym1		Asym2		Asym3	
457  Points		492  Points		173  Points		139  Points		119  Points		91  Points		306  Points		151  Points		121  Points	
Freq (MHz)	Vph (m/ms)	Freq (MHz)	Vph (m/ms)	Freq (MHz)	Vph (m/ms)	Freq (MHz)	Vph (m/ms)	Freq (MHz)	Vph (m/ms)	Freq (MHz)	Vph (m/ms)	Freq (MHz)	Vph (m/ms)	Freq (MHz)	Vph (m/ms)	Freq (MHz)	Vph (m/ms)
0.00333205	7.44343	0.000344446	0.19244	0.279515	1004.82	0.524096	1755.49	0.559039	864.791	0.838529	2529.22	0.139765	623.463	0.419263	4267.5	0.698774	2460.36
0.0102665	7.44304	0.000791385	0.290781	0.279626	231.121	0.524128	426.036	0.559148	354.308	0.838571	663.83	0.140032	121.148	0.419323	407.134	0.698821	574.826
0.0171993	7.44222	0.00141393	0.387029	0.279876	130.687	0.524197	242.467	0.559347	222.862	0.838663	382.092	0.140656	67.3781	0.419483	213.843	0.698926	325.475
0.0241291	7.44097	0.00220322	0.48053	0.280264	91.1944	0.524305	169.479	0.559638	162.613	0.838805	268.278	0.141632	46.9096	0.419741	145.072	0.699089	227.043
0.0310548	7.4393	0.00314901	0.570817	0.28079	70.1107	0.524453	130.288	0.560018	128.056	0.838997	206.735	0.142951	36.1814	0.420098	109.829	0.699311	174.357
0.0379753	7.43722	0.00423951	0.657454	0.281453	57.0129	0.52464	105.838	0.560488	105.654	0.839238	168.184	0.144601	29.6152	0.420554	88.4126	0.69959	141.546
0.0448893	7.43469	0.00546261	0.740185	0.282251	48.0972	0.524868	89.1312	0.561046	89.9601	0.839529	141.771	0.146567	25.2078	0.421108	74.029	0.699928	119.153
0.0517956	7.43174	0.00680571	0.818806	0.283183	41.6443	0.525138	76.9951	0.561693	78.3578	0.839869	122.548	0.148834	22.0624	0.42176	63.7089	0.700323	102.9
0.058693	7.42835	0.00825643	0.893219	0.284247	36.7637	0.525452	67.7818	0.562426	69.4352	0.840258	107.932	0.151386	19.7176	0.422508	55.948	0.700776	90.5679
0.0655801	7.42452	0.00980281	0.963407	0.285442	32.9479	0.525809	60.5506	0.563244	62.3631	0.840697	96.4457	0.154206	17.9113	0.423354	49.9032	0.701287	80.8934
0.0724555	7.42022	0.0114337	1.02942	0.286765	29.8865	0.526213	54.7255	0.564148	56.6221	0.841185	87.1831	0.157276	16.484	0.424295	45.0649	0.701855	73.1026
0.079318	7.41547	0.0131385	1.09137	0.288213	27.379	0.526664	49.934	0.565135	51.8706	0.841722	79.5565	0.16058	15.333	0.425332	41.1072	0.702481	66.6955
0.0861661	7.41023	0.0149077	1.14937	0.289786	25.29	0.527163	45.9246	0.566204	47.8747	0.842309	73.1687	0.164101	14.3891	0.426462	37.8117	0.703163	61.3348
0.0929984	7.40452	0.0167326	1.20362	0.291479	23.525	0.527714	42.5213	0.567354	44.4688	0.842944	67.7413	0.167823	13.6041	0.427686	35.0268	0.703903	56.7845
0.0998133	7.3983	0.0186056	1.25428	0.293291	22.0157	0.528317	39.5972	0.568584	41.5323	0.843628	63.0737	0.171731	12.9434	0.429003	32.6437	0.704699	52.8746
0.106609	7.39157	0.0205197	1.30158	0.295218	20.7118	0.528974	37.0586	0.569893	38.9754	0.84436	59.0174	0.175812	12.3815	0.430411	30.5827	0.705552	49.4797
0.113385	7.38432	0.022469	1.34569	0.297258	19.5754	0.529686	34.8348	0.571279	36.7298	0.845141	55.4603	0.180052	11.8993	0.431909	28.7837	0.706461	46.5048
0.120137	7.37652	0.0244481	1.38683	0.299408	18.5772	0.530457	32.8713	0.572741	34.7426	0.84597	52.3161	0.183867	11.5326	0.433497	27.2006	0.707426	43.8773
0.126866	7.36816	0.0264523	1.4252	0.301664	17.6943	0.531287	31.1257	0.574279	32.9724	0.846848	49.5173	0.187202	11.2533	0.435173	25.7976	0.708447	41.5401
0.133569	7.35921	0.0284779	1.46099	0.304025	16.9087	0.532178	29.5642	0.57589	31.386	0.847773	47.0104	0.190013	11.0424	0.436936	24.5463	0.709523	39.4481
0.140243	7.34967	0.0302576	1.49023	0.306486	16.2059	0.533132	28.1597	0.577574	29.9566	0.848747	44.7523	0.192269	10.8871	0.438784	23.4241	0.710654	37.5651
0.146887	7.33951	0.0317839	1.5138	0.309046	15.574	0.534152	26.8902	0.57933	28.6626	0.849767	42.708	0.193945	10.779	0.440716	22.4125	0.71184	35.8617
0.153499	7.3287	0.0330517	1.53241	0.311701	15.0033	0.535238	25.7377	0.581157	27.486	0.850836	40.8489	0.195026	10.7122	0.442732	21.4965	0.71308	34.3136
0.160076	7.31722	0.0340572	1.54658	0.314448	14.4859	0.536393	24.6872	0.583053	26.4118	0.851951	39.1512	0.196589	10.6195	0.444829	20.6636	0.714375	32.9008
0.166616	7.30504	0.0347982	1.55671	0.317285	14.0151	0.537618	23.7262	0.585018	25.4277	0.853113	37.595	0.198302	10.5229	0.447007	19.9033	0.715723	31.6067
0.173115	7.29213	0.0352731	1.56306	0.32021	13.5852	0.538915	22.8442	0.587051	24.523	0.854322	36.1634	0.200653	10.398	0.449263	19.207	0.717124	30.4171
0.179572	7.27847	0.0359567	1.57203	0.32322	13.1914	0.540287	22.0322	0.58915	23.6887	0.855578	34.8425	0.203661	10.2499	0.451597	18.5672	0.718579	29.3201
0.185983	7.26401	0.0367008	1.58155	0.326313	12.8298	0.541734	21.2826	0.591316	22.9173	0.856879	33.6198	0.207347	10.0841	0.454007	17.9776	0.720086	28.3055
0.192346	7.24874	0.0377145	1.59415	0.329486	12.4968	0.543258	20.5889	0.593547	22.202	0.858227	32.4852	0.211736	9.90639	0.456492	17.4329	0.721645	27.3646
0.198657	7.23261	0.0389989	1.6095	0.332739	12.1894	0.544862	19.9454	0.595842	21.5373	0.85962	31.4296	0.21685	9.7219	0.459049	16.9282	0.723256	26.4898
0.204912	7.21558	0.0405556	1.62726	0.336069	11.9051	0.546546	19.3472	0.598201	20.9181	0.861059	30.4451	0.222043	9.55558	0.461679	16.4597	0.724919	25.6746
0.211108	7.19763	0.0423856	1.64704	0.339033	11.6743	0.548313	18.79	0.600622	20.3401	0.862543	29.5249	0.227308	9.40506	0.464378	16.0237	0.726632	24.9132
0.217241	7.17871	0.0444899	1.6684	0.341605	11.4891	0.550164	18.2701	0.603106	19.7995	0.864072	28.6631	0.232639	9.26834	0.467146	15.6171	0.728396	24.2006
0.223308	7.15879	0.0465978	1.68846	0.343763	11.3433	0.5521	17.7842	0.605652	19.2929	0.865646	27.8544	0.238031	9.14375	0.469982	15.2373	0.73021	23.5324
0.229305	7.13782	0.0487085	1.7073	0.345489	11.2325	0.554123	17.3292	0.608258	18.8175	0.867263	27.0942	0.243479	9.02983	0.472883	14.8818	0.732073	22.9047
0.235226	7.11577	0.0508213	1.72502	0.346769	11.1535	0.556234	16.9028	0.610924	18.3705	0.868925	26.3783	0.248977	8.92536	0.475849	14.5486	0.733986	22.3141
0.241068	7.09261	0.0529357	1.74171	0.347593	11.1039	0.558434	16.5024	0.61365	17.9496	0.870631	25.7031	0.254523	8.82926	0.478877	14.2357	0.735947	21.7575
0.246827	7.06829	0.055051	1.75744	0.348785	11.0341	0.560724	16.1261	0.616435	17.5527	0.87238	25.0653	0.260111	8.74062	0.481967	13.9414	0.737956	21.232
0.252498	7.04278	0.057167	1.77227	0.350089	10.96	0.563106	15.772	0.619278	17.1779	0.874172	24.462	0.265739	8.65863	0.485118	13.6643	0.740013	20.7354
0.258077	7.01606	0.0592833	1.78629	0.351878	10.8621	0.56558	15.4384	0.62218	16.8236	0.876007	23.8905	0.271401	8.5826	0.488327	13.4029	0.742118	20.2653
0.263559	6.9881	0.0613997	1.79954	0.354165	10.7429	0.568148	15.1238	0.625139	16.4882	0.877885	23.3484	0.277096	8.5119	0.491593	13.1561	0.744269	19.8198
0.268941	6.95889	0.0635158	1.81208	0.356967	10.6053	0.570809	14.827	0.628155	16.1704	0.879804	22.8337	0.28282	8.44601	0.494915	12.9228	0.746466	19.397
0.274218	6.92839	0.0656316	1.82396	0.360307	10.4523	0.573563	14.5465	0.631228	15.8689	0.881766	22.3443	0.28857	8.38444	0.498292	12.702	0.748709	18.9954
0.279386	6.89662	0.0677468	1.83522	0.364207	10.2874	0.576413	14.2813	0.634357	15.5826	0.883769	21.8785	0.294344	8.32677	0.501723	12.4927	0.750997	18.6135
0.284442	6.86357	0.0698614	1.84592	0.368182	10.133	0.579356	14.0303	0.637542	15.3104	0.885813	21.4347	0.300138	8.27264	0.505206	12.2943	0.75333	18.2499
0.289382	6.82925	0.0719754	1.85608	0.372231	9.98837	0.582394	13.7927	0.640784	15.0515	0.887897	21.0114	0.30595	8.2217	0.508739	12.1058	0.755707	17.9034
0.294205	6.79368	0.0740886	1.86575	0.376356	9.85273	0.585526	13.5675	0.64408	14.8049	0.890023	20.6074	0.311778	8.17367	0.511859	11.9492	0.758128	17.5729
0.298907	6.75689	0.0762009	1.87495	0.380557	9.72548	0.588752	13.354	0.647432	14.57	0.892188	20.2213	0.317619	8.12827	0.514548	11.8209	0.760592	17.2573
0.303487	6.71891	0.0783124	1.88372	0.384834	9.60607	0.592071	13.1513	0.65084	14.3459	0.894394	19.8521	0.323472	8.08527	0.516791	11.7184	0.763099	16.9557
0.307943	6.67979	0.080423	1.89208	0.389189	9.49398	0.595482	12.9589	0.654302	14.132	0.896638	19.4987	0.329334	8.04445	0.518578	11.6395	0.765648	16.6673
0.312276	6.63958	0.0825327	1.90007	0.393622	9.38873	0.598984	12.7761	0.65782	13.9277	0.898922	19.1601	0.335203	8.00562	0.519899	11.5826	0.768239	16.3913
0.316484	6.59836	0.0846416	1.9077	0.398133	9.28988	0.602576	12.6022	0.661393	13.7324	0.901244	18.8356	0.341077	7.9686	0.520747	11.5467	0.770871	16.1269
0.320569	6.55618	0.0867495	1.915	0.402723	9.19703	0.606257	12.4369	0.665021	13.5457	0.903605	18.5242	0.346955	7.93324	0.521971	11.4958	0.773544	15.8734
0.324532	6.51312	0.0888566	1.92198	0.40739	9.1098	0.610025	12.2795	0.668705	13.3671	0.906004	18.2253	0.352834	7.89939	0.523306	11.4414	0.776256	15.6302
0.328374	6.46926	0.0909629	1.92867	0.412136	9.02783	0.613377	12.1484	0.672444	13.196	0.90844	17.9381	0.358714	7.86692	0.525132	11.3688	0.779009	15.3968
0.332098	6.42469	0.0930683	1.93509	0.416959	8.9508	0.616285	12.041	0.676239	13.0322	0.910914	17.662	0.364591	7.83571	0.527456	11.2794	0.781801	15.1726
0.335705	6.37949	0.0951728	1.94124	0.421857	8.87838	0.618724	11.9549	0.68009	12.8753	0.913425	17.3964	0.370464	7.80564	0.530289	11.1746	0.784631	14.9571
0.339199	6.33374	0.0972766	1.94715	0.42683	8.81027	0.620673	11.8886	0.683998	12.7248	0.915972	17.1408	0.376333	7.77663	0.533643	11.0561	0.787499	14.7498
0.342583	6.28754	0.0993796	1.95282	0.431874	8.7462	0.622119	11.8409	0.687962	12.5805	0.918555	16.8946	0.382194	7.74857	0.537532	10.9258	0.790406	14.5503
0.34586	6.24097	0.101482	1.95828	0.436989	8.68589	0.623049	11.8107	0.691985	12.4421	0.921174	16.6573	0.388047	7.72138	0.541462	10.8011	0.793349	14.3582
0.349034	6.1941	0.103583	1.96353	0.442171	8.62908	0.624394	11.7679	0.695538	12.326	0.923829	16.4285	0.39389	7.69499	0.545433	10.6818	0.796329	14.1732
0.352108	6.14703	0.105684	1.96859	0.447417	8.57554	0.625865	11.7221	0.698602	12.2303	0.926519	16.2078	0.399721	7.66931	0.549444	10.5675	0.799346	13.9948
0.355087	6.09982	0.107784	1.97346	0.452724	8.52503	0.627881	11.661	0.70116	12.1533	0.929244	15.9948	0.40554	7.64429	0.553495	10.458	0.802398	13.8227
0.357975	6.05255	0.109884	1.97815	0.458089	8.47733	0.630456	11.5857	0.703199	12.0938	0.932002	15.7891	0.411343	7.61987	0.557584	10.353	0.805485	13.6567
0.360774	6.00529	0.111983	1.98268	0.463509	8.43224	0.633606	11.4974	0.704707	12.0508	0.934795	15.5903	0.41713	7.59597	0.561711	10.2523	0.808607	13.4965
0.36349	5.95809	0.114081	1.98705	0.468979	8.38956	0.637351	11.3974	0.705676	12.0236	0.937622	15.3982	0.4229	7.57256	0.565875	10.1556	0.811764	13.3417
0.366126	5.91102	0.116178	1.99127	0.474498	8.34912	0.641713	11.2873	0.707075	11.9849	0.940482	15.2124	0.42865	7.54958	0.570075	10.0627	0.814954	13.1921
0.368685	5.86413	0.118275	1.99535	0.48006	8.31074	0.64614	11.182	0.708603	11.9434	0.943375	15.0326	0.43438	7.52698	0.574311	9.97348	0.818178	13.0475
0.371171	5.81747	0.120372	1.9993	0.485662	8.27427	0.650629	11.081	0.710694	11.888	0.9463	14.8587	0.440088	7.50472	0.578583	9.88769	0.821435	12.9077
0.373588	5.77108	0.122468	2.00311	0.491301	8.23955	0.655176	10.9841	0.713359	11.8194	0.949258	14.6902	0.445772	7.48277	0.58289	9.80517	0.824725	12.7724
0.37594	5.72501	0.124564	2.00681	0.496974	8.20646	0.659779	10.8912	0.716614	11.7387	0.952248	14.527	0.451431	7.46107	0.587231	9.72576	0.827618	12.658
0.378229	5.67929	0.126659	2.01038	0.502677	8.17487	0.664434	10.8019	0.720476	11.6471	0.955269	14.3689	0.457063	7.4396	0.591606	9.64932	0.830103	12.563
0.380459	5.63395	0.128753	2.01385	0.508407	8.14464	0.669136	10.716	0.724968	11.5458	0.958321	14.2156	0.462668	7.41833	0.596015	9.57572	0.832171	12.4862
0.382632	5.58903	0.130847	2.0172	0.514161	8.11569	0.673884	10.6334	0.729526	11.4485	0.961405	14.0669	0.468243	7.39721	0.600456	9.5048	0.833815	12.4265
0.384753	5.54454	0.132941	2.02046	0.519936	8.08791	0.678672	10.5538	0.734149	11.3551	0.964519	13.9226	0.473787	7.37623	0.604931	9.43646	0.835028	12.3832
0.386823	5.50052	0.135034	2.02362	0.52573	8.0612	0.683498	10.477	0.73884	11.2653	0.967663	13.7827	0.479299	7.35535	0.609438	9.37058	0.835807	12.3557
0.388845	5.45697	0.137127	2.02669	0.531539	8.03548	0.688357	10.403	0.743599	11.179	0.970836	13.6468	0.484778	7.33456	0.613978	9.30705	0.836928	12.3165
0.390822	5.41393	0.13922	2.02967	0.537362	8.01068	0.693248	10.3314	0.748427	11.0962	0.97404	13.5148	0.490221	7.31382	0.618549	9.24577	0.838152	12.2744
0.392756	5.37139	0.141312	2.03256	0.543196	7.98672	0.698164	10.2622	0.753325	11.0166	0.977272	13.3866	0.495628	7.29311	0.623152	9.18664	0.839822	12.2179
0.394408	5.33475	0.143404	2.03537	0.549038	7.96352	0.703105	10.1952	0.758294	10.9402	0.980534	13.262	0.500998	7.27242	0.627787	9.12956	0.841944	12.1476
0.395793	5.30384	0.145495	2.0381	0.554887	7.94105	0.708066	10.1303	0.763336	10.8669	0.983824	13.1409	0.506328	7.25172	0.632452	9.07446	0.844525	12.0644
0.396923	5.2785	0.147586	2.04076	0.560741	7.91923	0.713044	10.0673	0.768449	10.7965	0.986714	13.0381	0.511618	7.231	0.637149	9.02125	0.847574	11.9691
0.397807	5.25861	0.149677	2.04335	0.566597	7.89801	0.718037	10.0062	0.773636	10.7289	0.989195	12.9525	0.516867	7.21023	0.641876	8.96986	0.851101	11.8629
0.398452	5.24407	0.151768	2.04587	0.572454	7.87735	0.723042	9.94675	0.778895	10.6641	0.991257	12.8829	0.522073	7.18942	0.646634	8.92021	0.854656	11.7597
0.398863	5.2348	0.153858	2.04832	0.578311	7.85721	0.728056	9.88898	0.784228	10.6019	0.992896	12.8288	0.527235	7.16853	0.651422	8.87223	0.858241	11.6595
0.399449	5.22152	0.155948	2.05071	0.584165	7.83754	0.733077	9.83276	0.789634	10.5422	0.994105	12.7894	0.532352	7.14756	0.65624	8.82585	0.861853	11.5623
0.400083	5.20716	0.158038	2.05303	0.590016	7.8183	0.738104	9.77798	0.795113	10.4849	0.99488	12.7644	0.537424	7.1265	0.661088	8.78102	0.865494	11.4678
0.400939	5.18774	0.160127	2.0553	0.595861	7.79947	0.743134	9.72459	0.800665	10.43	0.995997	12.7287	0.542448	7.10534	0.665965	8.73767	0.869162	11.3759
0.40201	5.16336	0.162216	2.05751	0.6017	7.78101	0.748166	9.67252	0.806289	10.3773	0.997215	12.6903	0.547424	7.08407	0.670871	8.69574	0.872857	11.2867
0.40329	5.13416	0.164305	2.05967	0.607531	7.76288	0.753199	9.62169	0.811983	10.3267	0.998877	12.6387	0.552352	7.06269	0.675806	8.65518	0.87658	11.1999
0.404772	5.10031	0.166394	2.06177	0.613353	7.74507	0.758232	9.57206	0.817748	10.2782	1.00099	12.5744	0.55723	7.04118	0.68077	8.61594	0.880328	11.1155
0.406446	5.06198	0.168483	2.06383	0.619165	7.72754	0.763264	9.52357	0.823581	10.2318			0.562058	7.01954	0.685761	8.57796	0.884104	11.0333
0.408094	5.0242	0.170571	2.06583	0.624966	7.71028	0.768295	9.47618	0.829482	10.1871			0.566834	6.99777	0.690779	8.5412	0.887905	10.9534
0.409718	4.98699	0.172659	2.06779	0.630754	7.69327	0.773324	9.42984	0.835449	10.1444			0.571559	6.97586	0.695825	8.5056	0.891731	10.8756
0.411318	4.95033	0.174747	2.0697	0.636529	7.67647	0.778351	9.38452	0.84148	10.1033			0.576232	6.95382	0.700897	8.47112	0.895583	10.7999
0.412897	4.91423	0.176835	2.07156	0.64229	7.65987	0.783376	9.34019	0.847574	10.0639			0.580852	6.93164	0.705995	8.43773	0.89946	10.7261
0.414455	4.87867	0.178922	2.07339	0.648035	7.64346	0.7884	9.29681	0.853729	10.026			0.585419	6.90932	0.711119	8.40536	0.903362	10.6543
0.415994	4.84366	0.18101	2.07517	0.653764	7.62722	0.793422	9.25436	0.859943	9.98971			0.589933	6.88687	0.716267	8.37399	0.907288	10.5843
0.417514	4.8092	0.183097	2.07692	0.659476	7.61113	0.798443	9.2128	0.866213	9.95481			0.594393	6.86428	0.721439	8.34358	0.911238	10.5161
0.419018	4.77527	0.185184	2.07862	0.66517	7.59517	0.803463	9.17212	0.872539	9.92127			0.5988	6.84155	0.726634	8.31408	0.915212	10.4496
0.420505	4.74187	0.187271	2.08029	0.670845	7.57934	0.808483	9.1323	0.878918	9.88904			0.603152	6.8187	0.731852	8.28545	0.91921	10.3847
0.421977	4.709	0.189358	2.08192	0.676501	7.56363	0.813504	9.09331	0.885348	9.85805			0.607451	6.79572	0.737092	8.25767	0.923231	10.3215
0.423435	4.67664	0.191444	2.08352	0.682137	7.54801	0.818525	9.05514	0.891828	9.82824			0.611696	6.77261	0.742352	8.2307	0.927275	10.2599
0.42488	4.6448	0.193531	2.08509	0.687751	7.53248	0.823548	9.01776	0.898354	9.79955			0.615887	6.74939	0.747633	8.20449	0.931342	10.1997
0.426312	4.61347	0.195617	2.08662	0.693344	7.51702	0.828573	8.98116	0.904926	9.77192			0.620025	6.72606	0.752933	8.17903	0.935431	10.141
0.427733	4.58264	0.197703	2.08812	0.698914	7.50164	0.833601	8.94532	0.911542	9.74531			0.624109	6.70262	0.758251	8.15427	0.939542	10.0837
0.429143	4.5523	0.199789	2.08959	0.704461	7.48631	0.838632	8.91022	0.918199	9.71967			0.628139	6.67908	0.763587	8.13019	0.943676	10.0278
0.430542	4.52245	0.201875	2.09103	0.709984	7.47103	0.843667	8.87586	0.924896	9.69495			0.632117	6.65544	0.768939	8.10675	0.947831	9.97324
0.431932	4.49308	0.20396	2.09244	0.715482	7.4558	0.848707	8.84221	0.931631	9.67109			0.636043	6.63171	0.774306	8.08393	0.952008	9.91994
0.433313	4.46418	0.206046	2.09382	0.720956	7.44059	0.853752	8.80926	0.938402	9.64807			0.639916	6.60791	0.779688	8.0617	0.956206	9.86788
0.434686	4.43575	0.208132	2.09518	0.726403	7.42542	0.858803	8.77699	0.945208	9.62584			0.643738	6.58403	0.785083	8.04004	0.960425	9.81704
0.436051	4.40777	0.210217	2.09651	0.731825	7.41026	0.863859	8.7454	0.952047	9.60436			0.647508	6.56008	0.790491	8.01891	0.964665	9.76736
0.437409	4.38025	0.212302	2.09781	0.737219	7.39511	0.868923	8.71446	0.958917	9.58359			0.651228	6.53607	0.795911	7.99829	0.968925	9.71881
0.438761	4.35316	0.214387	2.09909	0.742586	7.37997	0.873993	8.68417	0.965817	9.5635			0.654897	6.512	0.801341	7.97816	0.973206	9.67137
0.440106	4.32652	0.216472	2.10035	0.747924	7.36483	0.879071	8.6545	0.972745	9.54405			0.658517	6.48789	0.80678	7.95849	0.977507	9.62499
0.441446	4.3003	0.218557	2.10158	0.753234	7.34969	0.884156	8.62545	0.9797	9.52521			0.662088	6.46374	0.812228	7.93927	0.981828	9.57966
0.44278	4.27451	0.220642	2.10279	0.758515	7.33454	0.88925	8.59701	0.98668	9.50695			0.665611	6.43956	0.817684	7.92046	0.986169	9.53533
0.44411	4.24913	0.222727	2.10397	0.763766	7.31938	0.894353	8.56915	0.993683	9.48925			0.669085	6.41535	0.823146	7.90206	0.990529	9.49198
0.445436	4.22416	0.224812	2.10514	0.768987	7.3042	0.899464	8.54187	1.00071	9.47206			0.672513	6.39112	0.828614	7.88403	0.994909	9.44958
0.446757	4.19958	0.226896	2.10628	0.774178	7.28899	0.904583	8.51515					0.675894	6.36687	0.834086	7.86636	0.999307	9.4081
0.448075	4.1754	0.228981	2.1074	0.779337	7.27376	0.909713	8.48898					0.679229	6.34262	0.839562	7.84904	1.00373	9.36753
0.44939	4.15161	0.231065	2.10851	0.784465	7.25851	0.914851	8.46335					0.682519	6.31838	0.84504	7.83203		
0.450702	4.1282	0.233149	2.10959	0.789562	7.24322	0.919999	8.43824					0.685765	6.29413	0.85052	7.81534		
0.452012	4.10516	0.235234	2.11066	0.794626	7.2279	0.925156	8.41364					0.688966	6.2699	0.856001	7.79893		
0.453319	4.08249	0.237318	2.11171	0.799657	7.21254	0.930323	8.38955					0.692125	6.24569	0.861482	7.7828		
0.454624	4.06017	0.239402	2.11273	0.804656	7.19715	0.9355	8.36594					0.695241	6.22151	0.866961	7.76693		
0.455927	4.03821	0.241486	2.11375	0.809622	7.18172	0.940686	8.34281					0.698316	6.19735	0.872439	7.75131		
0.457229	4.0166	0.24357	2.11474	0.814554	7.16624	0.945882	8.32014					0.70135	6.17323	0.877914	7.73591		
0.45853	3.99533	0.245654	2.11572	0.819453	7.15072	0.951088	8.29792					0.704343	6.14915	0.883385	7.72074		
0.45983	3.97439	0.247737	2.11668	0.824317	7.13516	0.956302	8.27615					0.707297	6.12512	0.888852	7.70577		
0.461129	3.95378	0.249821	2.11763	0.829148	7.11956	0.961527	8.2548					0.710212	6.10114	0.894314	7.691		
0.462428	3.93349	0.251905	2.11856	0.833944	7.10391	0.96676	8.23387					0.713089	6.07721	0.899769	7.6764		
0.463726	3.91352	0.253988	2.11947	0.838706	7.08822	0.972002	8.21334					0.715929	6.05335	0.905217	7.66198		
0.465025	3.89386	0.256072	2.12037	0.843433	7.07248	0.977253	8.19321					0.718732	6.02955	0.910658	7.64772		
0.466323	3.8745	0.258155	2.12126	0.848125	7.0567	0.982513	8.17346					0.721499	6.00582	0.91609	7.63362		
0.467621	3.85545	0.260239	2.12213	0.852783	7.04087	0.987781	8.15408					0.72423	5.98216	0.921513	7.61965		
0.46892	3.83669	0.262322	2.12299	0.857406	7.025	0.993056	8.13507					0.726927	5.95858	0.926926	7.60581		
0.47022	3.81821	0.264405	2.12384	0.861993	7.00908	0.99834	8.1164					0.72959	5.93508	0.932329	7.5921		
0.47152	3.80002	0.266488	2.12467	0.866546	6.99312	1.00363	8.09808					0.732219	5.91166	0.93772	7.57851		
0.472821	3.78211	0.268572	2.12549	0.871064	6.97712							0.734816	5.88834	0.943099	7.56502		
0.474123	3.76447	0.270655	2.1263	0.875547	6.96108							0.737381	5.8651	0.948466	7.55163		
0.475427	3.7471	0.272738	2.12709	0.879994	6.94499							0.739915	5.84196	0.953819	7.53833		
0.476731	3.72999	0.274821	2.12788	0.884407	6.92887							0.742418	5.81892	0.959159	7.52512		
0.478037	3.71314	0.276904	2.12865	0.888785	6.91271							0.744891	5.79598	0.964484	7.51198		
0.479344	3.69654	0.278987	2.12941	0.893128	6.89651							0.747335	5.77314	0.969793	7.49892		
0.480653	3.68019	0.281069	2.13016	0.897436	6.88028							0.749749	5.75041	0.975088	7.48593		
0.481964	3.66409	0.283152	2.1309	0.901709	6.86401							0.752136	5.72778	0.980366	7.473		
0.483276	3.64822	0.285235	2.13162	0.905948	6.84772							0.754495	5.70527	0.985627	7.46012		
0.48459	3.63259	0.287318	2.13234	0.910153	6.83139							0.756827	5.68287	0.990871	7.44729		
0.485906	3.6172	0.2894	2.13305	0.914323	6.81503							0.759133	5.66058	0.996097	7.43451		
0.487224	3.60203	0.291483	2.13375	0.918459	6.79865							0.761413	5.63841	1.00131	7.42177		
0.488545	3.58708	0.293565	2.13443	0.922561	6.78224							0.763668	5.61636				
0.489867	3.57235	0.295648	2.13511	0.926629	6.7658							0.765898	5.59443				
0.491192	3.55784	0.297731	2.13578	0.930664	6.74935							0.768105	5.57262				
0.492519	3.54354	0.299813	2.13644	0.934665	6.73287							0.770287	5.55093				
0.493848	3.52944	0.301895	2.13709	0.938633	6.71638							0.772447	5.52937				
0.49518	3.51555	0.303978	2.13773	0.942568	6.69986							0.774584	5.50793				
0.496514	3.50186	0.30606	2.13837	0.946469	6.68334							0.776699	5.48662				
0.497851	3.48837	0.308142	2.13899	0.950339	6.6668							0.778793	5.46544				
0.499191	3.47507	0.310225	2.13961	0.954175	6.65025							0.780866	5.44439				
0.500533	3.46196	0.312307	2.14022	0.95798	6.63369							0.782918	5.42347				
0.501878	3.44903	0.314389	2.14082	0.961752	6.61712							0.784951	5.40268				
0.503225	3.43629	0.316471	2.14141	0.965493	6.60054							0.786964	5.38202				
0.504575	3.42373	0.318553	2.14199	0.969202	6.58396							0.788958	5.3615				
0.505928	3.41134	0.320635	2.14257	0.97288	6.56738							0.790933	5.3411				
0.507284	3.39913	0.322717	2.14314	0.976527	6.5508							0.79289	5.32084				
0.508643	3.38709	0.324799	2.1437	0.980142	6.53421							0.79483	5.30072				
0.510004	3.37522	0.326881	2.14426	0.983728	6.51763							0.796752	5.28073				
0.511369	3.36351	0.328963	2.14481	0.987283	6.50106							0.798658	5.26087				
0.512736	3.35196	0.331045	2.14535	0.990808	6.48449							0.800547	5.24115				
0.514107	3.34057	0.333127	2.14588	0.994303	6.46792							0.80242	5.22156				
0.51548	3.32934	0.335209	2.14641	0.997768	6.45136							0.804278	5.20211				
0.516857	3.31826	0.337291	2.14694	1.0012	6.43482							0.806121	5.1828				
0.518236	3.30734	0.339373	2.14745									0.807948	5.16362				
0.519618	3.29656	0.341455	2.14796									0.809761	5.14457				
0.521004	3.28592	0.343536	2.14846									0.811561	5.12566				
0.522393	3.27544	0.345618	2.14896									0.813346	5.10689				
0.523784	3.26509	0.3477	2.14945									0.815118	5.08825				
0.525179	3.25488	0.349781	2.14994									0.816877	5.06974				
0.526577	3.2448	0.351863	2.15042									0.818624	5.05137				
0.527978	3.23487	0.353945	2.15089									0.820358	5.03314				
0.529382	3.22506	0.356026	2.15136									0.82208	5.01504				
0.530789	3.21538	0.358108	2.15183									0.82379	4.99707				
0.532199	3.20583	0.360189	2.15229									0.825489	4.97923				
0.533613	3.19641	0.362271	2.15274									0.827177	4.96153				
0.53503	3.1871	0.364352	2.15319									0.828854	4.94396				
0.536449	3.17792	0.366434	2.15363									0.83052	4.92652				
0.537872	3.16886	0.368515	2.15407									0.832177	4.90922				
0.539298	3.15992	0.370597	2.1545									0.833823	4.89204				
0.540728	3.15109	0.372678	2.15493									0.83546	4.87499				
0.54216	3.14238	0.37476	2.15535									0.837087	4.85808				
0.543595	3.13378	0.376841	2.15577									0.838705	4.84129				
0.545034	3.12528	0.378922	2.15619									0.840314	4.82463				
0.546476	3.1169	0.381004	2.1566									0.841915	4.8081				
0.547921	3.10862	0.383085	2.157									0.843507	4.7917				
0.549369	3.10045	0.385166	2.1574									0.84509	4.77542				
0.55082	3.09238	0.387248	2.1578									0.846666	4.75927				
0.552275	3.08441	0.389329	2.15819									0.848235	4.74324				
0.553732	3.07654	0.39141	2.15858									0.849795	4.72734				
0.555193	3.06877	0.393491	2.15897									0.851349	4.71156				
0.556656	3.0611	0.395572	2.15935									0.852895	4.69591				
0.558123	3.05352	0.397654	2.15972									0.854434	4.68037				
0.559593	3.04603	0.399735	2.16009									0.855967	4.66496				
0.561066	3.03864	0.401816	2.16046									0.857493	4.64967				
0.562542	3.03134	0.403897	2.16083									0.859013	4.6345				
0.564021	3.02413	0.405978	2.16119									0.860527	4.61944				
0.565503	3.017	0.408059	2.16155									0.862035	4.60451				
0.566988	3.00996	0.41014	2.1619									0.863537	4.58969				
0.568477	3.00301	0.412221	2.16225									0.865033	4.57499				
0.569968	2.99614	0.414302	2.1626									0.866525	4.5604				
0.571462	2.98936	0.416383	2.16294									0.86801	4.54593				
0.57296	2.98265	0.418465	2.16328									0.869491	4.53158				
0.57446	2.97603	0.420546	2.16362									0.870967	4.51734				
0.575963	2.96949	0.422626	2.16395									0.872438	4.5032				
0.57747	2.96302	0.424707	2.16428									0.873905	4.48918				
0.578979	2.95663	0.426788	2.16461									0.875367	4.47528				
0.580491	2.95031	0.428869	2.16493									0.876825	4.46148				
0.582006	2.94407	0.43095	2.16526									0.878278	4.44779				
0.583524	2.93791	0.433031	2.16557									0.879727	4.43421				
0.585046	2.93181	0.435112	2.16589									0.881173	4.42073				
0.586569	2.92579	0.437193	2.1662									0.882615	4.40736				
0.588096	2.91983	0.439274	2.16651									0.884053	4.3941				
0.589626	2.91395	0.441355	2.16682									0.885487	4.38094				
0.591159	2.90813	0.443436	2.16712									0.886919	4.36789				
0.592694	2.90238	0.445516	2.16742									0.888346	4.35494				
0.594232	2.8967	0.447597	2.16772									0.889771	4.34209				
0.595773	2.89108	0.449678	2.16801									0.891193	4.32935				
0.597317	2.88553	0.451759	2.1683									0.892611	4.3167				
0.598864	2.88004	0.45384	2.16859									0.894027	4.30415				
0.600414	2.87461	0.45592	2.16888									0.89544	4.29171				
0.601966	2.86924	0.458001	2.16916									0.896851	4.27936				
0.603521	2.86394	0.460082	2.16945									0.898259	4.26711				
0.605079	2.85869	0.462162	2.16972									0.899664	4.25495				
0.60664	2.8535	0.464243	2.17									0.901067	4.24289				
0.608203	2.84837	0.466324	2.17028									0.902468	4.23093				
0.609769	2.8433	0.468405	2.17055									0.903867	4.21905				
0.611338	2.83829	0.470485	2.17082									0.905264	4.20728				
0.612909	2.83333	0.472566	2.17108									0.906659	4.19559				
0.614483	2.82842	0.474647	2.17135									0.908051	4.184				
0.61606	2.82357	0.476727	2.17161									0.909442	4.17249				
0.617639	2.81877	0.478808	2.17187									0.910832	4.16108				
0.619221	2.81402	0.480888	2.17213									0.912219	4.14976				
0.620805	2.80933	0.482969	2.17238									0.913605	4.13852				
0.622393	2.80469	0.48505	2.17264									0.91499	4.12738				
0.623982	2.8001	0.48713	2.17289									0.916373	4.11632				
0.625575	2.79555	0.489211	2.17314									0.917755	4.10534				
0.627169	2.79106	0.491291	2.17339									0.919136	4.09445				
0.628767	2.78661	0.493372	2.17363									0.920515	4.08365				
0.630367	2.78222	0.495452	2.17387									0.921893	4.07293				
0.631969	2.77787	0.497533	2.17411									0.92327	4.06229				
0.633574	2.77356	0.499614	2.17435									0.924646	4.05174				
0.635181	2.7693	0.501694	2.17459									0.926021	4.04126				
0.636791	2.76509	0.503775	2.17483									0.927396	4.03087				
0.638404	2.76092	0.505855	2.17506									0.928769	4.02056				
0.640018	2.7568	0.507936	2.17529									0.930142	4.01033				
0.641636	2.75271	0.510016	2.17552									0.931514	4.00017				
0.643255	2.74868	0.512096	2.17575									0.932885	3.9901				
0.644877	2.74468	0.514177	2.17597									0.934256	3.9801				
0.646501	2.74073	0.516257	2.1762									0.935626	3.97018				
0.648128	2.73681	0.518338	2.17642									0.936996	3.96033				
0.649757	2.73294	0.520418	2.17664									0.938365	3.95056				
0.651389	2.72911	0.522499	2.17686									0.939734	3.94087				
0.653022	2.72531	0.524579	2.17707									0.941102	3.93125				
0.654659	2.72156	0.52666	2.17729									0.942471	3.9217				
0.656297	2.71784	0.52874	2.1775									0.943839	3.91222				
0.657937	2.71416	0.53082	2.17771									0.945206	3.90282				
0.65958	2.71052	0.532901	2.17792									0.946574	3.89349				
0.661226	2.70692	0.534981	2.17813									0.947941	3.88423				
0.662873	2.70335	0.537061	2.17834									0.949309	3.87504				
0.664523	2.69982	0.539142	2.17855									0.950676	3.86592				
0.666175	2.69633	0.541222	2.17875									0.952043	3.85686				
0.667829	2.69287	0.543302	2.17895									0.953411	3.84788				
0.669485	2.68944	0.545383	2.17915									0.954778	3.83896				
0.671143	2.68605	0.547463	2.17935									0.956146	3.83011				
0.672804	2.68269	0.549543	2.17955									0.957513	3.82133				
0.674467	2.67937	0.551624	2.17974									0.958881	3.81261				
0.676132	2.67608	0.553704	2.17994									0.960249	3.80396				
0.677799	2.67282	0.555784	2.18013									0.961618	3.79538				
0.679468	2.66959	0.557865	2.18032									0.962987	3.78685				
0.681139	2.6664	0.559945	2.18051									0.964356	3.77839				
0.682812	2.66324	0.562025	2.1807									0.965725	3.76999				
0.684488	2.66011	0.564105	2.18089									0.967095	3.76166				
0.686165	2.657	0.566186	2.18108									0.968465	3.75339				
0.687844	2.65393	0.568266	2.18126									0.969835	3.74518				
0.689526	2.65089	0.570346	2.18145									0.971206	3.73703				
0.691209	2.64788	0.572426	2.18163									0.972578	3.72893				
0.692895	2.6449	0.574507	2.18181									0.97395	3.7209				
0.694582	2.64194	0.576587	2.18199									0.975323	3.71293				
0.696272	2.63901	0.578667	2.18217									0.976696	3.70502				
0.697963	2.63612	0.580747	2.18234									0.97807	3.69716				
0.699657	2.63325	0.582827	2.18252									0.979444	3.68936				
0.701352	2.6304	0.584908	2.18269									0.980819	3.68162				
0.70305	2.62759	0.586988	2.18287									0.982195	3.67394				
0.704749	2.6248	0.589068	2.18304									0.983571	3.66631				
0.70645	2.62204	0.591148	2.18321									0.984948	3.65874				
0.708153	2.6193	0.593228	2.18338									0.986326	3.65122				
0.709858	2.61659	0.595308	2.18355									0.987705	3.64376				
0.711565	2.6139	0.597389	2.18371									0.989085	3.63635				
0.713273	2.61124	0.599469	2.18388									0.990465	3.62899				
0.714984	2.60861	0.601549	2.18405									0.991846	3.62169				
0.716696	2.606	0.603629	2.18421									0.993228	3.61444				
0.71841	2.60341	0.605709	2.18437									0.99461	3.60724				
0.720127	2.60085	0.607789	2.18453									0.995994	3.60009				
0.721844	2.59831	0.609869	2.18469									0.997379	3.593				
0.723564	2.59579	0.61195	2.18485									0.998764	3.58595				
0.725285	2.5933	0.61403	2.18501									1.00015	3.57896				
0.727008	2.59083	0.61611	2.18517														
0.728733	2.58838	0.61819	2.18533														
0.73046	2.58596	0.62027	2.18548														
0.732188	2.58356	0.62235	2.18563														
0.733918	2.58117	0.62443	2.18579														
0.73565	2.57881	0.62651	2.18594														
0.737384	2.57648	0.62859	2.18609														
0.739119	2.57416	0.63067	2.18624														
0.740856	2.57186	0.63275	2.18639														
0.742594	2.56959	0.63483	2.18654														
0.744335	2.56733	0.63691	2.18669														
0.746077	2.5651	0.63899	2.18683														
0.74782	2.56288	0.64107	2.18698														
0.749565	2.56069	0.64315	2.18712														
0.751312	2.55851	0.64523	2.18726														
0.75306	2.55635	0.64731	2.18741														
0.75481	2.55422	0.64939	2.18755														
0.756562	2.5521	0.65147	2.18769														
0.758315	2.55	0.65355	2.18783														
0.76007	2.54792	0.65563	2.18797														
0.761826	2.54585	0.65771	2.18811														
0.763584	2.54381	0.65979	2.18824														
0.765343	2.54178	0.66187	2.18838														
0.767104	2.53977	0.66395	2.18851														
0.768867	2.53777	0.66603	2.18865														
0.770631	2.5358	0.66811	2.18878														
0.772396	2.53384	0.67019	2.18891														
0.774163	2.5319	0.67227	2.18905														
0.775932	2.52997	0.67435	2.18918														
0.777701	2.52806	0.67643	2.18931														
0.779473	2.52617	0.67851	2.18944														
0.781246	2.52429	0.68059	2.18957														
0.78302	2.52243	0.68267	2.18969														
0.784796	2.52059	0.68475	2.18982														
0.786573	2.51876	0.68683	2.18995														
0.788351	2.51694	0.68891	2.19007														
0.790131	2.51514	0.690989	2.1902														
0.791912	2.51336	0.693069	2.19032														
0.793695	2.51159	0.695149	2.19045														
0.795479	2.50984	0.697229	2.19057														
0.797265	2.5081	0.699309	2.19069														
0.799052	2.50637	0.701389	2.19081														
0.80084	2.50466	0.703469	2.19093														
0.80263	2.50297	0.705549	2.19105														
0.80442	2.50128	0.707628	2.19117														
0.806213	2.49962	0.709708	2.19129														
0.808006	2.49796	0.711788	2.19141														
0.809801	2.49632	0.713868	2.19153														
0.811597	2.49469	0.715948	2.19164														
0.813395	2.49308	0.718028	2.19176														
0.815194	2.49148	0.720108	2.19187														
0.816994	2.48989	0.722187	2.19199														
0.818795	2.48831	0.724267	2.1921														
0.820598	2.48675	0.726347	2.19221														
0.822402	2.4852	0.728427	2.19233														
0.824207	2.48366	0.730507	2.19244														
0.826013	2.48214	0.732586	2.19255														
0.827821	2.48062	0.734666	2.19266														
0.82963	2.47912	0.736746	2.19277														
0.83144	2.47763	0.738826	2.19288														
0.833251	2.47615	0.740906	2.19299														
0.835063	2.47469	0.742985	2.1931														
0.836877	2.47324	0.745065	2.1932														
0.838692	2.47179	0.747145	2.19331														
0.840508	2.47036	0.749225	2.19342														
0.842325	2.46894	0.751305	2.19352														
0.844144	2.46753	0.753384	2.19363														
0.845963	2.46614	0.755464	2.19373														
0.847784	2.46475	0.757544	2.19383														
0.849606	2.46337	0.759624	2.19394														
0.851429	2.46201	0.761703	2.19404														
0.853253	2.46065	0.763783	2.19414														
0.855078	2.45931	0.765863	2.19424														
0.856905	2.45798	0.767943	2.19435														
0.858732	2.45665	0.770022	2.19445														
0.860561	2.45534	0.772102	2.19455														
0.862391	2.45404	0.774182	2.19465														
0.864222	2.45274	0.776262	2.19474														
0.866053	2.45146	0.778341	2.19484														
0.867887	2.45019	0.780421	2.19494														
0.869721	2.44892	0.782501	2.19504														
0.871556	2.44767	0.78458	2.19513														
0.873392	2.44643	0.78666	2.19523														
0.875229	2.44519	0.78874	2.19533														
0.877068	2.44397	0.790819	2.19542														
0.878907	2.44275	0.792899	2.19552														
0.880747	2.44154	0.794979	2.19561														
0.882589	2.44034	0.797059	2.19571														
0.884431	2.43915	0.799138	2.1958														
0.886275	2.43797	0.801218	2.19589														
0.888119	2.4368	0.803298	2.19598														
0.889965	2.43564	0.805377	2.19608														
0.891811	2.43449	0.807457	2.19617														
0.893659	2.43334	0.809537	2.19626														
0.895507	2.4322	0.811616	2.19635														
0.897357	2.43107	0.813696	2.19644														
0.899207	2.42995	0.815776	2.19653														
0.901058	2.42884	0.817855	2.19662														
0.902911	2.42774	0.819935	2.19671														
0.904764	2.42664	0.822015	2.19679														
0.906618	2.42555	0.824094	2.19688														
0.908474	2.42447	0.826174	2.19697														
0.91033	2.4234	0.828253	2.19706														
0.912187	2.42234	0.830333	2.19714														
0.914045	2.42128	0.832413	2.19723														
0.915904	2.42023	0.834492	2.19731														
0.917764	2.41919	0.836572	2.1974														
0.919625	2.41816	0.838652	2.19748														
0.921486	2.41713	0.840731	2.19757														
0.923349	2.41611	0.842811	2.19765														
0.925213	2.4151	0.84489	2.19773														
0.927077	2.4141	0.84697	2.19782														
0.928942	2.4131	0.84905	2.1979														
0.930809	2.41211	0.851129	2.19798														
0.932676	2.41113	0.853209	2.19806														
0.934544	2.41015	0.855288	2.19815														
0.936413	2.40918	0.857368	2.19823														
0.938282	2.40822	0.859448	2.19831														
0.940153	2.40726	0.861527	2.19839														
0.942024	2.40631	0.863607	2.19847														
0.943896	2.40537	0.865686	2.19855														
0.94577	2.40444	0.867766	2.19863														
0.947644	2.40351	0.869845	2.1987														
0.949518	2.40259	0.871925	2.19878														
0.951394	2.40167	0.874004	2.19886														
0.95327	2.40076	0.876084	2.19894														
0.955148	2.39986	0.878164	2.19901														
0.957026	2.39896	0.880243	2.19909														
0.958905	2.39807	0.882323	2.19917														
0.960784	2.39718	0.884402	2.19924														
0.962665	2.39631	0.886482	2.19932														
0.964546	2.39543	0.888561	2.19939														
0.966428	2.39457	0.890641	2.19947														
0.968311	2.39371	0.89272	2.19954														
0.970195	2.39285	0.8948	2.19962														
0.972079	2.392	0.896879	2.19969														
0.973964	2.39116	0.898959	2.19977														
0.97585	2.39032	0.901038	2.19984														
0.977737	2.38949	0.903118	2.19991														
0.979625	2.38866	0.905197	2.19999														
0.981513	2.38784	0.907277	2.20006														
0.983402	2.38703	0.909356	2.20013														
0.985292	2.38622	0.911436	2.2002														
0.987182	2.38542	0.913515	2.20027														
0.989073	2.38462	0.915595	2.20034														
0.990965	2.38382	0.917674	2.20041														
0.992858	2.38304	0.919754	2.20048														
0.994752	2.38225	0.921833	2.20055														
0.996646	2.38148	0.923913	2.20062														
0.998541	2.3807	0.925992	2.20069														
1.00044	2.37994	0.928072	2.20076														
		0.930151	2.20083														
		0.932231	2.2009														
		0.93431	2.20097														
		0.93639	2.20103														
		0.938469	2.2011														
		0.940549	2.20117														
		0.942628	2.20124														
		0.944708	2.2013														
		0.946787	2.20137														
		0.948866	2.20144														
		0.950946	2.2015														
		0.953025	2.20157														
		0.955105	2.20163														
		0.957184	2.2017														
		0.959264	2.20176														
		0.961343	2.20182														
		0.963422	2.20189														
		0.965502	2.20195														
		0.967581	2.20202														
		0.969661	2.20208														
		0.97174	2.20214														
		0.97382	2.2022														
		0.975899	2.20227														
		0.977978	2.20233														
		0.980058	2.20239														
		0.982137	2.20245														
		0.984217	2.20251														
		0.986296	2.20257														
		0.988375	2.20264														
		0.990455	2.2027														
		0.992534	2.20276														
		0.994614	2.20282														
		0.996693	2.20288														
		0.998772	2.20294														
		1.00085	2.20299														
