Sym0		Asym0		Sym1		Sym2		Sym3		Sym4		Asym1		Asym2		Asym3	
450  Points		492  Points		164  Points		137  Points		122  Points		90  Points		272  Points		148  Points		119  Points	
Freq (MHz)	Vph (m/ms)	Freq (MHz)	Vph (m/ms)	Freq (MHz)	Vph (m/ms)	Freq (MHz)	Vph (m/ms)	Freq (MHz)	Vph (m/ms)	Freq (MHz)	Vph (m/ms)	Freq (MHz)	Vph (m/ms)	Freq (MHz)	Vph (m/ms)	Freq (MHz)	Vph (m/ms)
0.00559924	7.44335	0.000353986	0.195053	0.279552	384.232	0.54535	668.902	0.559037	1032.98	0.838537	1365.18	0.139932	151.672	0.419295	561.894	0.698772	6155.09
0.0125335	7.44295	0.000805804	0.293392	0.279737	168.592	0.545358	312.171	0.559162	379.638	0.838596	542.455	0.140469	75.7534	0.419427	249.97	0.698809	668.574
0.0194661	7.44221	0.00143282	0.389544	0.280065	108.093	0.545373	203.598	0.559402	232.64	0.838705	338.512	0.141361	50.7399	0.419661	160.814	0.698906	353.533
0.0263962	7.44113	0.0022264	0.482961	0.280536	79.6379	0.545399	151.064	0.559753	167.778	0.838866	246.051	0.142599	38.3569	0.419996	118.599	0.699063	240.342
0.0333227	7.43971	0.00317609	0.573137	0.281149	63.118	0.54544	120.086	0.560213	131.26	0.839078	193.291	0.144172	31.0089	0.420432	93.9933	0.699279	182.089
0.0402448	7.43798	0.00427014	0.659655	0.281904	52.3397	0.545498	99.6568	0.560778	107.849	0.83934	159.186	0.146067	26.1718	0.420968	77.8894	0.699555	146.596
0.0471616	7.4359	0.00549635	0.742251	0.282797	44.7625	0.545579	85.1741	0.561443	91.5692	0.839653	135.332	0.148268	22.7657	0.421605	66.5371	0.699891	122.708
0.054072	7.43349	0.0068421	0.820723	0.283829	39.152	0.545687	74.3731	0.562205	79.598	0.840017	117.714	0.150759	20.2511	0.422341	58.109	0.700287	105.538
0.0609752	7.43073	0.00829507	0.894987	0.284997	34.836	0.545827	66.01	0.563058	70.4285	0.840431	104.171	0.153523	18.3285	0.423177	51.6083	0.700741	92.6038
0.06787	7.42763	0.00984335	0.965028	0.286299	31.4172	0.546001	59.3444	0.564	63.183	0.840896	93.4382	0.156543	16.8183	0.42411	46.4449	0.701255	82.5124
0.0747554	7.42417	0.0114756	1.03089	0.287733	28.6458	0.546214	53.9085	0.565027	57.3158	0.841411	84.7242	0.159801	15.6063	0.425142	42.2473	0.701828	74.4213
0.0816303	7.42033	0.0131815	1.09268	0.289297	26.3567	0.546469	49.3919	0.566135	52.4693	0.841976	77.5095	0.163282	14.6163	0.42627	38.7699	0.70246	67.7908
0.0884937	7.41614	0.0149515	1.15055	0.290987	24.4364	0.546768	45.5806	0.567323	48.4001	0.842592	71.439	0.16697	13.7958	0.427494	35.8439	0.703151	62.2595
0.0953444	7.41156	0.0167769	1.20465	0.292801	22.8045	0.547114	42.3223	0.568588	44.9362	0.843258	66.2612	0.170848	13.1073	0.428813	33.3493	0.7039	57.5761
0.102181	7.40659	0.0186501	1.25518	0.294736	21.4022	0.54751	39.5057	0.569928	41.953	0.843973	61.7935	0.174904	12.5233	0.430226	31.1986	0.704707	53.5603
0.109003	7.40123	0.0205641	1.30233	0.29679	20.1857	0.547958	37.0474	0.571341	39.3577	0.844739	57.8998	0.178572	12.0834	0.431732	29.3264	0.705573	50.0799
0.115808	7.39545	0.0225131	1.34632	0.298959	19.1215	0.548459	34.8839	0.572825	37.0801	0.845554	54.4768	0.181791	11.7509	0.43333	27.6829	0.706496	47.035
0.122595	7.38925	0.0244917	1.38734	0.30124	18.1838	0.549016	32.9658	0.57438	35.0659	0.846418	51.4444	0.184512	11.5013	0.435019	26.2296	0.707477	44.3494
0.129364	7.38261	0.0264953	1.4256	0.303631	17.3522	0.549629	31.2541	0.576003	33.2725	0.847331	48.7399	0.186701	11.3185	0.436796	24.936	0.708515	41.9636
0.136111	7.37552	0.0285201	1.46129	0.306127	16.6105	0.550301	29.7179	0.577694	31.6659	0.848294	46.3133	0.18833	11.1915	0.438662	23.7778	0.70961	39.8305
0.142836	7.36796	0.030299	1.49044	0.308726	15.9454	0.551033	28.3319	0.579452	30.219	0.849306	44.1241	0.189382	11.1134	0.440615	22.7354	0.710762	37.9125
0.149538	7.35992	0.0318246	1.51394	0.311425	15.3463	0.551827	27.0757	0.581276	28.9094	0.850366	42.1394	0.190905	11.005	0.442653	21.7929	0.71197	36.179
0.156213	7.35137	0.0330918	1.5325	0.31422	14.8043	0.552683	25.9322	0.583165	27.719	0.851474	40.3322	0.192575	10.8924	0.444776	20.937	0.713234	34.6049
0.162861	7.34231	0.0340968	1.54663	0.317109	14.3122	0.553604	24.8875	0.585118	26.6324	0.852631	38.68	0.19487	10.7471	0.446981	20.1568	0.714554	33.1695
0.16948	7.33269	0.0348374	1.55673	0.320088	13.8637	0.55459	23.9295	0.587135	25.637	0.853836	37.1638	0.197812	10.5756	0.449267	19.443	0.715929	31.8556
0.176067	7.32252	0.0353121	1.56306	0.323155	13.4536	0.555644	23.0484	0.589215	24.7221	0.855089	35.7679	0.201425	10.3845	0.451633	18.7878	0.71736	30.6487
0.182621	7.31176	0.0359953	1.572	0.326307	13.0776	0.556765	22.2356	0.591357	23.8785	0.856389	34.4786	0.205735	10.1805	0.454078	18.1847	0.718844	29.5364
0.189138	7.30038	0.036739	1.5815	0.329541	12.7318	0.557957	21.4838	0.593561	23.0985	0.857736	33.2843	0.210769	9.97	0.456599	17.628	0.720383	28.5082
0.195617	7.28836	0.0377521	1.59406	0.332855	12.413	0.559219	20.7867	0.595827	22.3754	0.859131	32.1751	0.215893	9.78126	0.459196	17.1127	0.721975	27.5553
0.202056	7.27567	0.0390359	1.60937	0.335806	12.155	0.560554	20.1389	0.598152	21.7034	0.860572	31.1425	0.221097	9.61136	0.461867	16.6346	0.723621	26.6697
0.20845	7.26229	0.0405916	1.62708	0.338367	11.9484	0.561963	19.5356	0.600539	21.0774	0.86206	30.1788	0.226377	9.45783	0.46461	16.1902	0.72532	25.8449
0.214798	7.24817	0.0424206	1.6468	0.340516	11.7861	0.563447	18.9727	0.602984	20.4931	0.863593	29.2776	0.231727	9.3186	0.467424	15.776	0.727071	25.0748
0.221096	7.2333	0.0445236	1.66811	0.342235	11.6629	0.565008	18.4465	0.605489	19.9466	0.865173	28.433	0.237141	9.1919	0.470308	15.3894	0.728874	24.3544
0.227342	7.21763	0.0466304	1.68811	0.343509	11.5751	0.566646	17.9539	0.608052	19.4346	0.866799	27.6401	0.242613	9.07625	0.47326	15.0279	0.730729	23.6792
0.233532	7.20113	0.0487399	1.70691	0.34433	11.52	0.568364	17.4919	0.610673	18.9539	0.868469	26.8944	0.24814	8.97036	0.476278	14.6891	0.732635	23.0452
0.239662	7.18377	0.0508515	1.72459	0.345516	11.4425	0.570162	17.0582	0.613352	18.502	0.870185	26.1918	0.253717	8.87311	0.479361	14.3712	0.734591	22.4489
0.245729	7.16551	0.0529646	1.74124	0.346814	11.3603	0.572043	16.6503	0.616088	18.0765	0.871945	25.5289	0.259341	8.78357	0.482507	14.0725	0.736598	21.887
0.251729	7.14631	0.0550789	1.75693	0.348593	11.2518	0.574006	16.2663	0.61888	17.6753	0.87375	24.9024	0.265006	8.7009	0.485716	13.7913	0.738654	21.3569
0.257658	7.12615	0.0571937	1.77173	0.350867	11.1198	0.576054	15.9044	0.621728	17.2964	0.875599	24.3096	0.270711	8.62438	0.488985	13.5263	0.740759	20.8559
0.263512	7.10498	0.0593089	1.78572	0.353651	10.9675	0.578187	15.563	0.624633	16.9381	0.877491	23.7479	0.276451	8.55337	0.492313	13.2762	0.742913	20.3819
0.269287	7.08278	0.0614242	1.79894	0.356965	10.7983	0.580407	15.2405	0.627592	16.599	0.879427	23.2149	0.282224	8.48731	0.4957	13.0399	0.745115	19.9328
0.27498	7.0595	0.0635393	1.81146	0.360831	10.6161	0.582714	14.9357	0.630606	16.2776	0.881406	22.7086	0.288026	8.42573	0.499142	12.8164	0.747365	19.5068
0.280585	7.03513	0.065654	1.82332	0.364763	10.4455	0.58511	14.6474	0.633674	15.9727	0.883428	22.2272	0.293856	8.36819	0.50264	12.6046	0.749662	19.1022
0.286099	7.00964	0.0677684	1.83457	0.368762	10.2855	0.587596	14.3743	0.636796	15.6831	0.885492	21.7688	0.299709	8.31429	0.505731	12.4291	0.752005	18.7176
0.291518	6.983	0.0698821	1.84525	0.372826	10.1355	0.590172	14.1156	0.639972	15.4077	0.887599	21.332	0.305585	8.26371	0.508399	12.2857	0.754395	18.3515
0.296838	6.95521	0.0719951	1.85539	0.376956	9.99463	0.592838	13.8703	0.643201	15.1457	0.889746	20.9153	0.311481	8.21614	0.510626	12.1712	0.75683	18.0027
0.302055	6.92625	0.0741074	1.86505	0.381152	9.86227	0.595596	13.6375	0.646482	14.8962	0.891936	20.5174	0.317394	8.1713	0.5124	12.0831	0.75931	17.6701
0.307166	6.89612	0.0762189	1.87424	0.385415	9.7378	0.598446	13.4166	0.649816	14.6583	0.894166	20.1371	0.323323	8.12895	0.513713	12.0197	0.761835	17.3526
0.312168	6.86482	0.0783296	1.88301	0.389744	9.62072	0.601388	13.2067	0.653202	14.4314	0.896437	19.7734	0.329266	8.08888	0.514556	11.9798	0.764404	17.0493
0.317058	6.83237	0.0804395	1.89136	0.394141	9.51052	0.604421	13.0072	0.656639	14.2147	0.898748	19.4251	0.33522	8.05088	0.515773	11.9231	0.767016	16.7593
0.321834	6.79879	0.0825485	1.89934	0.398606	9.40678	0.607547	12.8174	0.660128	14.0077	0.901099	19.0915	0.341184	8.01477	0.517101	11.8626	0.769671	16.4818
0.326494	6.76409	0.0846566	1.90697	0.403139	9.30908	0.610345	12.6596	0.663668	13.8098	0.90349	18.7716	0.347156	7.9804	0.518918	11.782	0.772369	16.216
0.331036	6.72832	0.0867639	1.91426	0.407742	9.21706	0.612786	12.5304	0.667259	13.6205	0.905919	18.4646	0.353134	7.94761	0.521232	11.6827	0.775109	15.9613
0.33546	6.69152	0.0888704	1.92125	0.412414	9.13038	0.614842	12.427	0.6709	13.4392	0.908388	18.1699	0.359118	7.91628	0.524054	11.5665	0.77789	15.717
0.339765	6.65374	0.0909761	1.92793	0.417156	9.04871	0.616491	12.3474	0.674592	13.2656	0.910895	17.8867	0.365105	7.88629	0.527397	11.4354	0.780711	15.4826
0.343952	6.61504	0.0930809	1.93435	0.421968	8.97177	0.617718	12.29	0.678334	13.0992	0.91344	17.6144	0.371093	7.85751	0.531276	11.2914	0.783573	15.2575
0.348021	6.57547	0.0951849	1.9405	0.426849	8.89927	0.618509	12.2539	0.682126	12.9396	0.916023	17.3525	0.377082	7.82985	0.535199	11.1539	0.786475	15.0411
0.351973	6.5351	0.0972882	1.94641	0.4318	8.83096	0.619655	12.2025	0.685472	12.8059	0.918643	17.1003	0.38307	7.80322	0.539166	11.0225	0.789416	14.833
0.35581	6.49401	0.0993908	1.95209	0.43682	8.76657	0.62091	12.1477	0.688354	12.6955	0.9213	16.8574	0.389055	7.77754	0.543174	10.8969	0.792396	14.6329
0.359534	6.45226	0.101493	1.95755	0.441907	8.70589	0.622637	12.0745	0.690758	12.6068	0.923994	16.6233	0.395036	7.75271	0.547225	10.7768	0.795414	14.4401
0.363147	6.40992	0.103594	1.9628	0.447061	8.64867	0.62485	11.9844	0.692672	12.5382	0.926724	16.3976	0.401012	7.72867	0.551315	10.6617	0.79847	14.2545
0.366652	6.36708	0.105694	1.96786	0.452279	8.5947	0.62757	11.8789	0.694087	12.4886	0.92949	16.1798	0.406982	7.70536	0.555445	10.5514	0.801563	14.0756
0.370052	6.3238	0.107794	1.97273	0.457559	8.54378	0.630822	11.7598	0.694996	12.4572	0.932291	15.9695	0.412943	7.6827	0.559614	10.4458	0.804693	13.9031
0.373349	6.28016	0.109893	1.97743	0.462901	8.49571	0.634634	11.6289	0.696308	12.4126	0.935127	15.7665	0.418895	7.66065	0.56382	10.3444	0.807859	13.7367
0.376548	6.23623	0.111991	1.98196	0.4683	8.45031	0.63853	11.5038	0.697739	12.3648	0.937998	15.5703	0.424837	7.63915	0.568063	10.2471	0.811061	13.5761
0.379651	6.19207	0.114089	1.98634	0.473754	8.40738	0.642508	11.3844	0.699696	12.3008	0.940904	15.3807	0.430766	7.61814	0.572342	10.1536	0.814298	13.4209
0.382662	6.14775	0.116187	1.99057	0.479261	8.36678	0.646566	11.2703	0.702188	12.2217	0.943843	15.1973	0.436683	7.59759	0.576657	10.0638	0.817569	13.2711
0.385584	6.10334	0.118284	1.99465	0.484817	8.32832	0.650702	11.1611	0.705227	12.1284	0.946816	15.0198	0.442585	7.57745	0.581006	9.97747	0.820448	13.1446
0.388421	6.05889	0.12038	1.9986	0.490421	8.29186	0.654914	11.0567	0.708828	12.0225	0.949823	14.8481	0.448472	7.55768	0.585389	9.89443	0.822923	13.0396
0.391176	6.01446	0.122476	2.00242	0.496067	8.25726	0.6592	10.9567	0.713007	11.9052	0.952862	14.6817	0.454341	7.53823	0.589805	9.81452	0.824983	12.9548
0.393853	5.9701	0.124571	2.00612	0.501754	8.22437	0.663557	10.8609	0.717237	11.7924	0.955934	14.5206	0.460192	7.51908	0.594255	9.73759	0.826621	12.8889
0.396455	5.92585	0.126666	2.00971	0.507479	8.19308	0.667983	10.7691	0.721518	11.6838	0.959037	14.3645	0.466024	7.50019	0.598736	9.66349	0.82783	12.8411
0.398986	5.88177	0.12876	2.01318	0.513238	8.16327	0.672474	10.6811	0.725851	11.5793	0.962173	14.2131	0.471835	7.48153	0.603249	9.59209	0.828606	12.8109
0.401448	5.83789	0.130854	2.01654	0.519029	8.13482	0.677029	10.5966	0.730236	11.4786	0.96534	14.0663	0.477624	7.46307	0.607794	9.52327	0.829725	12.7677
0.403845	5.79424	0.132948	2.0198	0.524848	8.10763	0.681644	10.5155	0.734673	11.3817	0.968538	13.9239	0.48339	7.44478	0.612369	9.4569	0.830945	12.7214
0.406181	5.75087	0.135041	2.02297	0.530693	8.08161	0.686316	10.4376	0.739164	11.2883	0.971767	13.7856	0.489131	7.42664	0.616974	9.39288	0.83261	12.6592
0.408457	5.70781	0.137134	2.02604	0.536561	8.05667	0.691042	10.3626	0.743707	11.1984	0.975027	13.6514	0.494847	7.40861	0.62161	9.33109	0.834728	12.5819
0.410677	5.66507	0.139227	2.02903	0.54245	8.03272	0.69582	10.2905	0.748305	11.1117	0.977891	13.5376	0.500535	7.39068	0.626275	9.27145	0.837305	12.4904
0.412843	5.62269	0.141319	2.03193	0.548358	8.00969	0.700646	10.221	0.752957	11.0282	0.980351	13.4429	0.506195	7.37283	0.630969	9.21386	0.840349	12.3858
0.414959	5.58069	0.14341	2.03475	0.554281	7.98751	0.705517	10.1541	0.757664	10.9478	0.982398	13.3661	0.511826	7.35503	0.635692	9.15823	0.843873	12.2693
0.417026	5.53909	0.145502	2.03749	0.560218	7.96611	0.710431	10.0895	0.762428	10.8703	0.984024	13.3063	0.517426	7.33727	0.640444	9.10448	0.847427	12.1563
0.41879	5.50318	0.147593	2.04015	0.566167	7.94543	0.715383	10.0271	0.767248	10.7956	0.985224	13.2628	0.522993	7.31952	0.645225	9.05254	0.851011	12.0467
0.420268	5.47281	0.149684	2.04275	0.572125	7.92542	0.720371	9.96691	0.772125	10.7236	0.985994	13.2352	0.528528	7.30176	0.650033	9.00233	0.854625	11.9404
0.421472	5.44789	0.151774	2.04527	0.578091	7.90603	0.725392	9.90865	0.777059	10.6543	0.987103	13.1959	0.534028	7.28399	0.65487	8.95378	0.858269	11.8372
0.422413	5.4283	0.153865	2.04773	0.584063	7.8872	0.730444	9.85226	0.782053	10.5875	0.988312	13.1536	0.539493	7.26619	0.659734	8.90682	0.861941	11.737
0.423099	5.41397	0.155955	2.05012	0.590039	7.86891	0.735522	9.79764	0.787105	10.5232	0.989963	13.0966	0.54492	7.24834	0.664625	8.8614	0.865643	11.6397
0.423535	5.40483	0.158045	2.05246	0.596018	7.85109	0.740625	9.74467	0.792217	10.4612	0.99206	13.0258	0.55031	7.23043	0.669544	8.81745	0.869372	11.5452
0.424159	5.39172	0.160134	2.05473	0.601999	7.83373	0.745749	9.69327	0.797389	10.4015	0.994611	12.9416	0.555661	7.21244	0.67449	8.77491	0.87313	11.4534
0.424833	5.37754	0.162223	2.05695	0.607979	7.81677	0.750893	9.64334	0.802621	10.3441	0.997622	12.8451	0.560972	7.19437	0.679462	8.73374	0.876914	11.3642
0.425741	5.35834	0.164312	2.05911	0.613957	7.8002	0.756053	9.59481	0.807914	10.2887	1.0011	12.7372	0.566242	7.17621	0.684462	8.69389	0.880726	11.2774
0.426878	5.33422	0.166401	2.06122	0.619933	7.78398	0.761228	9.54759	0.813268	10.2355			0.571469	7.15794	0.689487	8.65529	0.884565	11.193
0.428234	5.30529	0.16849	2.06328	0.625905	7.76809	0.766415	9.50161	0.818683	10.1842			0.576654	7.13956	0.694539	8.61792	0.88843	11.111
0.429802	5.27169	0.170578	2.06529	0.631871	7.7525	0.771612	9.45682	0.824159	10.1349			0.581794	7.12106	0.699617	8.58171	0.892321	11.0311
0.431571	5.23359	0.172667	2.06726	0.637831	7.73718	0.776818	9.41313	0.829696	10.0874			0.58689	7.10243	0.70472	8.54664	0.896238	10.9533
0.43331	5.19597	0.174755	2.06918	0.643784	7.72211	0.782032	9.37051	0.835294	10.0417			0.591939	7.08367	0.709849	8.51265	0.90018	10.8777
0.43502	5.15883	0.176843	2.07105	0.649729	7.70728	0.78725	9.3289	0.840952	9.99773			0.596943	7.06478	0.715003	8.47971	0.904147	10.804
0.436703	5.12219	0.17893	2.07288	0.655664	7.69267	0.792474	9.28825	0.846669	9.95544			0.601899	7.04574	0.720181	8.44777	0.908138	10.7322
0.43836	5.08605	0.181018	2.07467	0.661588	7.67825	0.7977	9.24851	0.852446	9.91475			0.606807	7.02656	0.725383	8.41681	0.912154	10.6622
0.439992	5.0504	0.183105	2.07642	0.667502	7.66401	0.802929	9.20966	0.858282	9.8756			0.611666	7.00723	0.73061	8.38679	0.916194	10.5941
0.441602	5.01523	0.185192	2.07813	0.673404	7.64994	0.80816	9.17164	0.864174	9.83794			0.616476	6.98775	0.73586	8.35767	0.920258	10.5277
0.443189	4.98056	0.187279	2.07981	0.679293	7.63601	0.813393	9.13444	0.870124	9.8017			0.621237	6.96813	0.741133	8.32942	0.924345	10.4629
0.444756	4.94638	0.189366	2.08145	0.685168	7.62223	0.818626	9.09802	0.876128	9.76684			0.625948	6.94835	0.746428	8.302	0.928456	10.3998
0.446304	4.91269	0.191453	2.08305	0.691029	7.60857	0.82386	9.06235	0.882187	9.73329			0.630608	6.92843	0.751745	8.27538	0.932589	10.3382
0.447833	4.87948	0.193539	2.08462	0.696875	7.59502	0.829094	9.0274	0.888299	9.701			0.635218	6.90835	0.757084	8.24954	0.936745	10.2781
0.449345	4.84675	0.195626	2.08616	0.702705	7.58157	0.834328	8.99317	0.894463	9.66992			0.639776	6.88814	0.762443	8.22445	0.940923	10.2194
0.450841	4.8145	0.197712	2.08767	0.708518	7.56822	0.839563	8.95962	0.900676	9.64			0.644283	6.86777	0.767823	8.20007	0.945123	10.1622
0.452321	4.78272	0.199798	2.08914	0.714314	7.55494	0.844799	8.92673	0.906939	9.61118			0.648739	6.84727	0.773222	8.17637	0.949345	10.1064
0.453787	4.75141	0.201884	2.09059	0.720092	7.54174	0.850035	8.8945	0.913249	9.58343			0.653144	6.82663	0.77864	8.15334	0.953588	10.0519
0.455239	4.72057	0.20397	2.09201	0.725852	7.5286	0.855273	8.8629	0.919605	9.55669			0.657497	6.80585	0.784077	8.13094	0.957853	9.99861
0.456678	4.69018	0.206056	2.0934	0.731592	7.51551	0.860512	8.83191	0.926005	9.53092			0.661799	6.78494	0.78953	8.10914	0.962138	9.94661
0.458105	4.66024	0.208142	2.09476	0.737313	7.50247	0.865752	8.80153	0.932448	9.50608			0.666049	6.76391	0.795001	8.08793	0.966445	9.89581
0.459521	4.63076	0.210227	2.09609	0.743013	7.48947	0.870994	8.77175	0.938932	9.48212			0.670248	6.74275	0.800487	8.06728	0.970772	9.84618
0.460927	4.60171	0.212313	2.0974	0.748692	7.4765	0.876239	8.74254	0.945456	9.459			0.674396	6.72148	0.805988	8.04716	0.975119	9.79769
0.462322	4.57311	0.214398	2.09869	0.75435	7.46355	0.881487	8.71389	0.952019	9.4367			0.678493	6.70009	0.811504	8.02756	0.979486	9.75029
0.463708	4.54493	0.216484	2.09995	0.759985	7.45063	0.886738	8.6858	0.958618	9.41516			0.682539	6.6786	0.817033	8.00845	0.983873	9.70396
0.465085	4.51718	0.218569	2.10118	0.765597	7.43771	0.891993	8.65826	0.965253	9.39436			0.686535	6.65701	0.822575	7.9898	0.98828	9.65867
0.466454	4.48985	0.220654	2.1024	0.771187	7.42481	0.897252	8.63124	0.971921	9.37426			0.690481	6.63533	0.828129	7.97161	0.992706	9.61438
0.467816	4.46293	0.222739	2.10359	0.776752	7.4119	0.902515	8.60475	0.978623	9.35483			0.694377	6.61356	0.833694	7.95384	0.997151	9.57107
0.469171	4.43642	0.224824	2.10476	0.782293	7.399	0.907783	8.57877	0.985355	9.33604			0.698223	6.5917	0.839269	7.93648	1.00162	9.52871
0.470518	4.41031	0.226909	2.10591	0.787809	7.38608	0.913056	8.5533	0.992118	9.31785			0.702021	6.56977	0.844853	7.91951		
0.47186	4.3846	0.228993	2.10704	0.7933	7.37316	0.918335	8.52831	0.998909	9.30025			0.70577	6.54776	0.850446	7.90292		
0.473196	4.35927	0.231078	2.10815	0.798765	7.36021	0.923619	8.50381	1.00573	9.28321			0.709472	6.5257	0.856047	7.88668		
0.474527	4.33433	0.233163	2.10924	0.804203	7.34725	0.92891	8.47978					0.713125	6.50357	0.861654	7.87078		
0.475853	4.30977	0.235247	2.11031	0.809615	7.33426	0.934207	8.45622					0.716732	6.48139	0.867267	7.8552		
0.477175	4.28558	0.237332	2.11136	0.814999	7.32124	0.939511	8.43311					0.720292	6.45916	0.872886	7.83993		
0.478493	4.26175	0.239416	2.11239	0.820356	7.3082	0.944822	8.41044					0.723806	6.43689	0.878508	7.82495		
0.479806	4.23828	0.2415	2.11341	0.825684	7.29512	0.95014	8.38821					0.727274	6.41459	0.884134	7.81025		
0.481117	4.21516	0.243584	2.11441	0.830984	7.282	0.955465	8.36641					0.730698	6.39225	0.889763	7.79581		
0.482424	4.1924	0.245669	2.11539	0.836256	7.26885	0.960798	8.34502					0.734077	6.3699	0.895394	7.78162		
0.483729	4.16997	0.247753	2.11636	0.841497	7.25565	0.966139	8.32405					0.737412	6.34752	0.901025	7.76767		
0.485031	4.14788	0.249837	2.11731	0.84671	7.24241	0.971487	8.30347					0.740704	6.32513	0.906657	7.75394		
0.486331	4.12612	0.251921	2.11825	0.851892	7.22913	0.976843	8.28329					0.743954	6.30274	0.912289	7.74043		
0.487629	4.10469	0.254004	2.11917	0.857044	7.2158	0.982207	8.26349					0.747162	6.28034	0.917919	7.72711		
0.488925	4.08358	0.256088	2.12007	0.862166	7.20242	0.987579	8.24406					0.750328	6.25794	0.923547	7.71399		
0.49022	4.06278	0.258172	2.12096	0.867256	7.18899	0.992959	8.225					0.753453	6.23556	0.929173	7.70105		
0.491514	4.04229	0.260256	2.12184	0.872316	7.17551	0.998346	8.2063					0.756538	6.21318	0.934795	7.68827		
0.492807	4.0221	0.262339	2.1227	0.877344	7.16199	1.00374	8.18794					0.759584	6.19083	0.940412	7.67566		
0.494099	4.00221	0.264423	2.12355	0.882341	7.14841							0.762591	6.16849	0.946025	7.6632		
0.49539	3.98261	0.266506	2.12439	0.887305	7.13477							0.76556	6.14618	0.951633	7.65088		
0.496681	3.96331	0.26859	2.12521	0.892238	7.12109							0.768491	6.12391	0.957234	7.63869		
0.497972	3.94428	0.270673	2.12603	0.897139	7.10735							0.771384	6.10167	0.962828	7.62663		
0.499262	3.92554	0.272757	2.12683	0.902007	7.09356							0.774242	6.07947	0.968414	7.61468		
0.500553	3.90706	0.27484	2.12761	0.906843	7.07972							0.777064	6.05731	0.973993	7.60285		
0.501844	3.88886	0.276923	2.12839	0.911646	7.06582							0.77985	6.0352	0.979563	7.59112		
0.503136	3.87092	0.279006	2.12916	0.916416	7.05187							0.782602	6.01314	0.985123	7.57948		
0.504428	3.85324	0.28109	2.12991	0.921154	7.03787							0.78532	5.99113	0.990673	7.56794		
0.505721	3.83582	0.283173	2.13065	0.925859	7.02382							0.788005	5.96919	0.996213	7.55647		
0.507014	3.81864	0.285256	2.13138	0.930531	7.00971							0.790657	5.9473	1.00174	7.54508		
0.508309	3.80172	0.287339	2.1321	0.93517	6.99556							0.793277	5.92549				
0.509605	3.78503	0.289422	2.13282	0.939775	6.98136							0.795866	5.90373				
0.510901	3.76858	0.291505	2.13352	0.944348	6.96711							0.798423	5.88205				
0.512199	3.75237	0.293588	2.13421	0.948888	6.95281							0.800951	5.86045				
0.513499	3.73639	0.295671	2.13489	0.953395	6.93846							0.803449	5.83892				
0.5148	3.72063	0.297753	2.13556	0.957869	6.92407							0.805917	5.81747				
0.516102	3.7051	0.299836	2.13623	0.962309	6.90964							0.808357	5.7961				
0.517407	3.68978	0.301919	2.13688	0.966717	6.89516							0.810769	5.77482				
0.518713	3.67468	0.304002	2.13753	0.971092	6.88064							0.813154	5.75362				
0.52002	3.65979	0.306084	2.13816	0.975435	6.86608							0.815512	5.73252				
0.52133	3.6451	0.308167	2.13879	0.979744	6.85148							0.817844	5.7115				
0.522642	3.63062	0.31025	2.13941	0.984021	6.83685							0.82015	5.69058				
0.523955	3.61634	0.312332	2.14002	0.988266	6.82217							0.822431	5.66975				
0.525271	3.60226	0.314415	2.14063	0.992478	6.80747							0.824687	5.64902				
0.526589	3.58837	0.316497	2.14122	0.996657	6.79273							0.826919	5.62839				
0.527909	3.57467	0.31858	2.14181	1.0008	6.77795							0.829127	5.60786				
0.529231	3.56116	0.320662	2.14239									0.831313	5.58743				
0.530556	3.54783	0.322745	2.14297									0.833475	5.56711				
0.531883	3.53468	0.324827	2.14353									0.835616	5.54689				
0.533213	3.52171	0.326909	2.14409									0.837735	5.52677				
0.534545	3.50891	0.328992	2.14464									0.839833	5.50676				
0.535879	3.49629	0.331074	2.14519									0.84191	5.48687				
0.537216	3.48384	0.333156	2.14573									0.843968	5.46708				
0.538556	3.47155	0.335238	2.14626									0.846005	5.4474				
0.539898	3.45942	0.337321	2.14678									0.848023	5.42783				
0.541243	3.44746	0.339403	2.1473									0.850023	5.40838				
0.54259	3.43565	0.341485	2.14782									0.852004	5.38903				
0.54394	3.424	0.343567	2.14832									0.853967	5.36981				
0.545293	3.41251	0.345649	2.14882									0.855912	5.35069				
0.546649	3.40116	0.347731	2.14932									0.857841	5.33169				
0.548007	3.38996	0.349813	2.14981									0.859752	5.31281				
0.549369	3.37891	0.351895	2.15029									0.861648	5.29404				
0.550733	3.368	0.353978	2.15077									0.863527	5.27539				
0.5521	3.35723	0.356059	2.15124									0.865391	5.25686				
0.553469	3.3466	0.358141	2.15171									0.86724	5.23844				
0.554842	3.3361	0.360223	2.15217									0.869074	5.22014				
0.556218	3.32574	0.362305	2.15262									0.870893	5.20196				
0.557596	3.31551	0.364387	2.15307									0.872699	5.18389				
0.558977	3.30542	0.366469	2.15352									0.87449	5.16594				
0.560362	3.29545	0.368551	2.15396									0.876269	5.14812				
0.561749	3.2856	0.370633	2.1544									0.878034	5.1304				
0.563139	3.27588	0.372715	2.15483									0.879787	5.11281				
0.564532	3.26628	0.374796	2.15525									0.881527	5.09533				
0.565928	3.2568	0.376878	2.15568									0.883255	5.07797				
0.567327	3.24744	0.37896	2.15609									0.884971	5.06073				
0.568729	3.2382	0.381042	2.15651									0.886675	5.04361				
0.570134	3.22907	0.383123	2.15691									0.888369	5.0266				
0.571542	3.22005	0.385205	2.15732									0.890051	5.00971				
0.572953	3.21114	0.387287	2.15772									0.891723	4.99294				
0.574367	3.20235	0.389368	2.15811									0.893385	4.97628				
0.575784	3.19366	0.39145	2.1585									0.895036	4.95974				
0.577204	3.18507	0.393532	2.15889									0.896678	4.94332				
0.578627	3.17659	0.395613	2.15927									0.89831	4.92701				
0.580053	3.16822	0.397695	2.15965									0.899932	4.91081				
0.581482	3.15994	0.399776	2.16003									0.901546	4.89473				
0.582914	3.15176	0.401858	2.1604									0.903151	4.87877				
0.584349	3.14369	0.40394	2.16077									0.904747	4.86291				
0.585786	3.1357	0.406021	2.16113									0.906335	4.84717				
0.587227	3.12782	0.408103	2.16149									0.907914	4.83155				
0.588671	3.12002	0.410184	2.16185									0.909486	4.81603				
0.590118	3.11232	0.412265	2.1622									0.91105	4.80063				
0.591567	3.10471	0.414347	2.16255									0.912607	4.78534				
0.59302	3.09719	0.416428	2.1629									0.914156	4.77016				
0.594476	3.08976	0.41851	2.16324									0.915698	4.75509				
0.595934	3.08242	0.420591	2.16358									0.917233	4.74013				
0.597396	3.07516	0.422673	2.16391									0.918762	4.72527				
0.59886	3.06798	0.424754	2.16425									0.920284	4.71053				
0.600328	3.06089	0.426835	2.16458									0.921799	4.69589				
0.601798	3.05388	0.428917	2.1649									0.923309	4.68136				
0.603271	3.04695	0.430998	2.16523									0.924813	4.66694				
0.604748	3.0401	0.433079	2.16555									0.92631	4.65263				
0.606227	3.03332	0.435161	2.16586									0.927802	4.63841				
0.607709	3.02663	0.437242	2.16618									0.929289	4.62431				
0.609193	3.02001	0.439323	2.16649									0.930771	4.6103				
0.610681	3.01347	0.441405	2.1668									0.932247	4.5964				
0.612172	3.007	0.443486	2.1671									0.933718	4.58261				
0.613665	3.0006	0.445567	2.1674									0.935184	4.56891				
0.615161	2.99428	0.447648	2.1677									0.936646	4.55532				
0.61666	2.98802	0.44973	2.168									0.938103	4.54182				
0.618162	2.98184	0.451811	2.16829									0.939556	4.52843				
0.619667	2.97572	0.453892	2.16859									0.941004	4.51513				
0.621174	2.96968	0.455973	2.16887									0.942448	4.50194				
0.622685	2.9637	0.458054	2.16916									0.943888	4.48884				
0.624198	2.95778	0.460136	2.16944									0.945325	4.47584				
0.625714	2.95193	0.462217	2.16973									0.946757	4.46293				
0.627232	2.94615	0.464298	2.17									0.948186	4.45013				
0.628753	2.94042	0.466379	2.17028									0.949612	4.43741				
0.630278	2.93476	0.46846	2.17055									0.951034	4.42479				
0.631804	2.92917	0.470541	2.17083									0.952452	4.41227				
0.633334	2.92363	0.472622	2.17109									0.953868	4.39983				
0.634866	2.91815	0.474703	2.17136									0.95528	4.38749				
0.636401	2.91273	0.476785	2.17163									0.956689	4.37524				
0.637939	2.90737	0.478866	2.17189									0.958096	4.36309				
0.639479	2.90207	0.480947	2.17215									0.9595	4.35102				
0.641022	2.89682	0.483028	2.17241									0.960901	4.33904				
0.642567	2.89163	0.485109	2.17266									0.962299	4.32715				
0.644115	2.8865	0.48719	2.17291									0.963695	4.31535				
0.645666	2.88142	0.489271	2.17316									0.965089	4.30363				
0.64722	2.87639	0.491352	2.17341									0.96648	4.29201				
0.648775	2.87141	0.493433	2.17366									0.96787	4.28046				
0.650334	2.86649	0.495514	2.17391									0.969257	4.26901				
0.651895	2.86162	0.497595	2.17415									0.970642	4.25764				
0.653459	2.8568	0.499676	2.17439									0.972025	4.24635				
0.655025	2.85203	0.501757	2.17463									0.973406	4.23514				
0.656594	2.84731	0.503838	2.17486									0.974785	4.22402				
0.658165	2.84264	0.505919	2.1751									0.976163	4.21298				
0.659739	2.83802	0.508	2.17533									0.977539	4.20203				
0.661315	2.83344	0.510081	2.17556									0.978913	4.19115				
0.662894	2.82891	0.512162	2.17579									0.980286	4.18035				
0.664475	2.82443	0.514242	2.17602									0.981658	4.16963				
0.666059	2.81999	0.516323	2.17625									0.983028	4.15899				
0.667645	2.8156	0.518404	2.17647									0.984397	4.14843				
0.669233	2.81125	0.520485	2.17669									0.985764	4.13795				
0.670824	2.80695	0.522566	2.17691									0.987131	4.12754				
0.672417	2.80269	0.524647	2.17713									0.988496	4.11721				
0.674013	2.79848	0.526728	2.17735									0.98986	4.10696				
0.675611	2.7943	0.528809	2.17756									0.991224	4.09678				
0.677212	2.79017	0.530889	2.17778									0.992586	4.08667				
0.678814	2.78608	0.53297	2.17799									0.993947	4.07664				
0.68042	2.78203	0.535051	2.1782									0.995308	4.06668				
0.682027	2.77802	0.537132	2.17841									0.996668	4.05679				
0.683637	2.77405	0.539213	2.17861									0.998027	4.04698				
0.685249	2.77012	0.541294	2.17882									0.999386	4.03723				
0.686863	2.76622	0.543374	2.17902									1.00074	4.02756				
0.68848	2.76237	0.545455	2.17922														
0.690099	2.75855	0.547536	2.17942														
0.69172	2.75477	0.549617	2.17962														
0.693343	2.75103	0.551698	2.17982														
0.694969	2.74732	0.553778	2.18002														
0.696597	2.74365	0.555859	2.18021														
0.698227	2.74002	0.55794	2.18041														
0.699859	2.73642	0.560021	2.1806														
0.701494	2.73286	0.562101	2.18079														
0.70313	2.72932	0.564182	2.18098														
0.704769	2.72583	0.566263	2.18117														
0.70641	2.72236	0.568343	2.18135														
0.708053	2.71893	0.570424	2.18154														
0.709698	2.71553	0.572505	2.18172														
0.711345	2.71217	0.574586	2.1819														
0.712994	2.70883	0.576666	2.18208														
0.714646	2.70553	0.578747	2.18226														
0.716299	2.70226	0.580828	2.18244														
0.717954	2.69902	0.582908	2.18262														
0.719612	2.69581	0.584989	2.18279														
0.721272	2.69263	0.58707	2.18297														
0.722933	2.68947	0.58915	2.18314														
0.724597	2.68635	0.591231	2.18331														
0.726262	2.68326	0.593312	2.18349														
0.72793	2.68019	0.595392	2.18366														
0.729599	2.67716	0.597473	2.18382														
0.731271	2.67415	0.599553	2.18399														
0.732944	2.67117	0.601634	2.18416														
0.73462	2.66821	0.603715	2.18432														
0.736297	2.66529	0.605795	2.18449														
0.737976	2.66239	0.607876	2.18465														
0.739658	2.65951	0.609956	2.18481														
0.741341	2.65666	0.612037	2.18497														
0.743025	2.65384	0.614118	2.18513														
0.744712	2.65104	0.616198	2.18529														
0.746401	2.64827	0.618279	2.18545														
0.748092	2.64552	0.620359	2.1856														
0.749784	2.6428	0.62244	2.18576														
0.751478	2.6401	0.624521	2.18591														
0.753174	2.63743	0.626601	2.18607														
0.754872	2.63478	0.628682	2.18622														
0.756571	2.63215	0.630762	2.18637														
0.758273	2.62955	0.632843	2.18652														
0.759976	2.62696	0.634923	2.18667														
0.761681	2.62441	0.637004	2.18682														
0.763388	2.62187	0.639084	2.18697														
0.765096	2.61935	0.641165	2.18711														
0.766806	2.61686	0.643245	2.18726														
0.768518	2.61439	0.645326	2.1874														
0.770232	2.61194	0.647406	2.18755														
0.771947	2.60951	0.649487	2.18769														
0.773664	2.60711	0.651567	2.18783														
0.775383	2.60472	0.653648	2.18797														
0.777103	2.60236	0.655728	2.18811														
0.778825	2.60001	0.657809	2.18825														
0.780549	2.59768	0.659889	2.18839														
0.782274	2.59538	0.66197	2.18853														
0.784001	2.59309	0.66405	2.18866														
0.785729	2.59083	0.666131	2.1888														
0.78746	2.58858	0.668211	2.18893														
0.789191	2.58635	0.670292	2.18907														
0.790925	2.58414	0.672372	2.1892														
0.79266	2.58195	0.674452	2.18933														
0.794396	2.57978	0.676533	2.18946														
0.796134	2.57762	0.678613	2.1896														
0.797874	2.57549	0.680694	2.18973														
0.799615	2.57337	0.682774	2.18985														
0.801358	2.57127	0.684855	2.18998														
0.803102	2.56918	0.686935	2.19011														
0.804848	2.56712	0.689015	2.19024														
0.806595	2.56507	0.691096	2.19036														
0.808344	2.56303	0.693176	2.19049														
0.810095	2.56102	0.695257	2.19061														
0.811846	2.55902	0.697337	2.19074														
0.8136	2.55704	0.699417	2.19086														
0.815354	2.55507	0.701498	2.19098														
0.817111	2.55312	0.703578	2.1911														
0.818868	2.55118	0.705659	2.19122														
0.820627	2.54926	0.707739	2.19135														
0.822388	2.54736	0.709819	2.19146														
0.82415	2.54547	0.7119	2.19158														
0.825913	2.5436	0.71398	2.1917														
0.827678	2.54174	0.71606	2.19182														
0.829444	2.5399	0.718141	2.19194														
0.831212	2.53807	0.720221	2.19205														
0.832981	2.53626	0.722301	2.19217														
0.834751	2.53446	0.724382	2.19228														
0.836523	2.53267	0.726462	2.1924														
0.838296	2.5309	0.728542	2.19251														
0.84007	2.52914	0.730623	2.19262														
0.841846	2.5274	0.732703	2.19273														
0.843623	2.52567	0.734783	2.19285														
0.845402	2.52395	0.736864	2.19296														
0.847181	2.52225	0.738944	2.19307														
0.848962	2.52056	0.741024	2.19318														
0.850745	2.51889	0.743105	2.19329														
0.852528	2.51722	0.745185	2.19339														
0.854313	2.51557	0.747265	2.1935														
0.8561	2.51394	0.749345	2.19361														
0.857887	2.51231	0.751426	2.19372														
0.859676	2.5107	0.753506	2.19382														
0.861466	2.5091	0.755586	2.19393														
0.863257	2.50751	0.757667	2.19403														
0.86505	2.50594	0.759747	2.19414														
0.866843	2.50438	0.761827	2.19424														
0.868638	2.50282	0.763907	2.19434														
0.870435	2.50129	0.765988	2.19445														
0.872232	2.49976	0.768068	2.19455														
0.874031	2.49824	0.770148	2.19465														
0.875831	2.49674	0.772229	2.19475														
0.877632	2.49524	0.774309	2.19485														
0.879434	2.49376	0.776389	2.19495														
0.881237	2.49229	0.778469	2.19505														
0.883042	2.49083	0.78055	2.19515														
0.884848	2.48938	0.78263	2.19525														
0.886655	2.48795	0.78471	2.19534														
0.888463	2.48652	0.78679	2.19544														
0.890272	2.4851	0.78887	2.19554														
0.892082	2.4837	0.790951	2.19563														
0.893894	2.4823	0.793031	2.19573														
0.895707	2.48092	0.795111	2.19583														
0.89752	2.47954	0.797191	2.19592														
0.899335	2.47818	0.799272	2.19601														
0.901151	2.47682	0.801352	2.19611														
0.902968	2.47548	0.803432	2.1962														
0.904786	2.47414	0.805512	2.19629														
0.906606	2.47282	0.807592	2.19639														
0.908426	2.4715	0.809673	2.19648														
0.910247	2.47019	0.811753	2.19657														
0.91207	2.4689	0.813833	2.19666														
0.913894	2.46761	0.815913	2.19675														
0.915718	2.46633	0.817993	2.19684														
0.917544	2.46506	0.820073	2.19693														
0.919371	2.46381	0.822154	2.19702														
0.921198	2.46255	0.824234	2.19711														
0.923027	2.46131	0.826314	2.1972														
0.924857	2.46008	0.828394	2.19728														
0.926688	2.45886	0.830474	2.19737														
0.92852	2.45764	0.832554	2.19746														
0.930353	2.45644	0.834635	2.19754														
0.932187	2.45524	0.836715	2.19763														
0.934022	2.45405	0.838795	2.19771														
0.935858	2.45287	0.840875	2.1978														
0.937694	2.4517	0.842955	2.19788														
0.939532	2.45053	0.845035	2.19797														
0.941371	2.44938	0.847116	2.19805														
0.943211	2.44823	0.849196	2.19814														
0.945052	2.44709	0.851276	2.19822														
0.946894	2.44596	0.853356	2.1983														
0.948736	2.44483	0.855436	2.19838														
0.95058	2.44372	0.857516	2.19847														
0.952425	2.44261	0.859596	2.19855														
0.95427	2.44151	0.861676	2.19863														
0.956117	2.44041	0.863757	2.19871														
0.957964	2.43933	0.865837	2.19879														
0.959813	2.43825	0.867917	2.19887														
0.961662	2.43718	0.869997	2.19895														
0.963512	2.43612	0.872077	2.19903														
0.965363	2.43506	0.874157	2.19911														
0.967215	2.43401	0.876237	2.19918														
0.969068	2.43297	0.878317	2.19926														
0.970922	2.43194	0.880397	2.19934														
0.972777	2.43091	0.882478	2.19942														
0.974632	2.42989	0.884558	2.19949														
0.976489	2.42888	0.886638	2.19957														
0.978346	2.42787	0.888718	2.19965														
0.980204	2.42687	0.890798	2.19972														
0.982063	2.42588	0.892878	2.1998														
0.983923	2.42489	0.894958	2.19987														
0.985784	2.42391	0.897038	2.19995														
0.987646	2.42294	0.899118	2.20002														
0.989508	2.42197	0.901198	2.2001														
0.991372	2.42101	0.903278	2.20017														
0.993236	2.42006	0.905358	2.20024														
0.995101	2.41911	0.907438	2.20032														
0.996967	2.41817	0.909519	2.20039														
0.998833	2.41723	0.911599	2.20046														
1.0007	2.4163	0.913679	2.20053														
		0.915759	2.2006														
		0.917839	2.20068														
		0.919919	2.20075														
		0.921999	2.20082														
		0.924079	2.20089														
		0.926159	2.20096														
		0.928239	2.20103														
		0.930319	2.2011														
		0.932399	2.20117														
		0.934479	2.20124														
		0.936559	2.2013														
		0.938639	2.20137														
		0.940719	2.20144														
		0.942799	2.20151														
		0.944879	2.20157														
		0.946959	2.20164														
		0.949039	2.20171														
		0.951119	2.20177														
		0.953199	2.20184														
		0.955279	2.20191														
		0.957359	2.20197														
		0.959439	2.20204														
		0.961519	2.2021														
		0.963599	2.20217														
		0.965679	2.20223														
		0.967759	2.2023														
		0.969839	2.20236														
		0.971919	2.20242														
		0.973999	2.20249														
		0.976079	2.20255														
		0.978159	2.20261														
		0.980239	2.20267														
		0.982319	2.20274														
		0.984399	2.2028														
		0.986479	2.20286														
		0.988559	2.20292														
		0.990639	2.20298														
		0.992719	2.20304														
		0.994799	2.2031														
		0.996879	2.20317														
		0.998959	2.20323														
		1.00104	2.20329														
