Sym0		Asym0		Sym1		Sym2		Sym3		Sym4		Asym1		Asym2		Asym3	
458  Points		492  Points		175  Points		139  Points		119  Points		91  Points		313  Points		151  Points		120  Points	
Freq (MHz)	Vph (m/ms)	Freq (MHz)	Vph (m/ms)	Freq (MHz)	Vph (m/ms)	Freq (MHz)	Vph (m/ms)	Freq (MHz)	Vph (m/ms)	Freq (MHz)	Vph (m/ms)	Freq (MHz)	Vph (m/ms)	Freq (MHz)	Vph (m/ms)	Freq (MHz)	Vph (m/ms)
0.00637326	7.44329	0.000342233	0.19182	0.279535	486.799	0.519901	630.191	0.559023	1635.26	0.838526	13370.6	0.139797	308.224	0.419277	843.394	0.698795	822.853
0.013307	7.44266	0.000788103	0.290189	0.279689	185.725	0.519959	295.989	0.5591	439.009	0.838554	843.268	0.140152	101.174	0.419379	293.513	0.698877	392.423
0.0202384	7.4416	0.00140956	0.386441	0.27998	114.858	0.52006	193.447	0.559267	253.607	0.838631	435.403	0.140863	60.7969	0.419579	177.749	0.699016	257.69
0.0271663	7.44011	0.00219792	0.479978	0.280409	83.2242	0.520203	143.7	0.559522	178.365	0.838758	293.498	0.141924	43.6871	0.419878	127.537	0.699214	191.864
0.0340892	7.43816	0.0031427	0.570269	0.280973	65.3272	0.52039	114.327	0.559866	137.605	0.838934	221.384	0.143324	34.2853	0.420276	99.4992	0.699469	152.855
0.0410061	7.43576	0.00423244	0.656944	0.281673	53.8293	0.52062	94.9437	0.560297	112.052	0.83916	177.743	0.145052	28.3745	0.420771	81.6142	0.699781	127.055
0.0479156	7.43291	0.00545485	0.739711	0.282506	45.8287	0.520896	81.1976	0.560816	94.5404	0.839434	148.497	0.147092	24.3379	0.421363	69.22	0.700152	108.729
0.0548163	7.42959	0.00679729	0.818359	0.283472	39.9477	0.521217	70.9443	0.561422	81.7956	0.839758	127.534	0.149429	21.4222	0.422053	60.1301	0.700579	95.044
0.061707	7.42581	0.00824751	0.89281	0.284569	35.448	0.521586	63.0045	0.562113	72.1082	0.840131	111.775	0.152046	19.229	0.422838	53.1826	0.701064	84.4371
0.0685862	7.42155	0.00979347	0.963034	0.285794	31.8985	0.522002	56.6763	0.56289	64.499	0.840554	99.4977	0.154927	17.528	0.42372	47.7034	0.701606	75.9767
0.0754526	7.41681	0.0114239	1.02908	0.287145	29.0304	0.522468	51.5156	0.563751	58.3665	0.841025	89.6647	0.158053	16.1766	0.424697	43.2742	0.702205	69.0726
0.0823046	7.41157	0.0131285	1.09106	0.288621	26.6677	0.522986	47.228	0.564695	53.3209	0.841545	81.6134	0.161409	15.0818	0.425767	39.6218	0.702861	63.3329
0.0891408	7.40583	0.0148975	1.1491	0.290218	24.6898	0.523556	43.6103	0.565721	49.0983	0.842114	74.9008	0.164977	14.1807	0.426931	36.5603	0.703574	58.487
0.0959596	7.39956	0.0167224	1.20338	0.291934	23.0118	0.524179	40.5178	0.566827	45.5141	0.842731	69.2196	0.168743	13.429	0.428188	33.9585	0.704343	54.3421
0.102759	7.39276	0.0185953	1.25408	0.293767	21.572	0.524859	37.8448	0.568014	42.4348	0.843397	64.3498	0.172692	12.7945	0.429536	31.7215	0.705168	50.7572
0.109538	7.38542	0.0205095	1.3014	0.295714	20.3245	0.525596	35.5123	0.56928	39.7618	0.844112	60.1299	0.176809	12.2537	0.430975	29.7788	0.706049	47.6267
0.116294	7.37751	0.0224588	1.34554	0.297771	19.2342	0.526392	33.4597	0.570624	37.4205	0.844874	56.4385	0.181081	11.7886	0.432503	28.0769	0.706986	44.8699
0.123026	7.36902	0.024438	1.38671	0.299937	18.2743	0.527249	31.6404	0.572044	35.3535	0.845685	53.1826	0.184922	11.4343	0.434119	26.5745	0.707978	42.4243
0.129732	7.35992	0.0264424	1.42511	0.302207	17.4236	0.528169	30.0173	0.57354	33.5161	0.846544	50.29	0.188277	11.164	0.435823	25.2393	0.709026	40.2404
0.136408	7.35021	0.0284681	1.46093	0.30458	16.6652	0.529153	28.5609	0.575111	31.8726	0.84745	47.7036	0.191104	10.9597	0.437612	24.0455	0.710128	38.2788
0.143055	7.33985	0.030248	1.49018	0.307052	15.9855	0.530203	27.2474	0.576755	30.3943	0.848404	45.3774	0.193371	10.8092	0.439486	22.9724	0.711284	36.5077
0.149668	7.32882	0.0317745	1.51377	0.30962	15.3735	0.531322	26.0572	0.578471	29.058	0.849405	43.2745	0.195056	10.7042	0.441443	22.0031	0.712495	34.9009
0.156246	7.31709	0.0330424	1.53239	0.312283	14.8202	0.53251	24.9744	0.580259	27.8447	0.850454	41.3645	0.196141	10.6395	0.443482	21.1238	0.71376	33.4368
0.162786	7.30464	0.0340481	1.54657	0.315037	14.3178	0.53377	23.9854	0.582117	26.7384	0.851549	39.6222	0.197712	10.5495	0.445601	20.3229	0.715079	32.0977
0.169285	7.29144	0.0347892	1.5567	0.31788	13.8601	0.535103	23.0791	0.584045	25.726	0.852691	38.0269	0.199432	10.4556	0.4478	19.5907	0.71645	30.8683
0.175741	7.27746	0.0352641	1.56306	0.320809	13.4417	0.536512	22.2459	0.586042	24.7963	0.85388	36.5608	0.201793	10.3342	0.450077	18.9191	0.717874	29.736
0.18215	7.26267	0.0359478	1.57203	0.323822	13.0582	0.537997	21.4777	0.588106	23.9399	0.855115	35.2091	0.204812	10.1901	0.45243	18.3013	0.719351	28.6899
0.18851	7.24702	0.036692	1.58156	0.326918	12.7057	0.539561	20.7677	0.590237	23.1487	0.856396	33.9591	0.20851	10.0288	0.454858	17.7313	0.72088	27.7208
0.194816	7.2305	0.0377058	1.59417	0.330094	12.3808	0.541206	20.1099	0.592434	22.4158	0.857723	32.7999	0.212911	9.8556	0.45736	17.2039	0.72246	26.8207
0.201067	7.21305	0.0389905	1.60953	0.33335	12.0808	0.542932	19.499	0.594697	21.7352	0.859095	31.7221	0.218038	9.67565	0.459933	16.7149	0.724091	25.9825
0.207257	7.19464	0.0405473	1.62731	0.336682	11.803	0.544743	18.9306	0.597023	21.1017	0.860513	30.7177	0.223242	9.51324	0.462577	16.2605	0.725774	25.2004
0.213383	7.17524	0.0423776	1.64709	0.339649	11.5775	0.546638	18.4006	0.599414	20.5107	0.861975	29.7795	0.228515	9.3661	0.465291	15.8372	0.727506	24.469
0.219441	7.15481	0.0444821	1.66847	0.342224	11.3964	0.54862	17.9058	0.601867	19.9584	0.863482	28.9013	0.233853	9.23232	0.468072	15.4421	0.729288	23.7836
0.225428	7.1333	0.0465903	1.68854	0.344384	11.2539	0.550689	17.4429	0.604383	19.4412	0.865034	28.0776	0.23925	9.11028	0.470919	15.0728	0.73112	23.1403
0.231338	7.11068	0.0487013	1.70739	0.346113	11.1455	0.552848	17.0093	0.60696	18.956	0.86663	27.3037	0.244701	8.9986	0.473831	14.7268	0.733001	22.5353
0.237168	7.08691	0.0508144	1.72513	0.347395	11.0682	0.555097	16.6026	0.609598	18.5	0.86827	26.5753	0.250201	8.89607	0.476807	14.4022	0.73493	21.9654
0.242912	7.06196	0.052929	1.74182	0.34822	11.0197	0.557438	16.2206	0.612297	18.071	0.869953	25.8886	0.255747	8.80167	0.479844	14.0972	0.736908	21.4278
0.248567	7.03579	0.0550446	1.75756	0.349414	10.9514	0.559871	15.8614	0.615056	17.6666	0.87168	25.2402	0.261333	8.71452	0.482942	13.8102	0.738933	20.9199
0.254128	7.00838	0.0571609	1.7724	0.350721	10.8789	0.562397	15.5232	0.617873	17.285	0.873449	24.627	0.266958	8.63382	0.4861	13.5398	0.741005	20.4395
0.259591	6.9797	0.0592774	1.78642	0.352513	10.7831	0.565017	15.2045	0.62075	16.9243	0.875262	24.0464	0.272616	8.55892	0.489315	13.2846	0.743123	19.9843
0.264952	6.94973	0.061394	1.79967	0.354805	10.6665	0.567731	14.9039	0.623685	16.5831	0.877116	23.496	0.278305	8.48921	0.492586	13.0435	0.745288	19.5526
0.270206	6.91846	0.0635104	1.81222	0.357614	10.5318	0.57054	14.6201	0.626679	16.2599	0.879013	22.9734	0.284021	8.42417	0.495913	12.8154	0.747498	19.1427
0.275349	6.88589	0.0656264	1.8241	0.360963	10.3822	0.573444	14.3518	0.629729	15.9534	0.880951	22.4767	0.289763	8.36334	0.499294	12.5994	0.749754	18.753
0.280378	6.85201	0.0677419	1.83537	0.364876	10.2209	0.576443	14.0981	0.632837	15.6625	0.88293	22.0042	0.295526	8.30631	0.502727	12.3946	0.752054	18.3822
0.28529	6.81684	0.0698568	1.84607	0.368866	10.0698	0.579536	13.858	0.636003	15.386	0.884951	21.554	0.301308	8.25271	0.506212	12.2003	0.754398	18.0289
0.290083	6.78041	0.0719709	1.85624	0.372933	9.92833	0.582724	13.6306	0.639224	15.1231	0.887012	21.1249	0.307107	8.20224	0.509747	12.0157	0.756786	17.692
0.294753	6.74274	0.0740842	1.86591	0.377078	9.79571	0.586005	13.415	0.642503	14.8728	0.889114	20.7153	0.31292	8.15458	0.512867	11.8622	0.759217	17.3705
0.2993	6.70387	0.0761968	1.87511	0.381301	9.67134	0.589379	13.2104	0.645838	14.6344	0.891255	20.324	0.318746	8.10949	0.515556	11.7365	0.761691	17.0634
0.303723	6.66385	0.0783085	1.88389	0.385604	9.55468	0.592845	13.0163	0.64923	14.4071	0.893436	19.9499	0.324581	8.06674	0.5178	11.636	0.764207	16.7697
0.308019	6.62275	0.0804192	1.89225	0.389987	9.44522	0.596401	12.8319	0.652677	14.1902	0.895657	19.5919	0.330424	8.0261	0.519586	11.5586	0.766764	16.4887
0.312191	6.58063	0.0825292	1.90024	0.394449	9.34249	0.600047	12.6566	0.656182	13.9831	0.897916	19.249	0.336272	7.98741	0.520906	11.5028	0.769363	16.2197
0.316239	6.53755	0.0846382	1.90787	0.398992	9.24606	0.60378	12.4899	0.659742	13.7853	0.900214	18.9204	0.342125	7.95047	0.521755	11.4676	0.772002	15.9618
0.320163	6.49361	0.0867463	1.91517	0.403616	9.15552	0.607599	12.3312	0.66336	13.5962	0.902551	18.6051	0.347979	7.91514	0.522978	11.4177	0.774681	15.7145
0.323966	6.44888	0.0888535	1.92215	0.408318	9.0705	0.611502	12.1801	0.667034	13.4154	0.904925	18.3026	0.353833	7.88128	0.524313	11.3643	0.7774	15.4771
0.32765	6.40345	0.0909598	1.92884	0.4131	8.99064	0.61497	12.0543	0.670766	13.2423	0.907337	18.0119	0.359686	7.84876	0.526138	11.2931	0.780158	15.2492
0.331218	6.35741	0.0930654	1.93526	0.417959	8.91561	0.617973	11.951	0.674555	13.0766	0.909785	17.7326	0.365535	7.81745	0.528461	11.2053	0.782955	15.0301
0.334672	6.31086	0.0951701	1.94141	0.422894	8.84509	0.62049	11.8683	0.678403	12.9178	0.912271	17.4639	0.371378	7.78726	0.531293	11.1024	0.78579	14.8195
0.338016	6.26387	0.097274	1.94732	0.427902	8.77877	0.6225	11.8046	0.682309	12.7657	0.914793	17.2053	0.377215	7.75808	0.534644	10.986	0.788663	14.6168
0.341254	6.21653	0.0993771	1.95299	0.432982	8.71638	0.623989	11.7586	0.686274	12.6199	0.917351	16.9563	0.383043	7.72983	0.53853	10.858	0.791573	14.4217
0.344388	6.16893	0.101479	1.95845	0.438131	8.65764	0.624947	11.7296	0.690299	12.4801	0.919945	16.7163	0.388861	7.70241	0.542457	10.7355	0.794519	14.2338
0.347424	6.12115	0.103581	1.9637	0.443345	8.6023	0.626331	11.6884	0.694385	12.346	0.922575	16.485	0.394667	7.67576	0.546425	10.6183	0.797502	14.0527
0.350365	6.07327	0.105682	1.96876	0.448621	8.55011	0.627844	11.6444	0.697996	12.2336	0.925239	16.2619	0.400459	7.6498	0.550432	10.5059	0.800521	13.878
0.353215	6.02536	0.107782	1.97362	0.453957	8.50085	0.629916	11.5855	0.701111	12.141	0.927938	16.0466	0.406236	7.62446	0.554479	10.3983	0.803574	13.7095
0.355977	5.97749	0.109882	1.97832	0.459347	8.45429	0.63256	11.513	0.703714	12.0664	0.930671	15.8387	0.411997	7.59969	0.558564	10.295	0.806663	13.5469
0.358657	5.92971	0.111981	1.98285	0.46479	8.41025	0.635791	11.4278	0.705789	12.0088	0.933439	15.6378	0.41774	7.57543	0.562687	10.1959	0.809786	13.3898
0.361257	5.8821	0.114079	1.98722	0.470281	8.36852	0.639628	11.3314	0.707324	11.9672	0.936239	15.4437	0.423463	7.55162	0.566846	10.1007	0.812943	13.2381
0.363782	5.83469	0.116177	1.99144	0.475816	8.32892	0.644089	11.2252	0.708311	11.9409	0.939073	15.2559	0.429164	7.52821	0.571043	10.0093	0.816134	13.0914
0.366235	5.78755	0.118274	1.99552	0.481392	8.29131	0.648608	11.1233	0.709735	11.9035	0.94194	15.0744	0.434843	7.50517	0.575275	9.92149	0.819357	12.9496
0.36862	5.74071	0.12037	1.99946	0.487005	8.25551	0.653184	11.0256	0.711292	11.8634	0.94484	14.8986	0.440498	7.48244	0.579543	9.83703	0.822614	12.8124
0.37094	5.69422	0.122466	2.00327	0.492652	8.22139	0.657811	10.9318	0.713422	11.8098	0.947772	14.7285	0.446126	7.45999	0.583845	9.75578	0.825902	12.6796
0.373198	5.64811	0.124562	2.00696	0.498329	8.18881	0.662486	10.8416	0.716138	11.7435	0.950735	14.5637	0.451728	7.43778	0.588183	9.6776	0.828794	12.5674
0.375399	5.60242	0.126657	2.01054	0.504034	8.15765	0.667206	10.7549	0.719457	11.6655	0.95373	14.404	0.457301	7.41578	0.592555	9.60232	0.831278	12.4741
0.377544	5.55716	0.128752	2.014	0.509762	8.12781	0.671966	10.6714	0.723398	11.577	0.956756	14.2492	0.462843	7.39394	0.59696	9.52983	0.833345	12.3986
0.379637	5.51237	0.130846	2.01736	0.515512	8.09917	0.676764	10.5909	0.727984	11.4792	0.959813	14.0991	0.468354	7.37225	0.601399	9.45999	0.834987	12.34
0.38168	5.46807	0.132939	2.02061	0.52128	8.07164	0.681595	10.5132	0.732641	11.3854	0.962901	13.9534	0.473832	7.35067	0.605871	9.39269	0.836199	12.2974
0.383677	5.42427	0.135033	2.02377	0.527063	8.04513	0.686455	10.4381	0.737368	11.2953	0.966018	13.8121	0.479275	7.32918	0.610376	9.3278	0.836977	12.2705
0.385629	5.38099	0.137126	2.02684	0.53286	8.01956	0.691342	10.3656	0.742168	11.2088	0.969166	13.675	0.484682	7.30774	0.614914	9.26522	0.838099	12.232
0.38754	5.33825	0.139218	2.02981	0.538667	7.99485	0.696251	10.2954	0.74704	11.1259	0.972343	13.5418	0.490052	7.28635	0.619484	9.20486	0.839321	12.1906
0.389172	5.30145	0.14131	2.03271	0.544483	7.97094	0.70118	10.2274	0.751987	11.0463	0.975549	13.4124	0.495383	7.26498	0.624086	9.14662	0.840989	12.1351
0.390541	5.27041	0.143402	2.03552	0.550304	7.94776	0.706125	10.1614	0.757009	10.9699	0.978784	13.2867	0.500674	7.2436	0.628721	9.09041	0.84311	12.0661
0.391658	5.24497	0.145494	2.03825	0.55613	7.92526	0.711083	10.0974	0.762106	10.8966	0.982048	13.1645	0.505923	7.2222	0.633386	9.03614	0.845689	11.9843
0.392532	5.22501	0.147585	2.04091	0.561959	7.90339	0.716052	10.0352	0.767279	10.8264	0.985339	13.0457	0.511131	7.20076	0.638083	8.98374	0.848735	11.8906
0.39317	5.21042	0.149676	2.04349	0.567788	7.88208	0.721029	9.97467	0.772528	10.759	0.988231	12.9448	0.516294	7.17927	0.642812	8.93313	0.852258	11.7861
0.393576	5.20112	0.151766	2.04601	0.573615	7.8613	0.726012	9.9158	0.777854	10.6944	0.990712	12.8607	0.521413	7.15771	0.647571	8.88424	0.85581	11.6847
0.394156	5.1878	0.153857	2.04846	0.57944	7.84101	0.730999	9.85846	0.783256	10.6325	0.992776	12.7925	0.526485	7.13608	0.652361	8.837	0.85939	11.5862
0.394783	5.17339	0.155947	2.05084	0.58526	7.82116	0.735987	9.80257	0.788733	10.5731	0.994414	12.7393	0.531511	7.11435	0.657181	8.79134	0.862998	11.4905
0.395629	5.15391	0.158036	2.05317	0.591075	7.80173	0.740977	9.74806	0.794287	10.5162	0.995623	12.7006	0.536488	7.09253	0.662031	8.7472	0.866634	11.3975
0.396689	5.12948	0.160126	2.05543	0.596882	7.78268	0.745967	9.69487	0.799915	10.4617	0.996399	12.6761	0.541417	7.07059	0.666911	8.70452	0.870297	11.3072
0.397955	5.10021	0.162215	2.05764	0.602681	7.76397	0.750955	9.64294	0.805616	10.4094	0.997517	12.6411	0.546295	7.04854	0.671819	8.66324	0.873988	11.2193
0.399421	5.06629	0.164304	2.0598	0.608471	7.74558	0.755941	9.59221	0.81139	10.3593	0.998734	12.6034	0.551124	7.02637	0.676757	8.62331	0.877705	11.1339
0.401079	5.02789	0.166393	2.0619	0.614249	7.72749	0.760925	9.54264	0.817235	10.3113	1.0004	12.5527	0.5559	7.00408	0.681723	8.58467	0.881448	11.0507
0.402711	4.99007	0.168481	2.06395	0.620015	7.70967	0.765907	9.49417	0.82315	10.2652			0.560625	6.98165	0.686717	8.54728	0.885218	10.9699
0.40432	4.95282	0.17057	2.06595	0.625769	7.69209	0.770886	9.44679	0.829133	10.2211			0.565298	6.95909	0.691739	8.51108	0.889013	10.8911
0.405906	4.91614	0.172658	2.06791	0.631508	7.67475	0.775862	9.40044	0.835182	10.1788			0.569917	6.9364	0.696787	8.47603	0.892834	10.8145
0.40747	4.88003	0.174745	2.06982	0.637232	7.6576	0.780836	9.3551	0.841295	10.1381			0.574483	6.91358	0.701862	8.44208	0.89668	10.7399
0.409015	4.84447	0.176833	2.07169	0.64294	7.64065	0.785809	9.31075	0.847471	10.0992			0.578995	6.89062	0.706962	8.40918	0.90055	10.6672
0.410542	4.80948	0.178921	2.07351	0.648631	7.62387	0.790779	9.26734	0.853707	10.0618			0.583453	6.86752	0.712086	8.3773	0.904446	10.5964
0.41205	4.77503	0.181008	2.07529	0.654304	7.60724	0.795749	9.22486	0.860002	10.0259			0.587857	6.8443	0.717235	8.34639	0.908365	10.5274
0.413543	4.74114	0.183095	2.07703	0.659958	7.59076	0.800719	9.18328	0.866352	9.99138			0.592206	6.82095	0.722408	8.31642	0.912309	10.4602
0.415019	4.70778	0.185182	2.07874	0.665593	7.5744	0.805689	9.14259	0.872757	9.95824			0.596502	6.79748	0.727603	8.28733	0.916276	10.3946
0.416482	4.67496	0.187269	2.0804	0.671207	7.55815	0.81066	9.10276	0.879214	9.92639			0.600742	6.77388	0.732819	8.25911	0.920267	10.3307
0.41793	4.64267	0.189356	2.08204	0.6768	7.54201	0.815632	9.06377	0.885721	9.89577			0.604928	6.75017	0.738057	8.2317	0.924281	10.2684
0.419366	4.6109	0.191442	2.08363	0.682371	7.52595	0.820607	9.02561	0.892276	9.8663			0.609061	6.72635	0.743314	8.20507	0.928318	10.2076
0.42079	4.57964	0.193528	2.0852	0.68792	7.50997	0.825585	8.98825	0.898877	9.83793			0.613139	6.70242	0.748591	8.1792	0.932377	10.1482
0.422203	4.54889	0.195615	2.08673	0.693445	7.49407	0.830567	8.95169	0.905522	9.81062			0.617163	6.6784	0.753885	8.15404	0.936459	10.0903
0.423606	4.51864	0.197701	2.08822	0.698946	7.47822	0.835553	8.91589	0.912209	9.7843			0.621134	6.65428	0.759197	8.12957	0.940563	10.0338
0.424998	4.48888	0.199787	2.08969	0.704422	7.46242	0.840543	8.88085	0.918936	9.75894			0.625052	6.63008	0.764524	8.10575	0.94469	9.97867
0.426382	4.45961	0.201873	2.09113	0.709872	7.44666	0.84554	8.84656	0.925701	9.73447			0.628917	6.60579	0.769867	8.08255	0.948837	9.9248
0.427757	4.43082	0.203958	2.09254	0.715297	7.43094	0.850542	8.81299	0.932503	9.71085			0.63273	6.58144	0.775224	8.05995	0.953006	9.8722
0.429125	4.4025	0.206044	2.09392	0.720695	7.41524	0.855551	8.78012	0.93934	9.68805			0.636492	6.55702	0.780594	8.03792	0.957197	9.82083
0.430485	4.37464	0.208129	2.09528	0.726065	7.39956	0.860567	8.74796	0.94621	9.66602			0.640202	6.53254	0.785976	8.01643	0.961408	9.77064
0.431838	4.34723	0.210215	2.0966	0.731408	7.3839	0.86559	8.71647	0.953111	9.64472			0.643862	6.50801	0.791369	7.99546	0.96564	9.7216
0.433185	4.32027	0.2123	2.09791	0.736722	7.36824	0.870621	8.68564	0.960042	9.62412			0.647471	6.48344	0.796771	7.97497	0.969893	9.67367
0.434527	4.29375	0.214385	2.09919	0.742007	7.35258	0.875661	8.65547	0.967001	9.60418			0.651031	6.45883	0.802183	7.95496	0.974166	9.62683
0.435863	4.26767	0.21647	2.10044	0.747262	7.33692	0.880709	8.62593	0.973986	9.58486			0.654543	6.43419	0.807603	7.93538	0.978459	9.58105
0.437195	4.24201	0.218555	2.10167	0.752487	7.32126	0.885766	8.59701	0.980996	9.56614			0.658006	6.40953	0.813029	7.91623	0.982772	9.53628
0.438522	4.21676	0.22064	2.10288	0.757682	7.30557	0.890833	8.5687	0.98803	9.54798			0.661421	6.38486	0.818461	7.89748	0.987105	9.4925
0.439845	4.19193	0.222724	2.10406	0.762846	7.28987	0.895908	8.54098	0.995085	9.53036			0.66479	6.36017	0.823898	7.87911	0.991457	9.44969
0.441164	4.1675	0.224809	2.10523	0.767978	7.27415	0.900994	8.51384	1.00216	9.51323			0.668113	6.33549	0.829339	7.8611	0.995829	9.40781
0.442481	4.14347	0.226893	2.10637	0.773078	7.25841	0.906089	8.48726					0.67139	6.31081	0.834783	7.84343	1.00022	9.36685
0.443794	4.11982	0.228978	2.10749	0.778146	7.24264	0.911194	8.46124					0.674622	6.28614	0.840228	7.82608		
0.445105	4.09656	0.231062	2.10859	0.783182	7.22683	0.916309	8.43575					0.677811	6.26149	0.845675	7.80905		
0.446413	4.07367	0.233146	2.10968	0.788184	7.211	0.921434	8.41079					0.680956	6.23687	0.851121	7.7923		
0.44772	4.05115	0.235231	2.11074	0.793153	7.19513	0.92657	8.38635					0.684059	6.21227	0.856566	7.77582		
0.449025	4.02899	0.237315	2.11178	0.798089	7.17922	0.931715	8.3624					0.687119	6.18771	0.86201	7.75961		
0.450328	4.00718	0.239399	2.11281	0.80299	7.16328	0.93687	8.33893					0.690139	6.1632	0.86745	7.74364		
0.45163	3.98573	0.241483	2.11382	0.807857	7.14729	0.942035	8.31595					0.693118	6.13873	0.872887	7.7279		
0.452931	3.96461	0.243566	2.11482	0.81269	7.13127	0.94721	8.29342					0.696058	6.11431	0.878319	7.71237		
0.454232	3.94383	0.24565	2.11579	0.817488	7.1152	0.952395	8.27134					0.698959	6.08995	0.883746	7.69705		
0.455532	3.92338	0.247734	2.11675	0.822252	7.09909	0.957589	8.24969					0.701822	6.06565	0.889166	7.68193		
0.456832	3.90325	0.249818	2.1177	0.82698	7.08294	0.962792	8.22847					0.704647	6.04142	0.89458	7.66698		
0.458131	3.88345	0.251901	2.11863	0.831674	7.06675	0.968004	8.20767					0.707435	6.01726	0.899985	7.65221		
0.459431	3.86395	0.253985	2.11954	0.836332	7.05051	0.973225	8.18726					0.710187	5.99318	0.905382	7.63759		
0.460731	3.84475	0.256068	2.12044	0.840955	7.03424	0.978455	8.16724					0.712904	5.96917	0.910769	7.62312		
0.462031	3.82586	0.258151	2.12133	0.845542	7.01792	0.983693	8.1476					0.715587	5.94525	0.916146	7.60879		
0.463332	3.80726	0.260235	2.1222	0.850094	7.00155	0.988939	8.12832					0.718235	5.92142	0.921513	7.5946		
0.464634	3.78895	0.262318	2.12306	0.854611	6.98515	0.994192	8.1094					0.72085	5.89768	0.926867	7.58052		
0.465937	3.77092	0.264401	2.1239	0.859092	6.96871	0.999453	8.09082					0.723433	5.87403	0.93221	7.56656		
0.467241	3.75317	0.266484	2.12473	0.863538	6.95223	1.00472	8.07258					0.725983	5.85048	0.937539	7.5527		
0.468545	3.7357	0.268567	2.12555	0.867948	6.93571							0.728503	5.82704	0.942855	7.53894		
0.469852	3.71849	0.27065	2.12636	0.872323	6.91916							0.730992	5.80369	0.948157	7.52527		
0.471159	3.70154	0.272733	2.12715	0.876662	6.90257							0.733451	5.78046	0.953443	7.51168		
0.472468	3.68486	0.274816	2.12794	0.880967	6.88595							0.73588	5.75733	0.958715	7.49817		
0.473779	3.66842	0.276899	2.12871	0.885236	6.86929							0.738281	5.73431	0.96397	7.48473		
0.475091	3.65224	0.278982	2.12947	0.88947	6.85261							0.740654	5.71141	0.969208	7.47135		
0.476406	3.6363	0.281065	2.13022	0.89367	6.83589							0.743	5.68863	0.974429	7.45804		
0.477722	3.62059	0.283147	2.13095	0.897834	6.81915							0.745318	5.66597	0.979633	7.44478		
0.47904	3.60513	0.28523	2.13168	0.901964	6.80238							0.747611	5.64342	0.984819	7.43157		
0.48036	3.58989	0.287313	2.1324	0.90606	6.78559							0.749878	5.621	0.989985	7.4184		
0.481683	3.57488	0.289395	2.1331	0.910121	6.76877							0.75212	5.59871	0.995133	7.40527		
0.483007	3.5601	0.291478	2.1338	0.914149	6.75194							0.754337	5.57654	1.00026	7.39218		
0.484334	3.54553	0.29356	2.13449	0.918142	6.73509							0.75653	5.55449				
0.485664	3.53118	0.295643	2.13516	0.922102	6.71822							0.7587	5.53258				
0.486995	3.51703	0.297725	2.13583	0.926028	6.70134							0.760848	5.5108				
0.48833	3.5031	0.299808	2.13649	0.929921	6.68444							0.762973	5.48915				
0.489666	3.48937	0.30189	2.13714	0.933781	6.66753							0.765076	5.46763				
0.491006	3.47583	0.303972	2.13778	0.937608	6.65061							0.767158	5.44624				
0.492348	3.4625	0.306054	2.13841	0.941402	6.63369							0.769219	5.42499				
0.493692	3.44935	0.308137	2.13904	0.945164	6.61676							0.77126	5.40388				
0.49504	3.4364	0.310219	2.13965	0.948894	6.59982							0.773281	5.3829				
0.49639	3.42363	0.312301	2.14026	0.952593	6.58289							0.775283	5.36206				
0.497743	3.41104	0.314383	2.14086	0.956259	6.56595							0.777266	5.34136				
0.499099	3.39863	0.316465	2.14145	0.959894	6.54901							0.779231	5.32079				
0.500457	3.3864	0.318547	2.14203	0.963499	6.53208							0.781177	5.30036				
0.501819	3.37434	0.320629	2.14261	0.967072	6.51515							0.783107	5.28008				
0.503183	3.36245	0.322711	2.14318	0.970614	6.49823							0.785019	5.25993				
0.504551	3.35072	0.324793	2.14374	0.974127	6.48132							0.786915	5.23992				
0.505921	3.33916	0.326875	2.1443	0.977609	6.46442							0.788794	5.22005				
0.507295	3.32777	0.328957	2.14485	0.981062	6.44752							0.790658	5.20032				
0.508671	3.31653	0.331039	2.14539	0.984485	6.43064							0.792506	5.18073				
0.510051	3.30544	0.33312	2.14592	0.987879	6.41378							0.794339	5.16127				
0.511433	3.29451	0.335202	2.14645	0.991243	6.39693							0.796158	5.14196				
0.512819	3.28373	0.337284	2.14697	0.994579	6.3801							0.797962	5.12279				
0.514208	3.27309	0.339366	2.14748	0.997887	6.36329							0.799753	5.10376				
0.5156	3.26261	0.341447	2.14799	1.00117	6.34649							0.80153	5.08486				
0.516995	3.25226	0.343529	2.1485									0.803294	5.06611				
0.518393	3.24205	0.345611	2.14899									0.805045	5.04749				
0.519794	3.23198	0.347692	2.14948									0.806783	5.02902				
0.521199	3.22205	0.349774	2.14997									0.808509	5.01068				
0.522607	3.21225	0.351855	2.15045									0.810224	4.99248				
0.524017	3.20258	0.353937	2.15092									0.811927	4.97441				
0.525431	3.19304	0.356019	2.15139									0.813619	4.95648				
0.526849	3.18363	0.3581	2.15185									0.815299	4.93869				
0.528269	3.17434	0.360181	2.15231									0.81697	4.92104				
0.529692	3.16518	0.362263	2.15276									0.81863	4.90352				
0.531119	3.15613	0.364344	2.15321									0.820279	4.88613				
0.532549	3.1472	0.366426	2.15365									0.821919	4.86888				
0.533982	3.13839	0.368507	2.15409									0.82355	4.85176				
0.535418	3.12969	0.370588	2.15452									0.825171	4.83477				
0.536858	3.12111	0.37267	2.15495									0.826784	4.81792				
0.538301	3.11264	0.374751	2.15537									0.828387	4.8012				
0.539746	3.10427	0.376832	2.15579									0.829982	4.7846				
0.541195	3.09602	0.378914	2.15621									0.831569	4.76814				
0.542647	3.08787	0.380995	2.15662									0.833148	4.75181				
0.544103	3.07982	0.383076	2.15702									0.834718	4.7356				
0.545561	3.07188	0.385157	2.15742									0.836282	4.71953				
0.547023	3.06403	0.387238	2.15782									0.837838	4.70358				
0.548488	3.05629	0.38932	2.15821									0.839387	4.68775				
0.549956	3.04864	0.391401	2.1586									0.840929	4.67205				
0.551427	3.04109	0.393482	2.15898									0.842464	4.65648				
0.552901	3.03363	0.395563	2.15936									0.843992	4.64103				
0.554378	3.02626	0.397644	2.15974									0.845515	4.6257				
0.555858	3.01899	0.399725	2.16011									0.847031	4.6105				
0.557342	3.01181	0.401806	2.16048									0.848541	4.59541				
0.558829	3.00471	0.403887	2.16084									0.850045	4.58045				
0.560318	2.9977	0.405968	2.1612									0.851544	4.5656				
0.561811	2.99078	0.408049	2.16156									0.853037	4.55087				
0.563307	2.98395	0.41013	2.16191									0.854526	4.53627				
0.564806	2.97719	0.412211	2.16226									0.856009	4.52177				
0.566307	2.97052	0.414292	2.16261									0.857486	4.5074				
0.567812	2.96393	0.416373	2.16295									0.85896	4.49314				
0.56932	2.95742	0.418454	2.16329									0.860428	4.47899				
0.570831	2.95098	0.420535	2.16363									0.861892	4.46496				
0.572345	2.94463	0.422616	2.16396									0.863352	4.45103				
0.573862	2.93835	0.424697	2.16429									0.864808	4.43722				
0.575382	2.93214	0.426777	2.16462									0.866259	4.42353				
0.576904	2.92601	0.428858	2.16494									0.867707	4.40994				
0.57843	2.91995	0.430939	2.16526									0.86915	4.39646				
0.579959	2.91396	0.43302	2.16558									0.87059	4.38308				
0.58149	2.90804	0.435101	2.16589									0.872027	4.36982				
0.583025	2.90219	0.437181	2.16621									0.87346	4.35666				
0.584562	2.89641	0.439262	2.16651									0.87489	4.34361				
0.586102	2.8907	0.441343	2.16682									0.876317	4.33066				
0.587646	2.88505	0.443424	2.16712									0.87774	4.31781				
0.589192	2.87947	0.445504	2.16742									0.879161	4.30507				
0.59074	2.87395	0.447585	2.16772									0.880579	4.29243				
0.592292	2.8685	0.449666	2.16801									0.881994	4.27989				
0.593846	2.86311	0.451747	2.1683									0.883406	4.26745				
0.595403	2.85778	0.453827	2.16859									0.884816	4.25511				
0.596963	2.85251	0.455908	2.16888									0.886224	4.24287				
0.598526	2.8473	0.457988	2.16916									0.887629	4.23072				
0.600092	2.84215	0.460069	2.16944									0.889032	4.21868				
0.60166	2.83706	0.46215	2.16972									0.890432	4.20672				
0.603231	2.83203	0.46423	2.17									0.891831	4.19487				
0.604804	2.82705	0.466311	2.17027									0.893228	4.18311				
0.606381	2.82213	0.468392	2.17054									0.894623	4.17144				
0.60796	2.81726	0.470472	2.17081									0.896016	4.15986				
0.609541	2.81245	0.472553	2.17108									0.897407	4.14838				
0.611126	2.80769	0.474633	2.17134									0.898797	4.13698				
0.612713	2.80298	0.476714	2.17161									0.900185	4.12568				
0.614302	2.79832	0.478794	2.17187									0.901572	4.11447				
0.615894	2.79372	0.480875	2.17212									0.902957	4.10334				
0.617489	2.78917	0.482955	2.17238									0.904341	4.0923				
0.619086	2.78466	0.485036	2.17263									0.905724	4.08135				
0.620686	2.78021	0.487116	2.17288									0.907105	4.07049				
0.622289	2.7758	0.489197	2.17313									0.908486	4.05971				
0.623894	2.77144	0.491277	2.17338									0.909865	4.04902				
0.625501	2.76713	0.493358	2.17362									0.911243	4.03841				
0.627111	2.76286	0.495438	2.17387									0.912621	4.02788				
0.628724	2.75864	0.497518	2.17411									0.913997	4.01744				
0.630338	2.75447	0.499599	2.17434									0.915373	4.00707				
0.631956	2.75034	0.501679	2.17458									0.916748	3.99679				
0.633576	2.74625	0.50376	2.17482									0.918122	3.98659				
0.635198	2.74221	0.50584	2.17505									0.919496	3.97647				
0.636823	2.73821	0.50792	2.17528									0.920869	3.96642				
0.63845	2.73425	0.510001	2.17551									0.922242	3.95646				
0.640079	2.73034	0.512081	2.17574									0.923614	3.94657				
0.641711	2.72646	0.514162	2.17596									0.924986	3.93676				
0.643345	2.72263	0.516242	2.17618									0.926357	3.92702				
0.644982	2.71883	0.518322	2.17641									0.927728	3.91736				
0.646621	2.71508	0.520403	2.17663									0.929099	3.90778				
0.648262	2.71136	0.522483	2.17684									0.930469	3.89827				
0.649905	2.70769	0.524563	2.17706									0.931839	3.88883				
0.651551	2.70405	0.526643	2.17727									0.93321	3.87946				
0.653199	2.70044	0.528724	2.17749									0.93458	3.87017				
0.654849	2.69688	0.530804	2.1777									0.93595	3.86094				
0.656502	2.69335	0.532884	2.17791									0.93732	3.85179				
0.658157	2.68986	0.534965	2.17812									0.93869	3.84271				
0.659813	2.6864	0.537045	2.17832									0.94006	3.8337				
0.661473	2.68298	0.539125	2.17853									0.94143	3.82475				
0.663134	2.67959	0.541205	2.17873									0.9428	3.81587				
0.664798	2.67624	0.543286	2.17893									0.944171	3.80707				
0.666463	2.67292	0.545366	2.17913									0.945542	3.79832				
0.668131	2.66963	0.547446	2.17933									0.946913	3.78965				
0.669801	2.66638	0.549526	2.17953									0.948284	3.78104				
0.671473	2.66316	0.551606	2.17973									0.949655	3.77249				
0.673147	2.65997	0.553687	2.17992									0.951027	3.76401				
0.674824	2.65681	0.555767	2.18011									0.9524	3.75559				
0.676502	2.65368	0.557847	2.1803									0.953772	3.74724				
0.678183	2.65059	0.559927	2.18049									0.955145	3.73895				
0.679865	2.64752	0.562007	2.18068									0.956519	3.73072				
0.68155	2.64449	0.564087	2.18087									0.957893	3.72255				
0.683236	2.64148	0.566168	2.18106									0.959268	3.71444				
0.684925	2.63851	0.568248	2.18124									0.960643	3.7064				
0.686616	2.63556	0.570328	2.18142									0.962019	3.69841				
0.688308	2.63264	0.572408	2.18161									0.963395	3.69048				
0.690003	2.62975	0.574488	2.18179									0.964772	3.68261				
0.691699	2.62689	0.576568	2.18197									0.96615	3.6748				
0.693398	2.62406	0.578648	2.18214									0.967528	3.66705				
0.695098	2.62125	0.580728	2.18232									0.968907	3.65935				
0.696801	2.61847	0.582808	2.18249									0.970287	3.65172				
0.698505	2.61572	0.584888	2.18267									0.971667	3.64413				
0.700211	2.61299	0.586969	2.18284									0.973048	3.63661				
0.701919	2.61029	0.589049	2.18301									0.974431	3.62913				
0.703629	2.60761	0.591129	2.18318									0.975813	3.62172				
0.705341	2.60496	0.593209	2.18335									0.977197	3.61435				
0.707055	2.60234	0.595289	2.18352									0.978582	3.60705				
0.70877	2.59974	0.597369	2.18369									0.979967	3.59979				
0.710488	2.59716	0.599449	2.18385									0.981353	3.59259				
0.712207	2.59461	0.601529	2.18402									0.98274	3.58543				
0.713928	2.59208	0.603609	2.18418									0.984128	3.57834				
0.715651	2.58957	0.605689	2.18434									0.985517	3.57129				
0.717375	2.58709	0.607769	2.18451									0.986907	3.56429				
0.719102	2.58463	0.609849	2.18467									0.988298	3.55734				
0.72083	2.5822	0.611929	2.18483									0.98969	3.55045				
0.72256	2.57978	0.614009	2.18498									0.991083	3.5436				
0.724291	2.57739	0.616089	2.18514									0.992477	3.5368				
0.726025	2.57502	0.618169	2.1853									0.993872	3.53005				
0.72776	2.57268	0.620249	2.18545									0.995268	3.52335				
0.729496	2.57035	0.622329	2.1856									0.996665	3.5167				
0.731235	2.56805	0.624409	2.18576									0.998063	3.51009				
0.732975	2.56576	0.626489	2.18591									0.999463	3.50353				
0.734717	2.5635	0.628569	2.18606									1.00086	3.49702				
0.73646	2.56126	0.630649	2.18621														
0.738206	2.55903	0.632728	2.18636														
0.739952	2.55683	0.634808	2.18651														
0.741701	2.55465	0.636888	2.18665														
0.743451	2.55248	0.638968	2.1868														
0.745203	2.55034	0.641048	2.18694														
0.746956	2.54822	0.643128	2.18709														
0.748711	2.54611	0.645208	2.18723														
0.750467	2.54402	0.647288	2.18737														
0.752225	2.54195	0.649368	2.18751														
0.753985	2.5399	0.651448	2.18765														
0.755746	2.53787	0.653528	2.18779														
0.757508	2.53586	0.655607	2.18793														
0.759273	2.53386	0.657687	2.18807														
0.761038	2.53188	0.659767	2.18821														
0.762806	2.52992	0.661847	2.18834														
0.764574	2.52797	0.663927	2.18848														
0.766345	2.52604	0.666007	2.18861														
0.768116	2.52413	0.668086	2.18875														
0.769889	2.52223	0.670166	2.18888														
0.771664	2.52036	0.672246	2.18901														
0.77344	2.51849	0.674326	2.18914														
0.775218	2.51665	0.676406	2.18927														
0.776997	2.51481	0.678486	2.1894														
0.778777	2.513	0.680565	2.18953														
0.780559	2.5112	0.682645	2.18966														
0.782342	2.50941	0.684725	2.18978														
0.784127	2.50764	0.686805	2.18991														
0.785913	2.50589	0.688885	2.19003														
0.7877	2.50415	0.690964	2.19016														
0.789489	2.50242	0.693044	2.19028														
0.791279	2.50071	0.695124	2.19041														
0.793071	2.49902	0.697204	2.19053														
0.794864	2.49734	0.699283	2.19065														
0.796658	2.49567	0.701363	2.19077														
0.798453	2.49401	0.703443	2.19089														
0.80025	2.49237	0.705523	2.19101														
0.802048	2.49074	0.707602	2.19113														
0.803848	2.48913	0.709682	2.19125														
0.805649	2.48753	0.711762	2.19137														
0.807451	2.48594	0.713842	2.19148														
0.809254	2.48437	0.715921	2.1916														
0.811059	2.48281	0.718001	2.19171														
0.812865	2.48126	0.720081	2.19183														
0.814672	2.47972	0.72216	2.19194														
0.81648	2.4782	0.72424	2.19206														
0.81829	2.47669	0.72632	2.19217														
0.820101	2.47519	0.7284	2.19228														
0.821913	2.4737	0.730479	2.19239														
0.823726	2.47223	0.732559	2.1925														
0.825541	2.47076	0.734639	2.19261														
0.827356	2.46931	0.736718	2.19272														
0.829173	2.46787	0.738798	2.19283														
0.830991	2.46645	0.740878	2.19294														
0.832811	2.46503	0.742957	2.19305														
0.834631	2.46362	0.745037	2.19316														
0.836453	2.46223	0.747117	2.19326														
0.838276	2.46085	0.749196	2.19337														
0.8401	2.45947	0.751276	2.19347														
0.841925	2.45811	0.753356	2.19358														
0.843751	2.45676	0.755435	2.19368														
0.845578	2.45542	0.757515	2.19379														
0.847407	2.45409	0.759595	2.19389														
0.849237	2.45277	0.761674	2.19399														
0.851067	2.45146	0.763754	2.19409														
0.852899	2.45016	0.765833	2.1942														
0.854732	2.44887	0.767913	2.1943														
0.856566	2.44759	0.769993	2.1944														
0.858401	2.44633	0.772072	2.1945														
0.860237	2.44507	0.774152	2.1946														
0.862075	2.44382	0.776231	2.19469														
0.863913	2.44258	0.778311	2.19479														
0.865752	2.44135	0.780391	2.19489														
0.867593	2.44013	0.78247	2.19499														
0.869434	2.43891	0.78455	2.19508														
0.871277	2.43771	0.786629	2.19518														
0.87312	2.43652	0.788709	2.19528														
0.874965	2.43533	0.790788	2.19537														
0.876811	2.43416	0.792868	2.19547														
0.878657	2.43299	0.794948	2.19556														
0.880505	2.43183	0.797027	2.19565														
0.882354	2.43069	0.799107	2.19575														
0.884203	2.42954	0.801186	2.19584														
0.886054	2.42841	0.803266	2.19593														
0.887905	2.42729	0.805345	2.19602														
0.889758	2.42617	0.807425	2.19611														
0.891612	2.42507	0.809504	2.1962														
0.893466	2.42397	0.811584	2.19629														
0.895322	2.42288	0.813664	2.19638														
0.897178	2.4218	0.815743	2.19647														
0.899035	2.42072	0.817823	2.19656														
0.900894	2.41966	0.819902	2.19665														
0.902753	2.4186	0.821982	2.19674														
0.904613	2.41755	0.824061	2.19683														
0.906474	2.4165	0.826141	2.19691														
0.908336	2.41547	0.82822	2.197														
0.910199	2.41444	0.8303	2.19709														
0.912063	2.41342	0.832379	2.19717														
0.913928	2.41241	0.834459	2.19726														
0.915794	2.4114	0.836538	2.19734														
0.91766	2.4104	0.838618	2.19743														
0.919528	2.40941	0.840697	2.19751														
0.921396	2.40843	0.842777	2.19759														
0.923265	2.40745	0.844856	2.19768														
0.925136	2.40648	0.846936	2.19776														
0.927007	2.40552	0.849015	2.19784														
0.928878	2.40456	0.851094	2.19792														
0.930751	2.40361	0.853174	2.19801														
0.932625	2.40267	0.855253	2.19809														
0.934499	2.40173	0.857333	2.19817														
0.936374	2.4008	0.859412	2.19825														
0.93825	2.39988	0.861492	2.19833														
0.940127	2.39897	0.863571	2.19841														
0.942005	2.39806	0.865651	2.19849														
0.943884	2.39715	0.86773	2.19857														
0.945763	2.39626	0.869809	2.19864														
0.947643	2.39537	0.871889	2.19872														
0.949524	2.39448	0.873968	2.1988														
0.951406	2.3936	0.876048	2.19888														
0.953289	2.39273	0.878127	2.19896														
0.955172	2.39186	0.880207	2.19903														
0.957057	2.391	0.882286	2.19911														
0.958942	2.39015	0.884365	2.19918														
0.960827	2.3893	0.886445	2.19926														
0.962714	2.38846	0.888524	2.19933														
0.964601	2.38762	0.890604	2.19941														
0.966489	2.38679	0.892683	2.19948														
0.968378	2.38597	0.894762	2.19956														
0.970268	2.38515	0.896842	2.19963														
0.972158	2.38433	0.898921	2.19971														
0.97405	2.38353	0.901001	2.19978														
0.975941	2.38272	0.90308	2.19985														
0.977834	2.38193	0.905159	2.19992														
0.979727	2.38113	0.907239	2.2														
0.981622	2.38035	0.909318	2.20007														
0.983517	2.37957	0.911397	2.20014														
0.985412	2.37879	0.913477	2.20021														
0.987308	2.37802	0.915556	2.20028														
0.989205	2.37725	0.917636	2.20035														
0.991103	2.37649	0.919715	2.20042														
0.993002	2.37574	0.921794	2.20049														
0.994901	2.37499	0.923874	2.20056														
0.996801	2.37424	0.925953	2.20063														
0.998701	2.3735	0.928032	2.2007														
1.0006	2.37277	0.930112	2.20077														
		0.932191	2.20083														
		0.93427	2.2009														
		0.93635	2.20097														
		0.938429	2.20104														
		0.940508	2.2011														
		0.942588	2.20117														
		0.944667	2.20124														
		0.946746	2.2013														
		0.948826	2.20137														
		0.950905	2.20143														
		0.952984	2.2015														
		0.955063	2.20157														
		0.957143	2.20163														
		0.959222	2.20169														
		0.961301	2.20176														
		0.963381	2.20182														
		0.96546	2.20189														
		0.967539	2.20195														
		0.969618	2.20201														
		0.971698	2.20207														
		0.973777	2.20214														
		0.975856	2.2022														
		0.977936	2.20226														
		0.980015	2.20232														
		0.982094	2.20238														
		0.984173	2.20245														
		0.986253	2.20251														
		0.988332	2.20257														
		0.990411	2.20263														
		0.99249	2.20269														
		0.99457	2.20275														
		0.996649	2.20281														
		0.998728	2.20287														
		1.00081	2.20292														
