Sym0		Asym0		Sym1		Sym2		Sym3		Sym4		Asym1		Asym2		Asym3	
456  Points		492  Points		170  Points		138  Points		121  Points		91  Points		299  Points		150  Points		120  Points	
Freq (MHz)	Vph (m/ms)	Freq (MHz)	Vph (m/ms)	Freq (MHz)	Vph (m/ms)	Freq (MHz)	Vph (m/ms)	Freq (MHz)	Vph (m/ms)	Freq (MHz)	Vph (m/ms)	Freq (MHz)	Vph (m/ms)	Freq (MHz)	Vph (m/ms)	Freq (MHz)	Vph (m/ms)
4.87159e-005	7.43879	0.000346525	0.19301	0.279576	305.455	0.528335	768.382	0.559017	11958.5	0.838534	1577.65	0.139924	154.666	0.419282	720.406	0.698783	1191.77
0.00698363	7.4433	0.000794534	0.291351	0.279784	151.482	0.528377	326.302	0.559069	571.387	0.838587	573.118	0.140453	76.4836	0.419394	277.065	0.698849	460.363
0.0139174	7.4427	0.00141805	0.387577	0.280131	100.815	0.528453	207.157	0.559214	292.761	0.838691	350.199	0.141336	51.0593	0.419606	171.59	0.698974	285.327
0.0208489	7.44168	0.00220835	0.481074	0.280618	75.6308	0.528564	151.769	0.559452	196.863	0.838844	252.163	0.142565	38.5333	0.419918	124.343	0.699157	206.764
0.0277771	7.44031	0.00315491	0.571319	0.281242	60.5857	0.528711	119.77	0.559782	148.345	0.839047	197.039	0.144127	31.1191	0.420328	97.5514	0.699399	162.156
0.0347008	7.43851	0.00424628	0.657945	0.282004	50.5949	0.528894	98.9314	0.560205	119.06	0.8393	161.715	0.146011	26.246	0.420838	80.3051	0.699699	133.408
0.041619	7.43632	0.00547001	0.740638	0.282901	43.4867	0.529115	84.284	0.560718	99.4725	0.839603	137.152	0.1482	22.8181	0.421446	68.2815	0.700057	113.342
0.0485304	7.43371	0.0068137	0.819227	0.283932	38.1775	0.529375	73.4278	0.561322	85.4552	0.839956	119.086	0.150679	20.2893	0.422152	59.4256	0.700474	98.5444
0.0554338	7.4307	0.00826491	0.893606	0.285095	34.0662	0.529675	65.0615	0.562014	74.9322	0.840358	105.241	0.153431	18.3568	0.422955	52.6353	0.700949	87.1837
0.0623281	7.42726	0.00981172	0.963764	0.286388	30.7926	0.530018	58.418	0.562794	66.7451	0.84081	94.2954	0.156438	16.8395	0.423855	47.2669	0.701482	78.1891
0.0692119	7.42339	0.0114429	1.02975	0.287808	28.1276	0.530404	53.0163	0.563661	60.1964	0.841311	85.4257	0.159683	15.622	0.424851	42.9188	0.702072	70.8928
0.0760842	7.41909	0.0131479	1.09166	0.289354	25.9187	0.530836	48.5392	0.564612	54.8413	0.841862	78.0937	0.163149	14.6279	0.425942	39.3275	0.70272	64.8566
0.0829433	7.41433	0.0149173	1.14963	0.291023	24.0602	0.531315	44.769	0.565647	50.3824	0.842462	71.9325	0.166822	13.804	0.427128	36.3131	0.703426	59.7811
0.0897882	7.40913	0.0167423	1.20384	0.292812	22.4768	0.531843	41.5515	0.566764	46.6136	0.843111	66.6831	0.170685	13.1128	0.428407	33.7487	0.704188	55.455
0.0966172	7.40346	0.0186154	1.25448	0.294719	21.1131	0.532423	38.7743	0.567962	43.3874	0.843809	62.158	0.174725	12.5265	0.429778	31.5417	0.705008	51.7244
0.103429	7.3973	0.0205295	1.30174	0.296739	19.9278	0.533055	36.3537	0.569239	40.5956	0.844556	58.2174	0.178927	12.0246	0.431241	29.6234	0.705884	48.4752
0.110222	7.39066	0.0224787	1.34583	0.298872	18.8892	0.533742	34.2258	0.570594	38.157	0.845352	54.7556	0.182712	11.6436	0.432794	27.9418	0.706817	45.6204
0.116994	7.3835	0.0244576	1.38694	0.301113	17.9725	0.534485	32.3413	0.572026	36.0092	0.846196	51.6909	0.186023	11.3539	0.434437	26.4564	0.707806	43.0928
0.123745	7.37583	0.0264618	1.42529	0.303459	17.1584	0.535287	30.6612	0.573534	34.1039	0.847088	48.9589	0.188816	11.1354	0.436167	25.1357	0.708852	40.8399
0.130471	7.36761	0.0284871	1.46106	0.305909	16.4313	0.536149	29.1547	0.575115	32.4028	0.848029	46.5089	0.191059	10.9747	0.437984	23.9542	0.709952	38.8195
0.137172	7.35884	0.0302667	1.49027	0.308457	15.7785	0.537073	27.7967	0.57677	30.8753	0.849018	44.2995	0.192725	10.8628	0.439886	22.8918	0.711108	36.9979
0.143845	7.34948	0.0317929	1.51383	0.311103	15.1899	0.538062	26.5668	0.578496	29.4965	0.850055	42.2974	0.1938	10.7938	0.441873	21.9318	0.712319	35.3474
0.150488	7.33953	0.0330605	1.53243	0.313842	14.6569	0.539116	25.4482	0.580293	28.2463	0.851139	40.4749	0.195355	10.6981	0.443942	21.0606	0.713585	33.8454
0.1571	7.32895	0.0340659	1.54659	0.316673	14.1725	0.540238	24.4268	0.58216	27.1078	0.85227	38.8092	0.19706	10.5983	0.446093	20.2668	0.714905	32.4731
0.163677	7.31771	0.0348069	1.55671	0.319592	13.7306	0.54143	23.4911	0.584096	26.0671	0.853449	37.2812	0.1994	10.4693	0.448323	19.541	0.716279	31.2145
0.170218	7.30581	0.0352817	1.56306	0.322597	13.3263	0.542692	22.6311	0.586099	25.1123	0.854674	35.8747	0.202395	10.3166	0.450633	18.8751	0.717706	30.0563
0.176719	7.2932	0.0359652	1.57202	0.325686	12.9552	0.544028	21.8383	0.588169	24.2336	0.855946	34.5759	0.206066	10.1458	0.453019	18.2624	0.719187	28.9873
0.183178	7.27986	0.0367092	1.58154	0.328856	12.6138	0.545438	21.1056	0.590305	23.4225	0.857265	33.3732	0.210439	9.9628	0.455481	17.697	0.720721	27.9977
0.189593	7.26576	0.0377227	1.59412	0.332106	12.299	0.546925	20.4267	0.592506	22.6717	0.85863	32.2563	0.215538	9.77313	0.458017	17.1738	0.722307	27.0793
0.19596	7.25086	0.0390071	1.60947	0.335433	12.0079	0.54849	19.7962	0.594772	21.9749	0.860041	31.2167	0.220718	9.60233	0.460626	16.6887	0.723944	26.2246
0.202275	7.23513	0.0405635	1.62723	0.338394	11.7717	0.550134	19.2096	0.5971	21.3268	0.861497	30.2467	0.225971	9.44792	0.463307	16.2377	0.725634	25.4277
0.208537	7.21854	0.0423933	1.64699	0.340964	11.5823	0.55186	18.6627	0.599492	20.7227	0.862999	29.3397	0.231293	9.30784	0.466057	15.8175	0.727374	24.6828
0.214741	7.20104	0.0444973	1.66834	0.343119	11.4332	0.553668	18.152	0.601945	20.1582	0.864546	28.4898	0.236677	9.18031	0.468876	15.4254	0.729165	23.9852
0.220883	7.18261	0.0466049	1.68838	0.344843	11.32	0.555561	17.6741	0.60446	19.63	0.866137	27.6921	0.242119	9.06383	0.471761	15.0588	0.731007	23.3308
0.22696	7.1632	0.0487154	1.70722	0.346122	11.2392	0.557539	17.2265	0.607035	19.1347	0.867773	26.9418	0.247614	8.95712	0.474712	14.7153	0.732898	22.7157
0.232968	7.14278	0.050828	1.72493	0.346945	11.1885	0.559604	16.8065	0.60967	18.6694	0.869454	26.2351	0.253157	8.85906	0.477727	14.3931	0.734838	22.1366
0.238902	7.1213	0.052942	1.74161	0.348135	11.1171	0.561757	16.4119	0.612365	18.2318	0.871178	25.5683	0.258744	8.76869	0.480804	14.0903	0.736827	21.5905
0.244759	7.09874	0.0550572	1.75732	0.349437	11.0414	0.564	16.0408	0.615118	17.8195	0.872946	24.9383	0.264372	8.6852	0.483942	13.8053	0.738865	21.0749
0.250535	7.07506	0.0571729	1.77215	0.351223	10.9414	0.566333	15.6914	0.61793	17.4305	0.874757	24.3421	0.270037	8.60783	0.487141	13.5368	0.74095	20.5872
0.256224	7.05022	0.059289	1.78616	0.353506	10.8196	0.568758	15.362	0.620799	17.063	0.876611	23.7773	0.275736	8.53598	0.490397	13.2834	0.743083	20.1255
0.261822	7.02419	0.0614051	1.79941	0.356303	10.679	0.571274	15.0512	0.623726	16.7154	0.878508	23.2414	0.281465	8.46907	0.493711	13.0439	0.745263	19.6877
0.267326	6.99696	0.063521	1.81194	0.359635	10.5228	0.573884	14.7577	0.626709	16.3862	0.880447	22.7324	0.287222	8.40661	0.49708	12.8174	0.747489	19.2722
0.272731	6.96849	0.0656365	1.82381	0.363525	10.3543	0.576587	14.4803	0.629749	16.0741	0.882428	22.2483	0.293003	8.34818	0.500503	12.6029	0.74976	18.8773
0.278033	6.93878	0.0677515	1.83508	0.367487	10.1966	0.579383	14.2178	0.632845	15.7779	0.88445	21.7875	0.298807	8.29338	0.503979	12.3996	0.752077	18.5016
0.283228	6.90781	0.069866	1.84577	0.371522	10.0488	0.582274	13.9694	0.635996	15.4965	0.886514	21.3484	0.30463	8.24187	0.507508	12.2066	0.754439	18.1439
0.288313	6.87559	0.0719797	1.85593	0.375629	9.91012	0.585258	13.734	0.639202	15.2289	0.888619	20.9295	0.31047	8.19335	0.510623	12.0463	0.756846	17.8029
0.293284	6.84211	0.0740927	1.86559	0.37981	9.78003	0.588337	13.5108	0.642463	14.9742	0.890765	20.5295	0.316326	8.14754	0.513309	11.9151	0.759296	17.4775
0.298139	6.80741	0.0762049	1.87479	0.384065	9.6579	0.591509	13.2991	0.645779	14.7316	0.892951	20.1473	0.322193	8.1042	0.51555	11.8102	0.761789	17.1667
0.302874	6.77149	0.0783162	1.88356	0.388395	9.5432	0.594774	13.0982	0.649149	14.5003	0.895176	19.7816	0.328072	8.0631	0.517335	11.7295	0.764326	16.8697
0.30749	6.7344	0.0804266	1.89192	0.392801	9.43546	0.598132	12.9073	0.652574	14.2796	0.897442	19.4316	0.333959	8.02406	0.518655	11.6714	0.766904	16.5855
0.311983	6.69617	0.0825361	1.89991	0.397283	9.33422	0.601581	12.7259	0.656052	14.0689	0.899746	19.0963	0.339853	7.98688	0.519503	11.6347	0.769525	16.3135
0.316354	6.65686	0.0846449	1.90754	0.401842	9.23908	0.605121	12.5533	0.659585	13.8676	0.902089	18.7748	0.345752	7.95141	0.520725	11.5827	0.772186	16.0528
0.320602	6.61653	0.0867527	1.91484	0.406477	9.14965	0.60875	12.3891	0.663172	13.6751	0.904471	18.4663	0.351654	7.91749	0.52206	11.527	0.774889	15.8029
0.324727	6.57523	0.0888596	1.92182	0.411189	9.06559	0.611983	12.2525	0.666812	13.491	0.906891	18.17	0.357558	7.885	0.523885	11.4529	0.777631	15.5632
0.328731	6.53305	0.0909658	1.92851	0.415977	8.98655	0.614792	12.1405	0.670507	13.3147	0.909349	17.8854	0.36346	7.85381	0.526208	11.3615	0.780414	15.3329
0.332614	6.49006	0.093071	1.93492	0.42084	8.91222	0.61715	12.0509	0.674256	13.146	0.911844	17.6118	0.369361	7.82381	0.52904	11.2545	0.783235	15.1117
0.336379	6.44634	0.0951755	1.94108	0.425777	8.8423	0.619037	11.9818	0.678059	12.9842	0.914376	17.3485	0.375259	7.79489	0.532393	11.1335	0.786096	14.8991
0.340029	6.40197	0.0972791	1.94698	0.430786	8.77652	0.620437	11.9321	0.681917	12.8292	0.916945	17.095	0.381151	7.76696	0.536281	11.0005	0.788994	14.6946
0.343565	6.35703	0.099382	1.95266	0.435866	8.7146	0.621338	11.9007	0.685829	12.6806	0.91955	16.8509	0.387036	7.73994	0.540211	10.8733	0.79193	14.4977
0.346991	6.31161	0.101484	1.95812	0.441014	8.65629	0.622641	11.8561	0.689797	12.5379	0.922191	16.6156	0.392913	7.71375	0.544183	10.7516	0.794904	14.3081
0.35031	6.26579	0.103586	1.96337	0.446229	8.60134	0.624068	11.8085	0.6933	12.4184	0.924868	16.3887	0.39878	7.6883	0.548195	10.6351	0.797914	14.1254
0.353525	6.21966	0.105686	1.96843	0.451506	8.54952	0.626024	11.7449	0.69632	12.3197	0.927579	16.1698	0.404636	7.66354	0.552246	10.5235	0.800961	13.9492
0.35664	6.17328	0.107786	1.9733	0.456844	8.50062	0.628525	11.6666	0.698841	12.2404	0.930326	15.9585	0.410479	7.6394	0.556336	10.4165	0.804043	13.7793
0.35966	6.12673	0.109886	1.97799	0.462238	8.45442	0.631588	11.5747	0.700849	12.179	0.933107	15.7544	0.416307	7.61582	0.560465	10.3139	0.807161	13.6154
0.362587	6.0801	0.111985	1.98252	0.467686	8.41074	0.635235	11.4709	0.702334	12.1347	0.935923	15.5572	0.42212	7.59275	0.56463	10.2154	0.810313	13.457
0.365425	6.03343	0.114083	1.98689	0.473184	8.36938	0.639488	11.3566	0.703289	12.1066	0.938772	15.3666	0.427916	7.57013	0.568832	10.1208	0.8135	13.3041
0.368179	5.9868	0.11618	1.99112	0.478729	8.33018	0.643812	11.2473	0.704666	12.0667	0.941654	15.1822	0.433693	7.54793	0.573071	10.03	0.816721	13.1563
0.370851	5.94026	0.118277	1.9952	0.484317	8.29297	0.648203	11.1426	0.70617	12.024	0.94457	15.0039	0.43945	7.52608	0.577344	9.94262	0.819975	13.0134
0.373447	5.89387	0.120374	1.99914	0.489945	8.2576	0.652659	11.0424	0.708227	11.9668	0.947518	14.8312	0.445186	7.50456	0.581653	9.85864	0.823262	12.8752
0.375968	5.84768	0.12247	2.00296	0.495609	8.22393	0.657177	10.9463	0.710849	11.896	0.950499	14.664	0.450898	7.48333	0.585995	9.77784	0.826153	12.7584
0.378419	5.80174	0.124565	2.00665	0.501307	8.19183	0.661753	10.8541	0.714049	11.8128	0.953511	14.502	0.456586	7.46234	0.590372	9.70007	0.828637	12.6615
0.380804	5.75607	0.12666	2.01023	0.507034	8.16117	0.666383	10.7655	0.717845	11.7182	0.956555	14.3451	0.462249	7.44157	0.594782	9.62518	0.830704	12.583
0.383125	5.71073	0.128755	2.0137	0.512789	8.13185	0.671066	10.6804	0.722258	11.6136	0.959631	14.1929	0.467884	7.42099	0.599225	9.55305	0.832347	12.5221
0.385385	5.66574	0.130849	2.01706	0.518567	8.10375	0.675796	10.5985	0.726731	11.513	0.962737	14.0453	0.473491	7.40055	0.603701	9.48353	0.83356	12.4778
0.387589	5.62114	0.132942	2.02032	0.524367	8.07679	0.680571	10.5197	0.731266	11.4164	0.965874	13.9021	0.479067	7.38024	0.608208	9.41653	0.834338	12.4498
0.389738	5.57695	0.135036	2.02348	0.530185	8.05087	0.685388	10.4437	0.735865	11.3235	0.969042	13.7631	0.484613	7.36003	0.612748	9.35191	0.83546	12.4099
0.391835	5.5332	0.137129	2.02655	0.536019	8.02591	0.690242	10.3705	0.740527	11.2341	0.972239	13.6282	0.490126	7.3399	0.617319	9.28958	0.836683	12.3669
0.393884	5.4899	0.139221	2.02953	0.541867	8.00184	0.69513	10.2997	0.745254	11.1483	0.975466	13.4971	0.495604	7.31981	0.621922	9.22944	0.838353	12.3092
0.395887	5.44707	0.141313	2.03242	0.547726	7.97858	0.700049	10.2314	0.750047	11.0657	0.978722	13.3698	0.501048	7.29976	0.626555	9.1714	0.840475	12.2376
0.397845	5.40474	0.143405	2.03523	0.553593	7.95608	0.704996	10.1653	0.754906	10.9864	0.982007	13.2461	0.506454	7.27971	0.63122	9.11536	0.843056	12.1527
0.399518	5.36825	0.145497	2.03797	0.559468	7.93427	0.709967	10.1012	0.759834	10.9102	0.984892	13.1411	0.511823	7.25966	0.635915	9.06125	0.846105	12.0555
0.40092	5.33746	0.147588	2.04063	0.565348	7.91309	0.71496	10.0392	0.764829	10.8369	0.98737	13.0536	0.517152	7.23958	0.64064	9.00897	0.849632	11.9472
0.402064	5.31221	0.149679	2.04322	0.571231	7.89251	0.719971	9.97899	0.769893	10.7666	0.98943	12.9826	0.522441	7.21946	0.645395	8.95847	0.853188	11.8421
0.402959	5.29238	0.151769	2.04574	0.577115	7.87247	0.724997	9.92055	0.775027	10.699	0.991066	12.9273	0.527689	7.19928	0.650181	8.90967	0.856774	11.74
0.403611	5.27789	0.153859	2.04819	0.582999	7.85293	0.730036	9.86375	0.780231	10.634	0.992274	12.8872	0.532893	7.17904	0.654995	8.8625	0.860388	11.6409
0.404026	5.26864	0.155949	2.05058	0.588881	7.83385	0.735086	9.80851	0.785506	10.5717	0.993048	12.8617	0.538054	7.15871	0.659839	8.81689	0.86403	11.5447
0.40462	5.25541	0.158039	2.05291	0.59476	7.8152	0.740144	9.75473	0.79085	10.5118	0.994164	12.8253	0.54317	7.13829	0.664713	8.77279	0.8677	11.4511
0.405261	5.24108	0.160129	2.05518	0.600635	7.79693	0.745208	9.70234	0.796266	10.4543	0.995381	12.7861	0.54824	7.11776	0.669615	8.73014	0.871397	11.3602
0.406126	5.22171	0.162218	2.05739	0.606503	7.77903	0.750278	9.65127	0.801751	10.3991	0.99704	12.7334	0.553263	7.09713	0.674545	8.68888	0.875122	11.2719
0.40721	5.19739	0.164307	2.05955	0.612365	7.76146	0.75535	9.60144	0.807306	10.3462	0.999149	12.6677	0.558238	7.07638	0.679504	8.64895	0.878873	11.186
0.408504	5.16826	0.166396	2.06165	0.618218	7.74419	0.760424	9.55281	0.812931	10.2953	1.00171	12.5897	0.563165	7.0555	0.684491	8.61032	0.882651	11.1024
0.410001	5.13446	0.168484	2.06371	0.624061	7.72721	0.7655	9.50531	0.818624	10.2465			0.568042	7.03449	0.689505	8.57292	0.886455	11.0211
0.411693	5.09619	0.170573	2.06571	0.629894	7.71048	0.770575	9.45891	0.824385	10.1997			0.572869	7.01335	0.694546	8.53671	0.890285	10.942
0.413358	5.05846	0.172661	2.06767	0.635715	7.69399	0.77565	9.41354	0.830212	10.1547			0.577646	6.99207	0.699614	8.50164	0.894141	10.8649
0.414997	5.02127	0.174749	2.06958	0.641524	7.67771	0.780724	9.36918	0.836105	10.1115			0.582371	6.97066	0.704708	8.46767	0.898021	10.7899
0.416613	4.98463	0.176837	2.07145	0.647319	7.66164	0.785796	9.32578	0.842061	10.0701			0.587044	6.9491	0.709827	8.43476	0.901927	10.7169
0.418206	4.94852	0.178924	2.07328	0.653099	7.64574	0.790868	9.28332	0.84808	10.0303			0.591665	6.9274	0.714972	8.40286	0.905857	10.6457
0.419778	4.91296	0.181011	2.07506	0.658864	7.63001	0.795938	9.24176	0.85416	9.99215			0.596234	6.90556	0.720141	8.37194	0.909811	10.5764
0.421329	4.87793	0.183099	2.07681	0.664613	7.61442	0.801007	9.20108	0.8603	9.95546			0.600749	6.88358	0.725334	8.34196	0.913789	10.5088
0.422862	4.84343	0.185186	2.07852	0.670344	7.59898	0.806075	9.16126	0.866496	9.92021			0.605212	6.86146	0.730551	8.31288	0.917791	10.443
0.424377	4.80946	0.187273	2.08019	0.676058	7.58365	0.811143	9.12226	0.872749	9.88634			0.609621	6.83921	0.73579	8.28466	0.921817	10.3787
0.425876	4.77601	0.189359	2.08182	0.681753	7.56843	0.816211	9.08407	0.879055	9.85378			0.613977	6.81682	0.74105	8.25727	0.925865	10.3161
0.427358	4.74308	0.191446	2.08342	0.687428	7.55331	0.821279	9.04667	0.885413	9.82246			0.618279	6.79431	0.746332	8.23067	0.929937	10.255
0.428826	4.71066	0.193532	2.08499	0.693084	7.53828	0.826348	9.01004	0.891822	9.79235			0.622528	6.77167	0.751634	8.20484	0.934031	10.1954
0.43028	4.67875	0.195619	2.08652	0.698718	7.52332	0.831419	8.97416	0.898278	9.76336			0.626724	6.74891	0.756955	8.17973	0.938147	10.1372
0.431721	4.64733	0.197705	2.08802	0.704331	7.50843	0.836492	8.93902	0.904782	9.73546			0.630867	6.72604	0.762294	8.15532	0.942286	10.0805
0.43315	4.61641	0.199791	2.08949	0.709921	7.4936	0.841567	8.9046	0.91133	9.70859			0.634957	6.70306	0.767652	8.13159	0.946446	10.0251
0.434567	4.58598	0.201877	2.09093	0.715488	7.47882	0.846645	8.87088	0.917921	9.68269			0.638994	6.67998	0.773026	8.10849	0.950628	9.97096
0.435974	4.55603	0.203963	2.09234	0.721032	7.46407	0.851728	8.83786	0.924553	9.65774			0.642979	6.6568	0.778416	8.086	0.954832	9.91812
0.437371	4.52655	0.206048	2.09373	0.726552	7.44936	0.856814	8.80551	0.931224	9.63366			0.646912	6.63353	0.783821	8.0641	0.959056	9.86652
0.438758	4.49754	0.208134	2.09509	0.732046	7.43468	0.861905	8.77382	0.937933	9.61044			0.650793	6.61018	0.789239	8.04276	0.963302	9.81611
0.440137	4.469	0.210219	2.09642	0.737516	7.42001	0.867002	8.74278	0.944678	9.58802			0.654623	6.58675	0.794671	8.02194	0.967568	9.76685
0.441507	4.4409	0.212305	2.09772	0.742959	7.40536	0.872104	8.71238	0.951457	9.56636			0.658402	6.56325	0.800115	8.00164	0.971855	9.71872
0.44287	4.41325	0.21439	2.099	0.748375	7.39071	0.877213	8.6826	0.958269	9.54543			0.662131	6.53968	0.80557	7.98183	0.976161	9.67168
0.444226	4.38604	0.216475	2.10026	0.753764	7.37607	0.882328	8.65343	0.965112	9.5252			0.665811	6.51606	0.811035	7.96247	0.980488	9.62569
0.445576	4.35927	0.21856	2.10149	0.759126	7.36142	0.88745	8.62485	0.971985	9.50562			0.669441	6.49239	0.816509	7.94355	0.984835	9.58073
0.446919	4.33291	0.220645	2.1027	0.764459	7.34676	0.89258	8.59686	0.978885	9.48667			0.673022	6.46867	0.821992	7.92506	0.989201	9.53677
0.448257	4.30698	0.22273	2.10389	0.769764	7.33209	0.897717	8.56944	0.985813	9.46831			0.676555	6.44492	0.827482	7.90696	0.993586	9.49377
0.44959	4.28146	0.224814	2.10505	0.775039	7.3174	0.902862	8.54258	0.992765	9.45052			0.680041	6.42113	0.832977	7.88924	0.997991	9.45171
0.450918	4.25635	0.226899	2.1062	0.780285	7.30269	0.908016	8.51627	0.999742	9.43326			0.68348	6.39733	0.838479	7.87188	1.00241	9.41057
0.452242	4.23163	0.228984	2.10732	0.785501	7.28795	0.913178	8.49049	1.00674	9.41652			0.686873	6.37351	0.843984	7.85486		
0.453562	4.2073	0.231068	2.10843	0.790686	7.27319	0.918349	8.46524					0.690221	6.34967	0.849493	7.83816		
0.454879	4.18336	0.233152	2.10951	0.79584	7.25839	0.923529	8.4405					0.693523	6.32583	0.855005	7.82178		
0.456192	4.15979	0.235237	2.11058	0.800963	7.24356	0.928717	8.41625					0.696781	6.302	0.860518	7.80568		
0.457503	4.1366	0.237321	2.11163	0.806054	7.2287	0.933915	8.3925					0.699996	6.27817	0.866032	7.78986		
0.458811	4.11377	0.239405	2.11266	0.811113	7.21379	0.939122	8.36922					0.703168	6.25435	0.871545	7.77431		
0.460117	4.0913	0.241489	2.11367	0.81614	7.19885	0.944339	8.3464					0.706298	6.23056	0.877058	7.75899		
0.46142	4.06919	0.243573	2.11467	0.821134	7.18386	0.949564	8.32404					0.709386	6.20678	0.882569	7.74392		
0.462723	4.04741	0.245657	2.11565	0.826095	7.16883	0.954799	8.30213					0.712433	6.18304	0.888077	7.72906		
0.464023	4.02598	0.247741	2.11661	0.831023	7.15376	0.960043	8.28064					0.71544	6.15934	0.893581	7.71441		
0.465323	4.00488	0.249825	2.11756	0.835918	7.13864	0.965296	8.25957					0.718408	6.13567	0.899081	7.69996		
0.466621	3.98411	0.251908	2.11849	0.840779	7.12347	0.970558	8.23892					0.721337	6.11205	0.904576	7.68569		
0.467919	3.96366	0.253992	2.1194	0.845606	7.10826	0.975829	8.21866					0.724228	6.08848	0.910065	7.6716		
0.469216	3.94352	0.256075	2.12031	0.850399	7.093	0.981108	8.19879					0.727081	6.06497	0.915547	7.65767		
0.470513	3.9237	0.258159	2.12119	0.855158	7.07769	0.986396	8.1793					0.729898	6.04151	0.921021	7.64389		
0.47181	3.90418	0.260242	2.12207	0.859883	7.06234	0.991693	8.16017					0.732679	6.01812	0.926488	7.63026		
0.473107	3.88496	0.262326	2.12293	0.864573	7.04694	0.996997	8.1414					0.735425	5.99479	0.931945	7.61676		
0.474404	3.86603	0.264409	2.12377	0.869229	7.03149	1.00231	8.12298					0.738136	5.97154	0.937393	7.60339		
0.475701	3.84739	0.266492	2.12461	0.873851	7.016							0.740813	5.94836	0.94283	7.59013		
0.476999	3.82904	0.268576	2.12543	0.878438	7.00046							0.743456	5.92526	0.948257	7.57698		
0.478298	3.81096	0.270659	2.12624	0.88299	6.98487							0.746067	5.90224	0.953671	7.56394		
0.479597	3.79316	0.272742	2.12703	0.887508	6.96925							0.748646	5.87931	0.959074	7.55099		
0.480898	3.77562	0.274825	2.12782	0.891991	6.95358							0.751193	5.85646	0.964464	7.53813		
0.482199	3.75835	0.276908	2.12859	0.896439	6.93786							0.75371	5.83371	0.96984	7.52535		
0.483502	3.74133	0.278991	2.12935	0.900853	6.92211							0.756197	5.81105	0.975202	7.51264		
0.484806	3.72457	0.281074	2.1301	0.905233	6.90632							0.758654	5.78849	0.980549	7.5		
0.486112	3.70806	0.283157	2.13084	0.909578	6.89049							0.761082	5.76603	0.985881	7.48743		
0.487419	3.69179	0.28524	2.13157	0.913889	6.87463							0.763482	5.74367	0.991197	7.47491		
0.488727	3.67576	0.287322	2.13229	0.918165	6.85873							0.765854	5.72141	0.996497	7.46245		
0.490038	3.65997	0.289405	2.133	0.922408	6.8428							0.768199	5.69926	1.00178	7.45003		
0.49135	3.64441	0.291488	2.1337	0.926616	6.82683							0.770518	5.67722				
0.492664	3.62908	0.29357	2.13439	0.930791	6.81084							0.772811	5.65529				
0.49398	3.61397	0.295653	2.13506	0.934932	6.79481							0.775078	5.63348				
0.495298	3.59908	0.297736	2.13573	0.939039	6.77876							0.777321	5.61178				
0.496618	3.58441	0.299818	2.13639	0.943113	6.76269							0.779539	5.59019				
0.497941	3.56995	0.301901	2.13704	0.947154	6.74659							0.781734	5.56872				
0.499266	3.55569	0.303983	2.13769	0.951161	6.73047							0.783906	5.54737				
0.500593	3.54165	0.306065	2.13832	0.955136	6.71432							0.786055	5.52615				
0.501922	3.5278	0.308148	2.13895	0.959077	6.69817							0.788181	5.50504				
0.503254	3.51415	0.31023	2.13956	0.962987	6.68199							0.790287	5.48406				
0.504588	3.50069	0.312312	2.14017	0.966864	6.6658							0.792371	5.4632				
0.505925	3.48742	0.314395	2.14077	0.970709	6.64959							0.794434	5.44246				
0.507265	3.47434	0.316477	2.14137	0.974522	6.63338							0.796478	5.42186				
0.508607	3.46145	0.318559	2.14195	0.978303	6.61715							0.798501	5.40138				
0.509952	3.44873	0.320641	2.14253	0.982053	6.60092							0.800506	5.38102				
0.511299	3.43619	0.322723	2.1431	0.985772	6.58467							0.802492	5.3608				
0.51265	3.42383	0.324806	2.14367	0.989459	6.56843							0.804459	5.3407				
0.514003	3.41164	0.326888	2.14422	0.993116	6.55218							0.806409	5.32073				
0.515359	3.39961	0.32897	2.14477	0.996742	6.53593							0.808341	5.30089				
0.516717	3.38775	0.331052	2.14531	1.00034	6.51967							0.810256	5.28119				
0.518079	3.37606	0.333134	2.14585									0.812155	5.26161				
0.519443	3.36452	0.335216	2.14638									0.814038	5.24216				
0.520811	3.35314	0.337298	2.1469									0.815904	5.22285				
0.522181	3.34192	0.339379	2.14742									0.817756	5.20367				
0.523554	3.33085	0.341461	2.14793									0.819592	5.18461				
0.524931	3.31992	0.343543	2.14843									0.821414	5.16569				
0.52631	3.30915	0.345625	2.14893									0.823221	5.1469				
0.527692	3.29852	0.347707	2.14942									0.825015	5.12824				
0.529077	3.28803	0.349788	2.14991									0.826795	5.10972				
0.530466	3.27768	0.35187	2.15039									0.828562	5.09132				
0.531857	3.26746	0.353952	2.15087									0.830316	5.07306				
0.533252	3.25739	0.356034	2.15134									0.832058	5.05492				
0.534649	3.24744	0.358115	2.1518									0.833787	5.03692				
0.53605	3.23763	0.360197	2.15226									0.835504	5.01904				
0.537453	3.22794	0.362279	2.15271									0.83721	5.0013				
0.53886	3.21838	0.36436	2.15316									0.838905	4.98368				
0.54027	3.20894	0.366442	2.15361									0.840589	4.9662				
0.541683	3.19963	0.368523	2.15404									0.842262	4.94884				
0.543099	3.19044	0.370605	2.15448									0.843924	4.93161				
0.544518	3.18136	0.372686	2.15491									0.845577	4.91451				
0.545941	3.1724	0.374768	2.15533									0.847219	4.89754				
0.547366	3.16356	0.376849	2.15575									0.848852	4.88069				
0.548794	3.15483	0.378931	2.15617									0.850476	4.86397				
0.550226	3.1462	0.381012	2.15658									0.85209	4.84738				
0.551661	3.13769	0.383093	2.15698									0.853696	4.83091				
0.553099	3.12929	0.385175	2.15738									0.855294	4.81456				
0.55454	3.12099	0.387256	2.15778									0.856882	4.79834				
0.555984	3.11279	0.389338	2.15818									0.858463	4.78224				
0.557431	3.1047	0.391419	2.15856									0.860036	4.76627				
0.558881	3.09671	0.3935	2.15895									0.861601	4.75041				
0.560335	3.08882	0.395581	2.15933									0.863159	4.73468				
0.561791	3.08102	0.397663	2.15971									0.864709	4.71907				
0.563251	3.07332	0.399744	2.16008									0.866253	4.70357				
0.564713	3.06572	0.401825	2.16045									0.86779	4.6882				
0.566179	3.05821	0.403906	2.16082									0.86932	4.67295				
0.567648	3.05079	0.405988	2.16118									0.870843	4.65781				
0.56912	3.04346	0.408069	2.16154									0.872361	4.64279				
0.570594	3.03622	0.41015	2.16189									0.873872	4.62788				
0.572072	3.02906	0.412231	2.16224									0.875377	4.61309				
0.573553	3.022	0.414312	2.16259									0.876877	4.59842				
0.575037	3.01501	0.416393	2.16293									0.878371	4.58386				
0.576524	3.00812	0.418475	2.16327									0.87986	4.56941				
0.578014	3.0013	0.420556	2.16361									0.881343	4.55507				
0.579507	2.99456	0.422637	2.16395									0.882822	4.54085				
0.581003	2.98791	0.424718	2.16428									0.884296	4.52674				
0.582502	2.98133	0.426799	2.1646									0.885764	4.51273				
0.584003	2.97483	0.42888	2.16493									0.887229	4.49884				
0.585508	2.96841	0.430961	2.16525									0.888688	4.48505				
0.587016	2.96206	0.433042	2.16557									0.890144	4.47137				
0.588527	2.95579	0.435123	2.16588									0.891595	4.4578				
0.59004	2.94959	0.437204	2.1662									0.893043	4.44433				
0.591557	2.94346	0.439285	2.1665									0.894486	4.43097				
0.593076	2.9374	0.441366	2.16681									0.895926	4.41771				
0.594598	2.93141	0.443447	2.16711									0.897362	4.40456				
0.596123	2.9255	0.445528	2.16742									0.898794	4.39151				
0.597651	2.91964	0.447609	2.16771									0.900223	4.37856				
0.599182	2.91386	0.449689	2.16801									0.901649	4.36571				
0.600716	2.90814	0.45177	2.1683									0.903071	4.35296				
0.602252	2.90249	0.453851	2.16859									0.904491	4.34031				
0.603791	2.8969	0.455932	2.16888									0.905908	4.32776				
0.605333	2.89137	0.458013	2.16916									0.907321	4.31531				
0.606878	2.88591	0.460094	2.16945									0.908732	4.30295				
0.608426	2.88051	0.462174	2.16972									0.910141	4.29069				
0.609976	2.87516	0.464255	2.17									0.911547	4.27852				
0.611529	2.86988	0.466336	2.17028									0.91295	4.26645				
0.613085	2.86466	0.468417	2.17055									0.914351	4.25448				
0.614643	2.85949	0.470498	2.17082									0.91575	4.24259				
0.616204	2.85438	0.472578	2.17109									0.917147	4.2308				
0.617768	2.84933	0.474659	2.17135									0.918541	4.2191				
0.619335	2.84433	0.47674	2.17161									0.919934	4.20749				
0.620904	2.83939	0.478821	2.17187									0.921325	4.19597				
0.622476	2.8345	0.480901	2.17213									0.922713	4.18454				
0.62405	2.82966	0.482982	2.17239									0.924101	4.1732				
0.625627	2.82488	0.485063	2.17264									0.925486	4.16195				
0.627207	2.82015	0.487143	2.1729									0.92687	4.15078				
0.628789	2.81547	0.489224	2.17314									0.928253	4.1397				
0.630374	2.81084	0.491305	2.17339									0.929634	4.1287				
0.631961	2.80626	0.493385	2.17364									0.931013	4.11779				
0.633551	2.80173	0.495466	2.17388									0.932392	4.10696				
0.635144	2.79724	0.497547	2.17412									0.933769	4.09622				
0.636739	2.79281	0.499627	2.17436									0.935145	4.08556				
0.638336	2.78842	0.501708	2.1746									0.936519	4.07497				
0.639936	2.78408	0.503789	2.17483									0.937893	4.06448				
0.641538	2.77978	0.505869	2.17507									0.939266	4.05406				
0.643143	2.77553	0.50795	2.1753									0.940638	4.04372				
0.644751	2.77132	0.51003	2.17553									0.942009	4.03346				
0.64636	2.76716	0.512111	2.17576									0.94338	4.02327				
0.647973	2.76304	0.514191	2.17598									0.944749	4.01317				
0.649587	2.75897	0.516272	2.17621									0.946118	4.00314				
0.651204	2.75493	0.518353	2.17643									0.947487	3.99319				
0.652824	2.75094	0.520433	2.17665									0.948854	3.98331				
0.654445	2.74699	0.522514	2.17687									0.950222	3.97351				
0.656069	2.74308	0.524594	2.17709									0.951588	3.96378				
0.657696	2.73921	0.526675	2.1773									0.952955	3.95413				
0.659325	2.73538	0.528755	2.17752									0.954321	3.94455				
0.660956	2.73159	0.530836	2.17773									0.955687	3.93504				
0.662589	2.72783	0.532916	2.17794									0.957052	3.9256				
0.664225	2.72412	0.534997	2.17815									0.958417	3.91623				
0.665863	2.72044	0.537077	2.17836									0.959782	3.90694				
0.667503	2.7168	0.539158	2.17856									0.961147	3.89771				
0.669145	2.7132	0.541238	2.17877									0.962512	3.88855				
0.67079	2.70963	0.543318	2.17897									0.963876	3.87946				
0.672437	2.7061	0.545399	2.17917									0.965241	3.87044				
0.674086	2.7026	0.547479	2.17937									0.966606	3.86149				
0.675737	2.69914	0.54956	2.17957									0.967971	3.8526				
0.67739	2.69571	0.55164	2.17976									0.969335	3.84378				
0.679046	2.69232	0.553721	2.17996									0.9707	3.83502				
0.680704	2.68895	0.555801	2.18015									0.972065	3.82633				
0.682364	2.68563	0.557881	2.18034									0.973431	3.81771				
0.684026	2.68233	0.559962	2.18053									0.974796	3.80914				
0.68569	2.67907	0.562042	2.18072									0.976162	3.80064				
0.687356	2.67584	0.564122	2.18091									0.977528	3.79221				
0.689024	2.67264	0.566203	2.1811									0.978895	3.78383				
0.690695	2.66947	0.568283	2.18128									0.980262	3.77552				
0.692367	2.66634	0.570363	2.18147									0.981629	3.76726				
0.694042	2.66323	0.572444	2.18165									0.982996	3.75907				
0.695718	2.66015	0.574524	2.18183									0.984364	3.75094				
0.697397	2.6571	0.576605	2.18201									0.985733	3.74287				
0.699077	2.65408	0.578685	2.18219									0.987102	3.73485				
0.70076	2.65109	0.580765	2.18237									0.988472	3.7269				
0.702444	2.64813	0.582845	2.18254									0.989842	3.719				
0.704131	2.6452	0.584926	2.18272									0.991212	3.71116				
0.705819	2.6423	0.587006	2.18289									0.992584	3.70337				
0.70751	2.63942	0.589086	2.18306									0.993956	3.69564				
0.709202	2.63657	0.591167	2.18323									0.995328	3.68797				
0.710896	2.63374	0.593247	2.1834									0.996701	3.68035				
0.712592	2.63095	0.595327	2.18357									0.998075	3.67279				
0.714291	2.62817	0.597407	2.18374									0.99945	3.66528				
0.715991	2.62543	0.599488	2.18391									1.00083	3.65783				
0.717692	2.62271	0.601568	2.18407														
0.719396	2.62002	0.603648	2.18424														
0.721102	2.61735	0.605728	2.1844														
0.722809	2.6147	0.607809	2.18456														
0.724518	2.61208	0.609889	2.18472														
0.726229	2.60948	0.611969	2.18488														
0.727942	2.60691	0.614049	2.18504														
0.729657	2.60436	0.616129	2.1852														
0.731374	2.60184	0.61821	2.18535														
0.733092	2.59933	0.62029	2.18551														
0.734812	2.59685	0.62237	2.18566														
0.736534	2.5944	0.62445	2.18582														
0.738257	2.59196	0.62653	2.18597														
0.739982	2.58955	0.628611	2.18612														
0.741709	2.58716	0.630691	2.18627														
0.743438	2.58479	0.632771	2.18642														
0.745168	2.58244	0.634851	2.18657														
0.7469	2.58011	0.636931	2.18672														
0.748634	2.5778	0.639011	2.18686														
0.75037	2.57551	0.641091	2.18701														
0.752107	2.57325	0.643172	2.18715														
0.753845	2.571	0.645252	2.1873														
0.755586	2.56877	0.647332	2.18744														
0.757328	2.56657	0.649412	2.18758														
0.759071	2.56438	0.651492	2.18772														
0.760817	2.56221	0.653572	2.18786														
0.762563	2.56006	0.655652	2.188														
0.764312	2.55793	0.657732	2.18814														
0.766062	2.55582	0.659812	2.18828														
0.767813	2.55372	0.661892	2.18841														
0.769566	2.55164	0.663973	2.18855														
0.771321	2.54959	0.666053	2.18868														
0.773077	2.54755	0.668133	2.18882														
0.774835	2.54552	0.670213	2.18895														
0.776594	2.54352	0.672293	2.18908														
0.778355	2.54153	0.674373	2.18921														
0.780117	2.53956	0.676453	2.18934														
0.781881	2.5376	0.678533	2.18947														
0.783646	2.53566	0.680613	2.1896														
0.785413	2.53374	0.682693	2.18973														
0.787181	2.53184	0.684773	2.18986														
0.788951	2.52995	0.686853	2.18998														
0.790722	2.52807	0.688933	2.19011														
0.792494	2.52621	0.691013	2.19024														
0.794268	2.52437	0.693093	2.19036														
0.796043	2.52254	0.695173	2.19048														
0.79782	2.52073	0.697253	2.19061														
0.799598	2.51894	0.699333	2.19073														
0.801378	2.51715	0.701413	2.19085														
0.803159	2.51539	0.703493	2.19097														
0.804941	2.51363	0.705573	2.19109														
0.806725	2.51189	0.707653	2.19121														
0.80851	2.51017	0.709733	2.19133														
0.810296	2.50846	0.711813	2.19145														
0.812084	2.50676	0.713893	2.19157														
0.813873	2.50508	0.715973	2.19168														
0.815663	2.50341	0.718053	2.1918														
0.817455	2.50176	0.720133	2.19191														
0.819248	2.50012	0.722213	2.19203														
0.821042	2.49849	0.724293	2.19214														
0.822838	2.49688	0.726373	2.19225														
0.824635	2.49527	0.728453	2.19237														
0.826433	2.49368	0.730532	2.19248														
0.828232	2.49211	0.732612	2.19259														
0.830033	2.49054	0.734692	2.1927														
0.831835	2.48899	0.736772	2.19281														
0.833638	2.48745	0.738852	2.19292														
0.835443	2.48593	0.740932	2.19303														
0.837248	2.48441	0.743012	2.19314														
0.839055	2.48291	0.745092	2.19325														
0.840863	2.48142	0.747172	2.19335														
0.842673	2.47994	0.749252	2.19346														
0.844483	2.47847	0.751332	2.19356														
0.846295	2.47702	0.753412	2.19367														
0.848108	2.47557	0.755491	2.19377														
0.849922	2.47414	0.757571	2.19388														
0.851737	2.47272	0.759651	2.19398														
0.853554	2.4713	0.761731	2.19409														
0.855371	2.4699	0.763811	2.19419														
0.85719	2.46851	0.765891	2.19429														
0.85901	2.46714	0.767971	2.19439														
0.860831	2.46577	0.77005	2.19449														
0.862653	2.46441	0.77213	2.19459														
0.864476	2.46306	0.77421	2.19469														
0.866301	2.46173	0.77629	2.19479														
0.868126	2.4604	0.77837	2.19489														
0.869953	2.45908	0.78045	2.19499														
0.871781	2.45778	0.782529	2.19508														
0.873609	2.45648	0.784609	2.19518														
0.875439	2.45519	0.786689	2.19528														
0.87727	2.45392	0.788769	2.19537														
0.879102	2.45265	0.790849	2.19547														
0.880935	2.45139	0.792929	2.19556														
0.88277	2.45014	0.795008	2.19566														
0.884605	2.4489	0.797088	2.19575														
0.886441	2.44767	0.799168	2.19585														
0.888278	2.44645	0.801248	2.19594														
0.890117	2.44524	0.803328	2.19603														
0.891956	2.44404	0.805407	2.19612														
0.893797	2.44285	0.807487	2.19622														
0.895638	2.44166	0.809567	2.19631														
0.89748	2.44049	0.811647	2.1964														
0.899324	2.43932	0.813726	2.19649														
0.901168	2.43816	0.815806	2.19658														
0.903014	2.43701	0.817886	2.19667														
0.90486	2.43587	0.819966	2.19676														
0.906708	2.43473	0.822046	2.19684														
0.908556	2.43361	0.824125	2.19693														
0.910405	2.43249	0.826205	2.19702														
0.912256	2.43138	0.828285	2.19711														
0.914107	2.43028	0.830365	2.19719														
0.915959	2.42919	0.832444	2.19728														
0.917812	2.42811	0.834524	2.19736														
0.919666	2.42703	0.836604	2.19745														
0.921521	2.42596	0.838684	2.19753														
0.923377	2.4249	0.840763	2.19762														
0.925234	2.42384	0.842843	2.1977														
0.927092	2.4228	0.844923	2.19779														
0.928951	2.42176	0.847002	2.19787														
0.93081	2.42073	0.849082	2.19795														
0.932671	2.4197	0.851162	2.19804														
0.934532	2.41868	0.853242	2.19812														
0.936395	2.41767	0.855321	2.1982														
0.938258	2.41667	0.857401	2.19828														
0.940122	2.41568	0.859481	2.19836														
0.941987	2.41469	0.86156	2.19844														
0.943853	2.41371	0.86364	2.19852														
0.94572	2.41273	0.86572	2.1986														
0.947587	2.41176	0.8678	2.19868														
0.949456	2.4108	0.869879	2.19876														
0.951325	2.40985	0.871959	2.19884														
0.953195	2.4089	0.874039	2.19892														
0.955066	2.40796	0.876118	2.19899														
0.956938	2.40702	0.878198	2.19907														
0.958811	2.4061	0.880278	2.19915														
0.960685	2.40517	0.882357	2.19922														
0.962559	2.40426	0.884437	2.1993														
0.964434	2.40335	0.886517	2.19938														
0.96631	2.40245	0.888596	2.19945														
0.968187	2.40155	0.890676	2.19953														
0.970065	2.40066	0.892756	2.1996														
0.971943	2.39977	0.894835	2.19968														
0.973822	2.3989	0.896915	2.19975														
0.975702	2.39802	0.898994	2.19982														
0.977583	2.39716	0.901074	2.1999														
0.979464	2.3963	0.903154	2.19997														
0.981347	2.39544	0.905233	2.20004														
0.98323	2.39459	0.907313	2.20012														
0.985114	2.39375	0.909393	2.20019														
0.986999	2.39291	0.911472	2.20026														
0.988884	2.39208	0.913552	2.20033														
0.99077	2.39125	0.915632	2.2004														
0.992657	2.39043	0.917711	2.20047														
0.994545	2.38961	0.919791	2.20054														
0.996433	2.3888	0.92187	2.20061														
0.998323	2.388	0.92395	2.20068														
1.00021	2.3872	0.92603	2.20075														
		0.928109	2.20082														
		0.930189	2.20089														
		0.932268	2.20096														
		0.934348	2.20103														
		0.936428	2.2011														
		0.938507	2.20116														
		0.940587	2.20123														
		0.942666	2.2013														
		0.944746	2.20136														
		0.946825	2.20143														
		0.948905	2.2015														
		0.950985	2.20156														
		0.953064	2.20163														
		0.955144	2.20169														
		0.957223	2.20176														
		0.959303	2.20182														
		0.961382	2.20189														
		0.963462	2.20195														
		0.965541	2.20202														
		0.967621	2.20208														
		0.969701	2.20214														
		0.97178	2.20221														
		0.97386	2.20227														
		0.975939	2.20233														
		0.978019	2.20239														
		0.980098	2.20245														
		0.982178	2.20252														
		0.984257	2.20258														
		0.986337	2.20264														
		0.988416	2.2027														
		0.990496	2.20276														
		0.992575	2.20282														
		0.994655	2.20288														
		0.996734	2.20294														
		0.998814	2.203														
		1.00089	2.20306														
