Minima		Zeros		Sym0		Asym0		Sym1		Sym2		Sym3		Asym1		Asym2	
8  Points		7  Points		475  Points		493  Points		474  Points		220  Points		129  Points		390  Points		143  Points	
Freq (MHz)	Vgr (m/ms)	Freq (MHz)	Vgr (m/ms)	Freq (MHz)	Vgr (m/ms)	Freq (MHz)	Vgr (m/ms)	Freq (MHz)	Vgr (m/ms)	Freq (MHz)	Vgr (m/ms)	Freq (MHz)	Vgr (m/ms)	Freq (MHz)	Vgr (m/ms)	Freq (MHz)	Vgr (m/ms)
0.356771	4.75596	0.357848	4.74683	0.00206527	8.22245	3.14431e-005	0.232835	0.00342449	8.2222	0.279521	0.142042	0.372115	0.0879915	0.139843	0.530002	0.419272	0.112929
0.0320326	27.8512	0.0318221	27.5979	0.00972609	8.22128	0.000248375	0.34137	0.0110851	8.22085	0.279653	0.219393	0.372197	0.13171	0.140337	0.75951	0.419377	0.175673
0.217515	22.8977	0.216836	22.6879	0.0173847	8.21806	0.000667548	0.554473	0.0187431	8.21731	0.27993	0.373518	0.372361	0.219578	0.141258	1.21307	0.419599	0.300991
0.585548	9.81484	0.584482	9.80165	0.0250395	8.21302	0.00128158	0.758024	0.0263971	8.21193	0.280349	0.526127	0.372606	0.30845	0.142597	1.6535	0.419938	0.425943
0.883953	11.0182	0.885384	10.9858	0.0326888	8.20607	0.00208004	0.949208	0.0340452	8.20461	0.28091	0.676585	0.372935	0.398597	0.144339	2.07681	0.420393	0.550457
0.426399	9.02431	0.428065	9.01413	0.0403307	8.19716	0.00305032	1.12591	0.0416855	8.19538	0.28161	0.824352	0.373349	0.490413	0.146467	2.48002	0.420964	0.674313
0.751329	10.504	0.753501	9.7676	0.0479633	8.18622	0.00417805	1.28691	0.0493163	8.1841	0.282446	0.96886	0.373849	0.584323	0.148961	2.86097	0.42165	0.797368
0.870691	10.7505			0.0555848	8.17321	0.00544833	1.43166	0.0569357	8.1707	0.283415	1.10956	0.374438	0.680665	0.151798	3.21843	0.42245	0.919552
				0.0631932	8.15796	0.0068458	1.56018	0.0645415	8.15503	0.284514	1.24594	0.375118	0.779744	0.154958	3.55183	0.423363	1.04073
				0.0707862	8.14034	0.00835556	1.67315	0.0721317	8.13695	0.285737	1.37764	0.375891	0.881956	0.158417	3.86122	0.424389	1.16076
				0.0783618	8.12019	0.00996352	1.77142	0.0797038	8.11631	0.287081	1.5043	0.376761	0.987649	0.162153	4.14725	0.425526	1.27947
				0.0859173	8.09732	0.0116564	1.8562	0.0872555	8.09298	0.28854	1.62556	0.377731	1.09701	0.166145	4.41082	0.426773	1.39684
				0.0934503	8.07159	0.0134223	1.92878	0.0947842	8.06668	0.29011	1.74122	0.378805	1.21041	0.170372	4.65304	0.428129	1.51271
				0.100958	8.04267	0.0152505	1.99046	0.102287	8.03715	0.291785	1.8511	0.379987	1.32807	0.174815	4.87521	0.429592	1.6269
				0.108437	8.01025	0.0171313	2.04254	0.109761	8.00417	0.293559	1.95522	0.38128	1.45016	0.179456	5.07865	0.43116	1.73948
				0.115884	7.97412	0.0190565	2.08628	0.117202	7.96729	0.295428	2.05366	0.382689	1.5768	0.184279	5.26477	0.432833	1.85024
				0.123296	7.93388	0.0210189	2.12277	0.124607	7.92626	0.297386	2.1467	0.384218	1.70805	0.189267	5.43481	0.434608	1.95912
				0.130668	7.88905	0.0230121	2.15307	0.131972	7.88061	0.299428	2.23462	0.385872	1.84398	0.194406	5.59001	0.436484	2.06605
				0.137996	7.83924	0.0250309	2.17815	0.139291	7.82981	0.30155	2.31796	0.387654	1.98445	0.199683	5.73158	0.438458	2.17093
				0.145276	7.78386	0.0268074	2.19636	0.146561	7.7734	0.303747	2.39747	0.38957	2.12923	0.205086	5.86057	0.440529	2.27375
				0.152501	7.72233	0.0283324	2.20957	0.153776	7.71074	0.306017	2.47397	0.391622	2.27809	0.210603	5.97798	0.442695	2.37437
				0.159665	7.65404	0.0295999	2.21899	0.16093	7.64117	0.308357	2.54851	0.393814	2.43072	0.216225	6.08478	0.444953	2.47285
				0.166763	7.57818	0.0306056	2.22558	0.168015	7.56384	0.310766	2.6223	0.396151	2.58664	0.221942	6.18177	0.447303	2.56909
				0.173786	7.49392	0.031347	2.22992	0.175024	7.47804	0.313244	2.69678	0.398634	2.74533	0.227744	6.2697	0.449741	2.663
				0.180727	7.40047	0.0318221	2.23257	0.181949	7.38289	0.315791	2.77346	0.401267	2.90612	0.233625	6.34924	0.452265	2.75465
				0.187576	7.29685	0.0325062	2.23618	0.188781	7.27734	0.318412	2.85402	0.40405	3.0684	0.239575	6.42103	0.454874	2.84399
				0.194324	7.18204	0.0332509	2.23975	0.19551	7.16072	0.32111	2.94021	0.406984	3.23154	0.245589	6.48565	0.457564	2.93095
				0.200959	7.05511	0.0342655	2.24417	0.20128	7.04935	0.323891	3.03378	0.410071	3.39477	0.251661	6.54348	0.460335	3.0156
				0.20747	6.91506	0.0355514	2.24903	0.206125	6.94657	0.326763	3.13654	0.41331	3.55732	0.257783	6.59506	0.463184	3.09796
				0.213845	6.76101	0.0371099	2.254	0.210076	6.85595	0.329735	3.25015	0.4167	3.71859	0.26395	6.64079	0.466108	3.17793
				0.220069	6.59222	0.038942	2.25877	0.213161	6.78042	0.332819	3.37599	0.420239	3.878	0.270157	6.68098	0.469105	3.25556
				0.226129	6.40822	0.0410488	2.26304	0.215408	6.72266	0.336026	3.51519	0.423926	4.03482	0.276399	6.71595	0.472174	3.33098
				0.23201	6.20898	0.043159	2.26619	0.216836	6.68459	0.339369	3.66847	0.427758	4.18856	0.282671	6.74589	0.475312	3.40412
				0.237698	5.99471	0.0452716	2.26851	0.218874	6.6284	0.342862	3.83596	0.431731	4.33887	0.288969	6.77113	0.478517	3.47501
				0.24318	5.7664	0.0473861	2.27003	0.221069	6.56539	0.346517	4.01712	0.435843	4.48531	0.295289	6.79189	0.481788	3.54379
				0.248443	5.52564	0.0495016	2.27093	0.22402	6.47634	0.350347	4.21069	0.440089	4.62755	0.301625	6.80827	0.485121	3.61044
				0.253477	5.27445	0.0516177	2.27142	0.227694	6.35866	0.354363	4.4148	0.444466	4.76545	0.307975	6.82045	0.488515	3.67505
				0.258272	5.01576	0.0537341	2.27149	0.232044	6.20862	0.358574	4.6268	0.448969	4.89887	0.314334	6.82856	0.491969	3.73768
				0.262823	4.75275	0.0558504	2.27122	0.237012	6.02206	0.362985	4.84353	0.453594	5.02766	0.320699	6.83268	0.49548	3.79843
				0.267128	4.48886	0.0579663	2.27073	0.24252	5.79511	0.367599	5.06167	0.458337	5.15186	0.327066	6.83288	0.499047	3.85736
				0.271188	4.22783	0.0600816	2.27008	0.24781	5.55573	0.372417	5.27769	0.463194	5.27142	0.333432	6.82925	0.502668	3.91459
				0.275006	3.97295	0.0621963	2.26927	0.252872	5.30571	0.377434	5.48826	0.46816	5.38648	0.339792	6.82183	0.506341	3.97023
				0.278591	3.72723	0.0643102	2.26829	0.257697	5.0478	0.382643	5.69041	0.473231	5.49713	0.346143	6.81067	0.510066	4.02438
				0.281951	3.49316	0.066423	2.26728	0.262278	4.7851	0.388037	5.88171	0.478403	5.60344	0.352483	6.79574	0.51384	4.07717
				0.2851	3.27258	0.068535	2.26627	0.266613	4.52115	0.393603	6.0604	0.483673	5.70562	0.358807	6.77701	0.517663	4.12876
				0.288049	3.06667	0.070646	2.26517	0.270703	4.25957	0.39933	6.22523	0.489035	5.80377	0.365111	6.7545	0.521534	4.17929
				0.290814	2.87606	0.0727559	2.26408	0.274551	4.00372	0.405203	6.3756	0.494487	5.89805	0.371393	6.72822	0.525451	4.22886
				0.293409	2.70093	0.0748648	2.26298	0.278164	3.75674	0.41121	6.51132	0.500025	5.98868	0.377648	6.69807	0.529414	4.2776
				0.295847	2.54088	0.0769727	2.26188	0.281551	3.52115	0.417336	6.63261	0.505647	6.07584	0.383874	6.664	0.533422	4.32579
				0.298143	2.39532	0.0790796	2.26078	0.284725	3.29884	0.423569	6.74005	0.511347	6.15962	0.390066	6.62603	0.537474	4.37354
				0.30031	2.26351	0.0811854	2.25972	0.287698	3.09112	0.429896	6.83432	0.517124	6.24023	0.396221	6.58407	0.541571	4.421
				0.302361	2.14445	0.0832903	2.25871	0.290485	2.89863	0.436304	6.91622	0.522975	6.3179	0.402335	6.53803	0.545713	4.46837
				0.304306	2.03723	0.0853943	2.2577	0.293099	2.72157	0.442783	6.98663	0.528897	6.39267	0.408404	6.48798	0.549898	4.51581
				0.306157	1.94078	0.0874973	2.25671	0.295556	2.55968	0.449323	7.04644	0.534887	6.46472	0.413653	6.44105	0.554127	4.56351
				0.307923	1.85415	0.0895994	2.25574	0.297869	2.41242	0.455914	7.09649	0.540943	6.53425	0.418097	6.39858	0.558401	4.61159
				0.309612	1.77647	0.0917006	2.25486	0.300051	2.27895	0.462547	7.13762	0.547063	6.60132	0.421748	6.36163	0.56272	4.66031
				0.311233	1.70681	0.0938011	2.25401	0.302116	2.15838	0.469214	7.17059	0.553244	6.66602	0.42462	6.33133	0.567085	4.70977
				0.312793	1.64439	0.0959007	2.25315	0.304073	2.04976	0.475908	7.19603	0.559484	6.72855	0.426723	6.30851	0.571497	4.76005
				0.314297	1.58854	0.0979996	2.25231	0.305935	1.95205	0.482623	7.21454	0.565782	6.78895	0.428065	6.29345	0.575955	4.81132
				0.315753	1.53859	0.100098	2.25157	0.307711	1.8643	0.489352	7.2268	0.572135	6.84726	0.429989	6.27147	0.580462	4.86368
				0.317164	1.49384	0.102195	2.25083	0.309409	1.78553	0.496089	7.2333	0.578541	6.90361	0.432071	6.24714	0.585018	4.91722
				0.318536	1.45385	0.104292	2.25009	0.311038	1.71494	0.50283	7.23444	0.584999	6.95808	0.434891	6.21291	0.589625	4.97192
				0.319873	1.41818	0.106388	2.24947	0.312605	1.65171	0.50957	7.23064	0.591507	7.01069	0.438434	6.16835	0.594283	5.02787
				0.321179	1.38633	0.108483	2.24879	0.314116	1.59504	0.516304	7.22224	0.598063	7.06143	0.442684	6.11232	0.598994	5.08497
				0.322457	1.35792	0.110578	2.24816	0.315577	1.5444	0.523028	7.20961	0.604665	7.1104	0.44762	6.04367	0.603758	5.14315
				0.323709	1.33266	0.112673	2.24759	0.316993	1.49906	0.529738	7.19306	0.611312	7.15764	0.453213	5.96115	0.608577	5.20237
				0.32494	1.31021	0.114766	2.24701	0.31837	1.45851	0.536431	7.17278	0.618002	7.20306	0.458728	5.87466	0.613452	5.26251
				0.326151	1.29028	0.11686	2.2465	0.319711	1.42234	0.543104	7.14898	0.624734	7.24673	0.46416	5.78428	0.618383	5.32331
				0.327344	1.27269	0.118953	2.24599	0.32102	1.39005	0.549752	7.12191	0.631506	7.28866	0.469506	5.69021	0.623371	5.38465
				0.328522	1.25721	0.121045	2.24544	0.322301	1.36123	0.556375	7.09178	0.638316	7.32878	0.474763	5.59259	0.628417	5.44632
				0.329687	1.2436	0.123137	2.24498	0.323557	1.33558	0.562967	7.05884	0.645162	7.36707	0.479927	5.49171	0.63352	5.50798
				0.33084	1.23169	0.125228	2.24457	0.32479	1.31283	0.568686	7.02785	0.652044	7.40351	0.484996	5.38788	0.638681	5.56941
				0.331982	1.22135	0.127319	2.24411	0.326003	1.29263	0.573541	6.99982	0.658958	7.43809	0.489967	5.28136	0.643898	5.63031
				0.333115	1.21246	0.12941	2.24369	0.327199	1.27473	0.57754	6.97554	0.665904	7.47069	0.494837	5.17251	0.649172	5.69037
				0.334241	1.20487	0.1315	2.2433	0.328379	1.25897	0.580692	6.9558	0.672879	7.50132	0.499605	5.06165	0.654501	5.74941
				0.335361	1.19846	0.13359	2.24289	0.329545	1.24516	0.583005	6.94079	0.679881	7.52984	0.504269	4.94924	0.659885	5.80705
				0.336474	1.19313	0.135679	2.24253	0.330699	1.23309	0.584482	6.93095	0.68691	7.55627	0.508828	4.83572	0.665322	5.86301
				0.337584	1.18876	0.137769	2.24221	0.331842	1.22258	0.586601	6.91681	0.693962	7.58048	0.51328	4.72139	0.67081	5.91715
				0.33869	1.18529	0.139858	2.24186	0.332977	1.21349	0.5889	6.90104	0.701035	7.60233	0.517625	4.6067	0.676348	5.9691
				0.339793	1.18268	0.141946	2.24155	0.334104	1.20571	0.592018	6.879	0.708128	7.62185	0.521864	4.49211	0.681933	6.01873
				0.340893	1.18082	0.144034	2.24124	0.335224	1.19916	0.595947	6.8505	0.715238	7.63884	0.525996	4.37802	0.687563	6.06585
				0.341993	1.17967	0.146122	2.24094	0.336338	1.19372	0.600676	6.81484	0.722362	7.6532	0.530022	4.26476	0.693236	6.11027
				0.343092	1.17913	0.14821	2.24068	0.337448	1.18924	0.606192	6.77156	0.729499	7.66486	0.533943	4.15268	0.698949	6.15195
				0.34419	1.17915	0.150298	2.2404	0.338554	1.18568	0.612478	6.71996	0.736645	7.67367	0.53776	4.04216	0.7047	6.1907
				0.345289	1.17977	0.152385	2.24012	0.339657	1.18299	0.618714	6.66639	0.743798	7.67951	0.541475	3.93342	0.710485	6.22646
				0.346388	1.18087	0.154472	2.23987	0.340759	1.18102	0.6249	6.61087	0.750955	7.68224	0.54509	3.82676	0.716302	6.25916
				0.347489	1.1824	0.156559	2.23963	0.341858	1.17978	0.631033	6.55344	0.758113	7.68177	0.548606	3.72242	0.722148	6.28881
				0.348592	1.18437	0.158645	2.2394	0.342957	1.17916	0.637111	6.49422	0.765269	7.6779	0.552026	3.62059	0.728021	6.31538
				0.349696	1.1867	0.160732	2.23918	0.344055	1.17914	0.643134	6.43323	0.77242	7.67053	0.555352	3.52148	0.733916	6.33886
				0.350803	1.18937	0.162818	2.23896	0.345154	1.17968	0.649099	6.37058	0.779562	7.65952	0.558588	3.42513	0.739071	6.35688
				0.351912	1.19237	0.164904	2.23874	0.346254	1.18068	0.655005	6.30622	0.786692	7.64483	0.561735	3.33161	0.743475	6.37042
				0.353025	1.19567	0.166989	2.23855	0.347354	1.18217	0.66085	6.24028	0.793807	7.62637	0.564796	3.24113	0.747124	6.38036
				0.35414	1.19926	0.169075	2.23835	0.348456	1.18409	0.666633	6.17288	0.800903	7.60402	0.567774	3.15366	0.750013	6.3875
				0.355115	1.20262	0.17116	2.23818	0.349561	1.1864	0.672352	6.10406	0.807976	7.57784	0.570672	3.06917	0.752139	6.39211
				0.355949	1.20559	0.173245	2.23798	0.350667	1.18906	0.678007	6.0338	0.815024	7.5479	0.573493	2.9877	0.753501	6.39483
				0.35664	1.20804	0.17533	2.23781	0.351776	1.192	0.683596	5.96227	0.822041	7.51423	0.57624	2.90929	0.755459	6.39861
				0.357187	1.21019	0.177415	2.23765	0.352888	1.19527	0.689117	5.88959	0.829026	7.477	0.578914	2.8339	0.757589	6.40233
				0.35759	1.21179	0.1795	2.2375	0.354004	1.19884	0.69457	5.81571	0.835974	7.43653	0.58152	2.76137	0.760487	6.40672
				0.357848	1.2127	0.181585	2.23735	0.355122	1.2026	0.699954	5.7408	0.842883	7.39317	0.58406	2.69172	0.764156	6.41126
				0.358219	1.21419	0.183669	2.23716	0.356244	1.20665	0.705268	5.665	0.84975	7.34723	0.586536	2.62495	0.768595	6.41534
				0.358624	1.21587	0.185753	2.23703	0.357371	1.21094	0.71051	5.58836	0.856573	7.29923	0.588951	2.56092	0.773805	6.4181
				0.359174	1.21802	0.187838	2.2369	0.358501	1.21535	0.715681	5.51096	0.863351	7.24967	0.591308	2.49953	0.779785	6.41872
				0.359872	1.22093	0.189922	2.23675	0.359635	1.21994	0.720779	5.43293	0.86922	7.20565	0.593609	2.44075	0.785765	6.41672
				0.360718	1.2245	0.192006	2.23661	0.360774	1.22473	0.725805	5.35436	0.874194	7.16782	0.595856	2.38448	0.791742	6.41202
				0.361714	1.2288	0.194089	2.23646	0.361917	1.22968	0.730757	5.27538	0.878287	7.13644	0.598052	2.33064	0.797714	6.40469
				0.362862	1.23384	0.196173	2.23636	0.363066	1.23476	0.735635	5.19616	0.881511	7.11176	0.600199	2.27914	0.803677	6.39484
				0.364013	1.239	0.198257	2.23626	0.364218	1.23994	0.740439	5.11674	0.883874	7.09351	0.602299	2.22992	0.80963	6.38252
				0.36517	1.24432	0.20034	2.23615	0.365376	1.24523	0.745169	5.03722	0.885384	7.08194	0.604354	2.18286	0.81557	6.36775
				0.366332	1.24969	0.202423	2.23601	0.366539	1.25067	0.749825	4.9578	0.887549	7.06548	0.606366	2.13787	0.821495	6.35062
				0.367499	1.25516	0.204507	2.23587	0.367706	1.25617	0.754408	4.87851	0.889897	7.04759	0.608338	2.0949	0.827404	6.33118
				0.368671	1.26075	0.20659	2.23577	0.368879	1.26173	0.758916	4.79945	0.893081	7.02362	0.61027	2.05387	0.833293	6.30949
				0.369848	1.26637	0.208673	2.23571	0.370058	1.26741	0.763351	4.72082	0.897092	6.99373	0.612165	2.01467	0.839161	6.28564
				0.371031	1.27207	0.210756	2.23561	0.371241	1.27311	0.767713	4.64261	0.90192	6.95839	0.614024	1.97724	0.845005	6.25962
				0.372219	1.27789	0.212838	2.23549	0.37243	1.27889	0.772002	4.56494	0.907553	6.91821	0.615849	1.94153	0.850825	6.23152
				0.373412	1.28373	0.214921	2.23539	0.373624	1.28474	0.776219	4.48798	0.913978	6.87391	0.617642	1.90745	0.856617	6.20143
				0.374611	1.28957	0.217004	2.23527	0.374824	1.29063	0.780365	4.41171	0.920362	6.83169	0.619404	1.87492	0.86238	6.16939
				0.375815	1.2955	0.219086	2.23521	0.376029	1.29655	0.78444	4.33622	0.926708	6.79176	0.621136	1.8439	0.868113	6.13543
				0.377025	1.30147	0.221169	2.23514	0.37724	1.30251	0.788445	4.26164	0.933018	6.75411	0.62284	1.81425	0.873813	6.09966
				0.37824	1.30742	0.223251	2.23503	0.378456	1.30849	0.792381	4.18798	0.939294	6.71858	0.624516	1.78603	0.879479	6.06215
				0.379461	1.31343	0.225334	2.23494	0.379678	1.31448	0.796249	4.11534	0.945537	6.68511	0.626168	1.75909	0.885109	6.02288
				0.380687	1.31944	0.227416	2.23486	0.380906	1.32056	0.800049	4.04378	0.95175	6.65357	0.627794	1.73336	0.890702	5.98201
				0.38192	1.32549	0.229498	2.23479	0.382139	1.3266	0.803784	3.97329	0.957935	6.62378	0.629398	1.70889	0.896256	5.93957
				0.383157	1.33159	0.23158	2.23471	0.383378	1.33262	0.807453	3.90392	0.964093	6.59556	0.630979	1.68551	0.90177	5.89564
				0.384401	1.33764	0.233662	2.23464	0.384622	1.33871	0.811058	3.83572	0.970225	6.5687	0.632538	1.66325	0.907242	5.85027
				0.38565	1.3437	0.235744	2.23456	0.385872	1.34479	0.8146	3.76873	0.976333	6.54293	0.634078	1.64204	0.912671	5.80357
				0.386905	1.34978	0.237826	2.23449	0.387128	1.35083	0.818081	3.70302	0.982417	6.51811	0.635598	1.62181	0.918056	5.75561
				0.388165	1.35581	0.239908	2.23442	0.388389	1.3569	0.821501	3.63852	0.988479	6.49401	0.6371	1.60257	0.923396	5.70639
				0.389431	1.36191	0.24199	2.23434	0.389656	1.36297	0.824861	3.57525	0.994518	6.47047	0.638584	1.58424	0.928689	5.65611
				0.390703	1.36796	0.244071	2.23427	0.390929	1.36904	0.828163	3.51329	1.00054	6.45883	0.640052	1.56672	0.933936	5.60483
				0.39198	1.37399	0.246153	2.23423	0.392207	1.37512	0.831407	3.45258			0.641504	1.55009	0.939133	5.55252
				0.393263	1.38008	0.248235	2.23418	0.393491	1.38112	0.834596	3.39314			0.64294	1.53427	0.944282	5.49935
				0.394552	1.38609	0.250316	2.23411	0.394781	1.38713	0.83773	3.33501			0.644363	1.51918	0.949381	5.44544
				0.395846	1.39206	0.252398	2.23404	0.396076	1.39317	0.840811	3.27814			0.645771	1.50482	0.954429	5.3908
				0.397146	1.39809	0.254479	2.23397	0.397377	1.39916	0.843839	3.22258			0.647167	1.4912	0.959426	5.33554
				0.398451	1.40407	0.25656	2.2339	0.398683	1.40512	0.846816	3.16828			0.64855	1.47823	0.964371	5.27974
				0.399762	1.40999	0.258642	2.23387	0.399995	1.41103	0.849742	3.1152			0.649921	1.46589	0.969264	5.22347
				0.401078	1.41591	0.260723	2.23381	0.401313	1.41695	0.85262	3.06336			0.651281	1.45415	0.974105	5.16684
				0.4024	1.42184	0.262804	2.23375	0.402636	1.42288	0.855451	3.01279			0.652631	1.44305	0.978892	5.10988
				0.403728	1.4277	0.264885	2.23371	0.403964	1.42877	0.858234	2.96341			0.65397	1.43248	0.983626	5.0527
				0.405061	1.43356	0.266966	2.23363	0.405298	1.43461	0.860973	2.91525			0.6553	1.42243	0.988307	4.99539
				0.406399	1.43938	0.269047	2.23358	0.406637	1.44039	0.863667	2.86828			0.656621	1.41298	0.992935	4.93799
				0.407743	1.44515	0.271128	2.23356	0.407982	1.44617	0.866317	2.82245			0.657933	1.40393	0.997509	4.88055
				0.409092	1.45096	0.273209	2.23351	0.409332	1.45195	0.868926	2.77779			0.659237	1.39538	1.00203	4.85183
				0.410447	1.45669	0.27529	2.23345	0.410687	1.4577	0.871493	2.73425			0.660533	1.38733		
				0.411806	1.46237	0.277371	2.23342	0.412048	1.46339	0.874021	2.69183			0.661822	1.37968		
				0.413172	1.46803	0.279452	2.23337	0.413414	1.46902	0.876509	2.65048			0.663104	1.37245		
				0.414542	1.47365	0.281533	2.23331	0.414786	1.47466	0.87896	2.61024			0.66438	1.36561		
				0.415918	1.47927	0.283614	2.23327	0.416162	1.48029	0.881373	2.57105			0.665649	1.35915		
				0.417298	1.48483	0.285694	2.23322	0.417544	1.48582	0.883751	2.53285			0.666912	1.35307		
				0.418684	1.49036	0.287775	2.2332	0.418931	1.49133	0.886093	2.49569			0.66817	1.34735		
				0.420076	1.49587	0.289856	2.23315	0.420323	1.49684	0.888401	2.45946			0.669423	1.34197		
				0.421472	1.50133	0.291936	2.23308	0.42172	1.5023	0.890676	2.42425			0.670671	1.33689		
				0.422873	1.50674	0.294017	2.23309	0.423122	1.5077	0.892918	2.39001			0.671914	1.33212		
				0.424279	1.51212	0.296097	2.23306	0.424529	1.51308	0.895129	2.35667			0.673153	1.32769		
				0.425691	1.51751	0.298178	2.23297	0.425942	1.51844	0.89731	2.32422			0.674388	1.32357		
				0.427107	1.52281	0.300258	2.23296	0.427359	1.52372	0.89946	2.29265			0.675619	1.31964		
				0.428528	1.52806	0.302339	2.23292	0.428781	1.52899	0.901582	2.26196			0.676847	1.31602		
				0.429954	1.53329	0.304419	2.23286	0.430208	1.53423	0.903675	2.23211			0.678072	1.31268		
				0.431385	1.5385	0.306499	2.23287	0.43164	1.53945	0.905741	2.20309			0.679293	1.30951		
				0.432821	1.54367	0.30858	2.2328	0.433077	1.54459	0.90778	2.17488			0.680512	1.30664		
				0.434262	1.54878	0.31066	2.23277	0.434518	1.54968	0.909794	2.14745			0.681728	1.30396		
				0.435707	1.55387	0.31274	2.23275	0.435964	1.55476	0.911782	2.12073			0.682941	1.30152		
				0.437157	1.55893	0.31482	2.2327	0.437415	1.55979	0.913746	2.09481			0.684153	1.29928		
				0.438612	1.56392	0.316901	2.23268	0.438871	1.56483	0.915685	2.06965			0.685363	1.2972		
				0.440072	1.56887	0.318981	2.23263	0.440331	1.56976	0.917602	2.04514			0.68657	1.2954		
				0.441536	1.57383	0.321061	2.23264	0.441796	1.57469	0.919496	2.02134			0.687776	1.29372		
				0.443004	1.5787	0.323141	2.23261	0.443265	1.57956	0.921369	1.99824			0.688981	1.29223		
				0.444477	1.58354	0.325221	2.23253	0.444739	1.58438	0.92322	1.97578			0.690184	1.29093		
				0.445955	1.58838	0.327301	2.23252	0.446218	1.58925	0.92505	1.95396			0.691386	1.28977		
				0.447437	1.59315	0.329381	2.23251	0.447701	1.59399	0.926861	1.93273			0.692588	1.28879		
				0.448924	1.59787	0.331461	2.23248	0.449188	1.5987	0.928652	1.91215			0.693788	1.28793		
				0.450415	1.60258	0.333541	2.23242	0.45068	1.60344	0.930424	1.89219			0.694988	1.28721		
				0.45191	1.60724	0.335621	2.23239	0.452176	1.60804	0.932178	1.87276			0.696187	1.28666		
				0.45341	1.61184	0.337701	2.23241	0.453676	1.61265	0.933914	1.85389			0.697385	1.28624		
				0.454913	1.61641	0.339781	2.23235	0.455181	1.61726	0.935632	1.83556			0.698583	1.28596		
				0.456422	1.62097	0.341861	2.23232	0.45669	1.6218	0.937334	1.81779			0.699781	1.28578		
				0.457934	1.62548	0.343941	2.23231	0.458203	1.62626	0.939019	1.80055			0.700979	1.28573		
				0.45945	1.62997	0.34602	2.23226	0.45972	1.63073	0.940689	1.78381			0.702177	1.28578		
				0.460971	1.63438	0.3481	2.23228	0.461241	1.63516	0.942343	1.76752			0.703375	1.28599		
				0.462496	1.63874	0.35018	2.23225	0.462767	1.63954	0.943983	1.75173			0.704573	1.28627		
				0.464025	1.64316	0.35226	2.2322	0.464296	1.64392	0.945608	1.73643			0.705772	1.28663		
				0.465558	1.64745	0.354339	2.23217	0.46583	1.6482	0.947218	1.72157			0.706971	1.28711		
				0.467095	1.65172	0.356419	2.23216	0.467368	1.65247	0.948815	1.70714			0.70817	1.28771		
				0.468636	1.65598	0.358499	2.23215	0.468909	1.65672	0.950399	1.69315			0.70937	1.28838		
				0.47018	1.66016	0.360578	2.23211	0.470455	1.66094	0.95197	1.67957			0.710571	1.28912		
				0.471729	1.66438	0.362658	2.23205	0.472004	1.6651	0.953529	1.6664			0.711773	1.29		
				0.473282	1.6685	0.364738	2.23206	0.473558	1.66923	0.955076	1.65363			0.712975	1.29091		
				0.474838	1.67257	0.366817	2.23207	0.475115	1.67331	0.95661	1.6412			0.714178	1.29189		
				0.476398	1.67666	0.368897	2.23203	0.476676	1.67736	0.958134	1.6292			0.715382	1.29296		
				0.477962	1.68072	0.370976	2.23198	0.47824	1.6814	0.959646	1.61756			0.716587	1.29415		
				0.47953	1.68469	0.373056	2.23195	0.479809	1.6854	0.961148	1.60625			0.717794	1.29537		
				0.481102	1.68862	0.375135	2.23197	0.481381	1.68934	0.962639	1.59532			0.719001	1.29664		
				0.482677	1.69259	0.377215	2.23195	0.482957	1.69325	0.964121	1.58469			0.72021	1.29801		
				0.484256	1.69649	0.379294	2.2319	0.484536	1.69715	0.965592	1.5744			0.72142	1.29939		
				0.485838	1.7003	0.381374	2.23191	0.486119	1.701	0.967054	1.56442			0.722631	1.30085		
				0.487424	1.70411	0.383453	2.23188	0.487706	1.70483	0.968507	1.55478			0.723844	1.30242		
				0.489013	1.70792	0.385533	2.23183	0.489296	1.70861	0.969952	1.54541			0.725058	1.30401		
				0.490606	1.71169	0.387612	2.23184	0.49089	1.71234	0.971387	1.5363			0.726274	1.30561		
				0.492203	1.71541	0.389692	2.23185	0.492487	1.71607	0.972814	1.52753			0.727491	1.30733		
				0.493803	1.7191	0.391771	2.23181	0.494087	1.71976	0.974233	1.51905			0.72871	1.30906		
				0.495406	1.72278	0.39385	2.23176	0.495691	1.72337	0.975645	1.51078			0.72993	1.31081		
				0.497013	1.72637	0.39593	2.23177	0.497299	1.727	0.977049	1.5028			0.731152	1.31267		
				0.498623	1.72997	0.398009	2.23177	0.498909	1.73061	0.978445	1.49511			0.732376	1.31452		
				0.500237	1.73356	0.400088	2.2317	0.500523	1.73418	0.979835	1.4876			0.733602	1.31643		
				0.501854	1.73704	0.402167	2.2317	0.502141	1.73768	0.981217	1.48037			0.734829	1.31841		
				0.503474	1.74053	0.404247	2.2317	0.503761	1.74119	0.982593	1.47338			0.736059	1.32039		
				0.505097	1.74404	0.406326	2.23167	0.505385	1.74466	0.983963	1.46663			0.73729	1.32241		
				0.506723	1.74748	0.408405	2.23165	0.507012	1.74805	0.985326	1.46011			0.738523	1.32448		
				0.508353	1.75088	0.410484	2.23164	0.508642	1.75146	0.986683	1.45373			0.739758	1.32658		
				0.509986	1.75423	0.412564	2.23164	0.510276	1.75485	0.988035	1.44761			0.740995	1.32869		
				0.511622	1.75755	0.414643	2.2316	0.511912	1.75816	0.989381	1.44173			0.742234	1.33084		
				0.513261	1.7609	0.416722	2.23158	0.513552	1.76146	0.990721	1.43598			0.743474	1.33305		
				0.514903	1.76422	0.418801	2.2316	0.515195	1.76476	0.992057	1.43046			0.744718	1.33526		
				0.516548	1.76746	0.42088	2.23158	0.516841	1.76802	0.993387	1.42517			0.745963	1.33749		
				0.518197	1.77065	0.422959	2.23153	0.518489	1.77126	0.994712	1.42001			0.74721	1.33975		
				0.519848	1.77386	0.425039	2.23151	0.520141	1.77446	0.996033	1.41504			0.748459	1.34205		
				0.521502	1.77703	0.427118	2.2315	0.521796	1.7776	0.997349	1.41029			0.749711	1.34441		
				0.523159	1.7802	0.429197	2.23153	0.523453	1.7807	0.998661	1.40564			0.750964	1.34672		
				0.524819	1.78332	0.431276	2.23151	0.525114	1.78383	0.999968	1.40116			0.75222	1.34905		
				0.526482	1.78638	0.433355	2.23146	0.526777	1.78693	1.00127	1.39898			0.753478	1.35142		
				0.528148	1.78941	0.435434	2.23144	0.528444	1.78998					0.754738	1.35385		
				0.529816	1.79247	0.437513	2.23142	0.530113	1.79301					0.756001	1.35628		
				0.531488	1.79549	0.439592	2.23142	0.531785	1.79603					0.757266	1.3587		
				0.533162	1.79844	0.441671	2.23142	0.53346	1.799					0.758533	1.36115		
				0.534839	1.80141	0.44375	2.23141	0.535137	1.80191					0.759802	1.36363		
				0.536519	1.80436	0.445829	2.23138	0.536817	1.80484					0.761074	1.36614		
				0.538201	1.80723	0.447908	2.23136	0.5385	1.80773					0.762348	1.36861		
				0.539886	1.81009	0.449987	2.23138	0.540186	1.8106					0.763624	1.37109		
				0.541574	1.81295	0.452066	2.23136	0.541874	1.81346					0.764902	1.37365		
				0.543265	1.81577	0.454145	2.23131	0.543565	1.81629					0.766183	1.37621		
				0.544958	1.81857	0.456224	2.23129	0.545258	1.81909					0.767467	1.37873		
				0.546653	1.82133	0.458302	2.23131	0.546955	1.82185					0.768753	1.38128		
				0.548352	1.8241	0.460381	2.23129	0.548653	1.82454					0.770041	1.38387		
				0.550052	1.82684	0.46246	2.23128	0.550354	1.82728					0.771331	1.38641		
				0.551756	1.82953	0.464539	2.23127	0.552058	1.83001					0.772624	1.389		
				0.553462	1.83219	0.466618	2.23123	0.553764	1.83265					0.773919	1.39161		
				0.55517	1.83484	0.468697	2.23125	0.555473	1.83533					0.775217	1.39424		
				0.556881	1.83748	0.470776	2.23122	0.557184	1.83795					0.776517	1.39683		
				0.558594	1.84009	0.472854	2.23121	0.558898	1.84054					0.77782	1.39941		
				0.560309	1.84267	0.474933	2.2312	0.560614	1.84312					0.779125	1.40205		
				0.562027	1.84521	0.477012	2.2312	0.562332	1.84565					0.780433	1.40469		
				0.563748	1.84776	0.479091	2.23119	0.564053	1.8482					0.781743	1.40733		
				0.56547	1.85028	0.48117	2.23116	0.565776	1.85072					0.783055	1.40997		
				0.567195	1.85278	0.483248	2.23114	0.567502	1.85323					0.78437	1.41261		
				0.568923	1.85528	0.485327	2.23113	0.56923	1.85569					0.785687	1.41524		
				0.570653	1.8577	0.487406	2.23112	0.57096	1.85813					0.787007	1.41788		
				0.572385	1.86012	0.489485	2.23112	0.572692	1.86055					0.788329	1.42055		
				0.574119	1.86254	0.491563	2.23112	0.574427	1.86298					0.789654	1.42321		
				0.575855	1.86492	0.493642	2.23108	0.576163	1.86536					0.790981	1.42582		
				0.577594	1.86728	0.495721	2.23106	0.577902	1.86769					0.792311	1.42848		
				0.579335	1.86963	0.497799	2.23109	0.579644	1.87002					0.793643	1.43116		
				0.581078	1.87194	0.499878	2.23107	0.581387	1.87236					0.794978	1.43382		
				0.582823	1.87427	0.501957	2.23106	0.583133	1.87467					0.796315	1.43651		
				0.58457	1.87657	0.504035	2.23105	0.58488	1.87695					0.797655	1.43913		
				0.58632	1.87878	0.506114	2.23101	0.58663	1.87923					0.798997	1.44176		
				0.588071	1.88102	0.508193	2.23103	0.588382	1.88147					0.800341	1.44447		
				0.589825	1.88328	0.510271	2.231	0.590136	1.88365					0.801688	1.44714		
				0.59158	1.88551	0.51235	2.23099	0.591892	1.88588					0.803038	1.4498		
				0.593338	1.88768	0.514428	2.23102	0.59365	1.88809					0.80439	1.45241		
				0.595098	1.88987	0.516507	2.23096	0.59541	1.89022					0.805744	1.45507		
				0.59686	1.89202	0.518586	2.23097	0.597172	1.89235					0.807101	1.45775		
				0.598623	1.89413	0.520664	2.23097	0.598936	1.89451					0.808461	1.46037		
				0.600389	1.89624	0.522743	2.23093	0.600703	1.89662					0.809822	1.46304		
				0.602157	1.89832	0.524821	2.23095	0.602471	1.8987					0.811187	1.46569		
				0.603926	1.90042	0.5269	2.23093	0.604241	1.9008					0.812554	1.46834		
				0.605698	1.90246	0.528978	2.23091	0.606013	1.90284					0.813923	1.47098		
				0.607471	1.90451	0.531057	2.23091	0.607786	1.90488					0.815295	1.47358		
				0.609247	1.90656	0.533135	2.23087	0.609562	1.90689					0.816669	1.47624		
				0.611024	1.90853	0.535214	2.23088	0.61134	1.90889					0.818045	1.47888		
				0.612803	1.91055	0.537292	2.23089	0.613119	1.91091					0.819424	1.48149		
				0.614584	1.91254	0.539371	2.23086	0.6149	1.91287					0.820806	1.48411		
				0.616367	1.91449	0.541449	2.23084	0.616684	1.91481					0.82219	1.48674		
				0.618152	1.91642	0.543528	2.23087	0.618468	1.91676					0.823576	1.48933		
				0.619938	1.91834	0.545606	2.23085	0.620255	1.91869					0.824965	1.49195		
				0.621726	1.92025	0.547685	2.2308	0.622044	1.92058					0.826356	1.49458		
				0.623516	1.92212	0.549763	2.23081	0.623834	1.92247					0.82775	1.49717		
				0.625308	1.924	0.551842	2.23082	0.625626	1.92437					0.829146	1.49975		
				0.627101	1.9259	0.55392	2.23082	0.62742	1.92619					0.830545	1.50232		
				0.628897	1.92773	0.555999	2.23079	0.629215	1.92806					0.831946	1.50493		
				0.630694	1.92956	0.558077	2.23077	0.631013	1.92991					0.833349	1.50751		
				0.632492	1.93139	0.560155	2.2308	0.632811	1.93168					0.834755	1.51008		
				0.634292	1.93318	0.562234	2.23078	0.634612	1.93347					0.836163	1.51265		
				0.636094	1.93496	0.564312	2.23073	0.636414	1.93529					0.837573	1.51522		
				0.637898	1.93672	0.566391	2.23074	0.638218	1.93704					0.838986	1.51778		
				0.639703	1.93845	0.568469	2.23075	0.640024	1.93876					0.840402	1.52031		
				0.64151	1.94019	0.570547	2.23075	0.641831	1.94053					0.841819	1.52286		
				0.643319	1.94194	0.572626	2.23071	0.64364	1.94226					0.843239	1.52541		
				0.645129	1.94366	0.574704	2.2307	0.64545	1.94397					0.844662	1.52793		
				0.64694	1.94536	0.576782	2.23073	0.647262	1.94566					0.846086	1.53044		
				0.648754	1.94705	0.578861	2.2307	0.649076	1.94732					0.847513	1.53297		
				0.650569	1.94874	0.580939	2.23069	0.650891	1.94898					0.848943	1.53549		
				0.652385	1.95035	0.583017	2.23069	0.652707	1.95066					0.850375	1.53799		
				0.654203	1.952	0.585096	2.23065	0.654526	1.95231					0.851809	1.54048		
				0.656022	1.95363	0.587174	2.23066	0.656345	1.95393					0.853245	1.54294		
				0.657843	1.95525	0.589252	2.23067	0.658166	1.95555					0.854684	1.54545		
				0.659666	1.95687	0.591331	2.23064	0.659989	1.95713					0.856125	1.54795		
				0.66149	1.95845	0.593409	2.23062	0.661813	1.95873					0.857568	1.55041		
				0.663315	1.96004	0.595487	2.23061	0.663639	1.96029					0.859014	1.55288		
				0.665142	1.96157	0.597565	2.23065	0.665466	1.96185					0.860462	1.55533		
				0.66697	1.96314	0.599644	2.23063	0.667295	1.96343					0.861912	1.55776		
				0.6688	1.96469	0.601722	2.23058	0.669125	1.96495					0.863365	1.56018		
				0.670631	1.9662	0.6038	2.23059	0.670956	1.96648					0.864819	1.56264		
				0.672464	1.96773	0.605878	2.2306	0.672789	1.96798					0.866276	1.56508		
				0.674298	1.96922	0.607957	2.23057	0.674623	1.96946					0.867736	1.56747		
				0.676133	1.9707	0.610035	2.23059	0.676459	1.97101					0.869197	1.56991		
				0.67797	1.97217	0.612113	2.2306	0.678296	1.97248					0.870661	1.5723		
				0.679808	1.97364	0.614191	2.23056	0.680134	1.97391					0.872127	1.57467		
				0.681648	1.97511	0.616269	2.23055	0.681974	1.97535					0.873595	1.5771		
				0.683489	1.97657	0.618348	2.23054	0.683815	1.97681					0.875066	1.57948		
				0.685331	1.978	0.620426	2.23054	0.685658	1.97823					0.876538	1.58181		
				0.687174	1.97941	0.622504	2.2305	0.687502	1.97964					0.878013	1.58419		
				0.689019	1.98081	0.624582	2.23052	0.689347	1.98108					0.87949	1.58654		
				0.690865	1.98221	0.62666	2.23052	0.691193	1.98249					0.88097	1.58889		
				0.692713	1.9836	0.628738	2.23049	0.693041	1.98386					0.882451	1.59124		
				0.694562	1.98496	0.630817	2.23051	0.69489	1.9852					0.883935	1.59359		
				0.696412	1.98633	0.632895	2.23049	0.69674	1.98657					0.885421	1.5959		
				0.698263	1.98772	0.634973	2.23047	0.698592	1.98795					0.886909	1.59818		
				0.700116	1.98903	0.637051	2.23047	0.700444	1.9893					0.888399	1.60054		
				0.701969	1.99038	0.639129	2.23046	0.702298	1.99059					0.889891	1.60281		
				0.703824	1.99172	0.641207	2.23046	0.704154	1.99194					0.891385	1.60509		
				0.705681	1.99301	0.643285	2.23046	0.70601	1.99327					0.892882	1.60739		
				0.707538	1.99431	0.645363	2.23046	0.707868	1.99452					0.894381	1.60968		
				0.709397	1.99559	0.647441	2.23042	0.709727	1.99584					0.895881	1.61193		
				0.711257	1.99689	0.64952	2.23041	0.711587	1.99712					0.897384	1.61418		
				0.713118	1.99816	0.651598	2.23043	0.713448	1.99839					0.898889	1.61645		
				0.71498	1.99941	0.653676	2.23045	0.715311	1.99964					0.900396	1.61868		
				0.716843	2.0007	0.655754	2.23042	0.717174	2.00089					0.901905	1.62093		
				0.718708	2.00193	0.657832	2.2304	0.719039	2.00214					0.903417	1.62315		
				0.720574	2.00313	0.65991	2.23039	0.720905	2.00335					0.90493	1.62536		
				0.722441	2.00439	0.661988	2.23039	0.722772	2.00461					0.906445	1.62757		
				0.724309	2.00561	0.664066	2.23035	0.72464	2.00583					0.907963	1.62977		
				0.726178	2.0068	0.666144	2.23037	0.72651	2.00699					0.909482	1.63197		
				0.728048	2.00799	0.668222	2.23038	0.72838	2.00819					0.911004	1.63416		
				0.72992	2.00916	0.6703	2.23035	0.730252	2.00942					0.912527	1.63633		
				0.731792	2.01037	0.672378	2.23037	0.732124	2.01058					0.914053	1.63847		
				0.733666	2.01153	0.674456	2.23034	0.733998	2.01174					0.91558	1.64064		
				0.73554	2.01269	0.676534	2.23033	0.735873	2.01291					0.91711	1.64282		
				0.737416	2.01386	0.678612	2.23036	0.737749	2.01405					0.918642	1.64498		
				0.739293	2.01499	0.68069	2.23034	0.739626	2.01516					0.920175	1.64708		
				0.741171	2.01611	0.682768	2.23029	0.741504	2.01631					0.921711	1.64919		
				0.74305	2.01725	0.684846	2.2303	0.743383	2.01746					0.923248	1.65135		
				0.74493	2.01837	0.686924	2.23031	0.745263	2.01856					0.924788	1.65345		
				0.746811	2.01945	0.689002	2.23031	0.747145	2.01965					0.926329	1.65553		
				0.748693	2.02057	0.69108	2.23031	0.749027	2.02078					0.927873	1.65763		
				0.750576	2.02168	0.693158	2.23028	0.75091	2.02186					0.929418	1.65974		
				0.75246	2.02275	0.695236	2.23026	0.752794	2.02295					0.930966	1.66182		
				0.754345	2.02383	0.697314	2.23029	0.75468	2.02405					0.932515	1.66385		
				0.756231	2.02492	0.699392	2.23026	0.756566	2.02507					0.934066	1.66593		
				0.758118	2.02598	0.701469	2.23025	0.758453	2.02613					0.935619	1.66799		
				0.760006	2.02702	0.703547	2.23025	0.760341	2.02721					0.937174	1.67001		
				0.761895	2.02806	0.705625	2.23024	0.762231	2.02823					0.938731	1.67205		
				0.763785	2.02909	0.707703	2.23024	0.764121	2.02928					0.94029	1.67409		
				0.765676	2.03011	0.709781	2.23024	0.766012	2.03033					0.94185	1.67614		
				0.767568	2.03114	0.711859	2.23024	0.767904	2.03132					0.943413	1.67811		
				0.769461	2.03217	0.713937	2.2302	0.769797	2.03233					0.944977	1.68013		
				0.771355	2.03315	0.716015	2.23022	0.771691	2.03335					0.946544	1.68212		
				0.77325	2.03416	0.718093	2.23019	0.773586	2.03434					0.948112	1.68411		
				0.775145	2.03518	0.720171	2.23018	0.775482	2.03534					0.949682	1.68609		
				0.777042	2.03616	0.722248	2.23021	0.777379	2.03636					0.951254	1.68803		
				0.77894	2.03713	0.724326	2.23019	0.779276	2.03727					0.952827	1.69003		
				0.780838	2.03809	0.726404	2.23018	0.781175	2.03824					0.954403	1.69198		
				0.782737	2.03905	0.728482	2.23017	0.783074	2.03923					0.95598	1.69391		
				0.784638	2.04	0.73056	2.23017	0.784975	2.04021					0.957559	1.69586		
				0.786539	2.04099	0.732638	2.23017	0.786876	2.04117					0.95914	1.69783		
				0.788441	2.04193	0.734715	2.23017	0.788778	2.04209					0.960723	1.69972		
				0.790344	2.04283	0.736793	2.23017	0.790681	2.04299					0.962308	1.70162		
				0.792247	2.04376	0.738871	2.23013	0.792585	2.04392					0.963894	1.70353		
				0.794152	2.0447	0.740949	2.23011	0.79449	2.04486					0.965482	1.70543		
				0.796057	2.04565	0.743027	2.23014	0.796396	2.0458					0.967072	1.70733		
				0.797964	2.04652	0.745105	2.23012	0.798302	2.04671					0.968663	1.7092		
				0.799871	2.04744	0.747182	2.23011	0.800209	2.04757					0.970257	1.71109		
				0.801779	2.04833	0.74926	2.23014	0.802118	2.04848					0.971852	1.71298		
				0.803688	2.04922	0.751338	2.23011	0.804027	2.04941					0.973449	1.71481		
				0.805597	2.05011	0.753416	2.2301	0.805936	2.05027					0.975047	1.71664		
				0.807508	2.05099	0.755493	2.23006	0.807847	2.05111					0.976647	1.71854		
				0.809419	2.05187	0.757571	2.23008	0.809758	2.05201					0.978249	1.72037		
				0.811331	2.05271	0.759649	2.23009	0.811671	2.05289					0.979853	1.72217		
				0.813244	2.05357	0.761727	2.23005	0.813584	2.05374					0.981458	1.72402		
				0.815158	2.05444	0.763804	2.23007	0.815498	2.0546					0.983066	1.72582		
				0.817072	2.05532	0.765882	2.23008	0.817412	2.05543					0.984674	1.7276		
				0.818988	2.05612	0.76796	2.23005	0.819328	2.05625					0.986285	1.72941		
				0.820904	2.05696	0.770038	2.23004	0.821244	2.0571					0.987897	1.73122		
				0.822821	2.05782	0.772115	2.23007	0.823161	2.05797					0.989511	1.73301		
				0.824738	2.05862	0.774193	2.23004	0.825079	2.05877					0.991126	1.73475		
				0.826657	2.05942	0.776271	2.23003	0.826997	2.05957					0.992743	1.73653		
				0.828576	2.06026	0.778349	2.23003	0.828916	2.06041					0.994362	1.7383		
				0.830496	2.06108	0.780426	2.23002	0.830836	2.0612					0.995982	1.74007		
				0.832416	2.06186	0.782504	2.23002	0.832757	2.06199					0.997604	1.74183		
				0.834338	2.06265	0.784582	2.22998	0.834679	2.06283					0.999228	1.74351		
				0.83626	2.06345	0.786659	2.23	0.836601	2.06361					1.00085	1.74435		
				0.838183	2.06425	0.788737	2.23001	0.838524	2.06437								
				0.840106	2.06502	0.790815	2.22998	0.840448	2.06515								
				0.842031	2.06577	0.792892	2.23	0.842372	2.06591								
				0.843956	2.06658	0.79497	2.22997	0.844297	2.06669								
				0.845882	2.06735	0.797048	2.22996	0.846223	2.06745								
				0.847808	2.06807	0.799125	2.22999	0.84815	2.0682								
				0.849735	2.06883	0.801203	2.22997	0.850077	2.06897								
				0.851663	2.06958	0.803281	2.22996	0.852005	2.06972								
				0.853592	2.07032	0.805358	2.22995	0.853934	2.07047								
				0.855521	2.07109	0.807436	2.22991	0.855863	2.07121								
				0.857451	2.07181	0.809513	2.22993	0.857793	2.07194								
				0.859382	2.07253	0.811591	2.22994	0.859724	2.07267								
				0.861313	2.07326	0.813669	2.22991	0.861656	2.07341								
				0.863245	2.07399	0.815746	2.22993	0.863588	2.0741								
				0.865177	2.07472	0.817824	2.22994	0.86552	2.07482								
				0.867111	2.07538	0.819902	2.22991	0.867454	2.07554								
				0.869045	2.07611	0.821979	2.22989	0.869388	2.07623								
				0.870979	2.07681	0.824057	2.22992	0.871323	2.07694								
				0.872915	2.07748	0.826134	2.2299	0.873258	2.07763								
				0.874851	2.07823	0.828212	2.22989	0.875194	2.0783								
				0.876787	2.07889	0.830289	2.22988	0.877131	2.079								
				0.878724	2.07955	0.832367	2.22988	0.879068	2.07968								
				0.880662	2.08025	0.834445	2.22988	0.881006	2.08035								
				0.882601	2.08093	0.836522	2.22984	0.882945	2.08106								
				0.88454	2.0816	0.8386	2.22986	0.884884	2.0817								
				0.88648	2.08226	0.840677	2.22987	0.886824	2.08235								
				0.88842	2.08288	0.842755	2.22983	0.888764	2.08304								
				0.890361	2.08356	0.844832	2.22985	0.890705	2.08368								
				0.892302	2.08423	0.84691	2.22986	0.892647	2.08433								
				0.894244	2.08486	0.848987	2.22983	0.894589	2.08499								
				0.896187	2.0855	0.851065	2.22982	0.896532	2.08561								
				0.898131	2.08615	0.853142	2.22981	0.898475	2.08624								
				0.900075	2.08677	0.85522	2.2298	0.900419	2.08689								
				0.902019	2.08741	0.857297	2.2298	0.902364	2.08751								
				0.903964	2.08806	0.859375	2.2298	0.904309	2.08815								
				0.90591	2.08864	0.861452	2.2298	0.906255	2.0888								
				0.907856	2.08926	0.86353	2.2298	0.908202	2.08938								
				0.909803	2.0899	0.865607	2.22976	0.910148	2.09								
				0.91175	2.09051	0.867685	2.22978	0.912096	2.09064								
				0.913698	2.09111	0.869762	2.22979	0.914044	2.09122								
				0.915647	2.09171	0.87184	2.22976	0.915993	2.0918								
				0.917596	2.09229	0.873917	2.22978	0.917942	2.09242								
				0.919546	2.09292	0.875995	2.22975	0.919892	2.09302								
				0.921496	2.09352	0.878072	2.22974	0.921842	2.09361								
				0.923447	2.09408	0.88015	2.22973	0.923793	2.0942								
				0.925398	2.09466	0.882227	2.22973	0.925744	2.09476								
				0.92735	2.09523	0.884304	2.22973	0.927696	2.09532								
				0.929302	2.09582	0.886382	2.22973	0.929649	2.09594								
				0.931255	2.0964	0.888459	2.22973	0.931602	2.0965								
				0.933209	2.09699	0.890537	2.22973	0.933555	2.09708								
				0.935163	2.09754	0.892614	2.22973	0.93551	2.09766								
				0.937117	2.0981	0.894692	2.22969	0.937464	2.09817								
				0.939072	2.09868	0.896769	2.22971	0.939419	2.09875								
				0.941028	2.09919	0.898846	2.22972	0.941375	2.09934								
				0.942984	2.09973	0.900924	2.22969	0.943331	2.09985								
				0.944941	2.10034	0.903001	2.22967	0.945288	2.1004								
				0.946898	2.10086	0.905078	2.2297	0.947245	2.10097								
				0.948855	2.10138	0.907156	2.22968	0.949203	2.10151								
				0.950813	2.10196	0.909233	2.22967	0.951161	2.10203								
				0.952772	2.10248	0.911311	2.22966	0.95312	2.10255								
				0.954731	2.10299	0.913388	2.22966	0.955079	2.1031								
				0.956691	2.10354	0.915465	2.22966	0.957039	2.10364								
				0.958651	2.10407	0.917543	2.22966	0.958999	2.10416								
				0.960611	2.10459	0.91962	2.22965	0.960959	2.10468								
				0.962573	2.10507	0.921697	2.22962	0.962921	2.10519								
				0.964534	2.10561	0.923775	2.22964	0.964882	2.10571								
				0.966496	2.10613	0.925852	2.22965	0.966844	2.10618								
				0.968459	2.10661	0.927929	2.22961	0.968807	2.10671								
				0.970422	2.10715	0.930007	2.2296	0.97077	2.10724								
				0.972385	2.10767	0.932084	2.22963	0.972733	2.10772								
				0.974349	2.10815	0.934161	2.2296	0.974697	2.10825								
				0.976313	2.10865	0.936239	2.22959	0.976662	2.10874								
				0.978278	2.10911	0.938316	2.22959	0.978627	2.1092								
				0.980243	2.10961	0.940393	2.22958	0.980592	2.10972								
				0.982209	2.11014	0.942471	2.22962	0.982558	2.11021								
				0.984175	2.1106	0.944548	2.2296	0.984524	2.11067								
				0.986142	2.11108	0.946625	2.22955	0.986491	2.11119								
				0.988109	2.11158	0.948702	2.22957	0.988458	2.11167								
				0.990077	2.11204	0.95078	2.22957	0.990426	2.11213								
				0.992045	2.1125	0.952857	2.22954	0.992394	2.11258								
				0.994013	2.11298	0.954934	2.22956	0.994362	2.11306								
				0.995982	2.11348	0.957012	2.22953	0.996331	2.11356								
				0.997951	2.11391	0.959089	2.22952	0.998301	2.11399								
				0.999921	2.11435	0.961166	2.22955	1.00027	2.11421								
				1.00189	2.11457	0.963243	2.22953										
						0.96532	2.22952										
						0.967398	2.22951										
						0.969475	2.22951										
						0.971552	2.22951										
						0.973629	2.22951										
						0.975707	2.22951										
						0.977784	2.22951										
						0.979861	2.22951										
						0.981938	2.22947										
						0.984015	2.22945										
						0.986093	2.22948										
						0.98817	2.22949										
						0.990247	2.22946										
						0.992324	2.22945										
						0.994401	2.22948										
						0.996479	2.22946										
						0.998556	2.22941										
						1.00063	2.22939										
