Sym0		Asym0		Sym1		Sym2		Sym3		Sym4		Asym1		Asym2		Asym3	
455  Points		492  Points		169  Points		138  Points		121  Points		90  Points		292  Points		150  Points		119  Points	
Freq (MHz)	Vph (m/ms)	Freq (MHz)	Vph (m/ms)	Freq (MHz)	Vph (m/ms)	Freq (MHz)	Vph (m/ms)	Freq (MHz)	Vph (m/ms)	Freq (MHz)	Vph (m/ms)	Freq (MHz)	Vph (m/ms)	Freq (MHz)	Vph (m/ms)	Freq (MHz)	Vph (m/ms)
0.00347481	7.44349	0.000348519	0.193554	0.27954	448.915	0.532572	2183.29	0.559023	1650.23	0.838544	1036.53	0.139852	203.759	0.419264	3044.47	0.698798	782.402
0.0104093	7.44307	0.000797561	0.291898	0.279705	179.945	0.532594	453.03	0.559107	440.085	0.838613	481.771	0.140298	86.7076	0.419329	392.113	0.698884	382.984
0.0173422	7.44232	0.00142205	0.388113	0.280011	112.631	0.532646	252.76	0.559287	253.974	0.838732	313.852	0.141099	55.3383	0.419494	209.631	0.699029	253.59
0.0242725	7.44118	0.00221321	0.48158	0.280457	82.0581	0.532727	175.296	0.559562	178.555	0.838901	232.764	0.142248	40.8589	0.419759	143.126	0.699233	189.585
0.031199	7.43966	0.00316066	0.571815	0.281043	64.6152	0.53284	134.193	0.559933	137.727	0.83912	185	0.143735	32.5697	0.420124	108.714	0.699495	151.408
0.0381209	7.43778	0.00425271	0.658406	0.281767	53.353	0.532984	108.719	0.560398	112.142	0.83939	153.524	0.145546	27.2311	0.420589	87.6924	0.699816	126.056
0.0450368	7.4355	0.00547715	0.741077	0.282628	45.4907	0.533162	91.3871	0.560955	94.6133	0.839709	131.222	0.147666	23.5268	0.421153	73.5268	0.700196	108
0.0519458	7.43283	0.00682142	0.819636	0.283624	39.6979	0.533374	78.8339	0.561604	81.8591	0.840078	114.595	0.150081	20.8208	0.421815	63.3397	0.700635	94.4887
0.0588466	7.42976	0.00827309	0.893983	0.284755	35.2582	0.533623	69.3243	0.562343	72.1664	0.840497	101.724	0.152772	18.7682	0.422576	55.666	0.701131	84.001
0.0657382	7.42629	0.0098203	0.964109	0.286016	31.7515	0.533911	61.8727	0.56317	64.5541	0.840966	91.4666	0.155723	17.1659	0.423434	49.6816	0.701686	75.6258
0.0726193	7.42242	0.0114517	1.03006	0.287408	28.9153	0.534239	55.8776	0.564084	58.4198	0.841485	83.1019	0.158916	15.8863	0.424389	44.8868	0.702299	68.7848
0.0794886	7.41812	0.013157	1.09193	0.288926	26.5768	0.534609	50.9512	0.565083	53.3732	0.842053	76.1513	0.162335	14.8454	0.425441	40.9615	0.70297	63.0931
0.086345	7.41339	0.0149265	1.14988	0.290569	24.6181	0.535023	46.8322	0.566165	49.1502	0.842671	70.2851	0.165963	13.9856	0.426587	37.6908	0.703698	58.2846
0.0931871	7.40823	0.0167517	1.20406	0.292334	22.9556	0.535484	43.3381	0.567329	45.5657	0.843338	65.2686	0.169787	13.2662	0.427828	34.9254	0.704484	54.1695
0.100013	7.40261	0.0186248	1.25467	0.294218	21.5285	0.535993	40.3377	0.568574	42.4864	0.844054	60.9306	0.173789	12.6576	0.429162	32.558	0.705328	50.6087
0.106823	7.39654	0.0205389	1.3019	0.296218	20.2915	0.536553	37.734	0.569896	39.8134	0.84482	57.1426	0.177958	12.1376	0.430588	30.5098	0.706228	47.498
0.113613	7.39	0.022488	1.34596	0.298331	19.2102	0.537165	35.4539	0.571296	37.4722	0.845634	53.8068	0.181717	11.7436	0.432106	28.7212	0.707185	44.7578
0.120384	7.38296	0.0244668	1.38705	0.300555	18.2581	0.537831	33.4415	0.572772	35.4053	0.846497	50.8473	0.185007	11.4444	0.433714	27.147	0.708198	42.3261
0.127133	7.37542	0.0264709	1.42538	0.302887	17.4141	0.538553	31.6527	0.574321	33.5679	0.847408	48.2043	0.187784	11.219	0.435411	25.7514	0.709268	40.1541
0.133858	7.36735	0.0284961	1.46113	0.305322	16.6616	0.539334	30.0529	0.575944	31.9243	0.848368	45.83	0.190015	11.0534	0.437196	24.5066	0.710393	38.2027
0.140558	7.35875	0.0302754	1.49032	0.307859	15.9872	0.540174	28.6142	0.577639	30.4459	0.849376	43.6857	0.191673	10.9381	0.439067	23.3899	0.711574	36.4404
0.14723	7.34959	0.0318015	1.51386	0.310494	15.3799	0.541077	27.314	0.579404	29.1094	0.850432	41.7399	0.192743	10.8671	0.441023	22.3832	0.71281	34.8414
0.153874	7.33985	0.033069	1.53245	0.313224	14.8307	0.542043	26.1336	0.581239	27.8958	0.851536	39.9664	0.194291	10.7685	0.443063	21.4714	0.714101	33.3841
0.160486	7.32951	0.0340743	1.5466	0.316046	14.3321	0.543074	25.0577	0.583143	26.7893	0.852688	38.3438	0.195988	10.6658	0.445186	20.6423	0.715447	32.051
0.167064	7.31854	0.0348151	1.55672	0.318959	13.8778	0.544173	24.0735	0.585114	25.7766	0.853886	36.8536	0.198318	10.5333	0.44739	19.8854	0.716847	30.827
0.173606	7.30691	0.0352899	1.56306	0.321958	13.4626	0.545341	23.1702	0.587151	24.8465	0.855132	35.4806	0.201301	10.3763	0.449673	19.1921	0.7183	29.6996
0.18011	7.29461	0.0359733	1.57202	0.325042	13.0819	0.546579	22.3385	0.589254	23.9897	0.856425	34.2117	0.20496	10.2009	0.452035	18.5551	0.719807	28.6579
0.186573	7.2816	0.0367173	1.58153	0.328208	12.7319	0.54789	21.5707	0.591422	23.198	0.857764	33.0357	0.209319	10.0133	0.454473	17.968	0.721367	27.6928
0.192993	7.26785	0.0377306	1.59411	0.331454	12.4093	0.549274	20.8601	0.593655	22.4646	0.859149	31.9428	0.214404	9.81892	0.456987	17.4255	0.722979	26.7962
0.199365	7.25333	0.0390149	1.60945	0.334778	12.1113	0.550735	20.2007	0.59595	21.7835	0.860581	30.9248	0.219572	9.64409	0.459575	16.923	0.724643	25.9614
0.205687	7.238	0.0405712	1.62719	0.337737	11.8697	0.552272	19.5877	0.598308	21.1494	0.862058	29.9744	0.224816	9.4862	0.462235	16.4563	0.72636	25.1823
0.211956	7.22184	0.0424007	1.64694	0.340304	11.6759	0.553888	19.0167	0.600727	20.5579	0.863581	29.0851	0.230129	9.34309	0.464966	16.0221	0.728127	24.4537
0.218169	7.2048	0.0445044	1.66828	0.342457	11.5235	0.555585	18.4837	0.603208	20.0049	0.865149	28.2514	0.235507	9.21293	0.467766	15.6172	0.729945	23.771
0.224322	7.18686	0.0466118	1.68831	0.34418	11.4077	0.557364	17.9854	0.605749	19.4871	0.866762	27.4684	0.240944	9.09416	0.470634	15.239	0.731814	23.1301
0.23041	7.16796	0.0487221	1.70713	0.345457	11.3252	0.559226	17.5187	0.60835	19.0012	0.86842	26.7316	0.246435	8.98544	0.473569	14.8849	0.733732	22.5273
0.236431	7.14808	0.0508343	1.72484	0.346279	11.2734	0.561172	17.0812	0.61101	18.5446	0.870122	26.0373	0.251976	8.88563	0.476569	14.553	0.7357	21.9596
0.24238	7.12718	0.0529482	1.74151	0.347468	11.2005	0.563205	16.6703	0.613729	18.1149	0.871868	25.3819	0.257563	8.79373	0.479632	14.2414	0.737717	21.424
0.248253	7.10523	0.055063	1.75722	0.348768	11.1231	0.565325	16.284	0.616506	17.7098	0.873658	24.7623	0.263192	8.70888	0.482758	13.9483	0.739782	20.918
0.254046	7.08218	0.0571786	1.77204	0.350552	11.0209	0.567533	15.9203	0.61934	17.3275	0.875491	24.1759	0.268859	8.63034	0.485944	13.6723	0.741895	20.4393
0.259755	7.058	0.0592944	1.78604	0.352832	10.8965	0.569831	15.5776	0.622231	16.9661	0.877367	23.62	0.274561	8.55745	0.489189	13.4121	0.744056	19.9858
0.265375	7.03267	0.0614102	1.79928	0.355624	10.7529	0.572219	15.2544	0.625179	16.6242	0.879286	23.0924	0.280295	8.48964	0.492492	13.1663	0.746264	19.5557
0.270903	7.00616	0.063526	1.81181	0.358949	10.5934	0.574699	14.9492	0.628183	16.3002	0.881248	22.5912	0.286058	8.4264	0.495852	12.934	0.748518	19.1473
0.276333	6.97845	0.0656413	1.82368	0.362831	10.4214	0.577271	14.6608	0.631242	15.993	0.883251	22.1144	0.291847	8.36728	0.499267	12.7141	0.750818	18.759
0.281662	6.94951	0.0677562	1.83494	0.366782	10.2603	0.579935	14.388	0.634356	15.7013	0.885297	21.6603	0.297659	8.3119	0.502736	12.5057	0.753164	18.3896
0.286886	6.91935	0.0698704	1.84563	0.370804	10.1094	0.582693	14.1298	0.637526	15.424	0.887383	21.2275	0.303493	8.25988	0.506257	12.308	0.755554	18.0376
0.292001	6.88794	0.0719839	1.85579	0.374897	9.96775	0.585544	13.8853	0.640749	15.1603	0.889511	20.8144	0.309344	8.21094	0.509368	12.1439	0.757989	17.702
0.297005	6.85531	0.0740967	1.86545	0.379061	9.83484	0.588489	13.6534	0.644027	14.9092	0.891679	20.42	0.315212	8.16477	0.51205	12.0097	0.760468	17.3817
0.301894	6.82147	0.0762087	1.87465	0.383297	9.71002	0.591527	13.4335	0.647359	14.6699	0.893888	20.0429	0.321094	8.12113	0.514288	11.9024	0.76299	17.0757
0.306666	6.78642	0.0783198	1.88341	0.387606	9.59276	0.594659	13.2248	0.650744	14.4417	0.896137	19.6822	0.326987	8.0798	0.516071	11.8199	0.765556	16.7832
0.311319	6.75021	0.0804301	1.89178	0.391988	9.48256	0.597883	13.0266	0.654183	14.2239	0.898426	19.3368	0.332891	8.04057	0.517389	11.7605	0.768163	16.5032
0.315852	6.71288	0.0825396	1.89976	0.396444	9.37896	0.6012	12.8383	0.657675	14.0159	0.900754	19.0057	0.338803	8.00325	0.518236	11.723	0.770812	16.2352
0.320262	6.67446	0.0846481	1.90739	0.400974	9.28155	0.604609	12.6592	0.66122	13.8171	0.90312	18.6883	0.344721	7.96769	0.519457	11.6698	0.773503	15.9783
0.324552	6.63502	0.0867558	1.91468	0.405579	9.18996	0.608108	12.4889	0.664817	13.627	0.905526	18.3836	0.350643	7.93373	0.520791	11.6129	0.776235	15.732
0.328719	6.59461	0.0888626	1.92167	0.410259	9.10381	0.611231	12.3471	0.668468	13.445	0.907969	18.0911	0.356568	7.90122	0.522614	11.5372	0.779007	15.4955
0.332766	6.5533	0.0909686	1.92836	0.415014	9.02277	0.613946	12.231	0.672171	13.2708	0.910451	17.8099	0.362494	7.87006	0.524935	11.4438	0.781818	15.2685
0.336693	6.51117	0.0930737	1.93477	0.419843	8.94654	0.616227	12.138	0.675928	13.104	0.912969	17.5395	0.36842	7.84012	0.527765	11.3345	0.784669	15.0503
0.340502	6.4683	0.0951781	1.94092	0.424745	8.87481	0.618055	12.0664	0.679737	12.944	0.915525	17.2793	0.374343	7.8113	0.531116	11.211	0.787559	14.8405
0.344196	6.42475	0.0972816	1.94683	0.42972	8.8073	0.619411	12.0149	0.6836	12.7906	0.918118	17.0288	0.380263	7.7835	0.535003	11.0752	0.790487	14.6387
0.347776	6.38061	0.0993844	1.95251	0.434766	8.74375	0.620285	11.9823	0.687516	12.6435	0.920747	16.7875	0.386177	7.75664	0.538932	10.9454	0.793452	14.4444
0.351246	6.33597	0.101486	1.95796	0.43988	8.6839	0.621548	11.9361	0.690972	12.5201	0.923413	16.5548	0.392085	7.73063	0.542903	10.8213	0.796455	14.2573
0.354609	6.2909	0.103588	1.96322	0.445062	8.62751	0.622932	11.8868	0.693951	12.4183	0.926113	16.3305	0.397985	7.7054	0.546915	10.7025	0.799495	14.0769
0.357868	6.24548	0.105688	1.96827	0.450308	8.57435	0.624831	11.8209	0.696436	12.3365	0.928849	16.114	0.403874	7.68088	0.550967	10.5888	0.802571	13.903
0.361026	6.1998	0.107788	1.97315	0.455617	8.52419	0.627261	11.7398	0.698416	12.2732	0.93162	15.905	0.409753	7.65701	0.555058	10.4797	0.805683	13.7352
0.364087	6.15391	0.109888	1.97784	0.460984	8.47684	0.63024	11.6447	0.69988	12.2274	0.934426	15.7031	0.415619	7.63372	0.559187	10.3752	0.80883	13.5733
0.367056	6.1079	0.111986	1.98237	0.466406	8.4321	0.63379	11.5372	0.700821	12.1984	0.937266	15.508	0.421471	7.61096	0.563353	10.2749	0.812012	13.4169
0.369935	6.06182	0.114085	1.98675	0.471882	8.38977	0.637937	11.419	0.702178	12.1573	0.940139	15.3194	0.427308	7.58868	0.567557	10.1786	0.815228	13.2658
0.372728	6.01575	0.116182	1.99097	0.477407	8.34969	0.642158	11.306	0.70366	12.1132	0.943046	15.137	0.433128	7.56684	0.571797	10.0861	0.818478	13.1198
0.375439	5.96974	0.118279	1.99505	0.482977	8.31168	0.646452	11.1979	0.705687	12.0542	0.945987	14.9604	0.438929	7.54538	0.576072	9.9972	0.821762	12.9786
0.378072	5.92385	0.120375	1.999	0.488591	8.27559	0.650815	11.0945	0.708269	11.9811	0.948959	14.7895	0.444712	7.52427	0.580382	9.91174	0.82465	12.8593
0.380631	5.87812	0.122471	2.00282	0.494243	8.24128	0.655244	10.9953	0.71142	11.8952	0.951965	14.624	0.450473	7.50346	0.584726	9.82953	0.827132	12.7603
0.383117	5.8326	0.124567	2.00651	0.499932	8.20861	0.659738	10.9003	0.715156	11.7975	0.955002	14.4637	0.456211	7.48292	0.589104	9.75041	0.829198	12.6802
0.385536	5.78734	0.126662	2.01009	0.505654	8.17746	0.664292	10.8092	0.719496	11.6894	0.958071	14.3083	0.461927	7.46262	0.593515	9.67424	0.83084	12.618
0.387891	5.74237	0.128756	2.01356	0.511405	8.14771	0.668903	10.7217	0.723894	11.5855	0.961171	14.1576	0.467617	7.44252	0.59796	9.60088	0.832052	12.5729
0.390183	5.69773	0.13085	2.01692	0.517183	8.11925	0.673569	10.6376	0.72835	11.4855	0.964303	14.0114	0.47328	7.42259	0.602436	9.53019	0.83283	12.5443
0.392418	5.65344	0.132944	2.02018	0.522985	8.09197	0.678286	10.5567	0.732865	11.3894	0.967464	13.8696	0.478916	7.40281	0.606945	9.46205	0.833951	12.5035
0.394597	5.60954	0.135037	2.02334	0.528809	8.0658	0.68305	10.4789	0.737441	11.2969	0.970657	13.7319	0.484522	7.38314	0.611485	9.39635	0.835173	12.4597
0.396723	5.56604	0.13713	2.02641	0.53465	8.04063	0.687858	10.404	0.742077	11.208	0.973879	13.5983	0.490098	7.36356	0.616056	9.33298	0.836842	12.4008
0.3988	5.52298	0.139223	2.02939	0.540508	8.0164	0.692707	10.3317	0.746775	11.1224	0.97713	13.4685	0.495642	7.34406	0.620659	9.27183	0.838963	12.3277
0.400829	5.48037	0.141315	2.03229	0.546379	7.99303	0.697594	10.262	0.751536	11.0402	0.980411	13.3423	0.501153	7.3246	0.625292	9.21282	0.841543	12.2411
0.402813	5.43822	0.143407	2.0351	0.552262	7.97045	0.702515	10.1947	0.75636	10.961	0.983294	13.2353	0.50663	7.30516	0.629956	9.15585	0.844592	12.1421
0.404507	5.40188	0.145498	2.03784	0.558154	7.94861	0.707466	10.1296	0.761249	10.8849	0.985769	13.1462	0.51207	7.28573	0.634649	9.10083	0.848118	12.0316
0.405927	5.3712	0.147589	2.0405	0.564053	7.92743	0.712446	10.0666	0.766202	10.8117	0.987827	13.0738	0.517474	7.26629	0.639373	9.04769	0.851674	11.9245
0.407085	5.34604	0.14968	2.04309	0.569957	7.90688	0.71745	10.0056	0.771222	10.7413	0.989462	13.0175	0.522839	7.24683	0.644126	8.99634	0.855259	11.8205
0.407991	5.32628	0.151771	2.04561	0.575865	7.8869	0.722476	9.94644	0.776308	10.6736	0.990668	12.9766	0.528165	7.22731	0.648909	8.94672	0.858874	11.7195
0.408651	5.31182	0.153861	2.04807	0.581775	7.86745	0.72752	9.88904	0.78146	10.6086	0.991442	12.9506	0.533451	7.20774	0.653721	8.89875	0.862517	11.6215
0.409071	5.30261	0.155951	2.05046	0.587685	7.84849	0.73258	9.83329	0.78668	10.546	0.992557	12.9135	0.538694	7.18811	0.658562	8.85238	0.866187	11.5262
0.409672	5.28941	0.158041	2.05279	0.593594	7.82997	0.737654	9.7791	0.791968	10.486	0.993773	12.8736	0.543895	7.16838	0.663432	8.80753	0.869886	11.4337
0.410321	5.27512	0.16013	2.05506	0.5995	7.81187	0.74274	9.72638	0.797324	10.4282	0.995432	12.8199	0.549051	7.14856	0.66833	8.76416	0.873612	11.3438
0.411196	5.25579	0.162219	2.05727	0.605402	7.79415	0.747834	9.67505	0.802748	10.3728	0.997539	12.7531	0.554163	7.12864	0.673257	8.7222	0.877365	11.2563
0.412292	5.23153	0.164309	2.05943	0.611298	7.77678	0.752936	9.62503	0.808239	10.3195	1.0001	12.6737	0.559229	7.10861	0.678211	8.6816	0.881145	11.1713
0.413601	5.20245	0.166397	2.06154	0.617188	7.75974	0.758043	9.57627	0.813797	10.2683			0.564248	7.08846	0.683194	8.6423	0.884952	11.0885
0.415115	5.16871	0.168486	2.06359	0.62307	7.74299	0.763154	9.52868	0.819423	10.2192			0.569219	7.06818	0.688203	8.60426	0.888784	11.0081
0.416825	5.13048	0.170574	2.0656	0.628944	7.72652	0.768268	9.48222	0.825114	10.1719			0.574142	7.04778	0.69324	8.56744	0.892642	10.9297
0.418507	5.09279	0.172662	2.06756	0.634807	7.7103	0.773383	9.43684	0.830872	10.1266			0.579016	7.02723	0.698303	8.53177	0.896525	10.8535
0.420163	5.05562	0.17475	2.06947	0.640659	7.69431	0.7785	9.39249	0.836693	10.0831			0.58384	7.00655	0.703393	8.49723	0.900434	10.7792
0.421795	5.01898	0.176838	2.07134	0.646499	7.67853	0.783616	9.34913	0.842578	10.0412			0.588613	6.98573	0.708508	8.46376	0.904367	10.7069
0.423403	4.98288	0.178926	2.07317	0.652327	7.66294	0.788732	9.30672	0.848525	10.0011			0.593335	6.96476	0.713649	8.43133	0.908325	10.6364
0.424989	4.9473	0.181013	2.07496	0.65814	7.64754	0.793848	9.26523	0.854532	9.96246			0.598006	6.94365	0.718814	8.3999	0.912306	10.5677
0.426554	4.91224	0.1831	2.0767	0.663939	7.63229	0.798963	9.22462	0.860599	9.92538			0.602625	6.92239	0.724004	8.36942	0.916312	10.5008
0.4281	4.8777	0.185188	2.07841	0.669722	7.61719	0.804077	9.18486	0.866723	9.88975			0.607192	6.901	0.729217	8.33987	0.920341	10.4355
0.429627	4.84369	0.187274	2.08008	0.675489	7.60222	0.809191	9.14594	0.872904	9.8555			0.611707	6.87946	0.734454	8.31119	0.924394	10.3719
0.431137	4.81018	0.189361	2.08172	0.681239	7.58737	0.814304	9.10782	0.879139	9.82257			0.616169	6.85778	0.739713	8.28337	0.928469	10.3099
0.43263	4.77719	0.191448	2.08332	0.686971	7.57263	0.819417	9.07048	0.885427	9.7909			0.620577	6.83596	0.744993	8.25637	0.932568	10.2493
0.434108	4.7447	0.193534	2.08489	0.692684	7.55798	0.82453	9.03391	0.891766	9.76044			0.624934	6.81402	0.750295	8.23014	0.936688	10.1903
0.435572	4.7127	0.195621	2.08642	0.698378	7.54342	0.829644	8.99809	0.898154	9.73112			0.629237	6.79194	0.755617	8.20467	0.940831	10.1327
0.437022	4.6812	0.197707	2.08793	0.704051	7.52894	0.834759	8.96299	0.904589	9.7029			0.633487	6.76974	0.760959	8.17992	0.944996	10.0764
0.43846	4.65019	0.199793	2.0894	0.709704	7.51452	0.839875	8.9286	0.91107	9.67572			0.637685	6.74741	0.766319	8.15585	0.949183	10.0215
0.439885	4.61966	0.201879	2.09084	0.715335	7.50016	0.844993	8.89491	0.917595	9.64954			0.64183	6.72497	0.771697	8.13245	0.953391	9.96786
0.441299	4.58961	0.203965	2.09225	0.720945	7.48584	0.850114	8.86191	0.924163	9.62431			0.645922	6.70243	0.777092	8.10968	0.95762	9.91549
0.442703	4.56002	0.206051	2.09364	0.726531	7.47157	0.855238	8.82956	0.930771	9.59998			0.649963	6.67977	0.782504	8.08752	0.961871	9.86434
0.444097	4.5309	0.208136	2.095	0.732094	7.45732	0.860365	8.79787	0.937418	9.57651			0.653952	6.65702	0.78793	8.06593	0.966142	9.81436
0.445482	4.50223	0.210222	2.09633	0.737633	7.44311	0.865496	8.76682	0.944102	9.55386			0.657889	6.63418	0.793371	8.0449	0.970433	9.76553
0.446858	4.47401	0.212307	2.09764	0.743148	7.42891	0.870632	8.7364	0.950822	9.53199			0.661775	6.61126	0.798825	8.0244	0.974745	9.71781
0.448226	4.44623	0.214392	2.09892	0.748637	7.41473	0.875773	8.70658	0.957576	9.51086			0.66561	6.58825	0.804292	8.0044	0.979077	9.67117
0.449587	4.41889	0.216477	2.10017	0.754101	7.40055	0.88092	8.67737	0.964362	9.49044			0.669395	6.56517	0.80977	7.98488	0.983429	9.62557
0.450941	4.39198	0.218562	2.10141	0.759538	7.38637	0.886072	8.64875	0.971179	9.4707			0.67313	6.54202	0.81526	7.96582	0.987801	9.58099
0.452289	4.36549	0.220647	2.10262	0.764948	7.37219	0.891231	8.62071	0.978026	9.45159			0.676816	6.51882	0.820758	7.94721	0.992192	9.53739
0.45363	4.33942	0.222732	2.10381	0.770331	7.358	0.896396	8.59323	0.984901	9.4331			0.680454	6.49556	0.826266	7.929	0.996602	9.49475
0.454967	4.31375	0.224817	2.10498	0.775687	7.3438	0.901569	8.5663	0.991803	9.41518			0.684043	6.47226	0.831781	7.9112	1.00103	9.45304
0.456298	4.28849	0.226902	2.10612	0.781013	7.32958	0.906749	8.53992	0.998729	9.39782			0.687584	6.44892	0.837304	7.89377		
0.457624	4.26362	0.228986	2.10725	0.786311	7.31533	0.911936	8.51407	1.00568	9.38098			0.691078	6.42554	0.842832	7.87671		
0.458947	4.23915	0.231071	2.10835	0.79158	7.30107	0.917131	8.48873					0.694526	6.40214	0.848365	7.85998		
0.460265	4.21505	0.233155	2.10944	0.796819	7.28677	0.922335	8.46391					0.697928	6.37871	0.853903	7.84358		
0.46158	4.19133	0.23524	2.11051	0.802028	7.27244	0.927547	8.43958					0.701284	6.35527	0.859444	7.82749		
0.462892	4.16798	0.237324	2.11156	0.807207	7.25808	0.932767	8.41573					0.704596	6.33183	0.864987	7.81168		
0.464201	4.145	0.239408	2.11259	0.812355	7.24369	0.937996	8.39236					0.707864	6.30838	0.870532	7.79616		
0.465508	4.12237	0.241492	2.1136	0.817471	7.22925	0.943234	8.36946					0.711089	6.28493	0.876077	7.7809		
0.466812	4.10009	0.243576	2.1146	0.822556	7.21477	0.94848	8.347					0.714271	6.26149	0.881622	7.76589		
0.468115	4.07816	0.24566	2.11558	0.827609	7.20025	0.953736	8.32499					0.717411	6.23807	0.887166	7.75111		
0.469415	4.05656	0.247744	2.11654	0.83263	7.18569	0.959	8.30342					0.72051	6.21467	0.892709	7.73655		
0.470715	4.0353	0.249828	2.11749	0.837618	7.17108	0.964273	8.28226					0.723568	6.19129	0.898248	7.72221		
0.472013	4.01437	0.251912	2.11842	0.842574	7.15642	0.969555	8.26152					0.726587	6.16795	0.903784	7.70806		
0.47331	3.99375	0.253995	2.11934	0.847497	7.14172	0.974846	8.24117					0.729566	6.14464	0.909315	7.6941		
0.474606	3.97345	0.256079	2.12024	0.852387	7.12697	0.980145	8.22122					0.732506	6.12136	0.914842	7.68031		
0.475902	3.95346	0.258163	2.12113	0.857243	7.11217	0.985453	8.20164					0.735408	6.09814	0.920363	7.66669		
0.477198	3.93378	0.260246	2.12201	0.862066	7.09732	0.990769	8.18244					0.738273	6.07496	0.925877	7.65323		
0.478493	3.91439	0.262329	2.12287	0.866855	7.08242	0.996093	8.1636					0.741102	6.05184	0.931383	7.63991		
0.479788	3.8953	0.264413	2.12372	0.87161	7.06748	1.00143	8.14511					0.743894	6.02877	0.936882	7.62673		
0.481084	3.87649	0.266496	2.12455	0.876332	7.05248							0.746651	6.00577	0.942372	7.61368		
0.48238	3.85797	0.26858	2.12537	0.881019	7.03744							0.749374	5.98283	0.947853	7.60074		
0.483676	3.83973	0.270663	2.12618	0.885672	7.02235							0.752062	5.95996	0.953324	7.58792		
0.484973	3.82176	0.272746	2.12698	0.890292	7.00721							0.754717	5.93717	0.958784	7.5752		
0.486271	3.80406	0.274829	2.12776	0.894877	6.99202							0.75734	5.91445	0.964232	7.56258		
0.487569	3.78662	0.276912	2.12854	0.899428	6.97679							0.75993	5.89181	0.969669	7.55005		
0.488869	3.76944	0.278995	2.1293	0.903944	6.96151							0.762489	5.86925	0.975093	7.5376		
0.49017	3.75251	0.281078	2.13005	0.908427	6.9462							0.765017	5.84678	0.980504	7.52523		
0.491472	3.73583	0.283161	2.13079	0.912875	6.93083							0.767515	5.8244	0.985901	7.51293		
0.492776	3.7194	0.285244	2.13152	0.917289	6.91543							0.769984	5.80211	0.991284	7.5007		
0.494081	3.70321	0.287327	2.13224	0.92167	6.89999							0.772423	5.77991	0.996652	7.48852		
0.495388	3.68726	0.28941	2.13295	0.926016	6.8845							0.774835	5.75782	1.002	7.4764		
0.496696	3.67153	0.291492	2.13365	0.930328	6.86899							0.777218	5.73581				
0.498007	3.65604	0.293575	2.13434	0.934607	6.85343							0.779574	5.71392				
0.499319	3.64077	0.295658	2.13502	0.938852	6.83784							0.781904	5.69212				
0.500633	3.62572	0.29774	2.13569	0.943063	6.82222							0.784207	5.67043				
0.501949	3.61088	0.299823	2.13635	0.947241	6.80657							0.786486	5.64885				
0.503267	3.59626	0.301906	2.137	0.951385	6.79088							0.788739	5.62737				
0.504587	3.58185	0.303988	2.13764	0.955496	6.77517							0.790968	5.60601				
0.505909	3.56764	0.306071	2.13828	0.959575	6.75943							0.793173	5.58476				
0.507234	3.55364	0.308153	2.13891	0.96362	6.74367							0.795355	5.56363				
0.508561	3.53983	0.310235	2.13952	0.967633	6.72788							0.797514	5.54261				
0.509891	3.52622	0.312318	2.14013	0.971613	6.71208							0.799651	5.5217				
0.511223	3.51279	0.3144	2.14074	0.975561	6.69625							0.801766	5.50092				
0.512557	3.49956	0.316482	2.14133	0.979476	6.6804							0.80386	5.48025				
0.513894	3.48651	0.318565	2.14192	0.98336	6.66454							0.805933	5.45971				
0.515234	3.47364	0.320647	2.14249	0.987212	6.64866							0.807985	5.43928				
0.516576	3.46095	0.322729	2.14307	0.991032	6.63277							0.810018	5.41898				
0.517921	3.44843	0.324811	2.14363	0.994821	6.61687							0.812032	5.3988				
0.519268	3.43609	0.326894	2.14419	0.998578	6.60096							0.814027	5.37874				
0.520619	3.42391	0.328976	2.14474	1.00231	6.58504							0.816003	5.35881				
0.521972	3.41191	0.331058	2.14528									0.817962	5.33901				
0.523327	3.40006	0.33314	2.14582									0.819902	5.31933				
0.524686	3.38838	0.335222	2.14635									0.821826	5.29977				
0.526048	3.37685	0.337304	2.14687									0.823733	5.28034				
0.527412	3.36548	0.339386	2.14739									0.825623	5.26104				
0.528779	3.35427	0.341468	2.1479									0.827498	5.24186				
0.530149	3.3432	0.34355	2.1484									0.829357	5.22282				
0.531523	3.33228	0.345632	2.1489									0.831201	5.2039				
0.532899	3.32151	0.347713	2.1494									0.83303	5.1851				
0.534278	3.31088	0.349795	2.14988									0.834845	5.16644				
0.53566	3.30038	0.351877	2.15036									0.836646	5.1479				
0.537045	3.29003	0.353959	2.15084									0.838433	5.12949				
0.538433	3.27982	0.356041	2.15131									0.840207	5.11121				
0.539824	3.26973	0.358122	2.15178									0.841968	5.09305				
0.541218	3.25978	0.360204	2.15223									0.843716	5.07502				
0.542615	3.24996	0.362286	2.15269									0.845451	5.05712				
0.544016	3.24026	0.364368	2.15314									0.847175	5.03935				
0.545419	3.23069	0.366449	2.15358									0.848887	5.0217				
0.546825	3.22125	0.368531	2.15402									0.850587	5.00418				
0.548235	3.21192	0.370612	2.15446									0.852277	4.98679				
0.549647	3.20271	0.372694	2.15489									0.853956	4.96952				
0.551063	3.19362	0.374776	2.15531									0.855624	4.95237				
0.552481	3.18465	0.376857	2.15573									0.857281	4.93535				
0.553903	3.17579	0.378939	2.15615									0.858929	4.91846				
0.555328	3.16704	0.38102	2.15656									0.860567	4.90169				
0.556756	3.1584	0.383102	2.15696									0.862196	4.88504				
0.558186	3.14987	0.385183	2.15737									0.863815	4.86852				
0.55962	3.14145	0.387265	2.15776									0.865426	4.85211				
0.561058	3.13313	0.389346	2.15816									0.867027	4.83583				
0.562498	3.12491	0.391427	2.15855									0.868621	4.81967				
0.563941	3.1168	0.393509	2.15893									0.870206	4.80363				
0.565387	3.10878	0.39559	2.15932									0.871783	4.78772				
0.566837	3.10087	0.397672	2.15969									0.873352	4.77192				
0.568289	3.09305	0.399753	2.16007									0.874913	4.75624				
0.569745	3.08532	0.401834	2.16044									0.876468	4.74067				
0.571203	3.07769	0.403915	2.1608									0.878015	4.72523				
0.572665	3.07015	0.405997	2.16117									0.879555	4.7099				
0.574129	3.06271	0.408078	2.16152									0.881088	4.69469				
0.575597	3.05535	0.410159	2.16188									0.882615	4.6796				
0.577068	3.04808	0.412241	2.16223									0.884135	4.66461				
0.578541	3.0409	0.414322	2.16258									0.88565	4.64975				
0.580018	3.03381	0.416403	2.16292									0.887158	4.63499				
0.581498	3.0268	0.418484	2.16326									0.88866	4.62035				
0.58298	3.01987	0.420565	2.1636									0.890157	4.60582				
0.584466	3.01302	0.422647	2.16394									0.891648	4.59141				
0.585954	3.00626	0.424728	2.16427									0.893134	4.5771				
0.587446	2.99957	0.426809	2.1646									0.894615	4.5629				
0.58894	2.99296	0.42889	2.16492									0.896091	4.54881				
0.590438	2.98643	0.430971	2.16524									0.897562	4.53483				
0.591938	2.97998	0.433052	2.16556									0.899028	4.52096				
0.593442	2.9736	0.435133	2.16588									0.900489	4.50719				
0.594948	2.96729	0.437214	2.16619									0.901947	4.49353				
0.596457	2.96106	0.439295	2.1665									0.9034	4.47997				
0.597969	2.9549	0.441376	2.16681									0.904848	4.46652				
0.599484	2.94881	0.443457	2.16711									0.906293	4.45317				
0.601001	2.94279	0.445538	2.16741									0.907734	4.43993				
0.602522	2.93684	0.447619	2.16771									0.909171	4.42678				
0.604045	2.93095	0.4497	2.16801									0.910605	4.41374				
0.605571	2.92513	0.451781	2.1683									0.912035	4.4008				
0.6071	2.91938	0.453862	2.16859									0.913461	4.38795				
0.608632	2.91369	0.455943	2.16888									0.914885	4.37521				
0.610167	2.90807	0.458024	2.16916									0.916305	4.36256				
0.611704	2.90251	0.460105	2.16945									0.917722	4.35002				
0.613244	2.89701	0.462186	2.16973									0.919137	4.33756				
0.614787	2.89157	0.464267	2.17									0.920548	4.32521				
0.616333	2.88619	0.466348	2.17028									0.921957	4.31295				
0.617881	2.88087	0.468429	2.17055									0.923363	4.30078				
0.619432	2.87561	0.47051	2.17082									0.924766	4.2887				
0.620986	2.87041	0.47259	2.17109									0.926167	4.27672				
0.622543	2.86526	0.474671	2.17135									0.927566	4.26483				
0.624102	2.86018	0.476752	2.17162									0.928963	4.25304				
0.625663	2.85514	0.478833	2.17188									0.930357	4.24133				
0.627228	2.85016	0.480914	2.17214									0.93175	4.22971				
0.628795	2.84524	0.482995	2.17239									0.93314	4.21818				
0.630365	2.84037	0.485075	2.17265									0.934528	4.20674				
0.631937	2.83555	0.487156	2.1729									0.935915	4.19539				
0.633512	2.83078	0.489237	2.17315									0.9373	4.18412				
0.635089	2.82606	0.491318	2.1734									0.938683	4.17294				
0.636669	2.8214	0.493398	2.17364									0.940065	4.16184				
0.638252	2.81678	0.495479	2.17389									0.941445	4.15083				
0.639837	2.81221	0.49756	2.17413									0.942823	4.1399				
0.641425	2.80769	0.499641	2.17437									0.944201	4.12906				
0.643015	2.80322	0.501721	2.17461									0.945577	4.1183				
0.644607	2.7988	0.503802	2.17484									0.946952	4.10762				
0.646202	2.79442	0.505883	2.17508									0.948325	4.09702				
0.6478	2.79008	0.507963	2.17531									0.949698	4.0865				
0.6494	2.7858	0.510044	2.17554									0.951069	4.07606				
0.651003	2.78155	0.512125	2.17577									0.95244	4.0657				
0.652607	2.77736	0.514205	2.17599									0.953809	4.05542				
0.654215	2.7732	0.516286	2.17622									0.955178	4.04521				
0.655825	2.76909	0.518367	2.17644									0.956546	4.03508				
0.657437	2.76502	0.520447	2.17666									0.957913	4.02503				
0.659051	2.76099	0.522528	2.17688									0.95928	4.01505				
0.660668	2.757	0.524608	2.1771									0.960646	4.00515				
0.662287	2.75305	0.526689	2.17732									0.962011	3.99533				
0.663909	2.74915	0.52877	2.17753									0.963376	3.98557				
0.665533	2.74528	0.53085	2.17774									0.96474	3.97589				
0.667159	2.74145	0.532931	2.17795									0.966104	3.96628				
0.668787	2.73766	0.535011	2.17816									0.967468	3.95675				
0.670418	2.73391	0.537092	2.17837									0.968831	3.94728				
0.672051	2.7302	0.539173	2.17858									0.970194	3.93789				
0.673686	2.72652	0.541253	2.17878									0.971556	3.92856				
0.675324	2.72288	0.543334	2.17898									0.972919	3.9193				
0.676963	2.71928	0.545414	2.17918									0.974281	3.91012				
0.678605	2.71571	0.547495	2.17938									0.975643	3.901				
0.68025	2.71218	0.549575	2.17958									0.977005	3.89194				
0.681896	2.70868	0.551656	2.17978									0.978367	3.88296				
0.683544	2.70521	0.553736	2.17997									0.97973	3.87404				
0.685195	2.70178	0.555817	2.18017									0.981092	3.86518				
0.686848	2.69839	0.557897	2.18036									0.982454	3.8564				
0.688503	2.69503	0.559978	2.18055									0.983816	3.84767				
0.69016	2.6917	0.562058	2.18074									0.985178	3.83901				
0.691819	2.6884	0.564139	2.18093									0.986541	3.83041				
0.693481	2.68513	0.566219	2.18112									0.987904	3.82188				
0.695144	2.6819	0.5683	2.1813									0.989267	3.81341				
0.696809	2.67869	0.57038	2.18149									0.99063	3.805				
0.698477	2.67552	0.57246	2.18167									0.991994	3.79665				
0.700147	2.67238	0.574541	2.18185									0.993358	3.78836				
0.701818	2.66927	0.576621	2.18203									0.994722	3.78013				
0.703492	2.66619	0.578702	2.18221									0.996087	3.77196				
0.705168	2.66313	0.580782	2.18239									0.997452	3.76385				
0.706845	2.66011	0.582863	2.18256									0.998818	3.7558				
0.708525	2.65711	0.584943	2.18274									1.00018	3.74781				
0.710207	2.65415	0.587023	2.18291														
0.71189	2.65121	0.589104	2.18308														
0.713576	2.6483	0.591184	2.18326														
0.715263	2.64541	0.593264	2.18343														
0.716953	2.64255	0.595345	2.18359														
0.718644	2.63972	0.597425	2.18376														
0.720337	2.63692	0.599506	2.18393														
0.722032	2.63414	0.601586	2.18409														
0.723729	2.63139	0.603666	2.18426														
0.725428	2.62866	0.605747	2.18442														
0.727129	2.62596	0.607827	2.18458														
0.728832	2.62328	0.609907	2.18475														
0.730536	2.62062	0.611988	2.18491														
0.732242	2.61799	0.614068	2.18506														
0.73395	2.61539	0.616148	2.18522														
0.73566	2.61281	0.618228	2.18538														
0.737372	2.61025	0.620309	2.18553														
0.739085	2.60771	0.622389	2.18569														
0.740801	2.6052	0.624469	2.18584														
0.742518	2.60271	0.62655	2.186														
0.744236	2.60025	0.62863	2.18615														
0.745957	2.5978	0.63071	2.1863														
0.747679	2.59538	0.63279	2.18645														
0.749403	2.59298	0.634871	2.1866														
0.751129	2.59059	0.636951	2.18674														
0.752856	2.58824	0.639031	2.18689														
0.754585	2.5859	0.641111	2.18704														
0.756316	2.58358	0.643192	2.18718														
0.758048	2.58128	0.645272	2.18732														
0.759782	2.579	0.647352	2.18747														
0.761518	2.57675	0.649432	2.18761														
0.763255	2.57451	0.651512	2.18775														
0.764994	2.57229	0.653593	2.18789														
0.766734	2.57009	0.655673	2.18803														
0.768476	2.56791	0.657753	2.18817														
0.77022	2.56575	0.659833	2.18831														
0.771965	2.56361	0.661913	2.18844														
0.773712	2.56148	0.663994	2.18858														
0.775461	2.55938	0.666074	2.18871														
0.777211	2.55729	0.668154	2.18885														
0.778962	2.55522	0.670234	2.18898														
0.780715	2.55317	0.672314	2.18911														
0.78247	2.55113	0.674394	2.18925														
0.784226	2.54911	0.676475	2.18938														
0.785984	2.54711	0.678555	2.18951														
0.787743	2.54513	0.680635	2.18964														
0.789503	2.54316	0.682715	2.18976														
0.791266	2.54121	0.684795	2.18989														
0.793029	2.53928	0.686875	2.19002														
0.794794	2.53736	0.688955	2.19015														
0.796561	2.53546	0.691036	2.19027														
0.798329	2.53357	0.693116	2.1904														
0.800098	2.5317	0.695196	2.19052														
0.801869	2.52984	0.697276	2.19064														
0.803641	2.52801	0.699356	2.19077														
0.805415	2.52618	0.701436	2.19089														
0.80719	2.52437	0.703516	2.19101														
0.808966	2.52258	0.705596	2.19113														
0.810744	2.5208	0.707676	2.19125														
0.812523	2.51903	0.709756	2.19137														
0.814304	2.51728	0.711837	2.19148														
0.816086	2.51554	0.713917	2.1916														
0.817869	2.51382	0.715997	2.19172														
0.819653	2.51211	0.718077	2.19184														
0.821439	2.51042	0.720157	2.19195														
0.823227	2.50874	0.722237	2.19207														
0.825015	2.50707	0.724317	2.19218														
0.826805	2.50541	0.726397	2.19229														
0.828596	2.50377	0.728477	2.19241														
0.830389	2.50215	0.730557	2.19252														
0.832183	2.50053	0.732637	2.19263														
0.833978	2.49893	0.734717	2.19274														
0.835774	2.49734	0.736797	2.19285														
0.837572	2.49576	0.738877	2.19296														
0.839371	2.4942	0.740957	2.19307														
0.841171	2.49265	0.743037	2.19318														
0.842972	2.49111	0.745117	2.19329														
0.844775	2.48958	0.747197	2.19339														
0.846578	2.48806	0.749277	2.1935														
0.848383	2.48656	0.751357	2.19361														
0.85019	2.48507	0.753437	2.19371														
0.851997	2.48359	0.755517	2.19382														
0.853806	2.48212	0.757597	2.19392														
0.855616	2.48066	0.759677	2.19402														
0.857427	2.47921	0.761757	2.19413														
0.859239	2.47778	0.763837	2.19423														
0.861052	2.47635	0.765917	2.19433														
0.862867	2.47494	0.767997	2.19443														
0.864682	2.47354	0.770077	2.19453														
0.866499	2.47215	0.772157	2.19464														
0.868317	2.47077	0.774237	2.19473														
0.870136	2.4694	0.776317	2.19483														
0.871956	2.46804	0.778397	2.19493														
0.873778	2.46669	0.780477	2.19503														
0.8756	2.46535	0.782557	2.19513														
0.877424	2.46402	0.784637	2.19523														
0.879249	2.4627	0.786717	2.19532														
0.881074	2.46139	0.788797	2.19542														
0.882901	2.46009	0.790876	2.19551														
0.884729	2.4588	0.792956	2.19561														
0.886558	2.45752	0.795036	2.1957														
0.888388	2.45625	0.797116	2.1958														
0.890219	2.45499	0.799196	2.19589														
0.892052	2.45374	0.801276	2.19599														
0.893885	2.45249	0.803356	2.19608														
0.895719	2.45126	0.805436	2.19617														
0.897554	2.45004	0.807516	2.19626														
0.899391	2.44882	0.809596	2.19635														
0.901228	2.44761	0.811676	2.19644														
0.903067	2.44642	0.813755	2.19653														
0.904906	2.44523	0.815835	2.19662														
0.906747	2.44405	0.817915	2.19671														
0.908588	2.44288	0.819995	2.1968														
0.91043	2.44171	0.822075	2.19689														
0.912274	2.44056	0.824155	2.19698														
0.914118	2.43941	0.826235	2.19707														
0.915964	2.43828	0.828315	2.19715														
0.91781	2.43715	0.830394	2.19724														
0.919657	2.43603	0.832474	2.19733														
0.921506	2.43491	0.834554	2.19741														
0.923355	2.43381	0.836634	2.1975														
0.925205	2.43271	0.838714	2.19758														
0.927056	2.43162	0.840794	2.19767														
0.928909	2.43054	0.842874	2.19775														
0.930762	2.42946	0.844953	2.19784														
0.932616	2.4284	0.847033	2.19792														
0.93447	2.42734	0.849113	2.198														
0.936326	2.42629	0.851193	2.19809														
0.938183	2.42524	0.853273	2.19817														
0.940041	2.42421	0.855353	2.19825														
0.941899	2.42318	0.857432	2.19833														
0.943759	2.42216	0.859512	2.19841														
0.945619	2.42114	0.861592	2.19849														
0.94748	2.42013	0.863672	2.19857														
0.949342	2.41913	0.865752	2.19865														
0.951205	2.41814	0.867831	2.19873														
0.953069	2.41715	0.869911	2.19881														
0.954934	2.41617	0.871991	2.19889														
0.9568	2.4152	0.874071	2.19897														
0.958666	2.41423	0.876151	2.19905														
0.960533	2.41327	0.87823	2.19912														
0.962401	2.41232	0.88031	2.1992														
0.96427	2.41137	0.88239	2.19928														
0.96614	2.41043	0.88447	2.19935														
0.968011	2.4095	0.88655	2.19943														
0.969882	2.40857	0.888629	2.1995														
0.971755	2.40765	0.890709	2.19958														
0.973628	2.40674	0.892789	2.19965														
0.975502	2.40583	0.894869	2.19973														
0.977377	2.40493	0.896948	2.1998														
0.979252	2.40403	0.899028	2.19988														
0.981129	2.40314	0.901108	2.19995														
0.983006	2.40225	0.903188	2.20002														
0.984884	2.40138	0.905267	2.2001														
0.986763	2.4005	0.907347	2.20017														
0.988642	2.39964	0.909427	2.20024														
0.990523	2.39878	0.911507	2.20031														
0.992404	2.39792	0.913586	2.20039														
0.994286	2.39707	0.915666	2.20046														
0.996168	2.39623	0.917746	2.20053														
0.998052	2.39539	0.919826	2.2006														
0.999936	2.39456	0.921905	2.20067														
1.00182	2.39373	0.923985	2.20074														
		0.926065	2.20081														
		0.928144	2.20088														
		0.930224	2.20095														
		0.932304	2.20102														
		0.934384	2.20108														
		0.936463	2.20115														
		0.938543	2.20122														
		0.940623	2.20129														
		0.942702	2.20135														
		0.944782	2.20142														
		0.946862	2.20149														
		0.948941	2.20155														
		0.951021	2.20162														
		0.953101	2.20169														
		0.955181	2.20175														
		0.95726	2.20182														
		0.95934	2.20188														
		0.96142	2.20195														
		0.963499	2.20201														
		0.965579	2.20207														
		0.967659	2.20214														
		0.969738	2.2022														
		0.971818	2.20226														
		0.973898	2.20233														
		0.975977	2.20239														
		0.978057	2.20245														
		0.980137	2.20251														
		0.982216	2.20258														
		0.984296	2.20264														
		0.986375	2.2027														
		0.988455	2.20276														
		0.990535	2.20282														
		0.992614	2.20288														
		0.994694	2.20294														
		0.996774	2.203														
		0.998853	2.20306														
		1.00093	2.20312														
