Sym0		Asym0		Sym1		Sym2		Sym3		Sym4		Sym5		Asym1		Asym2		Asym3		Asym4		Asym5	
385  Points		381  Points		385  Points		374  Points		365  Points		333  Points		124  Points		381  Points		377  Points		365  Points		173  Points		122  Points	
Freq (MHz)	Vph (m/ms)	Freq (MHz)	Vph (m/ms)	Freq (MHz)	Vph (m/ms)	Freq (MHz)	Vph (m/ms)	Freq (MHz)	Vph (m/ms)	Freq (MHz)	Vph (m/ms)	Freq (MHz)	Vph (m/ms)	Freq (MHz)	Vph (m/ms)	Freq (MHz)	Vph (m/ms)	Freq (MHz)	Vph (m/ms)	Freq (MHz)	Vph (m/ms)	Freq (MHz)	Vph (m/ms)
2.20005	2.51661	0.346126	550.69	2.20016	2.51661	0.692263	617.003	1.38426	913.784	1.44215	1256.55	2.07665	2170.68	0.346226	211.368	2.20142	2.57317	1.03846	751.87	1.73047	904.961	1.92277	1395.4
2.1943	2.51668	0.346483	118.015	2.19441	2.51668	0.692628	201.969	1.38334	361.916	1.44302	417.65	2.07654	636.179	0.346784	87.8954	2.19668	2.57457	1.03925	281.75	1.73018	410.034	1.92307	521.819
2.18857	2.51676	0.347299	66.2365	2.18867	2.51675	0.693361	120.863	1.38169	225.411	1.44471	250.708	2.07631	372.668	0.347799	55.6229	2.19193	2.57597	1.04073	173.572	1.72967	265.003	1.92365	320.998
2.18284	2.51685	0.348569	46.1636	2.18294	2.51685	0.694455	86.3303	1.37945	163.499	1.44708	179.319	2.07596	263.485	0.349264	40.8008	2.18719	2.57738	1.04283	125.591	1.72895	195.707	1.9245	231.864
2.17713	2.51696	0.350281	35.5322	2.17723	2.51696	0.6959	67.2266	1.37672	128.133	1.45003	139.731	2.0755	203.755	0.351167	32.3132	2.18244	2.57881	1.04547	98.5294	1.72803	155.094	1.92561	181.533
2.17143	2.51708	0.352425	28.9692	2.17153	2.51708	0.697684	55.1139	1.37364	105.245	1.45343	114.582	2.07492	166.078	0.353494	26.8307	2.1777	2.58024	1.04857	81.1706	1.72691	128.402	1.92698	149.206
2.16574	2.51722	0.354984	24.5275	2.16584	2.51722	0.699792	46.7577	1.37028	89.2156	1.45719	97.1973	2.07424	140.141	0.35623	23.0087	2.17296	2.58168	1.05206	69.0986	1.7256	109.516	1.9286	126.696
2.16006	2.51738	0.357942	21.3311	2.16016	2.51737	0.702209	40.6518	1.36674	77.3626	1.46122	84.4664	2.07344	121.194	0.359357	20.2002	2.16821	2.58312	1.05588	60.2224	1.72412	95.4454	1.93045	110.125
2.1544	2.51755	0.36128	18.9274	2.1545	2.51754	0.704916	35.9997	1.36305	68.2412	1.46548	74.7432	2.07254	106.745	0.362855	18.055	2.16346	2.58456	1.05995	53.4242	1.72248	84.5541	1.93252	97.4197
2.14875	2.51774	0.364978	17.059	2.14885	2.51773	0.707896	32.3409	1.35927	61.0047	1.46991	67.0754	2.07154	95.3605	0.366704	16.3673	2.15871	2.58601	1.06425	48.0525	1.72069	75.8724	1.93481	87.372
2.14312	2.51794	0.369015	15.5686	2.14322	2.51794	0.71113	29.3905	1.35543	55.1239	1.47448	60.8744	2.07044	86.1585	0.370882	15.0082	2.15394	2.58746	1.06874	43.702	1.71877	68.7888	1.93729	79.2286
2.1375	2.51816	0.373369	14.3549	2.1376	2.51816	0.714601	26.9627	1.35156	50.2509	1.47916	55.7563	2.06925	78.5652	0.375368	13.8926	2.14917	2.5889	1.07338	40.1074	1.71672	62.8983	1.93995	72.4965
2.13189	2.5184	0.378019	13.3494	2.13199	2.5184	0.718289	24.9313	1.34767	46.1474	1.48394	51.4605	2.06798	72.1922	0.380141	12.9622	2.14439	2.59034	1.07814	37.0879	1.71456	57.9225	1.94279	66.8391
2.1263	2.51866	0.382943	12.5044	2.1264	2.51866	0.722178	23.2076	1.34378	42.6449	1.48879	47.8037	2.06662	66.7667	0.385179	12.176	2.13959	2.59177	1.08301	34.5158	1.7123	53.6632	1.94579	62.0189
2.12072	2.51894	0.388122	11.7855	2.12082	2.51893	0.72625	21.7274	1.33991	39.6208	1.49371	44.6533	2.06518	62.0917	0.390461	11.5039	2.13478	2.59319	1.08798	32.2989	1.70996	49.9759	1.94893	57.8635
2.11515	2.51924	0.393532	11.1674	2.11525	2.51923	0.730488	20.443	1.33607	36.9837	1.49868	41.9109	2.06368	58.0213	0.395248	10.9937	2.12996	2.5946	1.09302	30.3683	1.70755	46.7525	1.9522	54.2447
2.10961	2.51955	0.399156	10.6309	2.10971	2.51955	0.734878	19.3184	1.33226	34.6643	1.50369	39.5021	2.06211	54.4451	0.399453	10.605	2.12511	2.596	1.09812	28.672	1.70507	43.9106	1.95561	51.0652
2.10407	2.51989	0.404974	10.1614	2.10417	2.51988	0.739404	18.3258	1.3285	32.6086	1.50874	37.3695	2.06048	51.2781	0.403011	10.3115	2.12025	2.59738	1.10328	27.1698	1.70255	41.3863	1.95912	48.2498
2.09855	2.52024	0.410966	9.74739	2.09865	2.52024	0.744052	17.4434	1.32478	30.7746	1.51381	35.4682	2.05879	48.4539	0.405872	10.0952	2.11536	2.59874	1.10849	25.8302	1.69998	39.1292	1.96273	45.7396
2.09305	2.52062	0.417114	9.37988	2.09315	2.52061	0.748809	16.6541	1.32113	29.1284	1.51891	33.7624	2.05706	45.9195	0.408003	9.94435	2.11045	2.60008	1.11372	24.6281	1.69739	37.0991	1.96644	43.4875
2.08756	2.52102	0.423402	9.05161	2.08766	2.52101	0.753662	15.9438	1.31754	27.643	1.52403	32.2234	2.05529	43.6325	0.409377	9.85122	2.10552	2.60139	1.11899	23.5433	1.69477	35.2635	1.97023	41.4559
2.08209	2.52144	0.429812	8.75669	2.08219	2.52143	0.758599	15.3013	1.31403	26.2962	1.52916	30.8279	2.05348	41.5584	0.411367	9.72175	2.10055	2.60267	1.12428	22.5594	1.69214	33.5959	1.97409	39.614
2.07664	2.52188	0.436327	8.4903	2.07674	2.52187	0.763608	14.7174	1.31059	25.0697	1.53429	29.5565	2.05165	39.6688	0.41355	9.58663	2.09555	2.60393	1.12959	21.6629	1.68951	32.0743	1.97802	37.9363
2.0712	2.52234	0.442933	8.24849	2.0713	2.52233	0.768679	14.1843	1.30723	23.9485	1.53943	28.3935	2.04979	37.9402	0.416548	9.41163	2.09053	2.60515	1.1349	20.8425	1.68689	30.6805	1.98201	36.4018
2.06578	2.52282	0.449612	8.02792	2.06587	2.52281	0.773801	13.6957	1.30395	22.9197	1.54457	27.3254	2.04791	36.3529	0.420388	9.20363	2.08547	2.60634	1.14022	20.089	1.68427	29.3992	1.98604	34.993
2.06037	2.52333	0.45635	7.82581	2.06047	2.52332	0.778963	13.2461	1.30077	21.9726	1.54971	26.3409	2.04602	34.8903	0.425096	8.9701	2.08037	2.60749	1.14554	19.3943	1.68168	28.2175	1.99012	33.6949
2.05498	2.52386	0.463132	7.63981	2.05508	2.52385	0.784157	12.831	1.29769	21.0982	1.55483	25.4307	2.04413	33.5383	0.430702	8.71847	2.07524	2.60861	1.15086	18.7517	1.67912	27.1243	1.99423	32.4951
2.04961	2.52442	0.469942	7.46791	2.0497	2.5244	0.789372	12.4464	1.29471	20.2886	1.55994	24.5864	2.04223	32.285	0.437231	8.45568	2.07008	2.60968	1.15616	18.1556	1.67659	26.1103	1.99837	31.3826
2.04425	2.52499	0.476767	7.30838	2.04434	2.52498	0.7946	12.089	1.29184	19.5372	1.56504	23.8012	2.04035	31.12	0.443847	8.21697	2.06488	2.61072	1.16145	17.6009	1.6741	25.1672	2.00253	30.3483
2.03891	2.52559	0.483591	7.15974	2.039	2.52558	0.79983	11.7559	1.28908	18.8381	1.57012	23.0689	2.03847	30.0344	0.450535	7.99909	2.05964	2.61171	1.16672	17.0834	1.67167	24.2881	2.00671	29.3841
2.03358	2.52622	0.490399	7.0207	2.03368	2.52621	0.805056	11.4446	1.28644	18.1862	1.57517	22.3843	2.03662	29.0205	0.45728	7.79933	2.05436	2.61267	1.17196	16.5993	1.66928	23.4667	2.01089	28.483
2.02828	2.52687	0.497177	6.89014	2.02837	2.52686	0.810267	11.1528	1.28392	17.5773	1.5802	21.7428	2.03478	28.0714	0.464067	7.61538	2.04905	2.61358	1.17718	16.1455	1.66696	22.6978	2.01508	27.639
2.02298	2.52754	0.50391	6.76705	2.02308	2.52753	0.81479	10.9131	1.28153	17.0073	1.5852	21.1404	2.03298	27.1813	0.47088	7.44527	2.0437	2.61445	1.18236	15.7191	1.66471	21.9767	2.01926	26.8467
2.01771	2.52824	0.510582	6.65058	2.0178	2.52823	0.818628	10.7184	1.27927	16.4729	1.59016	20.5735	2.03122	26.345	0.477705	7.28733	2.03831	2.61528	1.1875	15.3176	1.66253	21.2991	2.02344	26.1015
2.01245	2.52896	0.51718	6.53996	2.01255	2.52895	0.821787	10.5637	1.27716	15.9712	1.59508	20.0389	2.0295	25.5578	0.484528	7.14008	2.03289	2.61607	1.1926	14.9388	1.66043	20.6614	2.0276	25.3991
2.00721	2.52971	0.523686	6.43449	2.0073	2.5297	0.824273	10.4452	1.27519	15.4993	1.59996	19.534	2.02782	24.8156	0.491333	7.00227	2.02744	2.61683	1.19765	14.5806	1.65841	20.0604	2.03173	24.736
2.00199	2.53049	0.530088	6.33358	2.00208	2.53047	0.826095	10.3601	1.27337	15.055	1.6048	19.0562	2.0262	24.1148	0.498106	6.87279	2.02195	2.61754	1.20265	14.2415	1.65649	19.4931	2.03585	24.1088
1.99678	2.53129	0.536368	6.23669	1.99687	2.53127	0.827258	10.3065	1.27171	14.6361	1.60958	18.6033	2.02464	23.4522	0.504831	6.75066	2.01644	2.61822	1.2076	13.9197	1.65467	18.9569	2.03992	23.5145
1.99158	2.53211	0.542513	6.14331	1.99168	2.53209	0.828924	10.2306	1.27021	14.2406	1.61431	18.1733	2.02314	22.8248	0.511494	6.63504	2.01089	2.61886	1.21248	13.6138	1.65294	18.4494	2.04396	22.9507
1.98641	2.53296	0.548508	6.05304	1.9865	2.53294	0.830729	10.1497	1.26888	13.867	1.61898	17.7644	2.02172	22.2301	0.51808	6.52516	2.00531	2.61947	1.21729	13.3227	1.65133	17.9686	2.04796	22.4148
1.98125	2.53383	0.554338	5.96548	1.98134	2.53382	0.833173	10.042	1.26772	13.5136	1.62359	17.3751	2.02037	21.6656	0.524573	6.42036	1.9997	2.62004	1.22204	13.0452	1.64983	17.5126	2.0519	21.9048
1.9761	2.53473	0.55999	5.88029	1.97619	2.53472	0.836243	9.90974	1.26674	13.179	1.62813	17.0038	2.01911	21.1292	0.530959	6.32003	1.99407	2.62059	1.22671	12.7803	1.64845	17.0796	2.05579	21.4187
1.97097	2.53566	0.565451	5.79717	1.97106	2.53564	0.839923	9.75519	1.26595	12.8621	1.6326	16.6493	2.01793	20.619	0.537222	6.22365	1.98842	2.6211	1.2313	12.5269	1.64719	16.6681	2.05962	20.9548
1.96586	2.53661	0.57071	5.71587	1.96595	2.53659	0.844189	9.581	1.26535	12.5615	1.637	16.3103	2.01685	20.1333	0.543347	6.13073	1.98274	2.62159	1.2358	12.2844	1.64607	16.2767	2.06338	20.5116
1.96075	2.53758	0.575756	5.63616	1.96085	2.53756	0.849013	9.38985	1.26495	12.2763	1.64131	15.9858	2.01587	19.6704	0.54932	6.04085	1.97704	2.62205	1.24022	12.0519	1.64508	15.9041	2.06707	20.0875
1.95567	2.53858	0.58058	5.55784	1.95576	2.53856	0.853751	9.20729	1.26475	12.0055	1.64555	15.6748	2.01499	19.229	0.555126	5.95363	1.97131	2.62249	1.24454	11.8286	1.64423	15.549	2.07068	19.6813
1.95059	2.5396	0.585174	5.48077	1.95069	2.53958	0.858396	9.03261	1.26475	11.7482	1.64969	15.3763	2.01423	18.8075	0.560753	5.86874	1.96557	2.6229	1.24876	11.6141	1.64353	15.2105	2.07421	19.2917
1.94553	2.54064	0.589535	5.4048	1.94562	2.54062	0.862941	8.86519	1.26496	11.5036	1.65375	15.0896	2.01358	18.405	0.566187	5.78589	1.95981	2.62329	1.25289	11.4076	1.64298	14.8874	2.07765	18.9177
1.94049	2.54171	0.593658	5.32985	1.94058	2.54169	0.867377	8.70443	1.26532	11.3002	1.6577	14.8138	2.01305	18.0201	0.571417	5.70482	1.95403	2.62366	1.2564	11.2339	1.64258	14.579	2.081	18.5583
1.93545	2.54279	0.597542	5.25585	1.93554	2.54278	0.871699	8.54983	1.26575	11.1336	1.66157	14.5483	2.01265	17.6519	0.576432	5.62531	1.94824	2.62401	1.25932	11.0901	1.64234	14.2843	2.08424	18.2125
1.93042	2.5439	0.601188	5.18273	1.93051	2.54388	0.875899	8.4009	1.2662	11.0004	1.66532	14.2925	2.01238	17.2995	0.581225	5.54717	1.94243	2.62434	1.2617	10.9741	1.64226	14.0026	2.08739	17.8795
1.92541	2.54503	0.6046	5.11049	1.9255	2.54501	0.879971	8.25722	1.26661	10.8979	1.66898	14.0457	2.01225	16.9619	0.585788	5.47026	1.93661	2.62465	1.26355	10.884	1.64234	13.7332	2.09043	17.5585
1.9204	2.54618	0.607782	5.03911	1.92049	2.54616	0.88391	8.1184	1.26695	10.8241	1.67252	13.8074	2.01226	16.6383	0.590116	5.39444	1.93077	2.62495	1.26489	10.8188	1.6426	13.4753	2.09336	17.2488
1.9154	2.54734	0.610742	4.96859	1.91549	2.54732	0.887708	7.98408	1.26718	10.7775	1.67596	13.5771	2.01241	16.328	0.594206	5.31962	1.92492	2.62523	1.26574	10.7775	1.64302	13.2284	2.09618	16.9498
1.9104	2.54851	0.613487	4.89897	1.91049	2.54849	0.891362	7.85396	1.26753	10.7114	1.67928	13.3544	2.0127	16.0303	0.598057	5.24574	1.91906	2.6255	1.26695	10.7186	1.64362	12.9919	2.09888	16.6608
1.90541	2.5497	0.616028	4.83026	1.9055	2.54968	0.894868	7.72773	1.26794	10.6407	1.68249	13.1389	2.01315	15.7445	0.601671	5.17275	1.91319	2.62576	1.26826	10.6554	1.64439	12.7651	2.10146	16.3812
1.90042	2.5509	0.618377	4.76251	1.90051	2.55088	0.898221	7.60515	1.26854	10.5466	1.68558	12.93	2.01375	15.4701	0.605051	5.10062	1.9073	2.626	1.27001	10.5705	1.64534	12.5477	2.10392	16.1106
1.89542	2.5521	0.620545	4.69576	1.89551	2.55208	0.901418	7.48597	1.26938	10.4306	1.68856	12.7276	2.0145	15.2063	0.608202	5.02936	1.90141	2.62623	1.27218	10.4652	1.64646	12.3391	2.10626	15.8485
1.89043	2.55331	0.622544	4.63004	1.89052	2.55328	0.904457	7.36999	1.2705	10.2948	1.69142	12.5312	2.01541	14.9527	0.611132	4.95896	1.89551	2.62645	1.27476	10.3405	1.64775	12.1389	2.10848	15.5944
1.88542	2.55451	0.624389	4.56542	1.88551	2.55448	0.907337	7.25701	1.27197	10.1415	1.69417	12.3406	2.01648	14.7088	0.613848	4.88946	1.8896	2.62666	1.27769	10.198	1.64922	11.9467	2.11057	15.348
1.8804	2.5557	0.626091	4.50191	1.88049	2.55568	0.910056	7.14686	1.27386	9.97309	1.6968	12.1555	2.0177	14.4742	0.616362	4.82088	1.88368	2.62686	1.28095	10.0391	1.65086	11.762	2.11255	15.1089
1.87537	2.55688	0.627665	4.43957	1.87546	2.55685	0.912615	7.0394	1.27597	9.81234	1.69932	11.9756	2.01908	14.2482	0.618685	4.75327	1.87776	2.62705	1.28409	9.88495	1.65243	11.6069	2.1144	14.8766
1.87031	2.55803	0.629124	4.37843	1.87041	2.55801	0.915014	6.93449	1.27829	9.65881	1.70173	11.8007	2.02062	14.0306	0.620829	4.68666	1.87182	2.62723	1.28711	9.73529	1.65387	11.4788	2.11614	14.651
1.86523	2.55915	0.63048	4.31852	1.86532	2.55913	0.917255	6.832	1.28082	9.5121	1.70374	11.6521	2.02231	13.8209	0.622807	4.62109	1.86588	2.6274	1.29001	9.5899	1.65513	11.3756	2.11776	14.4317
1.86011	2.56024	0.631746	4.25987	1.8602	2.56022	0.91934	6.73183	1.28356	9.37184	1.70539	11.5283	2.02415	13.6187	0.624631	4.55662	1.85994	2.62757	1.29281	9.44859	1.65617	11.2957	2.11927	14.2184
1.85495	2.56127	0.632934	4.20249	1.85505	2.56125	0.921272	6.63389	1.2865	9.23767	1.70672	11.4278	2.02615	13.4238	0.626315	4.49327	1.85399	2.62773	1.29549	9.31116	1.65695	11.2379	2.12068	14.0109
1.84974	2.56224	0.634054	4.1464	1.84984	2.56222	0.923054	6.53809	1.28963	9.10924	1.70774	11.3494	2.02829	13.2356	0.627873	4.4311	1.84803	2.62788	1.29806	9.17747	1.65747	11.2013	2.12198	13.809
1.84448	2.56314	0.635118	4.09162	1.84457	2.56312	0.92469	6.44436	1.29295	8.98624	1.70847	11.2925	2.03057	13.054	0.629316	4.37012	1.84207	2.62803	1.30053	9.04735	1.65822	11.1493	2.12319	13.6125
1.83915	2.56396	0.636136	4.03815	1.83925	2.56394	0.926187	6.35263	1.29645	8.86835	1.70894	11.2563	2.033	12.8785	0.63066	4.31038	1.83611	2.62817	1.30291	8.92069	1.65906	11.0935	2.1243	13.4211
1.83376	2.56469	0.636993	3.99263	1.83386	2.56468	0.927547	6.26285	1.30013	8.75529	1.7096	11.2047	2.03556	12.709	0.631914	4.2519	1.83014	2.6283	1.3052	8.79735	1.66023	11.0188	2.12533	13.2346
1.82829	2.56533	0.637705	3.95461	1.82839	2.56532	0.928778	6.17495	1.30396	8.64678	1.7103	11.1491	2.03824	12.545	0.633091	4.1947	1.82416	2.62843	1.3074	8.67725	1.66177	10.9262	2.12628	13.053
1.82276	2.56587	0.638285	3.92372	1.82286	2.56586	0.929884	6.0889	1.30796	8.54255	1.71124	11.0743	2.04106	12.3864	0.634204	4.13879	1.81819	2.62856	1.30952	8.56027	1.6637	10.817	2.12715	12.876
1.81716	2.56631	0.638739	3.89964	1.81726	2.56631	0.930873	6.00465	1.31209	8.44235	1.71241	10.9811	2.04399	12.2329	0.635261	4.08419	1.81221	2.62868	1.31158	8.44634	1.66607	10.6926	2.12796	12.7035
1.81148	2.56667	0.63907	3.88213	1.81159	2.56666	0.93175	5.92217	1.31637	8.34595	1.71377	10.8704	2.04703	12.0842	0.636273	4.0309	1.80622	2.6288	1.31359	8.33539	1.66892	10.5546	2.12872	12.5353
1.80575	2.56694	0.639281	3.87101	1.80585	2.56693	0.932522	5.84141	1.32077	8.25311	1.71531	10.7432	2.04977	11.9585	0.63725	3.97893	1.80024	2.62892	1.31555	8.22735	1.6719	10.4213	2.12942	12.3714
1.79996	2.56712	0.639584	3.85515	1.80006	2.56712	0.933196	5.76234	1.32529	8.16363	1.71702	10.6006	2.05216	11.8539	0.6382	3.92827	1.79425	2.62903	1.31747	8.12218	1.67501	10.2927	2.13008	12.2115
1.79412	2.56724	0.639912	3.83806	1.79422	2.56724	0.933778	5.68494	1.32991	8.0773	1.71866	10.4618	2.05419	11.7692	0.639131	3.87891	1.78826	2.62915	1.31937	8.01983	1.67824	10.1684	2.13063	12.0754
1.78823	2.56729	0.640358	3.81509	1.78834	2.56729	0.934275	5.60917	1.33463	7.99392	1.72025	10.3264	2.05581	11.7034	0.640052	3.83085	1.78227	2.62925	1.32127	7.92025	1.68159	10.0482	2.13108	11.9618
1.7823	2.56729	0.640921	3.78647	1.78241	2.56729	0.934694	5.535	1.33943	7.91331	1.72179	10.1944	2.05701	11.6556	0.640969	3.78408	1.77627	2.62936	1.32317	7.82344	1.68504	9.93186	2.13144	11.8694
1.77634	2.56723	0.641604	3.7525	1.77645	2.56723	0.93504	5.46242	1.3443	7.8353	1.72329	10.0658	2.05779	11.6252	0.641888	3.73858	1.77028	2.62947	1.32509	7.72935	1.68859	9.81925	2.13172	11.7973
1.77035	2.56713	0.642409	3.71354	1.77046	2.56713	0.935321	5.39138	1.34924	7.75971	1.72475	9.94037	2.05892	11.582	0.642817	3.69434	1.76428	2.62957	1.32705	7.63798	1.69223	9.71013	2.13193	11.7449
1.76433	2.56699	0.643345	3.67	1.76444	2.567	0.935542	5.32187	1.35423	7.6864	1.7262	9.81815	2.06015	11.5354	0.643759	3.65134	1.75828	2.62968	1.32907	7.54932	1.69595	9.60434	2.13206	11.7116
1.75829	2.56682	0.644298	3.62769	1.7584	2.56682	0.935709	5.25386	1.35926	7.61521	1.72764	9.69903	2.06185	11.4729	0.644721	3.60955	1.75228	2.62978	1.33115	7.46336	1.69975	9.5017	2.13224	11.664
1.75223	2.56662	0.645273	3.58658	1.75233	2.56662	0.935828	5.18733	1.36431	7.546	1.72907	9.58295	2.06402	11.3951	0.645708	3.56897	1.74628	2.62988	1.33333	7.38011	1.70362	9.40204	2.13244	11.6128
1.74615	2.56639	0.646275	3.54666	1.74626	2.56639	0.935906	5.12224	1.36939	7.47864	1.73052	9.46985	2.06667	11.3029	0.646722	3.52956	1.74028	2.62999	1.33563	7.29957	1.70754	9.30521	2.13272	11.5438
1.74005	2.56613	0.647307	3.50791	1.74016	2.56614	0.935946	5.05858	1.37448	7.413	1.73198	9.35967	2.06984	11.197	0.647769	3.49131	1.73428	2.63009	1.33805	7.22175	1.71152	9.21105	2.13307	11.4578
1.73394	2.56585	0.648374	3.47029	1.73405	2.56586	0.935955	4.99632	1.37956	7.34895	1.73347	9.25236	2.07353	11.0787	0.648852	3.45419	1.72828	2.6302	1.34063	7.14666	1.71554	9.11944	2.13349	11.3555
1.72782	2.56556	0.649478	3.4338	1.72794	2.56556	0.935938	4.93544	1.38462	7.28638	1.735	9.14786	2.07728	10.9636	0.649974	3.41818	1.72228	2.6303	1.34338	7.07433	1.71959	9.03023	2.13399	11.2379
1.7217	2.56525	0.650624	3.3984	1.72181	2.56525	0.935898	4.8759	1.38967	7.22519	1.73658	9.04613	2.08107	10.8514	0.651138	3.38325	1.71629	2.63041	1.34633	7.00475	1.72367	8.94329	2.13458	11.1061
1.71556	2.56492	0.651813	3.36407	1.71567	2.56492	0.935842	4.81769	1.39467	7.16526	1.73822	8.94712	2.0849	10.7422	0.652348	3.34937	1.71029	2.63052	1.3495	6.93794	1.72777	8.85851	2.1352	10.9775
1.70941	2.56457	0.653049	3.33078	1.70952	2.56458	0.935772	4.76079	1.39963	7.1065	1.73992	8.85079	2.08877	10.6356	0.653604	3.31654	1.70429	2.63063	1.3529	6.8739	1.73188	8.77576	2.13585	10.8521
1.70326	2.56422	0.654333	3.29851	1.70337	2.56422	0.935694	4.70515	1.40454	7.04882	1.74171	8.75709	2.09266	10.5317	0.65491	3.28471	1.6983	2.63075	1.35657	6.81265	1.736	8.69495	2.13654	10.7298
1.69709	2.56385	0.655668	3.26723	1.69721	2.56386	0.935611	4.65077	1.40938	6.99213	1.74359	8.66599	2.09657	10.4303	0.656268	3.25386	1.6923	2.63087	1.36051	6.75416	1.74011	8.61596	2.13727	10.6105
1.69093	2.56347	0.657055	3.23693	1.69104	2.56348	0.935526	4.59762	1.41414	6.93634	1.74556	8.57744	2.1005	10.3313	0.657679	3.22397	1.68631	2.631	1.36474	6.69843	1.74421	8.53871	2.13806	10.4943
1.68476	2.56308	0.658497	3.20757	1.68487	2.56309	0.935444	4.54567	1.41881	6.88139	1.74765	8.4914	2.10444	10.2345	0.659145	3.19502	1.68033	2.63112	1.36927	6.64542	1.74829	8.46309	2.13891	10.3809
1.67858	2.56268	0.659994	3.17913	1.67869	2.56269	0.935368	4.4949	1.42339	6.82719	1.74985	8.40783	2.10838	10.1398	0.660668	3.16698	1.67434	2.63126	1.37412	6.59508	1.75235	8.38902	2.13983	10.2703
1.6724	2.56227	0.661549	3.1516	1.67251	2.56228	0.9353	4.44528	1.42786	6.77368	1.75217	8.3267	2.11231	10.0473	0.662248	3.13982	1.66836	2.6314	1.37928	6.54737	1.75637	8.31642	2.14082	10.1625
1.66622	2.56185	0.663162	3.12493	1.66633	2.56186	0.935245	4.3968	1.43222	6.7208	1.75463	8.24795	2.11624	9.95666	0.663887	3.11353	1.66238	2.63155	1.38477	6.50221	1.76035	8.2452	2.14189	10.0574
1.66003	2.56142	0.664835	3.09911	1.66014	2.56143	0.935204	4.34943	1.43646	6.6685	1.75724	8.17155	2.12015	9.86793	0.665585	3.08808	1.65641	2.6317	1.39058	6.45952	1.76429	8.1753	2.14305	9.95503
1.65384	2.56099	0.666567	3.07412	1.65395	2.561	0.93518	4.30314	1.44058	6.61671	1.75999	8.09746	2.12404	9.78099	0.667344	3.06345	1.65044	2.63186	1.39672	6.4192	1.76818	8.10665	2.1443	9.8552
1.64764	2.56055	0.66836	3.04994	1.64775	2.56056	0.935177	4.25792	1.44455	6.5654	1.76289	8.02562	2.1279	9.69575	0.669164	3.03961	1.64447	2.63204	1.40316	6.38114	1.77202	8.03919	2.14565	9.75791
1.64145	2.5601	0.670215	3.02654	1.64156	2.56011	0.935196	4.21374	1.44839	6.51452	1.76596	7.956	2.13173	9.61215	0.671046	3.01654	1.63851	2.63222	1.4099	6.34524	1.77579	7.97284	2.1471	9.66311
1.63525	2.55964	0.672132	3.00389	1.63536	2.55965	0.935239	4.17057	1.45208	6.46404	1.76919	7.88855	2.13553	9.53012	0.67299	2.99422	1.63256	2.63241	1.41694	6.31136	1.7795	7.90757	2.14866	9.57073
1.62905	2.55918	0.674112	2.98199	1.62916	2.55919	0.935309	4.12841	1.45562	6.41393	1.77258	7.82321	2.13928	9.44957	0.674998	2.97263	1.62661	2.63262	1.42425	6.27938	1.78313	7.84331	2.15033	9.48072
1.62285	2.55871	0.676154	2.9608	1.62296	2.55872	0.935408	4.08722	1.45901	6.36415	1.77615	7.75993	2.14299	9.37046	0.677068	2.95176	1.62067	2.63284	1.43182	6.24919	1.7867	7.78002	2.15211	9.39303
1.61664	2.55824	0.67826	2.94031	1.61675	2.55824	0.935538	4.04698	1.46224	6.3147	1.77989	7.69867	2.14666	9.29273	0.679201	2.93156	1.61474	2.63307	1.43964	6.22065	1.79018	7.71766	2.15401	9.3076
1.61044	2.55775	0.680428	2.9205	1.61055	2.55776	0.9357	4.00768	1.46532	6.26554	1.78381	7.63936	2.15027	9.21631	0.681397	2.91204	1.60882	2.63332	1.44768	6.19364	1.79359	7.65618	2.15604	9.22438
1.60423	2.55727	0.68266	2.90135	1.60434	2.55728	0.935896	3.96929	1.46824	6.21667	1.7879	7.58194	2.15383	9.14115	0.683657	2.89317	1.6029	2.63359	1.45593	6.16805	1.79692	7.59556	2.15819	9.14331
1.59802	2.55677	0.684956	2.88283	1.59813	2.55678	0.936128	3.9318	1.47099	6.16809	1.79216	7.52636	2.15733	9.06722	0.68598	2.87493	1.597	2.63388	1.46437	6.14376	1.80016	7.53576	2.16046	9.06435
1.59181	2.55628	0.687315	2.86494	1.59192	2.55629	0.936397	3.89518	1.47359	6.11978	1.79659	7.47256	2.16077	8.99445	0.688367	2.8573	1.59111	2.63418	1.47299	6.12066	1.80331	7.47676	2.16287	8.98743
1.5856	2.55577	0.689737	2.84765	1.58571	2.55578	0.936705	3.85942	1.47604	6.07174	1.80119	7.42047	2.16415	8.92281	0.690816	2.84027	1.58523	2.63452	1.48176	6.09866	1.80639	7.41853	2.1654	8.9125
1.57939	2.55527	0.692222	2.83094	1.5795	2.55528	0.937052	3.82449	1.47832	6.02398	1.80595	7.37003	2.16746	8.85227	0.693329	2.82381	1.57937	2.63487	1.49068	6.07765	1.80938	7.36105	2.16807	8.83952
1.57318	2.55475	0.69477	2.8148	1.57329	2.55476	0.937441	3.79038	1.48046	5.9765	1.81087	7.32117	2.17072	8.78278	0.695904	2.80791	1.57352	2.63526	1.49973	6.05755	1.81228	7.30432	2.17086	8.76842
1.56696	2.55424	0.69738	2.79921	1.56708	2.55425	0.937872	3.75707	1.48245	5.92931	1.81594	7.27383	2.1739	8.71432	0.698542	2.79255	1.56768	2.63567	1.50889	6.03827	1.81511	7.24831	2.17378	8.69914
1.56075	2.55371	0.700053	2.78415	1.56086	2.55372	0.938347	3.72455	1.4843	5.88241	1.82116	7.22794	2.17702	8.64686	0.701242	2.77773	1.56187	2.63612	1.51814	6.01972	1.81786	7.19301	2.17683	8.63165
1.55454	2.55319	0.702788	2.76961	1.55465	2.5532	0.938866	3.69279	1.48601	5.83581	1.82653	7.18344	2.18008	8.58037	0.704004	2.76341	1.55607	2.63661	1.52748	6.00184	1.82054	7.13844	2.18001	8.56587
1.54833	2.55266	0.705585	2.75558	1.54844	2.55267	0.93943	3.66177	1.48758	5.78953	1.83202	7.14026	2.18308	8.51483	0.706828	2.74959	1.5503	2.63714	1.53689	5.98455	1.82315	7.08458	2.18331	8.50175
1.54211	2.55212	0.708443	2.74203	1.54222	2.55213	0.940041	3.63149	1.48903	5.74358	1.83764	7.09833	2.18601	8.45022	0.709713	2.73625	1.54455	2.63771	1.54636	5.96779	1.8257	7.03144	2.18673	8.43925
1.5359	2.55158	0.711363	2.72896	1.53601	2.55159	0.940699	3.60193	1.49035	5.69797	1.84338	7.0576	2.18888	8.38652	0.712659	2.72338	1.53883	2.63833	1.55586	5.95147	1.8282	6.97903	2.19027	8.3783
1.52969	2.55104	0.714343	2.71635	1.5298	2.55105	0.941405	3.57306	1.49156	5.65271	1.84923	7.01799	2.1917	8.32372	0.715666	2.71097	1.53313	2.63901	1.5654	5.93555	1.83065	6.92736	2.19392	8.31885
1.52347	2.55049	0.717384	2.70418	1.52358	2.5505	0.942159	3.54488	1.49265	5.60781	1.85518	6.97944	2.19446	8.26182	0.718733	2.699	1.52747	2.63974	1.57494	5.91996	1.83306	6.87644	2.19768	8.26085
1.51726	2.54994	0.720485	2.69245	1.51737	2.54995	0.942963	3.51737	1.49363	5.56329	1.86122	6.9419	2.19717	8.20079	0.72186	2.68745	1.52183	2.64054	1.58449	5.90463	1.83544	6.8263	2.20155	8.20424
1.51105	2.54939	0.723646	2.68115	1.51116	2.5494	0.943817	3.49051	1.49452	5.51916	1.86733	6.90529	2.19984	8.14063	0.725048	2.67633	1.51624	2.64141	1.59402	5.88951	1.83781	6.77696		
1.50484	2.54883	0.726867	2.67025	1.50495	2.54884	0.944721	3.46429	1.49531	5.47542	1.87352	6.86957	2.20247	8.08135	0.728295	2.66561	1.51068	2.64235	1.60352	5.87453	1.84018	6.72844		
1.49863	2.54827	0.730148	2.65976	1.49874	2.54828	0.945677	3.4387	1.49601	5.4321	1.87977	6.83466			0.731603	2.6553	1.50517	2.64337	1.61297	5.85963	1.84256	6.68079		
1.49242	2.5477	0.73349	2.64966	1.49253	2.54771	0.946685	3.41372	1.49663	5.38919	1.88608	6.80052			0.734971	2.64537	1.4997	2.64449	1.62236	5.84474	1.84498	6.63404		
1.48621	2.54714	0.736893	2.63995	1.48632	2.54715	0.947744	3.38934	1.49717	5.34671	1.89242	6.76708			0.738401	2.63582	1.49428	2.6457	1.63167	5.8298	1.84744	6.58823		
1.48	2.54657	0.740358	2.63062	1.48011	2.54658	0.948856	3.36555	1.49764	5.30468	1.89879	6.73429			0.741894	2.62666	1.48892	2.64701	1.64086	5.81473	1.84997	6.54341		
1.47379	2.546	0.743888	2.62167	1.4739	2.54601	0.950021	3.34233	1.49804	5.26308	1.90517	6.7021			0.745453	2.61787	1.48361	2.64843	1.64994	5.79945	1.85259	6.49965		
1.46759	2.54543	0.747485	2.6131	1.4677	2.54544	0.95124	3.31967	1.49838	5.22194	1.91157	6.67046			0.749082	2.60947	1.47835	2.64997	1.65886	5.7839	1.85533	6.45699		
1.46138	2.54485	0.751156	2.60492	1.4615	2.54486	0.952512	3.29755	1.49866	5.18125	1.91796	6.6393			0.752787	2.60147	1.47316	2.65164	1.6676	5.76798	1.85822	6.41551		
1.45518	2.54428	0.754909	2.59715	1.45529	2.54429	0.953839	3.27598	1.49889	5.14103	1.92434	6.60858			0.756581	2.59389	1.46804	2.65343	1.67614	5.75162	1.86127	6.37528		
1.44898	2.5437	0.758761	2.58984	1.44909	2.54371	0.955219	3.25492	1.49907	5.10127	1.93068	6.57826			0.760483	2.58681	1.46298	2.65537	1.68445	5.73472	1.86453	6.33637		
1.44279	2.54312	0.762737	2.58307	1.4429	2.54313	0.956655	3.23439	1.4992	5.06198	1.93699	6.54827			0.764528	2.58032	1.45799	2.65744	1.69249	5.71719	1.86803	6.29885		
1.43659	2.54254	0.766888	2.57699	1.4367	2.54255	0.958146	3.21435	1.4993	5.02317	1.94325	6.51858			0.768778	2.57461	1.45308	2.65967	1.70024	5.69894	1.87179	6.26281		
1.4304	2.54196	0.771294	2.57186	1.43051	2.54197	0.959692	3.19481	1.49936	4.98483	1.94944	6.48913			0.773329	2.56999	1.44823	2.66204	1.70766	5.67989	1.87585	6.22831		
1.42421	2.54138	0.77606	2.56799	1.42432	2.54139	0.961293	3.17575	1.49938	4.94696	1.95556	6.45988			0.778278	2.56676	1.44346	2.66457	1.71473	5.65996	1.88024	6.19543		
1.41802	2.54081	0.781248	2.56557	1.41813	2.54082	0.962951	3.15715	1.49938	4.90957	1.9616	6.43079			0.783641	2.56492	1.43876	2.66726	1.72141	5.63908	1.88499	6.1642		
1.41184	2.54023	0.786806	2.56439	1.41195	2.54024	0.964665	3.13903	1.49935	4.87266	1.96753	6.40182			0.789325	2.56416	1.43414	2.67011	1.7277	5.6172	1.89012	6.13468		
1.40566	2.53965	0.792619	2.56405	1.40577	2.53966	0.966434	3.12135	1.4993	4.83623	1.97335	6.37291			0.795214	2.56408	1.42958	2.67311	1.73356	5.59429	1.89564	6.10687		
1.39948	2.53908	0.798584	2.56421	1.3996	2.53909	0.968261	3.10411	1.49922	4.80027	1.97905	6.34404			0.801225	2.56438	1.4251	2.67628	1.73899	5.57033	1.90157	6.08077		
1.39331	2.53851	0.804639	2.56465	1.39342	2.53852	0.970144	3.08731	1.49914	4.76478	1.98461	6.31517			0.807307	2.5649	1.42069	2.67961	1.74398	5.54535	1.90791	6.05636		
1.38715	2.53795	0.810749	2.56526	1.38726	2.53796	0.972084	3.07094	1.49903	4.72977	1.99003	6.28626			0.813434	2.56556	1.41635	2.6831	1.74855	5.51936	1.91466	6.03358		
1.38099	2.53739	0.816894	2.56597	1.3811	2.5374	0.974081	3.05498	1.49892	4.69523	1.9953	6.25729			0.819589	2.5663	1.41208	2.68674	1.75269	5.49244	1.9218	6.01237		
1.37483	2.53683	0.82306	2.56673	1.37494	2.53684	0.976136	3.03943	1.4988	4.66116	2.0004	6.22821			0.825763	2.56708	1.40787	2.69055	1.75643	5.46464	1.92932	5.99264		
1.36868	2.53628	0.829242	2.56754	1.36879	2.53629	0.978249	3.02428	1.49867	4.62755	2.00532	6.19901			0.831949	2.56789	1.40372	2.69451	1.75979	5.43606	1.9372	5.97429		
1.36254	2.53574	0.835433	2.56836	1.36265	2.53575	0.98042	3.00952	1.49854	4.5944	2.01007	6.16967			0.838144	2.56872	1.39964	2.69862	1.76278	5.40679	1.94541	5.95722		
1.3564	2.53521	0.841632	2.56919	1.35651	2.53522	0.98265	2.99515	1.4984	4.56171	2.01462	6.14017			0.844345	2.56955	1.39562	2.70289	1.76545	5.37691	1.95393	5.94134		
1.35027	2.53468	0.847835	2.57002	1.35038	2.53469	0.984938	2.98116	1.49826	4.52948	2.01898	6.11049			0.85055	2.57039	1.39165	2.70731	1.76781	5.34653	1.96273	5.92652		
1.34415	2.53417	0.854042	2.57086	1.34426	2.53418	0.987285	2.96754	1.49813	4.4977	2.02315	6.08062			0.856758	2.57122	1.38775	2.71189	1.76989	5.31573	1.97179	5.91268		
1.33804	2.53367	0.86025	2.57168	1.33815	2.53368	0.989693	2.95429	1.498	4.46637	2.02711	6.05056			0.862967	2.57204	1.3839	2.71661	1.77172	5.2846	1.98108	5.89972		
1.33194	2.53319	0.86646	2.5725	1.33205	2.5332	0.99216	2.94139	1.49787	4.43548	2.03086	6.02031			0.869177	2.57286	1.3801	2.72149	1.77332	5.25323	1.99058	5.88754		
1.32585	2.53272	0.872671	2.57331	1.32596	2.53273	0.994688	2.92885	1.49775	4.40503	2.03442	5.98987			0.875388	2.57366	1.37636	2.72651	1.77472	5.22167	2.00026	5.87607		
1.31977	2.53227	0.878881	2.57411	1.31988	2.53228	0.997278	2.91666	1.49764	4.37501	2.03776	5.95924			0.881598	2.57446	1.37267	2.73168	1.77594	5.19001	2.0101	5.86524		
1.3137	2.53184	0.885092	2.5749	1.31381	2.53185	0.999929	2.90481	1.49754	4.34542	2.04091	5.92844			0.887809	2.57524	1.36902	2.73701	1.77699	5.1583	2.02009	5.85497		
1.30765	2.53143	0.891302	2.57568	1.30776	2.53144	1.00264	2.89331	1.49745	4.31626	2.04386	5.89747			0.894018	2.57601	1.36543	2.74248	1.77789	5.12658	2.03021	5.8452		
1.30162	2.53105	0.897511	2.57644	1.30172	2.53106	1.00542	2.88213	1.49737	4.28752	2.04661	5.86635			0.900227	2.57677	1.36189	2.74809	1.77866	5.09491	2.04044	5.83588		
1.2956	2.5307	0.903719	2.57719	1.2957	2.53071	1.00826	2.87129	1.49731	4.2592	2.04917	5.8351			0.906435	2.57752	1.35839	2.75386	1.77932	5.06332	2.05076	5.82696		
1.28959	2.53038	0.909926	2.57793	1.2897	2.53038	1.01117	2.86077	1.49726	4.23129	2.05154	5.80373			0.912642	2.57825	1.35494	2.75978	1.77987	5.03185	2.06117	5.81839		
1.28361	2.53009	0.916132	2.57865	1.28372	2.5301	1.01415	2.85058	1.49722	4.20378	2.05374	5.77227			0.918847	2.57897	1.35154	2.76585	1.78033	5.00052	2.07165	5.81012		
1.27765	2.52985	0.922337	2.57937	1.27776	2.52985	1.01719	2.84071	1.49721	4.17668	2.05577	5.74074			0.925051	2.57967	1.34818	2.77207	1.7807	4.96937	2.08219	5.80213		
1.27171	2.52965	0.92854	2.58007	1.27182	2.52965	1.0203	2.83116	1.49721	4.14997	2.05763	5.70915			0.931253	2.58037	1.34487	2.77844	1.781	4.93842	2.09277	5.79436		
1.2658	2.52949	0.934741	2.58075	1.2659	2.5295	1.02349	2.82192	1.49723	4.12365	2.05933	5.67753			0.937454	2.58105	1.3416	2.78496	1.78124	4.90768	2.10339	5.78679		
1.25991	2.52939	0.940941	2.58142	1.26002	2.5294	1.02674	2.813	1.49727	4.09772	2.06089	5.6459			0.943653	2.58171	1.33838	2.79164	1.78142	4.87717	2.11403	5.77939		
1.25405	2.52935	0.94714	2.58208	1.25416	2.52935	1.03007	2.8044	1.49733	4.07217	2.0623	5.61429			0.949851	2.58237	1.3352	2.79848	1.78155	4.8469	2.12469	5.77211		
1.24823	2.52938	0.953336	2.58273	1.24833	2.52937	1.03348	2.79611	1.49741	4.047	2.06358	5.5827			0.956046	2.58301	1.33206	2.80547	1.78163	4.81689	2.13535	5.76494		
1.24244	2.52947	0.959531	2.58336	1.24254	2.52946	1.03697	2.78814	1.49752	4.0222	2.06474	5.55117			0.96224	2.58364	1.32897	2.81262	1.78168	4.78715	2.146	5.75782		
1.23668	2.52963	0.965724	2.58398	1.23678	2.52963	1.04053	2.78048	1.49765	3.99777	2.06577	5.51971			0.968432	2.58425	1.32592	2.81994	1.78169	4.75769	2.15663	5.75074		
1.23097	2.52988	0.971915	2.58459	1.23107	2.52988	1.04418	2.77313	1.4978	3.9737	2.06669	5.48833			0.974622	2.58485	1.32291	2.82741	1.78167	4.7285	2.16723	5.74366		
1.22529	2.53022	0.978104	2.58519	1.22539	2.53022	1.04792	2.7661	1.49798	3.94999	2.06751	5.45707			0.980811	2.58544	1.31994	2.83505	1.78163	4.6996	2.17778	5.73654		
1.21966	2.53065	0.984291	2.58577	1.21976	2.53065	1.05174	2.75938	1.49818	3.92663	2.06823	5.42592			0.986997	2.58602	1.31702	2.84286	1.78156	4.671	2.18826	5.72933		
1.21408	2.53119	0.990476	2.58634	1.21418	2.53118	1.05565	2.75298	1.4984	3.90362	2.06886	5.39491			0.993181	2.58659	1.31414	2.85084	1.78148	4.64269	2.19867	5.722		
1.20854	2.53182	0.996659	2.5869	1.20864	2.53181	1.05966	2.7469	1.49866	3.88095	2.0694	5.36405			0.999363	2.58714	1.31129	2.85898	1.78138	4.61468	2.20897	5.7145		
1.20306	2.53257	1.00284	2.58745	1.20315	2.53256	1.06375	2.74112	1.49894	3.85862	2.06986	5.33335			1.00554	2.58768	1.3085	2.86731	1.78127	4.58698				
1.19762	2.53344	1.00902	2.58798	1.19772	2.53342	1.06795	2.73566	1.49925	3.83662	2.07025	5.30282			1.01172	2.58821	1.30574	2.8758	1.78115	4.55957				
1.19224	2.53442	1.0152	2.58851	1.19233	2.5344	1.07224	2.73051	1.49958	3.81495	2.07057	5.27248			1.0179	2.58873	1.30302	2.88448	1.78102	4.53247				
1.18691	2.53552	1.02137	2.58902	1.187	2.5355	1.07662	2.72567	1.49994	3.79361	2.07083	5.24233			1.02407	2.58924	1.30035	2.89334	1.78088	4.50567				
1.18163	2.53675	1.02754	2.58952	1.18172	2.53673	1.08111	2.72112	1.50034	3.77258	2.07102	5.21239			1.03024	2.58973	1.29771	2.90238	1.78075	4.47918				
1.1764	2.5381	1.03371	2.59001	1.17649	2.53808	1.08568	2.71686	1.50076	3.75188	2.07117	5.18265			1.03641	2.59022	1.29512	2.91161	1.78061	4.45299				
1.17123	2.53958	1.03988	2.59048	1.17132	2.53955	1.09036	2.71289	1.50121	3.73148	2.07126	5.15313			1.04258	2.59069	1.29257	2.92103	1.78048	4.42711				
1.1661	2.54118	1.04605	2.59095	1.16619	2.54115	1.09512	2.70919	1.50169	3.71139	2.07131	5.12384			1.04874	2.59115	1.29006	2.93064	1.78034	4.40152				
1.16102	2.54291	1.05221	2.5914	1.16112	2.54287	1.09997	2.70575	1.5022	3.6916	2.07132	5.09477			1.0549	2.5916	1.2876	2.94045	1.78021	4.37624				
1.15599	2.54475	1.05837	2.59185	1.15609	2.54472	1.10491	2.70256	1.50274	3.67211	2.07128	5.06594			1.06106	2.59204	1.28517	2.95046	1.78009	4.35126				
1.15101	2.54671	1.06453	2.59228	1.1511	2.54667	1.10993	2.69961	1.50332	3.65291	2.07122	5.03735			1.06722	2.59247	1.28279	2.96066	1.77997	4.32657				
1.14606	2.54878	1.07068	2.5927	1.14615	2.54874	1.11503	2.69687	1.50392	3.63401	2.07112	5.009			1.07337	2.59288	1.28044	2.97108	1.77987	4.30218				
1.14116	2.55096	1.07683	2.59311	1.14125	2.55092	1.1202	2.69434	1.50456	3.61538	2.07099	4.98089			1.07953	2.59329	1.27814	2.9817	1.77977	4.27809				
1.13629	2.55325	1.08298	2.59351	1.13638	2.5532	1.12544	2.69201	1.50522	3.59704	2.07083	4.95304			1.08567	2.59368	1.27588	2.99254	1.77968	4.25428				
1.13145	2.55563	1.08913	2.5939	1.13154	2.55558	1.13075	2.68984	1.50592	3.57898	2.07066	4.92543			1.09182	2.59406	1.27366	3.00359	1.77961	4.23077				
1.12664	2.5581	1.09528	2.59427	1.12673	2.55805	1.13611	2.68785	1.50665	3.56119	2.07046	4.89807			1.09796	2.59443	1.27148	3.01486	1.77955	4.20754				
1.12186	2.56065	1.10142	2.59464	1.12195	2.56061	1.14152	2.686	1.50742	3.54367	2.07024	4.87097			1.1041	2.5948	1.26935	3.02635	1.7795	4.1846				
1.1171	2.56329	1.10756	2.59499	1.11718	2.56324	1.14699	2.68429	1.50822	3.52642	2.07001	4.84412			1.11024	2.59515	1.26725	3.03807	1.77947	4.16194				
1.11236	2.56599	1.11369	2.59534	1.11244	2.56594	1.1525	2.6827	1.50905	3.50942	2.06976	4.81753			1.11637	2.59548	1.2652	3.05002	1.77945	4.13955				
1.10763	2.56875	1.11982	2.59567	1.10771	2.5687	1.15806	2.68123	1.50991	3.49269	2.0695	4.7912			1.1225	2.59581	1.26319	3.06221	1.77945	4.11745				
1.1029	2.57156	1.12595	2.59599	1.10299	2.57151	1.16365	2.67987	1.51081	3.47621	2.06923	4.76512			1.12863	2.59613	1.26122	3.07463	1.77946	4.09562				
1.09819	2.57442	1.13208	2.5963	1.09827	2.57436	1.16928	2.67859	1.51174	3.45998	2.06896	4.7393			1.13475	2.59643	1.25929	3.0873	1.7795	4.07406				
1.09347	2.5773	1.1382	2.5966	1.09356	2.57725	1.17494	2.67741	1.5127	3.444	2.06867	4.71373			1.14087	2.59673	1.25741	3.10021	1.77955	4.05277				
1.08875	2.58021	1.14431	2.59689	1.08884	2.58016	1.18063	2.6763	1.5137	3.42826	2.06838	4.68842			1.14699	2.59701	1.25556	3.11337	1.77962	4.03175				
1.08402	2.58313	1.15043	2.59716	1.08411	2.58307	1.18635	2.67527	1.51473	3.41276	2.06809	4.66336			1.1531	2.59728	1.25376	3.12679	1.77971	4.01099				
1.07928	2.58604	1.15654	2.59742	1.07937	2.58599	1.19209	2.6743	1.51579	3.39749	2.06779	4.63856			1.15921	2.59753	1.252	3.14047	1.77982	3.99049				
1.07452	2.58894	1.16264	2.59767	1.0746	2.58889	1.19785	2.67339	1.51689	3.38246	2.06749	4.61401			1.16531	2.59778	1.25028	3.15441	1.77995	3.97024				
1.06973	2.59181	1.16874	2.59791	1.06981	2.59176	1.20363	2.67253	1.51802	3.36766	2.0672	4.58972			1.17141	2.59801	1.2486	3.16862	1.78011	3.95026				
1.06491	2.59464	1.17484	2.59814	1.065	2.59459	1.20944	2.67173	1.51919	3.35309	2.0669	4.56567			1.17751	2.59823	1.24696	3.18311	1.78028	3.93052				
1.06006	2.59743	1.18093	2.59835	1.06015	2.59738	1.21526	2.67097	1.52039	3.33874	2.06661	4.54188			1.1836	2.59844	1.24536	3.19787	1.78048	3.91103				
1.05517	2.60014	1.18702	2.59855	1.05526	2.6001	1.22109	2.67025	1.52163	3.32461	2.06632	4.51833			1.18968	2.59864	1.24381	3.21291	1.7807	3.89179				
1.05023	2.60279	1.1931	2.59874	1.05032	2.60274	1.22694	2.66957	1.5229	3.3107	2.06604	4.49504			1.19576	2.59882	1.24229	3.22824	1.78095	3.87279				
1.04526	2.60535	1.19918	2.59891	1.04535	2.6053	1.2328	2.66893	1.52421	3.297	2.06576	4.47198			1.20183	2.59898	1.24082	3.24386	1.78121	3.85404				
1.04023	2.60782	1.20525	2.59907	1.04032	2.60777	1.23867	2.66831	1.52555	3.28351	2.06549	4.44917			1.2079	2.59914	1.23939	3.25979	1.7815	3.83552				
1.03515	2.61019	1.21131	2.59921	1.03524	2.61015	1.24456	2.66773	1.52692	3.27022	2.06523	4.42661			1.21396	2.59927	1.238	3.27601	1.78182	3.81723				
1.03002	2.61246	1.21737	2.59934	1.03012	2.61242	1.25045	2.66718	1.52833	3.25715	2.06498	4.40428			1.22002	2.5994	1.23665	3.29254	1.78216	3.79918				
1.02484	2.61462	1.22342	2.59946	1.02494	2.61458	1.25636	2.66665	1.52978	3.24427	2.06473	4.38219			1.22607	2.5995	1.23534	3.30938	1.78252	3.78136				
1.01961	2.61667	1.22947	2.59955	1.01971	2.61664	1.26227	2.66614	1.53125	3.23159	2.0645	4.36034			1.23211	2.59959	1.23407	3.32655	1.78292	3.76377				
1.01433	2.61862	1.2355	2.59963	1.01442	2.61859	1.26819	2.66565	1.53277	3.21911	2.06428	4.33873			1.23814	2.59966	1.23284	3.34403	1.78333	3.7464				
1.009	2.62047	1.24153	2.5997	1.00909	2.62043	1.27412	2.66519	1.53432	3.20683	2.06406	4.31735			1.24416	2.59972	1.23165	3.36185	1.78377	3.72925				
1.00362	2.62221	1.24755	2.59974	1.00371	2.62217	1.28005	2.66474	1.5359	3.19473	2.06387	4.2962			1.25018	2.59975	1.2305	3.38	1.78424	3.71232				
0.998189	2.62385	1.25356	2.59976	0.998287	2.62382	1.286	2.66431	1.53752	3.18282	2.06368	4.27527			1.25619	2.59977	1.22939	3.39849	1.78473	3.6956				
0.992719	2.62539	1.25956	2.59977	0.992818	2.62536	1.29194	2.66389	1.53917	3.17109	2.06351	4.25458			1.26218	2.59976	1.22832	3.41733	1.78526	3.6791				
0.987208	2.62684	1.26555	2.59975	0.987308	2.62682	1.29789	2.66349	1.54086	3.15955	2.06335	4.23411			1.26817	2.59974	1.22729	3.43652	1.7858	3.66281				
0.981658	2.62821	1.27153	2.59971	0.981759	2.62819	1.30385	2.6631	1.54258	3.14819	2.0632	4.21386			1.27414	2.59969	1.2263	3.45607	1.78638	3.64673				
0.976073	2.6295	1.2775	2.59965	0.976174	2.62948	1.30981	2.66273	1.54434	3.137	2.06308	4.19383			1.2801	2.59961	1.22534	3.47598	1.78698	3.63086				
0.970454	2.63072	1.28345	2.59956	0.970555	2.6307	1.31577	2.66236	1.54613	3.12599	2.06296	4.17403			1.28605	2.59951	1.22443	3.49626	1.78761	3.61519				
0.964804	2.63186	1.28939	2.59944	0.964905	2.63184	1.32174	2.66201	1.54796	3.11516	2.06287	4.15444			1.29199	2.59938	1.22355	3.51692	1.78826	3.59972				
0.959125	2.63295	1.29532	2.5993	0.959227	2.63293	1.32771	2.66167	1.54982	3.10449	2.06279	4.13506			1.29791	2.59923	1.2227	3.53797	1.78895	3.58445				
0.953419	2.63397	1.30123	2.59913	0.953522	2.63395	1.33369	2.66133	1.55172	3.09399	2.06273	4.1159			1.30381	2.59904	1.2219	3.5594	1.78966	3.56937				
0.947689	2.63493	1.30712	2.59892	0.947793	2.63492	1.33966	2.66101	1.55365	3.08365	2.06268	4.09695			1.3097	2.59882	1.22113	3.58123	1.7904	3.55449				
0.941937	2.63585	1.313	2.59868	0.942041	2.63583	1.34564	2.66069	1.55562	3.07348	2.06265	4.0782			1.31556	2.59857	1.22039	3.60346	1.79117	3.5398				
0.936164	2.63672	1.31886	2.59841	0.936268	2.63671	1.35162	2.66038	1.55762	3.06347	2.06264	4.05967			1.32141	2.59828	1.21969	3.6261	1.79197	3.5253				
0.930372	2.63755	1.32469	2.59809	0.930476	2.63753	1.35761	2.66007	1.55965	3.05361	2.06266	4.04133			1.32724	2.59794	1.21903	3.64915	1.79279	3.51099				
0.924562	2.63834	1.33051	2.59774	0.924667	2.63832	1.36359	2.65978	1.56172	3.04392	2.06268	4.0232			1.33304	2.59757	1.2184	3.67263	1.79364	3.49686				
0.918736	2.63909	1.3363	2.59734	0.918842	2.63908	1.36958	2.65948	1.56383	3.03437	2.06273	4.00527			1.33882	2.59715	1.2178	3.69653	1.79453	3.48291				
0.912896	2.63981	1.34206	2.5969	0.913001	2.6398	1.37557	2.6592	1.56597	3.02498	2.0628	3.98754			1.34457	2.59669	1.21723	3.72087	1.79544	3.46914				
0.907042	2.6405	1.3478	2.59641	0.907147	2.64049	1.38155	2.65891	1.56814	3.01574	2.06289	3.97			1.3503	2.59617	1.21669	3.74565	1.79638	3.45555				
0.901175	2.64116	1.3535	2.59586	0.901281	2.64115	1.38754	2.65863	1.57035	3.00665	2.063	3.95266			1.35599	2.59561	1.21619	3.77088	1.79735	3.44214				
0.895296	2.6418	1.35918	2.59526	0.895402	2.64179	1.39353	2.65836	1.5726	2.9977	2.06313	3.93551			1.36165	2.59498	1.21571	3.79656	1.79834	3.42889				
0.889407	2.64241	1.36482	2.5946	0.889513	2.6424	1.39952	2.65808	1.57487	2.98889	2.06328	3.91855			1.36728	2.5943	1.21526	3.82271	1.79937	3.41582				
0.883509	2.643	1.37043	2.59389	0.883615	2.64299	1.40551	2.65781	1.57719	2.98023	2.06345	3.90178			1.37287	2.59355	1.21484	3.84932	1.80043	3.40292				
0.877601	2.64358	1.376	2.59311	0.877707	2.64357	1.4115	2.65755	1.57953	2.97171	2.06365	3.8852			1.37842	2.59274	1.21445	3.87641	1.80151	3.39019				
0.871684	2.64413	1.38153	2.59226	0.871791	2.64412	1.41749	2.65728	1.58192	2.96333	2.06386	3.8688			1.38394	2.59187	1.21408	3.90398	1.80263	3.37762				
0.86576	2.64467	1.38702	2.59134	0.865867	2.64467	1.42348	2.65702	1.58433	2.95508	2.0641	3.85258			1.38941	2.59092	1.21373	3.93204	1.80377	3.36521				
0.85983	2.6452	1.39247	2.59036	0.859936	2.64519	1.42947	2.65675	1.58678	2.94697	2.06436	3.83654			1.39484	2.58991	1.2134	3.96059	1.80494	3.35297				
0.853892	2.64572	1.39788	2.58931	0.853999	2.64571	1.43546	2.65649	1.58927	2.93899	2.06464	3.82068			1.40023	2.58883	1.2131	3.98965	1.80615	3.34088				
0.847949	2.64622	1.40325	2.58818	0.848056	2.64621	1.44145	2.65623	1.59179	2.93114	2.06495	3.805			1.40558	2.58767	1.21281	4.0192	1.80738	3.32895				
0.842	2.64671	1.40857	2.58699	0.842107	2.6467	1.44744	2.65597	1.59434	2.92343	2.06528	3.78949			1.41088	2.58645	1.21254	4.04927	1.80864	3.31718				
0.836046	2.6472	1.41385	2.58573	0.836153	2.64719	1.45342	2.6557	1.59693	2.91584	2.06563	3.77416			1.41615	2.58516	1.21229	4.07986	1.80993	3.30556				
0.830087	2.64767	1.41909	2.5844	0.830194	2.64767	1.4594	2.65544	1.59956	2.90837	2.066	3.75899			1.42137	2.5838	1.21205	4.11097	1.81125	3.29409				
0.824124	2.64815	1.42428	2.58301	0.824232	2.64814	1.46538	2.65518	1.60221	2.90104	2.0664	3.744			1.42654	2.58239	1.21181	4.1426	1.8126	3.28277				
0.818158	2.64861	1.42944	2.58156	0.818265	2.6486	1.47136	2.65491	1.60491	2.89382	2.06682	3.72917			1.43169	2.58091	1.21159	4.17477	1.81398	3.27159				
0.812187	2.64907	1.43456	2.58006	0.812295	2.64906	1.47734	2.65464	1.60763	2.88673	2.06727	3.71451			1.43679	2.57939	1.21137	4.20747	1.81539	3.26057				
0.806214	2.64953	1.43965	2.57851	0.806321	2.64952	1.48331	2.65437	1.6104	2.87976	2.06773	3.70001			1.44186	2.57781	1.21116	4.2407	1.81683	3.24968				
0.800237	2.64998	1.4447	2.57691	0.800345	2.64997	1.48928	2.6541	1.6132	2.87291	2.06823	3.68567			1.4469	2.5762	1.21094	4.27448	1.8183	3.23894				
0.794258	2.65043	1.44973	2.57527	0.794366	2.65042	1.49525	2.65382	1.61603	2.86618	2.06874	3.6715			1.45192	2.57455	1.21072	4.30879	1.81979	3.22834				
0.788277	2.65088	1.45472	2.5736	0.788384	2.65087	1.50122	2.65354	1.6189	2.85956	2.06928	3.65748			1.4569	2.57287	1.21049	4.34365	1.82132	3.21788				
0.782293	2.65133	1.4597	2.57191	0.782401	2.65133	1.50718	2.65325	1.6218	2.85306	2.06985	3.64362			1.46187	2.57116	1.21025	4.37904	1.82288	3.20755				
0.776308	2.65179	1.46466	2.5702	0.776415	2.65178	1.51313	2.65296	1.62474	2.84668	2.07044	3.62991			1.46682	2.56944	1.20999	4.41498	1.82447	3.19736				
0.770321	2.65224	1.4696	2.56847	0.770429	2.65223	1.51908	2.65266	1.62772	2.84041	2.07105	3.61636			1.47176	2.56771	1.20972	4.45145	1.82608	3.18731				
0.764332	2.6527	1.47453	2.56673	0.76444	2.65269	1.52503	2.65236	1.63073	2.83425	2.07169	3.60296			1.47668	2.56597	1.20942	4.48845	1.82773	3.17738				
0.758343	2.65316	1.47945	2.565	0.758451	2.65315	1.53097	2.65205	1.63377	2.82821	2.07235	3.58971			1.4816	2.56424	1.20908	4.52597	1.8294	3.16759				
0.752352	2.65362	1.48436	2.56326	0.75246	2.65361	1.53691	2.65173	1.63686	2.82227	2.07304	3.57661			1.48651	2.5625	1.20872	4.56401	1.83111	3.15792				
0.746362	2.65409	1.48928	2.56153	0.746469	2.65408	1.54283	2.6514	1.63998	2.81645	2.07376	3.56365			1.49142	2.56078	1.2083	4.60256	1.83284	3.14839				
0.74037	2.65456	1.49418	2.55982	0.740478	2.65456	1.54876	2.65107	1.64314	2.81074	2.0745	3.55084			1.49633	2.55907	1.20784	4.64159	1.8346	3.13897				
0.734378	2.65505	1.4991	2.55812	0.734486	2.65504	1.55467	2.65072	1.64634	2.80513	2.07526	3.53817			1.50125	2.55738	1.20732	4.6811	1.8364	3.12969				
0.728387	2.65554	1.50401	2.55644	0.728495	2.65553	1.56057	2.65036	1.64957	2.79964	2.07605	3.52565			1.50616	2.55571	1.20674	4.72107	1.83822	3.12052				
0.722395	2.65604	1.50893	2.55479	0.722503	2.65603	1.56647	2.64999	1.65285	2.79425	2.07686	3.51327			1.51109	2.55407	1.20607	4.76146	1.84007	3.11148				
0.716404	2.65655	1.51386	2.55316	0.716512	2.65654	1.57236	2.64961	1.65616	2.78898	2.0777	3.50102			1.51602	2.55245	1.20533	4.80226	1.84195	3.10255				
0.710414	2.65707	1.5188	2.55156	0.710522	2.65706	1.57824	2.64921	1.65951	2.78381	2.07857	3.48891			1.52096	2.55087	1.20449	4.84344	1.84386	3.09374				
0.704425	2.6576	1.52375	2.54999	0.704533	2.65759	1.5841	2.6488	1.66291	2.77875	2.07946	3.47694			1.52592	2.54932	1.20354	4.88495	1.8458	3.08506				
0.698437	2.65815	1.52872	2.54846	0.698545	2.65814	1.58995	2.64837	1.66634	2.77379	2.08037	3.4651			1.53089	2.5478	1.20247	4.92677	1.84777	3.07648				
0.69245	2.65871	1.53369	2.54696	0.692558	2.6587	1.59579	2.64792	1.66982	2.76895	2.08131	3.4534			1.53588	2.54632	1.20128	4.96883	1.84977	3.06802				
0.686465	2.65929	1.53869	2.5455	0.686573	2.65928	1.60162	2.64745	1.67335	2.76421	2.08228	3.44183			1.54088	2.54487	1.19993	5.0111	1.8518	3.05967				
0.680482	2.65989	1.5437	2.54408	0.68059	2.65988	1.60743	2.64696	1.67691	2.75959	2.08327	3.43038			1.5459	2.54347	1.19843	5.05352	1.85385	3.05144				
0.674501	2.66051	1.54873	2.5427	0.674609	2.6605	1.61322	2.64644	1.68053	2.75507	2.08429	3.41907			1.55094	2.54211	1.19675	5.09602	1.85594	3.04331				
0.668523	2.66115	1.55378	2.54136	0.66863	2.66114	1.619	2.6459	1.68419	2.75067	2.08534	3.40789			1.556	2.54079	1.19488	5.13853	1.85805	3.03529				
0.662547	2.66181	1.55885	2.54007	0.662655	2.6618	1.62475	2.64533	1.68789	2.74637	2.08641	3.39682			1.56107	2.53952	1.1928	5.181	1.8602	3.02738				
0.656575	2.6625	1.56394	2.53882	0.656683	2.66249	1.63049	2.64473	1.69165	2.7422	2.0875	3.38589			1.56617	2.53829	1.19049	5.22334	1.86237	3.01958				
0.650607	2.66322	1.56905	2.53761	0.650714	2.6632	1.6362	2.6441	1.69546	2.73813	2.08862	3.37508			1.5713	2.5371	1.18795	5.26548	1.86457	3.01188				
0.644643	2.66396	1.57419	2.53645	0.64475	2.66395	1.64189	2.64343	1.69933	2.73418	2.08977	3.36439			1.57644	2.53596	1.18514	5.30733	1.8668	3.00429				
0.638683	2.66474	1.57934	2.53533	0.63879	2.66473	1.64754	2.64272	1.70325	2.73035	2.09094	3.35382			1.58161	2.53486	1.18207	5.34884	1.86906	2.99679				
0.632728	2.66556	1.58452	2.53426	0.632835	2.66555	1.65317	2.64198	1.70722	2.72664	2.09214	3.34337			1.5868	2.53381	1.17871	5.38991	1.87134	2.9894				
0.626778	2.66642	1.58973	2.53323	0.626885	2.6664	1.65877	2.64119	1.71126	2.72306	2.09337	3.33303			1.59201	2.5328	1.17506	5.4305	1.87366	2.98211				
0.620835	2.66731	1.59495	2.53225	0.620942	2.6673	1.66434	2.64035	1.71536	2.71959	2.09462	3.32282			1.59725	2.53184	1.1711	5.47053	1.87601	2.97492				
0.614898	2.66826	1.60021	2.53132	0.615005	2.66824	1.66987	2.63946	1.71952	2.71625	2.0959	3.31272			1.60251	2.53093	1.16683	5.50998	1.87838	2.96782				
0.608969	2.66925	1.60548	2.53043	0.609075	2.66924	1.67537	2.63852	1.72375	2.71304	2.0972	3.30273			1.6078	2.53006	1.16224	5.54879	1.88078	2.96082				
0.603047	2.67031	1.61078	2.52959	0.603154	2.67029	1.68082	2.63753	1.72804	2.70996	2.09853	3.29286			1.61311	2.52923	1.15735	5.58696	1.88321	2.95392				
0.597135	2.67142	1.61611	2.52879	0.597241	2.6714	1.68623	2.63648	1.73241	2.70701	2.09988	3.2831			1.61845	2.52845	1.15214	5.62448	1.88567	2.94711				
0.591232	2.6726	1.62146	2.52803	0.591338	2.67258	1.6916	2.63537	1.73684	2.70419	2.10126	3.27344			1.62381	2.52772	1.14664	5.66138	1.88816	2.94039				
0.58534	2.67386	1.62684	2.52732	0.585446	2.67383	1.69693	2.63419	1.74135	2.7015	2.10267	3.2639			1.6292	2.52702	1.14084	5.69767	1.89067	2.93377				
0.579461	2.6752	1.63224	2.52665	0.579566	2.67517	1.70221	2.63296	1.74593	2.69895	2.1041	3.25447			1.63461	2.52638	1.13477	5.73342	1.89322	2.92724				
0.573594	2.67662	1.63766	2.52603	0.5737	2.6766	1.70744	2.63166	1.75059	2.69653	2.10556	3.24514			1.64004	2.52577	1.12843	5.76867	1.89579	2.92079				
0.567742	2.67815	1.64311	2.52545	0.567847	2.67813	1.71263	2.63031	1.75532	2.69424	2.10704	3.23592			1.6455	2.5252	1.12186	5.8035	1.89839	2.91444				
0.561907	2.67979	1.64858	2.52491	0.562012	2.67976	1.71778	2.62889	1.76012	2.69208	2.10855	3.22681			1.65099	2.52468	1.11506	5.83801	1.90102	2.90818				
0.556089	2.68156	1.65408	2.5244	0.556194	2.68153	1.72287	2.62741	1.765	2.69004	2.11009	3.21779			1.65649	2.5242	1.10805	5.87228	1.90368	2.902				
0.550292	2.68346	1.6596	2.52394	0.550396	2.68343	1.72793	2.62588	1.76995	2.68813	2.11165	3.20888			1.66203	2.52375	1.10087	5.90641	1.90637	2.89591				
0.544517	2.68552	1.66515	2.52352	0.544621	2.68548	1.73294	2.6243	1.77497	2.68634	2.11324	3.20008			1.66758	2.52334	1.09352	5.94052	1.90908	2.8899				
0.538768	2.68775	1.67071	2.52313	0.538871	2.68771	1.73792	2.62267	1.78006	2.68467	2.11485	3.19137			1.67316	2.52298	1.08602	5.97472	1.91182	2.88398				
0.533046	2.69017	1.6763	2.52278	0.533149	2.69013	1.74285	2.62099	1.78521	2.6831	2.11649	3.18276			1.67876	2.52264	1.07841	6.00912	1.91459	2.87814				
0.527356	2.69281	1.68192	2.52247	0.527459	2.69277	1.74776	2.61928	1.79042	2.68164	2.11815	3.17425			1.68438	2.52234	1.0707	6.04384	1.91739	2.87239				
0.521702	2.6957	1.68755	2.52219	0.521803	2.69565	1.75264	2.61754	1.7957	2.68028	2.11984	3.16583			1.69002	2.52208	1.0629	6.07902	1.92022	2.86671				
0.516087	2.69887	1.6932	2.52194	0.516188	2.69881	1.75749	2.61578	1.80103	2.67901	2.12156	3.15751			1.69568	2.52184	1.05505	6.11478	1.92308	2.86112				
0.510518	2.70235	1.69888	2.52173	0.510618	2.70228	1.76233	2.61399	1.80641	2.67783	2.1233	3.14929			1.70137	2.52164	1.04714	6.15125	1.92596	2.85561				
0.504999	2.70619	1.70457	2.52155	0.505098	2.70612	1.76714	2.6122	1.81185	2.67672	2.12507	3.14116			1.70707	2.52147	1.03922	6.18857	1.92887	2.85017				
0.499537	2.71043	1.71029	2.52139	0.499635	2.71035	1.77195	2.6104	1.81732	2.67569	2.12686	3.13313			1.71279	2.52133	1.03128	6.22688	1.93181	2.84482				
0.494139	2.71514	1.71602	2.52127	0.494235	2.71505	1.77675	2.60861	1.82284	2.67473	2.12868	3.12518			1.71853	2.52122	1.02336	6.26633	1.93478	2.83954				
0.488814	2.72037	1.72177	2.52117	0.488909	2.72027	1.78155	2.60682	1.8284	2.67384	2.13052	3.11733			1.72429	2.52114	1.01546	6.30708	1.93778	2.83434				
0.48357	2.72619	1.72754	2.5211	0.483663	2.72608	1.78636	2.60506	1.834	2.673	2.13239	3.10957			1.73007	2.52108	1.00761	6.34928	1.9408	2.82922				
0.478417	2.73269	1.73333	2.52106	0.478509	2.73257	1.79117	2.60332	1.83963	2.67222	2.13429	3.10189			1.73586	2.52104	0.99981	6.39312	1.94386	2.82417				
0.473367	2.73996	1.73913	2.52104	0.473457	2.73982	1.796	2.60161	1.84529	2.67149	2.13621	3.09431			1.74167	2.52103	0.992091	6.43876	1.94694	2.8192				
0.46843	2.74808	1.74495	2.52104	0.468518	2.74793	1.80085	2.59995	1.85098	2.6708	2.13815	3.08681			1.7475	2.52105	0.984465	6.4864	1.95005	2.81431				
0.463619	2.75718	1.75078	2.52106	0.463704	2.75701	1.80573	2.59834	1.85669	2.67016	2.14012	3.0794			1.75334	2.52108	0.976949	6.53625	1.95319	2.80948				
0.458945	2.76736	1.75663	2.52111	0.459028	2.76717	1.81064	2.59678	1.86243	2.66955	2.14212	3.07207			1.7592	2.52114	0.969559	6.58852	1.95636	2.80473				
0.454421	2.77874	1.7625	2.52118	0.454501	2.77853	1.8156	2.5953	1.86819	2.66898	2.14414	3.06483			1.76507	2.52122	0.962313	6.64344	1.95956	2.80006				
0.450057	2.79144	1.76838	2.52127	0.450134	2.7912	1.8206	2.5939	1.87397	2.66844	2.14619	3.05767			1.77095	2.52131	0.955227	6.70127	1.96279	2.79545				
0.445865	2.80559	1.77427	2.52137	0.445938	2.80532	1.82566	2.59258	1.87977	2.66793	2.14826	3.05059			1.77685	2.52142	0.948318	6.76226	1.96605	2.79092				
0.441852	2.8213	1.78017	2.5215	0.441922	2.821	1.83078	2.59136	1.88558	2.66745	2.15036	3.0436			1.78276	2.52155	0.941603	6.8267	1.96934	2.78646				
0.438025	2.83869	1.78609	2.52164	0.438093	2.83837	1.83597	2.59025	1.89141	2.66699	2.15248	3.03669			1.78868	2.5217	0.9351	6.8949	1.97265	2.78207				
0.434391	2.85788	1.79202	2.52179	0.434455	2.85752	1.84124	2.58925	1.89726	2.66656	2.15463	3.02985			1.79462	2.52187	0.928825	6.96717	1.976	2.77775				
0.430953	2.87896	1.79796	2.52196	0.431013	2.87856	1.84658	2.58837	1.90312	2.66615	2.1568	3.0231			1.80056	2.52204	0.922795	7.04385	1.97938	2.7735				
0.427711	2.90204	1.80391	2.52215	0.427768	2.9016	1.85201	2.5876	1.90899	2.66575	2.159	3.01643			1.80652	2.52224	0.917026	7.12531	1.98279	2.76932				
0.424667	2.92721	1.80988	2.52235	0.42472	2.92674	1.85751	2.58695	1.91487	2.66538	2.16122	3.00983			1.81249	2.52244	0.911533	7.21193	1.98622	2.76522				
0.421819	2.95457	1.81585	2.52256	0.421868	2.95406	1.86309	2.58641	1.92076	2.66502	2.16347	3.00331			1.81847	2.52266	0.90633	7.30411	1.98969	2.76118				
0.419165	2.98421	1.82183	2.52279	0.419211	2.98366	1.86874	2.58597	1.92666	2.66468	2.16574	2.99686			1.82445	2.52289	0.901431	7.40227	1.9932	2.75721				
0.416703	3.01624	1.82783	2.52302	0.416746	3.01564	1.87446	2.58563	1.93257	2.66435	2.16804	2.99049			1.83045	2.52313	0.896848	7.50688	1.99673	2.75331				
0.414431	3.05074	1.83383	2.52327	0.41447	3.0501	1.88023	2.58537	1.93849	2.66403	2.17036	2.9842			1.83646	2.52338	0.892591	7.61838	2.0003	2.74948				
0.412344	3.08783	1.83984	2.52353	0.41238	3.08714	1.88606	2.58518	1.94442	2.66373	2.17271	2.97798			1.84247	2.52364	0.888667	7.73727	2.0039	2.74572				
0.410441	3.12762	1.84586	2.5238	0.410474	3.12688	1.89194	2.58506	1.95035	2.66344	2.17508	2.97183			1.84849	2.52392	0.885084	7.86406	2.00753	2.74203				
0.408718	3.17023	1.85188	2.52407	0.408748	3.16944	1.89785	2.58499	1.95629	2.66316	2.17748	2.96576			1.85452	2.5242	0.881846	7.99928	2.0112	2.73841				
0.407173	3.2158	1.85792	2.52436	0.407199	3.21495	1.9038	2.58497	1.96223	2.66289	2.1799	2.95975			1.86056	2.52449	0.878955	8.1435	2.0149	2.73486				
0.405803	3.26447	1.86396	2.52466	0.405826	3.26356	1.90978	2.58499	1.96818	2.66263	2.18235	2.95382			1.86661	2.52479	0.87641	8.29731	2.01864	2.73138				
0.404605	3.31639	1.87001	2.52496	0.404625	3.31542	1.91578	2.58504	1.97414	2.66237	2.18482	2.94796			1.87266	2.52509	0.87421	8.46131	2.02241	2.72797				
0.403577	3.37173	1.87607	2.52527	0.403594	3.3707	1.92181	2.58512	1.9801	2.66213	2.18731	2.94216			1.87872	2.52541	0.87235	8.63618	2.02622	2.72463				
0.402717	3.43068	1.88213	2.52558	0.402731	3.42958	1.92785	2.58523	1.98606	2.66189	2.18983	2.93644			1.88478	2.52572	0.870825	8.82262	2.03007	2.72136				
0.402022	3.49343	1.8882	2.52591	0.402033	3.49227	1.93392	2.58536	1.99203	2.66165	2.19238	2.93078			1.89085	2.52605	0.869626	9.02137	2.03396	2.71816				
0.401492	3.5602	1.89427	2.52624	0.4015	3.55896	1.93999	2.58551	1.998	2.66143	2.19495	2.92519			1.89693	2.52638	0.868746	9.23325	2.03789	2.71504				
0.401122	3.63123	1.90035	2.52657	0.401128	3.62991	1.94608	2.58567	2.00398	2.66121	2.19754	2.91967			1.90302	2.52672	0.868174	9.45914	2.04186	2.71199				
0.400913	3.70676	1.90644	2.52691	0.400915	3.70535	1.95218	2.58584	2.00996	2.66099	2.20016	2.91421			1.90911	2.52706	0.867918	9.66816	2.04587	2.70901				
0.40086	3.78706	1.91253	2.52726	0.40086	3.78557	1.95828	2.58603	2.01594	2.66078					1.9152	2.52741	0.867873	9.85584	2.04992	2.70611				
0.400963	3.87245	1.91863	2.52761	0.40096	3.87086	1.9644	2.58622	2.02192	2.66058					1.9213	2.52776	0.867952	10.018	2.05402	2.70329				
0.401219	3.96323	1.92473	2.52796	0.401212	3.96155	1.97052	2.58643	2.0279	2.66037					1.9274	2.52812	0.868087	10.1509	2.05816	2.70054				
0.401624	4.05978	1.93084	2.52832	0.401616	4.05799	1.97665	2.58664	2.03389	2.66017					1.93351	2.52848	0.868226	10.2513	2.06235	2.69787				
0.402178	4.16246	1.93695	2.52869	0.402167	4.16055	1.98278	2.58685	2.03988	2.65998					1.93963	2.52885	0.868384	10.3457	2.06659	2.69527				
0.402877	4.27171	1.94307	2.52905	0.402863	4.26968	1.98892	2.58707	2.04587	2.65979					1.94575	2.52922	0.86851	10.4127	2.07087	2.69276				
0.403718	4.38798	1.94919	2.52942	0.403702	4.38582	1.99506	2.5873	2.05186	2.6596					1.95187	2.52959	0.868733	10.5193	2.07521	2.69033				
0.404699	4.51179	1.95532	2.5298	0.40468	4.50949	2.00121	2.58753	2.05785	2.65941					1.958	2.52996	0.869088	10.6684	2.0796	2.68797				
0.405815	4.64368	1.96144	2.53017	0.405794	4.64123	2.00736	2.58775	2.06385	2.65923					1.96413	2.53034	0.86962	10.8639	2.08404	2.6857				
0.407064	4.78429	1.96758	2.53055	0.40704	4.78168	2.01351	2.58799	2.06984	2.65905					1.97026	2.53072	0.870381	11.1113	2.08853	2.68352				
0.408441	4.93429	1.97371	2.53093	0.408415	4.93151	2.01966	2.58822	2.07584	2.65887					1.9764	2.5311	0.871434	11.4179	2.09308	2.68141				
0.409943	5.09445	1.97985	2.53132	0.409915	5.09147	2.02582	2.58845	2.08183	2.65869					1.98254	2.53149	0.872846	11.7929	2.09768	2.67939				
0.411565	5.2656	1.986	2.5317	0.411535	5.26242	2.03198	2.58869	2.08783	2.65851					1.98869	2.53187	0.874463	12.1949	2.10234	2.67745				
0.413304	5.44869	1.99214	2.53209	0.413272	5.44528	2.03813	2.58892	2.09382	2.65834					1.99483	2.53226	0.876276	12.6265	2.10706	2.67559				
0.415154	5.64479	1.99829	2.53248	0.415119	5.64113	2.04429	2.58916	2.09982	2.65816					2.00098	2.53265	0.878272	13.0905	2.11183	2.67382				
0.416852	5.8272	2.00445	2.53287	0.417073	5.85115	2.05045	2.58939	2.10581	2.65798					2.00714	2.53304	0.880442	13.5902	2.11666	2.67213				
0.418361	5.99186	2.0106	2.53326	0.419128	6.07669	2.05662	2.58963	2.11181	2.65781					2.0133	2.53344	0.882776	14.1295	2.12155	2.67052				
0.419649	6.13485	2.01676	2.53366	0.421278	6.31926	2.06278	2.58986	2.1178	2.65763					2.01946	2.53383	0.885263	14.7127	2.12649	2.66898				
0.420693	6.25255	2.02292	2.53405	0.423517	6.5806	2.06894	2.5901	2.12379	2.65746					2.02562	2.53422	0.887895	15.3448	2.13148	2.66753				
0.421475	6.34184	2.02909	2.53445	0.425838	6.86272	2.0751	2.59033	2.12978	2.65728					2.03178	2.53462	0.890661	16.032	2.13653	2.66615				
0.422203	6.42611	2.03525	2.53484	0.428235	7.16789	2.08126	2.59056	2.13577	2.65711					2.03795	2.53502	0.893553	16.781	2.14164	2.66485				
0.422716	6.48597	2.04142	2.53524	0.430701	7.49877	2.08742	2.59079	2.14176	2.65693					2.04412	2.53542	0.896562	17.6002	2.14679	2.66361				
0.423525	6.58161	2.04759	2.53564	0.433226	7.85845	2.09359	2.59101	2.14775	2.65675					2.05029	2.53581	0.899679	18.4993	2.152	2.66245				
0.424643	6.71595	2.05376	2.53604	0.435804	8.25053	2.09975	2.59124	2.15373	2.65657					2.05647	2.53621	0.902894	19.4901	2.15725	2.66135				
0.426083	6.89326	2.05994	2.53644	0.438087	8.62195	2.10591	2.59146	2.15971	2.65639					2.06264	2.53661	0.906199	20.5868	2.16255	2.66031				
0.427863	7.11947	2.06612	2.53684	0.440054	8.96302	2.11207	2.59168	2.16569	2.65621					2.06882	2.53701	0.909584	21.8068	2.16789	2.65933				
0.429999	7.40269	2.0723	2.53723	0.441692	9.26383	2.11823	2.5919	2.17167	2.65602					2.075	2.53741	0.913038	23.1714	2.17327	2.65841				
0.432508	7.75391	2.07848	2.53763	0.442993	9.51477	2.12438	2.59212	2.17765	2.65583					2.08118	2.53781	0.916551	24.7074	2.17869	2.65754				
0.435073	8.13645	2.08466	2.53803	0.443952	9.70719	2.13054	2.59233	2.18362	2.65564					2.08737	2.53821	0.920111	26.4485	2.18415	2.65672				
0.437683	8.5544	2.09085	2.53843	0.444836	9.89047	2.1367	2.59254	2.18958	2.65545					2.09355	2.53861	0.923706	28.438	2.18965	2.65595				
0.44033	9.01258	2.09703	2.53883	0.445451	10.0217	2.14285	2.59275	2.19555	2.65525					2.09974	2.53901	0.927319	30.7324	2.19517	2.65523				
0.443003	9.51674	2.10322	2.53923	0.446414	10.233	2.149	2.59296	2.2015	2.65505					2.10593	2.5394	0.930935	33.4068	2.20073	2.65454				
0.445692	10.0739	2.10941	2.53963	0.447722	10.5336	2.15515	2.59316							2.11212	2.5398	0.934532	36.5634						
0.448386	10.6924	2.1156	2.54003	0.449376	10.9373	2.1613	2.59336							2.11831	2.5402	0.938087	40.3447						
0.451073	11.3828	2.12179	2.54042	0.451369	11.4641	2.16745	2.59355							2.1245	2.5406	0.941572	44.9557						
0.45374	12.158	2.12799	2.54082	0.453692	12.1432	2.1736	2.59375							2.1307	2.54099	0.944952	50.7029						
0.456372	13.0344	2.13418	2.54121	0.456325	13.0176	2.17974	2.59394							2.13689	2.54139	0.948184	58.0652						
0.458956	14.033	2.14038	2.54161	0.45891	14.0138	2.18588	2.59412							2.14309	2.54178	0.951217	67.8363						
0.461476	15.1811	2.14658	2.542	0.461431	15.1589	2.19202	2.5943							2.14929	2.54217	0.95399	81.4343						
0.463916	16.5149	2.15277	2.54239	0.463873	16.489	2.19816	2.59448							2.15549	2.54257	0.956432	101.668						
0.466259	18.0838	2.15897	2.54279	0.466218	18.0531	2.20429	2.59465							2.16168	2.54296	0.958465	134.994						
0.468487	19.9561	2.16517	2.54318	0.468448	19.9192									2.16788	2.54335	0.960009	200.308						
0.470583	22.2303	2.17137	2.54356	0.470546	22.1851									2.17408	2.54373	0.96099	386.675						
0.472527	25.053	2.17757	2.54395	0.472494	24.9962									2.18028	2.54412	0.961356	5404.84						
0.474303	28.6524	2.18377	2.54434	0.474273	28.5788									2.18649	2.54451								
0.475892	33.4046	2.18997	2.54472	0.475865	33.3056									2.19269	2.54489								
0.477277	39.9766	2.19617	2.5451	0.477254	39.836									2.19889	2.54527								
0.478443	49.6747	2.20237	2.54548	0.478424	49.4594									2.20509	2.54564								
0.479376	65.4516			0.479361	65.0804																		
0.480064	95.6927			0.480054	94.9046																		
0.480499	177.35			0.480493	174.669																		
0.480675	1195.9			0.480674	1083.86																		
