Sym0		Asym0		Sym1		Sym2		Sym3		Sym4		Sym5		Asym1		Asym2		Asym3		Asym4		Asym5	
386  Points		383  Points		387  Points		374  Points		366  Points		352  Points		143  Points		384  Points		380  Points		366  Points		174  Points		131  Points	
Freq (MHz)	Vph (m/ms)	Freq (MHz)	Vph (m/ms)	Freq (MHz)	Vph (m/ms)	Freq (MHz)	Vph (m/ms)	Freq (MHz)	Vph (m/ms)	Freq (MHz)	Vph (m/ms)	Freq (MHz)	Vph (m/ms)	Freq (MHz)	Vph (m/ms)	Freq (MHz)	Vph (m/ms)	Freq (MHz)	Vph (m/ms)	Freq (MHz)	Vph (m/ms)	Freq (MHz)	Vph (m/ms)
2.20021	2.50648	0.346136	439.469	2.20326	2.50658	0.692255	643.566	1.3581	966.838	1.38488	871.811	2.07666	17063.2	0.34611	2510.21	0.905476	419.434	1.03842	680.552	1.73037	946.932	1.81128	3058.06
2.19425	2.50627	0.346521	111.961	2.19729	2.50638	0.692577	204.72	1.35625	365.362	1.38694	355.998	2.07653	854.855	0.346367	141.647	0.904983	202.629	1.03893	271.032	1.72965	418.322	1.81175	624.807
2.18829	2.50608	0.347362	64.2975	2.19134	2.50618	0.693229	121.823	1.35326	224.814	1.39016	224.099	2.07617	438.335	0.347079	73.0283	0.904159	133.483	1.03987	169.342	1.72841	268.297	1.81282	348.145
2.18235	2.50589	0.348651	45.2217	2.18539	2.50599	0.694207	86.7993	1.34963	162.081	1.39407	163.802	2.07559	294.665	0.348243	49.3257	0.903021	99.4409	1.04122	123.25	1.72669	197.347	1.81446	241.461
2.17641	2.50571	0.350378	34.9776	2.17945	2.5058	0.695504	67.4903	1.34564	126.538	1.39838	129.263	2.07479	221.872	0.349848	37.3471	0.901593	79.1677	1.04296	96.9708	1.72457	155.972	1.8166	184.954
2.17048	2.50555	0.352532	28.6039	2.17351	2.50563	0.697109	55.2707	1.34147	103.655	1.40295	106.888	2.07378	177.874	0.351883	30.1402	0.8999	65.7064	1.04507	80.0036	1.7221	128.858	1.81918	149.982
2.16456	2.50539	0.355096	24.2684	2.16759	2.50547	0.699012	46.8506	1.3372	87.691	1.40769	91.2138	2.07256	148.4	0.354333	25.3416	0.897972	56.1121	1.04752	68.1526	1.71934	109.71	1.82214	126.216
2.15865	2.50523	0.358053	21.1373	2.16168	2.50531	0.701201	40.7026	1.33289	75.9204	1.41255	79.6237	2.07116	127.272	0.357181	21.9269	0.895838	48.9246	1.05028	59.4129	1.71635	95.4635	1.82542	109.019
2.15275	2.50509	0.361384	18.7763	2.15577	2.50516	0.703661	36.0209	1.32857	66.8838	1.41749	70.7057	2.06958	111.382	0.360409	19.3799	0.893528	43.3374	1.05332	52.7054	1.71318	84.449	1.82897	96.0017
2.14686	2.50496	0.365069	16.9373	2.14987	2.50503	0.706378	32.34	1.32426	59.7286	1.42249	63.6317	2.06783	98.9947	0.363997	17.4124	0.891071	38.8684	1.05661	47.3977	1.70986	75.6778	1.83275	85.8075
2.14098	2.50484	0.369086	15.4678	2.14399	2.5049	0.709336	29.3726	1.31997	53.9233	1.42755	57.8833	2.06593	89.0652	0.367923	15.8506	0.888494	35.2119	1.06013	43.095	1.70643	68.5276	1.83672	77.6091
2.1351	2.50474	0.373414	14.2693	2.13811	2.50479	0.71252	26.9312	1.31572	49.1196	1.43264	53.1201	2.06388	80.927	0.372165	14.5837	0.885822	32.1647	1.06385	39.5376	1.70292	62.5872	1.84084	70.8735
2.12924	2.50464	0.378031	13.2752	2.13224	2.50469	0.715914	24.8889	1.31151	45.0794	1.43777	49.1088	2.06172	74.1347	0.376703	13.5375	0.883079	29.5863	1.06774	36.5483	1.69935	57.5735	1.8451	65.2417
2.12339	2.50455	0.382915	12.4388	2.12638	2.50459	0.719503	23.1562	1.30736	41.6346	1.44292	45.6843	2.05944	68.3794	0.381514	12.6606	0.880286	27.3764	1.0718	34.0017	1.69574	53.2857	1.84947	60.4631
2.11755	2.50448	0.388044	11.7265	2.12054	2.50451	0.723271	21.6683	1.30327	38.6632	1.4481	42.7268	2.05706	63.4401	0.386576	11.9161	0.877464	25.4615	1.076	31.8065	1.6921	49.5769	1.85394	56.3578
2.11172	2.50442	0.393398	11.1134	2.1147	2.50445	0.727203	20.3775	1.29924	36.0743	1.45329	40.1467	2.0546	59.1546	0.391869	11.2772	0.874631	23.7867	1.08031	29.8951	1.68846	46.3376	1.85848	52.7929
2.1059	2.50437	0.398956	10.5807	2.10888	2.50439	0.731285	19.2474	1.29528	33.7989	1.45849	37.8762	2.05206	55.401	0.397372	10.7235	0.871805	22.3098	1.08474	28.2158	1.68482	43.4842	1.86309	49.6683
2.10009	2.50434	0.404698	10.1141	2.10306	2.50435	0.735502	18.25	1.29139	31.7839	1.4637	35.8625	2.04945	52.086	0.402322	10.2983	0.869001	20.9982	1.08925	26.729	1.6812	40.9519	1.86775	46.9073
2.0943	2.50432	0.410605	9.70221	2.09726	2.50432	0.73984	17.3636	1.28758	29.9872	1.46892	34.0645	2.04679	49.137	0.406646	9.97145	0.866234	19.826	1.09385	25.4034	1.6776	38.6897	1.87246	44.4498
2.08851	2.50431	0.416657	9.3362	2.09147	2.50431	0.744287	16.5706	1.28386	28.3756	1.47413	32.4491	2.0441	46.4967	0.410288	9.72283	0.863519	18.7724	1.09851	24.2142	1.67403	36.6567	1.87721	42.2483
2.08274	2.50432	0.422837	9.00889	2.08569	2.50431	0.748828	15.8571	1.28022	26.9223	1.47934	30.9898	2.04136	44.1189	0.413207	9.53867	0.86087	17.8209	1.10323	23.1412	1.67051	34.8201	1.88199	40.2649
2.07698	2.50434	0.429127	8.71448	2.07993	2.50433	0.753454	15.2118	1.27668	25.6053	1.48455	29.665	2.03861	41.9666	0.415374	9.40969	0.858299	16.9577	1.108	22.1683	1.66702	33.153	1.88679	38.4685
2.07124	2.50438	0.435508	8.44821	2.07418	2.50436	0.758149	14.6253	1.27323	24.4067	1.48975	28.4569	2.03584	40.0092	0.41677	9.32985	0.855819	16.1715	1.1128	21.282	1.66359	31.6332	1.89161	36.8339
2.06551	2.50444	0.441965	8.20616	2.06844	2.50441	0.762905	14.0898	1.26989	23.3115	1.49494	27.3505	2.03307	38.2215	0.418788	9.21857	0.853443	15.4528	1.11764	20.4711	1.66022	30.2422	1.89644	35.3401
2.05979	2.50451	0.44848	7.98503	2.06271	2.50447	0.767709	13.599	1.26665	22.3071	1.50011	26.3334	2.0303	36.5824	0.420996	9.10207	0.851184	14.7939	1.1225	19.7264	1.65691	28.9646	1.90127	33.9696
2.05408	2.5046	0.455037	7.78207	2.057	2.50456	0.772551	13.1474	1.26352	21.3831	1.50527	25.3953	2.02753	35.0744	0.424023	8.95063	0.849053	14.1878	1.12737	19.0399	1.65368	27.7872	1.90611	32.7076
2.04839	2.50471	0.46162	7.59494	2.0513	2.50465	0.777419	12.7304	1.26051	20.5304	1.5104	24.5271	2.02479	33.6825	0.427887	8.7698	0.847064	13.6291	1.13225	18.4051	1.65051	26.6989	1.91094	31.5417
2.04272	2.50484	0.468211	7.42164	2.04562	2.50477	0.782304	12.344	1.25762	19.7414	1.51551	23.7212	2.02207	32.3938	0.432607	8.56562	0.845229	13.1128	1.13712	17.8161	1.64743	25.6901	1.91577	30.4612
2.03706	2.50499	0.474795	7.26046	2.03995	2.50491	0.787195	11.9848	1.25485	19.0095	1.52059	22.9711	2.01938	31.1975	0.438202	8.34419	0.843561	12.6346	1.142	17.2682	1.64443	24.7527	1.92058	29.457
2.03141	2.50515	0.481356	7.10992	2.0343	2.50506	0.792082	11.65	1.25222	18.3289	1.52564	22.2711	2.01673	30.0842	0.444685	8.11126	0.842073	12.191	1.14685	16.757	1.64153	23.8796	1.92538	28.5212
2.02578	2.50534	0.487877	6.96873	2.02866	2.50524	0.796956	11.3369	1.24972	17.6948	1.53065	21.6162	2.01412	29.0455	0.45122	7.89804	0.840778	11.7788	1.15169	16.2788	1.63872	23.0645	1.93015	27.647
2.02017	2.50554	0.494341	6.83576	2.02304	2.50544	0.801807	11.0434	1.24737	17.1027	1.53563	21.0021	2.01156	28.0745	0.457789	7.70197	0.83969	11.3952	1.1565	15.8305	1.636	22.3021	1.9349	26.8283
2.01457	2.50577	0.500733	6.71005	2.01743	2.50565	0.806626	10.7676	1.24516	16.5489	1.54056	20.425	2.00906	27.1647	0.464377	7.52085	0.838823	11.0378	1.16128	15.4093	1.6334	21.5875	1.93962	26.0601
2.00899	2.50602	0.507034	6.59071	2.01184	2.50589	0.811402	10.5077	1.24311	16.03	1.54545	19.8816	2.00662	26.3109	0.470968	7.35282	0.838191	10.7045	1.16602	15.0125	1.6309	20.9166	1.94431	25.3376
2.00342	2.50629	0.51323	6.47698	2.00627	2.50615	0.815523	10.293	1.24122	15.5432	1.55029	19.3689	2.00425	25.5081	0.477544	7.19625	0.837842	10.4321	1.17072	14.6381	1.62852	20.2858	1.94896	24.6567
1.99787	2.50658	0.519303	6.36819	2.00071	2.50643	0.819	10.118	1.2395	15.0857	1.55507	18.8843	2.00195	24.752	0.48409	7.04977	0.837701	10.2124	1.17536	14.2841	1.62625	19.6916	1.95357	24.014
1.99234	2.5069	0.525237	6.26372	1.99517	2.50673	0.821848	9.9785	1.23794	14.6553	1.5598	18.4255	1.99974	24.0388	0.490589	6.91215	0.837697	10.0389	1.17995	13.9488	1.62412	19.1312	1.95813	23.4062
1.98682	2.50724	0.531017	6.16306	1.98964	2.50706	0.824082	9.87129	1.23657	14.2498	1.56447	17.9903	1.9976	23.365	0.497025	6.78233	0.837768	9.9067	1.18448	13.6305	1.62211	18.602	1.96264	22.8305
1.98133	2.5076	0.536627	6.06573	1.98414	2.50742	0.825712	9.79414	1.23538	13.8673	1.56908	17.5768	1.99556	22.7278	0.503381	6.65938	0.837864	9.81222	1.18895	13.328	1.62023	18.1015	1.9671	22.2842
1.97585	2.50799	0.542052	5.97132	1.97865	2.50779	0.82675	9.7455	1.23438	13.5063	1.57361	17.1835	1.99362	22.1242	0.50964	6.54248	0.837944	9.75292	1.19334	13.0399	1.6185	17.6277	1.9715	21.7651
1.97039	2.50841	0.54728	5.87946	1.97318	2.50819	0.828236	9.67653	1.23358	13.1651	1.57807	16.8087	1.99177	21.5519	0.515787	6.43089	0.838087	9.66926	1.19765	12.7652	1.61691	17.1786	1.97583	21.2711
1.96494	2.50885	0.552297	5.78984	1.96773	2.50862	0.829839	9.60281	1.23298	12.8425	1.58246	16.4511	1.99003	21.0086	0.521804	6.32398	0.838278	9.58038	1.20188	12.5028	1.61547	16.7526	1.9801	20.8003
1.95952	2.50931	0.557094	5.70219	1.96229	2.50907	0.832003	9.50458	1.23258	12.5371	1.58676	16.1094	1.98841	20.4922	0.527675	6.22117	0.8386	9.46286	1.20602	12.2518	1.61418	16.3481	1.98429	20.3511
1.95411	2.50981	0.561661	5.61629	1.95688	2.50955	0.834708	9.38355	1.2324	12.2477	1.59098	15.7825	1.9869	20.0011	0.533386	6.12196	0.839113	9.31958	1.21007	12.0114	1.61305	15.9636	1.98841	19.9219
1.94872	2.51033	0.565991	5.53195	1.95148	2.51006	0.837931	9.2417	1.23243	11.9735	1.59511	15.4694	1.98552	19.5334	0.53892	6.02589	0.839891	9.15396	1.21403	11.7808	1.61208	15.5978	1.99245	19.5113
1.94335	2.51087	0.570079	5.44902	1.9461	2.51059	0.841639	9.0812	1.23269	11.7134	1.59915	15.1691	1.98426	19.0877	0.544265	5.93259	0.841032	8.96982	1.21788	11.5594	1.61127	15.2496	1.9964	19.118
1.938	2.51145	0.573923	5.36739	1.94074	2.51115	0.845792	8.90432	1.23316	11.4665	1.60309	14.8808	1.98313	18.6627	0.549405	5.8417	0.842652	8.77125	1.22163	11.3464	1.61064	14.9178	2.00026	18.7409
1.93267	2.51205	0.577523	5.28697	1.9354	2.51174	0.849828	8.73463	1.23386	11.232	1.60694	14.6037	1.98214	18.2569	0.554332	5.75294	0.844613	8.58545	1.22526	11.1414	1.61018	14.6015	2.00403	18.3788
1.92736	2.51268	0.580881	5.20771	1.93008	2.51236	0.853739	8.57155	1.23479	11.0092	1.61068	14.3371	1.98129	17.8693	0.559033	5.66605	0.84692	8.41161	1.22879	10.9439	1.60989	14.2997	2.0077	18.0309
1.92207	2.51334	0.584001	5.12957	1.92478	2.513	0.857518	8.41456	1.23595	10.7974	1.61431	14.0803	1.98059	17.4988	0.563501	5.58082	0.849578	8.24897	1.2322	10.7533	1.60979	14.0116	2.01126	17.6963
1.9168	2.51404	0.586891	5.05255	1.91949	2.51368	0.861161	8.26321	1.23715	10.6213	1.61784	13.8326	1.98004	17.1444	0.567731	5.49709	0.852589	8.09681	1.23508	10.5925	1.60986	13.7364	2.01473	17.374
1.91154	2.51476	0.589557	4.97664	1.91423	2.51438	0.86466	8.11707	1.2383	10.4771	1.62126	13.5937	1.97963	16.8052	0.571717	5.41471	0.855954	7.95446	1.23746	10.4592	1.61012	13.4733	2.01808	17.0634
1.90631	2.51551	0.592011	4.90188	1.90899	2.51512	0.86801	7.97576	1.23935	10.3617	1.62456	13.3629	1.97939	16.4803	0.575459	5.3336	0.859669	7.82128	1.23938	10.3514	1.61056	13.2217	2.02132	16.7638
1.9011	2.51629	0.594263	4.82829	1.90376	2.51588	0.871207	7.83894	1.24025	10.2729	1.62776	13.1397	1.9793	16.1689	0.578957	5.25367	0.863731	7.69665	1.24087	10.2678	1.61119	12.981	2.02445	16.4744
1.8959	2.5171	0.596327	4.75589	1.89856	2.51668	0.874248	7.7063	1.24094	10.2089	1.63083	12.9239	1.97937	15.8704	0.582215	5.17488	0.868131	7.58001	1.24195	10.2071	1.612	12.7505	2.02746	16.1948
1.89072	2.51794	0.598215	4.68474	1.89337	2.5175	0.877129	7.57758	1.24139	10.1686	1.6338	12.7148	1.97961	15.584	0.585238	5.09721	0.87286	7.47079	1.24263	10.1686	1.613	12.5297	2.03035	15.9244
1.88557	2.51881	0.599941	4.61487	1.8882	2.51836	0.879848	7.45252	1.24207	10.1113	1.63664	12.5123	1.98001	15.309	0.588033	5.02065	0.877908	7.36847	1.24359	10.1137	1.61418	12.3181	2.03312	15.6627
1.88043	2.51971	0.60152	4.54632	1.88306	2.51925	0.882405	7.3309	1.24283	10.0501	1.63938	12.3159	1.98057	15.045	0.590609	4.94522	0.883261	7.27256	1.24463	10.0548	1.61554	12.1151	2.03577	15.4092
1.87531	2.52065	0.602964	4.47912	1.87793	2.52017	0.884799	7.21252	1.24392	9.96853	1.642	12.1254	1.9813	14.7913	0.592977	4.87094	0.888905	7.18257	1.24602	9.97566	1.61708	11.9204	2.0383	15.1635
1.87021	2.52161	0.604288	4.41331	1.87282	2.52112	0.88703	7.09721	1.24536	9.86802	1.64451	11.9405	1.98219	14.5474	0.595149	4.79785	0.894824	7.09806	1.24773	9.87728	1.61879	11.7335	2.04071	14.9253
1.86513	2.52261	0.605507	4.34892	1.86773	2.5221	0.889099	6.98482	1.24722	9.7503	1.64691	11.7609	1.98325	14.3128	0.597138	4.72597	0.901003	7.01861	1.24974	9.76077	1.62068	11.5539	2.043	14.694
1.86007	2.52364	0.606631	4.28597	1.86265	2.52311	0.89101	6.8752	1.24955	9.61732	1.64921	11.5864	1.98447	14.087	0.598956	4.65535	0.907424	6.94382	1.25202	9.62738	1.62274	11.3814	2.04517	14.4695
1.85502	2.5247	0.607675	4.22448	1.8576	2.52415	0.892764	6.76824	1.25241	9.47118	1.6514	11.4168	1.98585	13.8696	0.600619	4.58603	0.91407	6.87332	1.25453	9.47851	1.62496	11.2154	2.04722	14.2514
1.84999	2.52578	0.60865	4.16446	1.85256	2.52522	0.894366	6.66381	1.25548	9.33156	1.6535	11.2518	1.98739	13.6602	0.60214	4.51804	0.920923	6.80675	1.25693	9.33392	1.62734	11.0558	2.04916	14.0394
1.84498	2.5269	0.609568	4.10591	1.84754	2.52633	0.895819	6.56182	1.25874	9.19807	1.65551	11.0913	1.98909	13.4584	0.603532	4.45142	0.927966	6.7438	1.25923	9.19344	1.62953	10.9215	2.05099	13.8332
1.83999	2.52805	0.610438	4.04885	1.84254	2.52746	0.897129	6.4622	1.2622	9.07035	1.65719	10.955	1.99093	13.2638	0.60481	4.3862	0.935181	6.68414	1.26142	9.0569	1.63149	10.8104	2.05271	13.6327
1.83501	2.52923	0.611167	4.00033	1.83755	2.52862	0.8983	6.36485	1.26583	8.94807	1.65858	10.8413	1.99292	13.0761	0.605988	4.32241	0.942549	6.62751	1.26352	8.92415	1.63317	10.7209	2.05434	13.4375
1.83005	2.53044	0.611771	3.95986	1.83258	2.52982	0.89934	6.26971	1.26963	8.83089	1.65969	10.749	1.99505	12.8948	0.607077	4.26006	0.950054	6.57362	1.26554	8.79506	1.63453	10.6515	2.05586	13.2476
1.8251	2.53167	0.612261	3.927	1.82763	2.53104	0.900254	6.17673	1.27359	8.71851	1.66056	10.6771	1.99732	12.7198	0.608091	4.19918	0.957677	6.52224	1.26748	8.66951	1.63556	10.6012	2.0573	13.0626
1.82016	2.53293	0.612644	3.90141	1.82269	2.53229	0.901048	6.08583	1.2777	8.61063	1.66118	10.6248	1.99972	12.5507	0.60904	4.13978	0.965402	6.47313	1.26935	8.54739	1.63622	10.5694	2.05865	12.8825
1.81524	2.53422	0.612923	3.88282	1.81776	2.53356	0.901729	5.99697	1.28195	8.50699	1.66158	10.5916	2.00225	12.3871	0.609937	4.08186	0.973211	6.42607	1.27116	8.42863	1.63719	10.5241	2.05993	12.707
1.81033	2.53553	0.613101	3.87101	1.81284	2.53486	0.902305	5.9101	1.28632	8.40732	1.66214	10.5443	2.00489	12.2289	0.610791	4.02541	0.981087	6.38086	1.27292	8.31313	1.63825	10.4754	2.06113	12.536
1.80543	2.53687	0.613357	3.85418	1.80793	2.53618	0.902781	5.82519	1.29082	8.31137	1.66274	10.4933	2.00765	12.0758	0.611613	3.97045	0.989011	6.3373	1.27465	8.20084	1.63972	10.4103	2.06228	12.3694
1.80054	2.53822	0.613634	3.83605	1.80304	2.53753	0.903166	5.74217	1.29543	8.21891	1.66356	10.4246	2.01051	11.9275	0.612411	3.91696	0.996968	6.2952	1.27635	8.09169	1.64163	10.3294	2.06337	12.2069
1.79565	2.5396	0.61401	3.8117	1.79815	2.53889	0.903465	5.66103	1.30013	8.12972	1.66456	10.3391	2.01348	11.7837	0.613194	3.86493	1.00494	6.2544	1.27805	7.98563	1.64399	10.2339	2.06441	12.0486
1.79077	2.54098	0.614486	3.78138	1.79327	2.54027	0.903686	5.58172	1.30491	8.04358	1.66576	10.2376	2.01653	11.6444	0.613969	3.81434	1.0129	6.21473	1.27976	7.88264	1.64684	10.1249	2.06541	11.8943
1.78589	2.54238	0.615064	3.74543	1.78839	2.54167	0.903835	5.50419	1.30977	7.96029	1.66714	10.121	2.01966	11.5091	0.614744	3.76518	1.02084	6.17601	1.28149	7.78268	1.6502	10.0036	2.06638	11.7439
1.78101	2.54379	0.615749	3.70425	1.78351	2.54307	0.90392	5.42843	1.31468	7.87967	1.66869	9.99043	2.02288	11.3778	0.615527	3.71744	1.02874	6.13811	1.28326	7.68573	1.65365	9.88627	2.06734	11.5972
1.77612	2.5452	0.616549	3.65828	1.77862	2.54448	0.903947	5.35439	1.31965	7.80155	1.67022	9.86335	2.02573	11.2665	0.616322	3.67108	1.03658	6.10087	1.28509	7.59177	1.65719	9.77263	2.06827	11.4542
1.77123	2.5466	0.617368	3.61366	1.77373	2.54589	0.903921	5.28205	1.32465	7.72574	1.67174	9.73961	2.02821	11.1737	0.617135	3.62609	1.04433	6.06414	1.287	7.50081	1.66081	9.66247	2.06909	11.3325
1.76632	2.548	0.618213	3.57039	1.76883	2.54729	0.903849	5.21136	1.32968	7.65208	1.67326	9.61916	2.03028	11.0984	0.617972	3.58244	1.05197	6.02777	1.28901	7.41284	1.66449	9.55562	2.06979	11.2309
1.76139	2.54937	0.619087	3.52842	1.76391	2.54867	0.903737	5.1423	1.33472	7.58043	1.67479	9.50193	2.03193	11.0398	0.618838	3.54011	1.05949	5.99164	1.29114	7.32787	1.66823	9.4519	2.07036	11.1483
1.75643	2.55072	0.619996	3.48773	1.75897	2.55004	0.90359	5.07484	1.33976	7.51064	1.67635	9.38785	2.03315	10.9972	0.619736	3.49906	1.06686	5.95559	1.29342	7.24592	1.67203	9.35114	2.07083	11.0839
1.75144	2.55203	0.620943	3.4483	1.754	2.55136	0.903413	5.00894	1.34479	7.44257	1.67793	9.27686	2.03393	10.9702	0.620672	3.45928	1.07406	5.91951	1.29587	7.16699	1.67586	9.25317	2.07117	11.037
1.74641	2.55328	0.621931	3.41009	1.74899	2.55265	0.903213	4.94457	1.3498	7.3761	1.67957	9.16891	2.03506	10.9316	0.621648	3.42072	1.08105	5.88326	1.29851	7.09111	1.67972	9.15784	2.07139	11.0073
1.74133	2.55447	0.622963	3.37308	1.74394	2.55387	0.902993	4.8817	1.35478	7.31109	1.68125	9.06394	2.0363	10.89	0.622668	3.38338	1.08783	5.84673	1.30137	7.01828	1.68361	9.065	2.07171	10.9648
1.73619	2.55558	0.624044	3.33723	1.73883	2.55503	0.902759	4.82031	1.3597	7.24744	1.683	8.96191	2.03799	10.8341	0.623734	3.34721	1.09437	5.8098	1.30447	6.94854	1.68752	8.97453	2.07206	10.919
1.73099	2.5566	0.625174	3.30253	1.73366	2.55609	0.902515	4.76035	1.36457	7.18503	1.68484	8.86277	2.04013	10.7644	0.624851	3.31218	1.10064	5.77238	1.30783	6.88187	1.69143	8.88628	2.07254	10.8575
1.72571	2.55752	0.626358	3.26893	1.72842	2.55706	0.902265	4.70181	1.36937	7.12375	1.68676	8.76647	2.04275	10.6816	0.626019	3.27828	1.10662	5.73438	1.31148	6.81829	1.69534	8.80013	2.07317	10.7807
1.72035	2.55833	0.627596	3.23642	1.7231	2.55793	0.902013	4.64465	1.37409	7.06352	1.68878	8.67296	2.04583	10.5864	0.627241	3.24547	1.11231	5.69573	1.31544	6.75779	1.69923	8.71597	2.07394	10.6894
1.71491	2.55902	0.628891	3.20496	1.7177	2.55868	0.901763	4.58884	1.37872	7.00424	1.69091	8.58221	2.04938	10.4797	0.62852	3.21372	1.11767	5.65638	1.31971	6.70033	1.70311	8.63369	2.07488	10.5846
1.70939	2.55959	0.630244	3.17453	1.71222	2.55931	0.901519	4.53436	1.38325	6.94582	1.69316	8.49417	2.05295	10.3755	0.629857	3.183	1.12271	5.6163	1.32432	6.64589	1.70697	8.55319	2.07601	10.4671
1.70378	2.56005	0.631658	3.1451	1.70666	2.55983	0.901284	4.48117	1.38766	6.88818	1.69555	8.4088	2.05653	10.2738	0.631253	3.15329	1.12742	5.57547	1.32928	6.5944	1.71079	8.47435	2.0772	10.3527
1.69811	2.5604	0.633133	3.11663	1.70102	2.56023	0.901061	4.42925	1.39196	6.83126	1.69807	8.32604	2.0601	10.1743	0.632711	3.12455	1.13178	5.53391	1.33458	6.54578	1.71457	8.3971	2.07846	10.2412
1.69237	2.56065	0.63467	3.08912	1.69531	2.56053	0.900854	4.37857	1.39612	6.77498	1.70074	8.24586	2.06367	10.0771	0.634231	3.09677	1.13581	5.49165	1.34024	6.49996	1.7183	8.32134	2.07979	10.1325
1.68656	2.56081	0.636271	3.06251	1.68954	2.56074	0.900664	4.3291	1.40015	6.71928	1.70357	8.1682	2.06722	9.982	0.635814	3.06991	1.1395	5.44872	1.34624	6.45681	1.72198	8.247	2.0812	10.0267
1.6807	2.56088	0.637936	3.0368	1.68371	2.56085	0.900496	4.28081	1.40403	6.66412	1.70657	8.09302	2.07076	9.8889	0.637461	3.04395	1.14287	5.4052	1.35258	6.41621	1.7256	8.174	2.08271	9.92366
1.6748	2.56089	0.639667	3.01196	1.67782	2.56089	0.900352	4.23369	1.40776	6.60944	1.70973	8.02026	2.07427	9.7977	0.639173	3.01887	1.14593	5.36117	1.35925	6.37804	1.72915	8.10226	2.08431	9.82329
1.66885	2.56083	0.641464	2.98796	1.6719	2.56086	0.900233	4.18769	1.41134	6.5552	1.71307	7.94987	2.07775	9.70833	0.640951	2.99463	1.14869	5.31669	1.36624	6.34215	1.73263	8.03172	2.08601	9.72556
1.66286	2.56071	0.643327	2.96477	1.66593	2.56078	0.900143	4.14281	1.41475	6.50136	1.71659	7.8818	2.0812	9.6207	0.642796	2.97122	1.15117	5.27187	1.37352	6.3084	1.73603	7.96233	2.08782	9.6304
1.65685	2.56054	0.645257	2.94237	1.65993	2.56063	0.900084	4.099	1.41799	6.4479	1.72029	7.81598	2.0846	9.53474	0.644707	2.9486	1.15339	5.22679	1.38109	6.27664	1.73935	7.89402	2.08975	9.53775
1.65081	2.56034	0.647254	2.92075	1.6539	2.56045	0.900057	4.05626	1.42106	6.39479	1.72417	7.75235	2.08796	9.45037	0.646685	2.92676	1.15537	5.18155	1.38892	6.24672	1.74259	7.82675	2.09179	9.44757
1.64474	2.56009	0.649318	2.89987	1.64785	2.56022	0.900065	4.01455	1.42397	6.34201	1.72824	7.69086	2.09127	9.36753	0.64873	2.90568	1.15711	5.13624	1.39699	6.21851	1.74573	7.76046	2.09395	9.35978
1.63866	2.55982	0.65145	2.87972	1.64177	2.55996	0.900109	3.97385	1.42671	6.28955	1.73249	7.63142	2.09453	9.28614	0.650843	2.88532	1.15865	5.09094	1.40529	6.19185	1.74879	7.69512	2.09623	9.27434
1.63255	2.55951	0.653649	2.86026	1.63568	2.55967	0.900191	3.93413	1.42927	6.23741	1.73693	7.57398	2.09773	9.20616	0.653023	2.86567	1.16001	5.04572	1.4138	6.16664	1.75176	7.6307	2.09864	9.19118
1.62644	2.55917	0.655916	2.84149	1.62957	2.55935	0.900313	3.89538	1.43166	6.18558	1.74154	7.51846	2.10087	9.12752	0.655271	2.84671	1.16119	5.00067	1.42249	6.14273	1.75463	7.56716	2.10118	9.11025
1.62031	2.55882	0.658251	2.82339	1.62344	2.559	0.900476	3.85758	1.43389	6.13406	1.74634	7.46479	2.10395	9.05018	0.657587	2.82842	1.16221	4.95584	1.43135	6.12001	1.75741	7.50447	2.10386	9.03148
1.61416	2.55844	0.660653	2.80592	1.61731	2.55864	0.900682	3.82069	1.43596	6.08285	1.7513	7.4129	2.10697	8.97409	0.65997	2.81077	1.1631	4.91131	1.44037	6.09838	1.7601	7.44262	2.10666	8.95481
1.60801	2.55804	0.663122	2.78907	1.61116	2.55825	0.900932	3.78471	1.43786	6.03196	1.75643	7.3627	2.10992	8.8992	0.66242	2.79376	1.16386	4.86711	1.44951	6.07774	1.7627	7.38157	2.10959	8.88019
1.60185	2.55763	0.665659	2.77283	1.605	2.55784	0.901227	3.7496	1.43961	5.9814	1.76172	7.31414	2.11281	8.82549	0.664938	2.77735	1.16452	4.8233	1.45878	6.05798	1.7652	7.32133	2.11266	8.80755
1.59568	2.5572	0.668262	2.75718	1.59884	2.55742	0.901569	3.71536	1.44121	5.93118	1.76717	7.26712	2.11563	8.7529	0.667522	2.76153	1.16507	4.77991	1.46815	6.03902	1.76763	7.26188	2.11586	8.73684
1.5895	2.55675	0.670932	2.74209	1.59266	2.55698	0.901958	3.68195	1.44266	5.88131	1.77276	7.22159	2.11838	8.68142	0.670174	2.74628	1.16554	4.73698	1.4776	6.02078	1.76997	7.20321	2.11918	8.66799
1.58332	2.55629	0.673669	2.72755	1.58648	2.55653	0.902396	3.64937	1.44398	5.83181	1.77848	7.17745	2.12107	8.61102	0.672892	2.73159	1.16593	4.69455	1.48713	6.00317	1.77223	7.14533	2.12264	8.60093
1.57713	2.55582	0.676472	2.71355	1.58029	2.55606	0.902884	3.61758	1.44516	5.78269	1.78434	7.13464	2.1237	8.54166	0.675676	2.71744	1.16625	4.65263	1.49672	5.98612	1.77443	7.08824	2.12621	8.53561
1.57093	2.55534	0.679342	2.70007	1.5741	2.55558	0.903422	3.58658	1.44621	5.73397	1.79031	7.09308	2.12626	8.47334	0.678527	2.70381	1.16652	4.61125	1.50636	5.96957	1.77656	7.03194	2.12991	8.47197
1.56473	2.55484	0.682277	2.68709	1.56791	2.5551	0.904012	3.55634	1.44715	5.68566	1.79639	7.05271	2.12877	8.40602	0.681444	2.6907	1.16674	4.57042	1.51602	5.95343	1.77864	6.97645	2.13372	8.40995
1.55853	2.55434	0.685279	2.67461	1.5617	2.5546	0.904654	3.52686	1.44797	5.63777	1.80258	7.01345	2.13122	8.33971	0.684427	2.67808	1.16691	4.53016	1.52571	5.93765	1.78067	6.92179	2.13764	8.34947
1.55232	2.55382	0.688348	2.66261	1.5555	2.55408	0.905349	3.4981	1.44868	5.59032	1.80885	6.97522	2.13361	8.27438	0.687477	2.66594	1.16705	4.49048	1.53539	5.92216	1.78267	6.86797	2.14167	8.29049
1.54611	2.55329	0.691485	2.65108	1.54929	2.55356	0.906098	3.47006	1.44929	5.54332	1.8152	6.93798	2.13596	8.21003	0.690595	2.65428	1.16717	4.45139	1.54506	5.90688	1.78466	6.81502	2.1458	8.23294
1.5399	2.55276	0.69469	2.64002	1.54308	2.55304	0.906901	3.44271	1.44981	5.49678	1.82161	6.90163	2.13827	8.14665	0.69378	2.64309	1.16725	4.41289	1.5547	5.89176	1.78663	6.76298	2.15002	8.17676
1.53368	2.55222	0.697965	2.62941	1.53686	2.5525	0.90776	3.41605	1.45023	5.45072	1.82809	6.86613	2.14055	8.08424	0.697036	2.63235	1.16732	4.37499	1.56429	5.87673	1.78862	6.71188	2.15434	8.1219
1.52746	2.55167	0.701315	2.61926	1.53065	2.55195	0.908674	3.39005	1.45058	5.40514	1.8346	6.83141	2.14279	8.02281	0.700364	2.62207	1.16738	4.33769	1.57382	5.86171	1.79063	6.66175	2.15873	8.06828
1.52124	2.55111	0.704742	2.60957	1.52443	2.55139	0.909645	3.36471	1.45085	5.36006	1.84116	6.7974	2.14501	7.96234	0.703769	2.61225	1.16743	4.301	1.58326	5.84662	1.7927	6.61266	2.1632	8.01586
1.51502	2.55054	0.708257	2.60037	1.5182	2.55083	0.910672	3.34	1.45105	5.31549	1.84773	6.76405	2.14722	7.90285	0.707258	2.60291	1.16747	4.2649	1.59259	5.8314	1.79483	6.56466	2.16774	7.96458
1.50879	2.54997	0.711872	2.59168	1.51198	2.55026	0.911757	3.31592	1.45118	5.27142	1.85431	6.73129	2.14942	7.84434	0.710842	2.59407	1.16751	4.2294	1.60179	5.81594	1.79706	6.51781	2.17234	7.91438
1.50257	2.54939	0.71561	2.58359	1.50575	2.54968	0.9129	3.29245	1.45126	5.22787	1.86089	6.69906	2.15163	7.78682	0.714543	2.5858	1.16756	4.1945	1.61083	5.80017	1.79941	6.47218	2.17699	7.86521
1.49634	2.5488	0.719514	2.57622	1.49953	2.5491	0.914101	3.26957	1.45128	5.18484	1.86745	6.66731	2.15385	7.73031	0.718394	2.57821	1.16761	4.16019	1.61968	5.78399	1.80192	6.42784	2.18169	7.81701
1.49011	2.5482	0.723652	2.56981	1.4933	2.54851	0.91536	3.24727	1.45124	5.14234	1.87399	6.63597	2.1561	7.6748	0.722457	2.5715	1.16766	4.12647	1.62831	5.7673	1.80461	6.3849	2.18642	7.76973
1.48388	2.5476	0.728128	2.56469	1.48707	2.54791	0.916679	3.22555	1.45117	5.10037	1.88048	6.605	2.15838	7.62033	0.726827	2.56598	1.16773	4.09334	1.63669	5.74998	1.80753	6.34343	2.19118	7.72332
1.47765	2.54699	0.733038	2.56117	1.48084	2.54731	0.918058	3.20438	1.45105	5.05893	1.88692	6.57434	2.1607	7.5669	0.731609	2.56199	1.16782	4.06078	1.64478	5.73193	1.8107	6.30353	2.19596	7.67773
1.47142	2.54638	0.738382	2.55921	1.47461	2.5467	0.919496	3.18376	1.4509	5.01803	1.89329	6.54392	2.16309	7.51453	0.736838	2.55962	1.16791	4.0288	1.65254	5.71304	1.81418	6.26529	2.20076	7.63291
1.46519	2.54576	0.744059	2.55842	1.46838	2.54608	0.920995	3.16368	1.45071	4.97766	1.89958	6.51371	2.16554	7.46323	0.742434	2.55855	1.16803	3.99739	1.65994	5.69321	1.81799	6.22882		
1.45895	2.54514	0.749946	2.55837	1.46214	2.54546	0.922555	3.14412	1.4505	4.93783	1.90578	6.48365	2.16808	7.41304	0.748273	2.55833	1.16817	3.96653	1.66695	5.67234	1.82217	6.19418		
1.45272	2.54451	0.755959	2.55874	1.45591	2.54483	0.924176	3.12507	1.45026	4.89853	1.91186	6.45369	2.17072	7.36395	0.754257	2.5586	1.16833	3.93623	1.67352	5.65034	1.82676	6.16144		
1.44649	2.54387	0.762048	2.55936	1.44968	2.5442	0.925859	3.10652	1.44999	4.85977	1.91782	6.42377	2.17346	7.316	0.760328	2.55917	1.16851	3.90647	1.67964	5.62715	1.83177	6.13066		
1.44026	2.54323	0.768185	2.56013	1.44345	2.54356	0.927604	3.08846	1.44971	4.82154	1.92364	6.39386	2.17633	7.2692	0.766453	2.5599	1.16871	3.87726	1.68528	5.60276	1.83724	6.10184		
1.43402	2.54258	0.774351	2.56099	1.43721	2.54291	0.929412	3.07089	1.44941	4.78384	1.92932	6.36391	2.17934	7.22357	0.772612	2.56074	1.16895	3.84857	1.69044	5.57714	1.84317	6.07498		
1.42779	2.54193	0.780538	2.5619	1.43098	2.54227	0.931282	3.05379	1.44911	4.74667	1.93482	6.33388	2.18249	7.17912	0.778794	2.56164	1.16921	3.82041	1.69512	5.55032	1.84956	6.05003		
1.42156	2.54128	0.786738	2.56284	1.42475	2.54161	0.933216	3.03715	1.44879	4.71003	1.94016	6.30372	2.18581	7.13588	0.784991	2.56257	1.1695	3.79277	1.69933	5.52237	1.8564	6.02692		
1.41533	2.54062	0.792947	2.5638	1.41852	2.54096	0.935214	3.02097	1.44846	4.6739	1.94531	6.27341	2.1893	7.09384	0.791198	2.56353	1.16982	3.76563	1.70308	5.49337	1.86368	6.00555		
1.4091	2.53995	0.799163	2.56476	1.41229	2.54029	0.937277	3.00523	1.44813	4.6383	1.95026	6.24292	2.19298	7.05302	0.797412	2.56449	1.17018	3.739	1.7064	5.46341	1.87137	5.98581		
1.40287	2.53929	0.805383	2.56572	1.40606	2.53963	0.939405	2.98993	1.44779	4.60321	1.955	6.21222	2.19685	7.01342	0.803631	2.56545	1.17056	3.71286	1.70931	5.43261	1.87944	5.96758		
1.39664	2.53861	0.811606	2.56668	1.39983	2.53896	0.9416	2.97507	1.44746	4.56862	1.95953	6.18129	2.20093	6.97505	0.809853	2.56641	1.17098	3.6872	1.71186	5.40108	1.88786	5.95073		
1.39041	2.53794	0.81783	2.56763	1.3936	2.53829	0.943861	2.96063	1.44712	4.53455	1.96383	6.15011			0.816077	2.56736	1.17143	3.66202	1.71406	5.36896	1.8966	5.93512		
1.38419	2.53726	0.824056	2.56857	1.38737	2.53761	0.946189	2.94661	1.44679	4.50097	1.96792	6.11868			0.822303	2.5683	1.17192	3.63732	1.71596	5.33634	1.90563	5.92063		
1.37796	2.53658	0.830282	2.56949	1.38115	2.53693	0.948586	2.933	1.44647	4.46789	1.97177	6.08699			0.828529	2.56923	1.17245	3.61307	1.71759	5.30334	1.91492	5.90714		
1.37174	2.5359	0.836508	2.57041	1.37493	2.53625	0.951053	2.91979	1.44615	4.4353	1.97539	6.05503			0.834755	2.57015	1.17301	3.58929	1.71897	5.27005	1.92444	5.89455		
1.36552	2.53522	0.842733	2.5713	1.3687	2.53557	0.95359	2.90699	1.44584	4.40319	1.97878	6.02283			0.840981	2.57105	1.17361	3.56594	1.72013	5.23657	1.93416	5.88275		
1.3593	2.53453	0.848958	2.57219	1.36249	2.53488	0.9562	2.89458	1.44555	4.37157	1.98194	5.99038			0.847205	2.57194	1.17425	3.54304	1.72109	5.20296	1.94406	5.87165		
1.35309	2.53384	0.855182	2.57306	1.35627	2.53419	0.958883	2.88257	1.44526	4.34042	1.98488	5.95771			0.853429	2.57281	1.17493	3.52058	1.72189	5.16931	1.95412	5.86118		
1.34688	2.53316	0.861404	2.57391	1.35006	2.53351	0.961641	2.87095	1.44499	4.30973	1.98759	5.92483			0.859652	2.57367	1.17564	3.49853	1.72254	5.13568	1.96431	5.85127		
1.34067	2.53247	0.867625	2.57474	1.34384	2.53282	0.964475	2.85971	1.44473	4.27951	1.99009	5.89176			0.865873	2.57451	1.1764	3.47691	1.72305	5.1021	1.97463	5.84184		
1.33446	2.53178	0.873844	2.57556	1.33764	2.53213	0.967388	2.84886	1.44449	4.24975	1.99239	5.85852			0.872093	2.57533	1.1772	3.4557	1.72344	5.06863	1.98505	5.83285		
1.32826	2.53109	0.880062	2.57637	1.33143	2.53145	0.970382	2.83839	1.44427	4.22044	1.99448	5.82515			0.878311	2.57614	1.17803	3.43489	1.72373	5.03531	1.99555	5.82423		
1.32206	2.53041	0.886278	2.57716	1.32523	2.53076	0.973458	2.8283	1.44406	4.19158	1.99638	5.79167			0.884527	2.57694	1.17891	3.41448	1.72393	5.00217	2.00614	5.81595		
1.31587	2.52973	0.892491	2.57793	1.31904	2.53008	0.97662	2.81859	1.44387	4.16316	1.9981	5.75811			0.890742	2.57771	1.17983	3.39446	1.72404	4.96924	2.01678	5.80796		
1.30968	2.52905	0.898703	2.57869	1.31285	2.5294	0.979869	2.80926	1.44371	4.13517	1.99964	5.72449			0.896954	2.57847	1.18079	3.37482	1.72409	4.93654	2.02747	5.80021		
1.3035	2.52838	0.904913	2.57943	1.30666	2.52872	0.983209	2.80031	1.44356	4.10761	2.00102	5.69085			0.903165	2.57922	1.1818	3.35556	1.72407	4.9041	2.03821	5.79268		
1.29732	2.52771	0.911121	2.58015	1.30048	2.52805	0.986642	2.79174	1.44344	4.08047	2.00224	5.6572			0.909373	2.57995	1.18285	3.33668	1.724	4.87192	2.04897	5.78532		
1.29115	2.52704	0.917327	2.58086	1.29431	2.52738	0.990171	2.78355	1.44334	4.05375	2.00332	5.62358			0.915579	2.58066	1.18393	3.31815	1.72388	4.84002	2.05975	5.77811		
1.28498	2.52639	0.92353	2.58156	1.28814	2.52672	0.993798	2.77574	1.44327	4.02744	2.00426	5.59001			0.921784	2.58136	1.18507	3.29999	1.72372	4.80843	2.07053	5.77101		
1.27883	2.52574	0.929731	2.58223	1.28198	2.52607	0.997528	2.76832	1.44322	4.00154	2.00507	5.55652			0.927985	2.58205	1.18624	3.28217	1.72353	4.77713	2.08131	5.76398		
1.27268	2.52511	0.93593	2.5829	1.27583	2.52543	1.00136	2.76127	1.4432	3.97603	2.00576	5.52312			0.934185	2.58271	1.18746	3.2647	1.7233	4.74615	2.09207	5.75699		
1.26654	2.52449	0.942126	2.58355	1.26968	2.5248	1.0053	2.75461	1.4432	3.95093	2.00634	5.48984			0.940382	2.58337	1.18873	3.24758	1.72305	4.71549	2.1028	5.75001		
1.26041	2.52388	0.94832	2.58418	1.26355	2.52419	1.00935	2.74833	1.44323	3.92621	2.00682	5.45669			0.946576	2.584	1.19003	3.23078	1.72278	4.68516	2.11348	5.74299		
1.25429	2.52328	0.954512	2.5848	1.25742	2.52359	1.01351	2.74242	1.44329	3.90187	2.0072	5.4237			0.952768	2.58463	1.19139	3.21431	1.72249	4.65515	2.12411	5.7359		
1.24819	2.52271	0.960701	2.58541	1.25131	2.523	1.01777	2.73687	1.44337	3.87791	2.00749	5.39088			0.958958	2.58524	1.19278	3.19817	1.72218	4.62548	2.13465	5.72868		
1.2421	2.52216	0.966887	2.586	1.24521	2.52244	1.02215	2.73169	1.44349	3.85433	2.0077	5.35824			0.965145	2.58583	1.19422	3.18234	1.72186	4.59615	2.1451	5.72129		
1.23602	2.52163	0.97307	2.58657	1.23913	2.5219	1.02663	2.72686	1.44363	3.83111	2.00784	5.32581			0.971329	2.58641	1.1957	3.16683	1.72154	4.56715	2.15542	5.71366		
1.22995	2.52113	0.979251	2.58713	1.23305	2.52138	1.03122	2.72237	1.44381	3.80825	2.0079	5.29358			0.977511	2.58698	1.19723	3.15161	1.7212	4.53848	2.1656	5.70573		
1.22391	2.52066	0.985429	2.58768	1.227	2.52089	1.03592	2.7182	1.44401	3.78575	2.0079	5.26157			0.98369	2.58753	1.19881	3.1367	1.72087	4.51016	2.17559	5.69742		
1.21788	2.52022	0.991604	2.58821	1.22096	2.52044	1.04071	2.71434	1.44425	3.76361	2.00784	5.2298			0.989865	2.58806	1.20043	3.12209	1.72053	4.48217	2.18536	5.68864		
1.21187	2.51982	0.997776	2.58873	1.21495	2.52002	1.0456	2.71078	1.44451	3.7418	2.00773	5.19826			0.996039	2.58859	1.20209	3.10777	1.7202	4.45452	2.19488	5.67929		
1.20589	2.51947	1.00395	2.58924	1.20895	2.51964	1.05058	2.70749	1.44481	3.72034	2.00757	5.16698			1.00221	2.5891	1.2038	3.09373	1.71986	4.4272	2.20408	5.66926		
1.19993	2.51916	1.01011	2.58973	1.20298	2.51931	1.05564	2.70446	1.44515	3.69922	2.00736	5.13594			1.00838	2.58959	1.20555	3.07997	1.71953	4.40022				
1.194	2.51891	1.01627	2.59021	1.19703	2.51903	1.06078	2.70166	1.44551	3.67843	2.00712	5.10517			1.01454	2.59007	1.20735	3.06648	1.71921	4.37357				
1.1881	2.51872	1.02243	2.59067	1.19111	2.51881	1.066	2.69909	1.44591	3.65796	2.00683	5.07466			1.0207	2.59054	1.20919	3.05327	1.7189	4.34726				
1.18223	2.5186	1.02859	2.59112	1.18523	2.51865	1.07129	2.69672	1.44634	3.63781	2.00651	5.04443			1.02686	2.59099	1.21108	3.04032	1.71859	4.32127				
1.17639	2.51855	1.03474	2.59155	1.17938	2.51857	1.07664	2.69454	1.4468	3.61799	2.00616	5.01446			1.03301	2.59143	1.21301	3.02764	1.7183	4.2956				
1.1706	2.51858	1.04089	2.59198	1.17356	2.51856	1.08204	2.69252	1.4473	3.59847	2.00579	4.98478			1.03916	2.59186	1.21499	3.01521	1.71801	4.27026				
1.16484	2.51871	1.04704	2.59238	1.16778	2.51863	1.0875	2.69066	1.44783	3.57926	2.00539	4.95537			1.04531	2.59227	1.21701	3.00304	1.71774	4.24524				
1.15913	2.51893	1.05318	2.59278	1.16205	2.5188	1.09301	2.68894	1.4484	3.56035	2.00497	4.92624			1.05145	2.59267	1.21908	2.99111	1.71749	4.22054				
1.15347	2.51925	1.05932	2.59315	1.15636	2.51907	1.09856	2.68734	1.449	3.54174	2.00453	4.8974			1.05759	2.59305	1.2212	2.97943	1.71725	4.19616				
1.14786	2.5197	1.06545	2.59352	1.15072	2.51945	1.10416	2.68586	1.44964	3.52343	2.00408	4.86884			1.06372	2.59342	1.22336	2.96799	1.71702	4.17209				
1.1423	2.52026	1.07158	2.59387	1.14514	2.51996	1.10979	2.68449	1.45031	3.50541	2.00361	4.84057			1.06985	2.59377	1.22556	2.95679	1.71681	4.14832				
1.1368	2.52095	1.0777	2.59421	1.13961	2.52058	1.11545	2.68321	1.45102	3.48767	2.00313	4.81258			1.07598	2.59411	1.22781	2.94582	1.71662	4.12487				
1.13136	2.52179	1.08382	2.59453	1.13413	2.52134	1.12114	2.68201	1.45177	3.47021	2.00264	4.78488			1.0821	2.59444	1.23011	2.93508	1.71645	4.10171				
1.12597	2.52276	1.08994	2.59483	1.12872	2.52224	1.12686	2.6809	1.45254	3.45303	2.00214	4.75746			1.08822	2.59475	1.23245	2.92457	1.7163	4.07886				
1.12065	2.52388	1.09605	2.59512	1.12337	2.52329	1.1326	2.67985	1.45336	3.43612	2.00164	4.73033			1.09433	2.59504	1.23484	2.91428	1.71617	4.0563				
1.11539	2.52516	1.10215	2.5954	1.11807	2.52449	1.13837	2.67887	1.45421	3.41948	2.00113	4.70349			1.10043	2.59532	1.23727	2.90421	1.71606	4.03404				
1.11019	2.52659	1.10825	2.59565	1.11284	2.52584	1.14416	2.67795	1.4551	3.4031	2.00062	4.67692			1.10653	2.59558	1.23975	2.89435	1.71597	4.01207				
1.10505	2.52818	1.11434	2.5959	1.10768	2.52734	1.14996	2.67708	1.45603	3.38699	2.00011	4.65064			1.11263	2.59583	1.24228	2.8847	1.7159	3.99038				
1.09998	2.52992	1.12043	2.59612	1.10257	2.52901	1.15579	2.67626	1.45699	3.37113	1.9996	4.62465			1.11872	2.59606	1.24485	2.87527	1.71586	3.96898				
1.09496	2.53181	1.12651	2.59633	1.09752	2.53082	1.16163	2.67549	1.45798	3.35552	1.99909	4.59893			1.1248	2.59627	1.24746	2.86604	1.71583	3.94786				
1.09	2.53386	1.13258	2.59652	1.09253	2.53279	1.16748	2.67475	1.45902	3.34017	1.99859	4.57349			1.13087	2.59647	1.25013	2.85702	1.71584	3.92701				
1.08509	2.53605	1.13865	2.59669	1.08759	2.53491	1.17334	2.67405	1.46009	3.32506	1.99809	4.54832			1.13694	2.59664	1.25284	2.84819	1.71586	3.90644				
1.08023	2.53838	1.14471	2.59684	1.08271	2.53717	1.17922	2.67339	1.4612	3.31019	1.99759	4.52344			1.143	2.5968	1.2556	2.83957	1.71591	3.88615				
1.07542	2.54086	1.15076	2.59697	1.07788	2.53957	1.18511	2.67276	1.46235	3.29556	1.9971	4.49882			1.14906	2.59694	1.2584	2.83114	1.71599	3.86611				
1.07065	2.54346	1.1568	2.59709	1.07309	2.54211	1.19101	2.67216	1.46353	3.28117	1.99662	4.47448			1.1551	2.59706	1.26126	2.82291	1.71609	3.84635				
1.06593	2.54618	1.16283	2.59718	1.06834	2.54477	1.19692	2.67158	1.46475	3.267	1.99615	4.45041			1.16114	2.59715	1.26416	2.81486	1.71622	3.82684				
1.06123	2.54902	1.16886	2.59724	1.06363	2.54756	1.20283	2.67103	1.46601	3.25307	1.99568	4.4266			1.16716	2.59723	1.26711	2.80701	1.71637	3.80759				
1.05657	2.55197	1.17487	2.59729	1.05895	2.55045	1.20876	2.6705	1.4673	3.23935	1.99523	4.40306			1.17318	2.59728	1.27011	2.79934	1.71655	3.7886				
1.05194	2.55502	1.18087	2.5973	1.05431	2.55345	1.21469	2.66999	1.46864	3.22586	1.99479	4.37979			1.17918	2.5973	1.27316	2.79187	1.71676	3.76986				
1.04733	2.55815	1.18686	2.5973	1.04968	2.55654	1.22062	2.6695	1.47001	3.21259	1.99436	4.35677			1.18517	2.5973	1.27626	2.78457	1.71699	3.75137				
1.04273	2.56137	1.19284	2.59726	1.04508	2.55971	1.22657	2.66903	1.47142	3.19954	1.99394	4.33401			1.19116	2.59727	1.2794	2.77746	1.71726	3.73312				
1.03815	2.56465	1.1988	2.5972	1.04049	2.56296	1.23252	2.66858	1.47286	3.18669	1.99354	4.31151			1.19712	2.59722	1.28261	2.77053	1.71755	3.71512				
1.03357	2.56798	1.20475	2.5971	1.03592	2.56627	1.23847	2.66814	1.47435	3.17406	1.99315	4.28927			1.20307	2.59713	1.28586	2.76379	1.71786	3.69735				
1.029	2.57136	1.21068	2.59697	1.03134	2.56963	1.24443	2.66771	1.47587	3.16162	1.99277	4.26727			1.20901	2.59701	1.28917	2.75722	1.71821	3.67983				
1.02442	2.57477	1.2166	2.59681	1.02677	2.57302	1.25039	2.66729	1.47743	3.1494	1.99241	4.24553			1.21493	2.59686	1.29253	2.75084	1.71859	3.66253				
1.01984	2.57819	1.22249	2.59661	1.02219	2.57644	1.25635	2.66689	1.47902	3.13737	1.99207	4.22403			1.22084	2.59667	1.29595	2.74463	1.71899	3.64547				
1.01523	2.58162	1.22837	2.59637	1.01759	2.57987	1.26232	2.6665	1.48066	3.12554	1.99175	4.20277			1.22672	2.59644	1.29942	2.73861	1.71943	3.62863				
1.01061	2.58502	1.23423	2.59609	1.01298	2.58328	1.26829	2.66612	1.48233	3.1139	1.99144	4.18176			1.23258	2.59617	1.30296	2.73277	1.71989	3.61202				
1.00596	2.5884	1.24006	2.59576	1.00834	2.58668	1.27426	2.66574	1.48404	3.10245	1.99115	4.16099			1.23842	2.59586	1.30655	2.72711	1.72038	3.59563				
1.00127	2.59173	1.24587	2.59538	1.00367	2.59003	1.28024	2.66538	1.48579	3.0912	1.99087	4.14045			1.24424	2.59549	1.3102	2.72163	1.7209	3.57946				
0.996546	2.595	1.25165	2.59496	0.99897	2.59334	1.28622	2.66502	1.48757	3.08012	1.99062	4.12015			1.25003	2.59508	1.31392	2.71633	1.72146	3.5635				
0.991777	2.59819	1.25741	2.59447	0.994224	2.59657	1.2922	2.66467	1.48939	3.06924	1.99038	4.10009			1.25579	2.59462	1.31771	2.71122	1.72204	3.54776				
0.986959	2.60129	1.26313	2.59393	0.989431	2.59972	1.29818	2.66433	1.49126	3.05853	1.99017	4.08025			1.26152	2.59409	1.32156	2.7063	1.72265	3.53223				
0.982087	2.60429	1.26882	2.59333	0.984587	2.60277	1.30416	2.66399	1.49315	3.048	1.98997	4.06064			1.26722	2.59351	1.32548	2.70156	1.72329	3.51691				
0.97716	2.60718	1.27448	2.59266	0.979689	2.60572	1.31014	2.66365	1.49509	3.03765	1.9898	4.04126			1.27289	2.59286	1.32947	2.69702	1.72397	3.5018				
0.972175	2.60994	1.28009	2.59193	0.974733	2.60854	1.31612	2.66332	1.49707	3.02746	1.98965	4.0221			1.27852	2.59214	1.33354	2.69266	1.72467	3.48689				
0.96713	2.61258	1.28567	2.59111	0.969719	2.61125	1.32211	2.663	1.49908	3.01746	1.98951	4.00315			1.28411	2.59135	1.33768	2.6885	1.72541	3.47217				
0.962025	2.61509	1.29121	2.59023	0.964644	2.61382	1.32809	2.66267	1.50113	3.00761	1.9894	3.98443			1.28965	2.59048	1.3419	2.68453	1.72617	3.45766				
0.95686	2.61747	1.2967	2.58926	0.95951	2.61627	1.33407	2.66235	1.50322	2.99794	1.98931	3.96593			1.29516	2.58954	1.3462	2.68076	1.72697	3.44334				
0.951637	2.61972	1.30215	2.58821	0.954317	2.61858	1.34006	2.66203	1.50535	2.98843	1.98925	3.94763			1.30062	2.58851	1.35058	2.67718	1.7278	3.42921				
0.946357	2.62184	1.30755	2.58707	0.949065	2.62077	1.34604	2.66172	1.50751	2.97908	1.9892	3.92955			1.30603	2.5874	1.35505	2.6738	1.72865	3.41528				
0.941022	2.62383	1.31289	2.58585	0.943758	2.62283	1.35202	2.6614	1.50971	2.96989	1.98918	3.91168			1.31139	2.5862	1.35959	2.67061	1.72954	3.40153				
0.935636	2.6257	1.31819	2.58454	0.938398	2.62476	1.358	2.66109	1.51195	2.96086	1.98918	3.89401			1.31671	2.58492	1.36422	2.66762	1.73047	3.38797				
0.930201	2.62747	1.32344	2.58315	0.932988	2.62658	1.36398	2.66077	1.51423	2.95199	1.98921	3.87655			1.32197	2.58355	1.36894	2.66482	1.73142	3.37459				
0.92472	2.62912	1.32864	2.58167	0.92753	2.62829	1.36995	2.66045	1.51655	2.94327	1.98925	3.85929			1.32718	2.5821	1.37374	2.6622	1.7324	3.36139				
0.919196	2.63067	1.3338	2.58011	0.922028	2.62989	1.37593	2.66014	1.51891	2.9347	1.98933	3.84223			1.33235	2.58056	1.37862	2.65976	1.73342	3.34837				
0.913633	2.63213	1.3389	2.57848	0.916484	2.6314	1.3819	2.65982	1.5213	2.92628	1.98942	3.82537			1.33747	2.57895	1.38357	2.6575	1.73447	3.33553				
0.908032	2.6335	1.34396	2.57677	0.910902	2.63281	1.38787	2.65949	1.52374	2.91801	1.98954	3.8087			1.34254	2.57726	1.38861	2.6554	1.73555	3.32286				
0.902398	2.6348	1.34897	2.57499	0.905285	2.63414	1.39384	2.65917	1.52621	2.90989	1.98969	3.79223			1.34757	2.5755	1.39372	2.65347	1.73666	3.31036				
0.896733	2.63601	1.35395	2.57316	0.899636	2.6354	1.3998	2.65884	1.52872	2.90191	1.98986	3.77595			1.35255	2.57368	1.3989	2.65169	1.7378	3.29803				
0.891039	2.63716	1.35889	2.57127	0.893956	2.63658	1.40576	2.65851	1.53127	2.89407	1.99005	3.75985			1.3575	2.57181	1.40415	2.65004	1.73897	3.28587				
0.885318	2.63825	1.3638	2.56934	0.888249	2.6377	1.41171	2.65817	1.53386	2.88638	1.99027	3.74395			1.36242	2.56989	1.40947	2.64854	1.74018	3.27388				
0.879574	2.63928	1.36868	2.56737	0.882516	2.63876	1.41766	2.65783	1.53649	2.87883	1.99052	3.72822			1.36731	2.56793	1.41484	2.64715	1.74142	3.26205				
0.873807	2.64025	1.37353	2.56538	0.876761	2.63976	1.42361	2.65748	1.53916	2.87142	1.99079	3.71269			1.37217	2.56594	1.42026	2.64589	1.74269	3.25038				
0.86802	2.64118	1.37837	2.56336	0.870984	2.64071	1.42955	2.65712	1.54187	2.86414	1.99108	3.69733			1.37701	2.56393	1.42574	2.64472	1.74399	3.23887				
0.862215	2.64207	1.38318	2.56133	0.865188	2.64162	1.43548	2.65676	1.54462	2.85701	1.9914	3.68215			1.38183	2.5619	1.43127	2.64366	1.74532	3.22751				
0.856393	2.64291	1.38799	2.55929	0.859374	2.64249	1.44141	2.65639	1.54741	2.85001	1.99175	3.66715			1.38664	2.55986	1.43684	2.64268	1.74669	3.21631				
0.850555	2.64372	1.39278	2.55725	0.853544	2.64331	1.44733	2.656	1.55024	2.84314	1.99213	3.65232			1.39143	2.55782	1.44245	2.64179	1.74809	3.20527				
0.844703	2.6445	1.39757	2.55522	0.847699	2.64411	1.45325	2.65561	1.55312	2.83641	1.99253	3.63766			1.39622	2.55579	1.4481	2.64097	1.74951	3.19437				
0.838837	2.64525	1.40236	2.5532	0.84184	2.64487	1.45915	2.6552	1.55603	2.82981	1.99295	3.62318			1.40101	2.55377	1.45378	2.64022	1.75098	3.18363				
0.83296	2.64597	1.40715	2.5512	0.835969	2.6456	1.46505	2.65478	1.55899	2.82334	1.9934	3.60886			1.4058	2.55176	1.45949	2.63953	1.75247	3.17303				
0.827072	2.64666	1.41194	2.54923	0.830086	2.64631	1.47093	2.65435	1.562	2.81701	1.99388	3.59471			1.41059	2.54978	1.46523	2.6389	1.75399	3.16258				
0.821174	2.64733	1.41674	2.54728	0.824193	2.64699	1.47681	2.6539	1.56504	2.81081	1.99439	3.58073			1.41539	2.54783	1.47099	2.63832	1.75555	3.15227				
0.815266	2.64798	1.42155	2.54536	0.81829	2.64765	1.48267	2.65343	1.56814	2.80474	1.99492	3.56691			1.42019	2.5459	1.47678	2.63779	1.75714	3.14211				
0.80935	2.64862	1.42637	2.54348	0.812378	2.6483	1.48852	2.65295	1.57128	2.7988	1.99548	3.55325			1.42501	2.54401	1.48259	2.63729	1.75876	3.13208				
0.803426	2.64924	1.4312	2.54164	0.806459	2.64892	1.49435	2.65244	1.57446	2.793	1.99607	3.53975			1.42984	2.54216	1.48842	2.63684	1.76041	3.12219				
0.797495	2.64984	1.43605	2.53984	0.800531	2.64954	1.50018	2.65191	1.57769	2.78733	1.99668	3.52641			1.43468	2.54035	1.49427	2.63642	1.7621	3.11244				
0.791558	2.65043	1.44091	2.53809	0.794597	2.65013	1.50598	2.65136	1.58098	2.78179	1.99732	3.51322			1.43954	2.53858	1.50013	2.63603	1.76381	3.10283				
0.785615	2.65102	1.44579	2.53638	0.788657	2.65072	1.51177	2.65078	1.58431	2.77638	1.99799	3.50019			1.44442	2.53686	1.50601	2.63567	1.76556	3.09335				
0.779666	2.65159	1.45069	2.53472	0.782711	2.6513	1.51753	2.65017	1.5877	2.77111	1.99868	3.48731			1.44931	2.53518	1.5119	2.63534	1.76734	3.084				
0.773712	2.65215	1.45562	2.53311	0.776759	2.65186	1.52328	2.64953	1.59114	2.76597	1.99941	3.47458			1.45423	2.53356	1.5178	2.63503	1.76915	3.07478				
0.767754	2.65271	1.46056	2.53155	0.770803	2.65242	1.529	2.64885	1.59463	2.76097	2.00016	3.462			1.45917	2.53198	1.52371	2.63474	1.77099	3.06569				
0.761791	2.65326	1.46553	2.53004	0.764843	2.65298	1.5347	2.64814	1.59818	2.75611	2.00093	3.44957			1.46413	2.53046	1.52963	2.63447	1.77287	3.05672				
0.755825	2.65381	1.47053	2.52859	0.758879	2.65353	1.54037	2.64738	1.6018	2.75139	2.00174	3.43729			1.46912	2.529	1.53557	2.63422	1.77477	3.04788				
0.749856	2.65435	1.47554	2.5272	0.752911	2.65408	1.54601	2.64658	1.60547	2.74682	2.00257	3.42514			1.47413	2.52758	1.54151	2.63398	1.77671	3.03917				
0.743884	2.6549	1.48059	2.52585	0.74694	2.65462	1.55162	2.64573	1.60921	2.74238	2.00343	3.41315			1.47917	2.52623	1.54745	2.63376	1.77868	3.03057				
0.737909	2.65544	1.48566	2.52457	0.740967	2.65516	1.5572	2.64483	1.61301	2.7381	2.00432	3.40129			1.48423	2.52492	1.55341	2.63355	1.78068	3.0221				
0.731932	2.65599	1.49076	2.52334	0.734991	2.65571	1.56273	2.64388	1.61688	2.73396	2.00523	3.38957			1.48932	2.52368	1.55937	2.63336	1.78271	3.01375				
0.725953	2.65653	1.49589	2.52217	0.729013	2.65625	1.56823	2.64286	1.62083	2.72998	2.00618	3.37799			1.49444	2.52249	1.56533	2.63317	1.78478	3.00552				
0.719972	2.65708	1.50104	2.52105	0.723033	2.6568	1.57369	2.64179	1.62484	2.72615	2.00715	3.36654			1.49959	2.52136	1.5713	2.63299	1.78687	2.9974				
0.71399	2.65764	1.50622	2.51999	0.717051	2.65735	1.5791	2.64064	1.62894	2.72248	2.00814	3.35523			1.50476	2.52028	1.57728	2.63282	1.789	2.9894				
0.708007	2.6582	1.51144	2.51898	0.711068	2.65791	1.58447	2.63943	1.63311	2.71897	2.00917	3.34405			1.50997	2.51926	1.58325	2.63266	1.79116	2.98151				
0.702023	2.65876	1.51668	2.51804	0.705085	2.65847	1.58978	2.63815	1.63736	2.71562	2.01022	3.33301			1.5152	2.5183	1.58924	2.63251	1.79335	2.97373				
0.696038	2.65934	1.52195	2.51714	0.699101	2.65904	1.59505	2.63679	1.6417	2.71243	2.01131	3.32209			1.52046	2.51739	1.59522	2.63236	1.79557	2.96607				
0.690054	2.65992	1.52725	2.5163	0.693116	2.65962	1.60026	2.63535	1.64612	2.70941	2.01242	3.3113			1.52575	2.51654	1.60121	2.63221	1.79783	2.95851				
0.684069	2.66052	1.53258	2.51552	0.687132	2.66021	1.60542	2.63384	1.65063	2.70655	2.01355	3.30064			1.53107	2.51574	1.6072	2.63208	1.80011	2.95107				
0.678085	2.66112	1.53793	2.51479	0.681147	2.66081	1.61053	2.63225	1.65522	2.70385	2.01472	3.29011			1.53642	2.51499	1.61319	2.63194	1.80243	2.94373				
0.672101	2.66174	1.54332	2.51411	0.675163	2.66142	1.61558	2.63059	1.6599	2.70131	2.01591	3.2797			1.5418	2.5143	1.61918	2.63181	1.80477	2.9365				
0.666119	2.66238	1.54873	2.51348	0.66918	2.66205	1.62058	2.62886	1.66466	2.69892	2.01713	3.26941			1.54721	2.51365	1.62517	2.63168	1.80715	2.92937				
0.660137	2.66303	1.55417	2.51291	0.663198	2.6627	1.62553	2.62706	1.6695	2.69668	2.01838	3.25925			1.55264	2.51306	1.63116	2.63155	1.80956	2.92235				
0.654158	2.6637	1.55965	2.51238	0.657217	2.66336	1.63044	2.62519	1.67443	2.6946	2.01966	3.24921			1.5581	2.51252	1.63716	2.63142	1.81201	2.91543				
0.64818	2.6644	1.56514	2.5119	0.651239	2.66404	1.63529	2.62327	1.67943	2.69265	2.02096	3.23928			1.56359	2.51203	1.64315	2.6313	1.81448	2.90861				
0.642204	2.66511	1.57067	2.51146	0.645262	2.66474	1.64011	2.6213	1.68451	2.69083	2.0223	3.22947			1.56911	2.51158	1.64914	2.63117	1.81698	2.90189				
0.636231	2.66585	1.57622	2.51107	0.639288	2.66547	1.64489	2.61928	1.68966	2.68915	2.02366	3.21978			1.57465	2.51118	1.65513	2.63105	1.81952	2.89527				
0.630261	2.66662	1.58179	2.51073	0.633316	2.66622	1.64964	2.61722	1.69487	2.68758	2.02505	3.21021			1.58022	2.51082	1.66113	2.63092	1.82209	2.88875				
0.624295	2.66741	1.5874	2.51042	0.627348	2.667	1.65436	2.61514	1.70015	2.68612	2.02646	3.20074			1.58582	2.51051	1.66712	2.6308	1.82469	2.88233				
0.618332	2.66824	1.59302	2.51016	0.621383	2.66781	1.65906	2.61304	1.70549	2.68477	2.02791	3.19139			1.59144	2.51023	1.67311	2.63067	1.82732	2.876				
0.612374	2.66911	1.59867	2.50994	0.615423	2.66866	1.66375	2.61093	1.71088	2.68351	2.02938	3.18216			1.59708	2.51	1.67909	2.63054	1.82998	2.86977				
0.606421	2.67001	1.60435	2.50975	0.609467	2.66954	1.66842	2.60882	1.71633	2.68234	2.03088	3.17303			1.60275	2.5098	1.68508	2.6304	1.83267	2.86363				
0.600473	2.67096	1.61004	2.50961	0.603516	2.67047	1.67309	2.60671	1.72182	2.68125	2.03241	3.16401			1.60843	2.50964	1.69106	2.63027	1.8354	2.85759				
0.594531	2.67195	1.61576	2.50949	0.597571	2.67144	1.67776	2.60462	1.72735	2.68024	2.03396	3.1551			1.61415	2.50952	1.69704	2.63013	1.83816	2.85164				
0.588596	2.673	1.6215	2.50941	0.591632	2.67245	1.68244	2.60256	1.73292	2.6793	2.03555	3.14629			1.61988	2.50943	1.70302	2.62999	1.84095	2.84578				
0.582668	2.6741	1.62726	2.50936	0.5857	2.67353	1.68713	2.60054	1.73854	2.67842	2.03716	3.13759			1.62563	2.50938	1.70899	2.62984	1.84377	2.84002				
0.576748	2.67526	1.63304	2.50935	0.579776	2.67466	1.69184	2.59856	1.74418	2.67759	2.0388	3.129			1.63141	2.50935	1.71496	2.62969	1.84663	2.83434				
0.570838	2.67649	1.63883	2.50936	0.573861	2.67585	1.69659	2.59664	1.74985	2.67682	2.04046	3.1205			1.6372	2.50935	1.72092	2.62953	1.84951	2.82875				
0.564938	2.6778	1.64465	2.5094	0.567955	2.67712	1.70136	2.59479	1.75556	2.6761	2.04216	3.11211			1.64301	2.50939	1.72688	2.62937	1.85243	2.82326				
0.559048	2.67918	1.65048	2.50947	0.562061	2.67846	1.70619	2.59303	1.76129	2.67542	2.04388	3.10382			1.64884	2.50945	1.73284	2.6292	1.85539	2.81785				
0.553172	2.68066	1.65634	2.50956	0.556177	2.67989	1.71107	2.59135	1.76704	2.67479	2.04563	3.09563			1.65469	2.50953	1.73879	2.62902	1.85837	2.81253				
0.547309	2.68224	1.6622	2.50967	0.550307	2.68142	1.71601	2.58978	1.77281	2.67419	2.04741	3.08754			1.66055	2.50964	1.74473	2.62884	1.86139	2.80729				
0.541462	2.68394	1.66809	2.50981	0.544452	2.68306	1.72102	2.58833	1.7786	2.67362	2.04921	3.07955			1.66643	2.50977	1.75067	2.62865	1.86445	2.80215				
0.535631	2.68575	1.67398	2.50997	0.538612	2.68481	1.72611	2.58701	1.78442	2.67308	2.05104	3.07165			1.67232	2.50993	1.7566	2.62845	1.86753	2.79708				
0.52982	2.68771	1.6799	2.51016	0.532791	2.68669	1.73129	2.58583	1.79024	2.67257	2.0529	3.06385			1.67823	2.5101	1.76253	2.62824	1.87065	2.79211				
0.52403	2.68983	1.68582	2.51036	0.52699	2.68872	1.73655	2.58479	1.79608	2.67209	2.05479	3.05614			1.68415	2.5103	1.76844	2.62802	1.87381	2.78722				
0.518264	2.69211	1.69176	2.51057	0.521211	2.69092	1.74191	2.58389	1.80194	2.67163	2.05671	3.04853			1.69009	2.51051	1.77435	2.62779	1.877	2.78242				
0.512525	2.6946	1.69772	2.51081	0.515458	2.6933	1.74736	2.58313	1.80781	2.6712	2.05865	3.04101			1.69604	2.51074	1.78025	2.62754	1.88023	2.7777				
0.506816	2.6973	1.70368	2.51106	0.509733	2.69589	1.7529	2.58251	1.81369	2.67078	2.06062	3.03358			1.702	2.51099	1.78614	2.62729	1.88349	2.77307				
0.50114	2.70026	1.70966	2.51133	0.50404	2.69871	1.75851	2.58201	1.81958	2.67038	2.06262	3.02624			1.70797	2.51126	1.79202	2.62702	1.88679	2.76852				
0.495503	2.7035	1.71565	2.51162	0.498383	2.7018	1.76421	2.58162	1.82548	2.67	2.06464	3.01899			1.71396	2.51153	1.79788	2.62673	1.89012	2.76405				
0.489909	2.70705	1.72164	2.51191	0.492766	2.70519	1.76997	2.58133	1.83139	2.66963	2.06669	3.01183			1.71995	2.51183	1.80374	2.62644	1.8935	2.75967				
0.484363	2.71098	1.72765	2.51222	0.487195	2.70892	1.77579	2.58113	1.83731	2.66928	2.06877	3.00475			1.72596	2.51213	1.80958	2.62612	1.89691	2.75538				
0.478873	2.71531	1.73367	2.51254	0.481675	2.71304	1.78166	2.58101	1.84324	2.66895	2.07088	2.99776			1.73198	2.51245	1.81541	2.62579	1.90036	2.75117				
0.473445	2.72012	1.7397	2.51288	0.476214	2.7176	1.78757	2.58095	1.84917	2.66862	2.07301	2.99086			1.738	2.51278	1.82123	2.62543	1.90385	2.74705				
0.468087	2.72547	1.74574	2.51322	0.470819	2.72266	1.79352	2.58095	1.85511	2.66831	2.07517	2.98405			1.74404	2.51312	1.82702	2.62506	1.90738	2.74301				
0.462809	2.73144	1.75178	2.51358	0.465499	2.7283	1.79951	2.58099	1.86105	2.668	2.07736	2.97732			1.75008	2.51348	1.83281	2.62467	1.91095	2.73906				
0.457622	2.73811	1.75784	2.51394	0.460264	2.7346	1.80552	2.58107	1.867	2.66771	2.07958	2.97067			1.75613	2.51384	1.83857	2.62425	1.91457	2.7352				
0.452535	2.74558	1.7639	2.51431	0.455125	2.74165	1.81156	2.58118	1.87296	2.66742	2.08182	2.9641			1.76219	2.51421	1.84431	2.62381	1.91823	2.73142				
0.447563	2.75396	1.76997	2.5147	0.450092	2.74955	1.81761	2.58133	1.87892	2.66715	2.08409	2.95762			1.76826	2.51459	1.85004	2.62334	1.92193	2.72774				
0.442717	2.76338	1.77605	2.51509	0.44518	2.75843	1.82369	2.58149	1.88488	2.66688	2.08639	2.95121			1.77434	2.51498	1.85574	2.62284	1.92568	2.72414				
0.438011	2.77396	1.78213	2.51548	0.440401	2.76839	1.82978	2.58168	1.89085	2.66661	2.08871	2.94489			1.78042	2.51537	1.86142	2.62232	1.92948	2.72063				
0.433459	2.78584	1.78823	2.51589	0.435768	2.77959	1.83588	2.58188	1.89682	2.66636	2.09106	2.93864			1.78651	2.51577	1.86707	2.62176	1.93333	2.71721				
0.429075	2.79917	1.79432	2.5163	0.431297	2.79216	1.84199	2.5821	1.9028	2.66611	2.09344	2.93248			1.79261	2.51618	1.8727	2.62117	1.93723	2.71389				
0.42487	2.8141	1.80043	2.51671	0.426998	2.80625	1.84811	2.58233	1.90877	2.66586	2.09585	2.92639			1.79871	2.5166	1.8783	2.62054	1.94117	2.71066				
0.420856	2.83078	1.80654	2.51714	0.422885	2.82202	1.85424	2.58257	1.91475	2.66562	2.09828	2.92038			1.80482	2.51702	1.88387	2.61988	1.94518	2.70752				
0.417041	2.84934	1.81265	2.51756	0.418968	2.8396	1.86038	2.58282	1.92073	2.66539	2.10074	2.91444			1.81093	2.51744	1.8894	2.61917	1.94923	2.70448				
0.413434	2.86994	1.81877	2.518	0.415254	2.85914	1.86652	2.58307	1.92672	2.66516	2.10323	2.90858			1.81705	2.51787	1.89491	2.61843	1.95335	2.70154				
0.410039	2.8927	1.8249	2.51843	0.41175	2.88078	1.87267	2.58333	1.9327	2.66493	2.10574	2.90279			1.82317	2.51831	1.90038	2.61764	1.95752	2.6987				
0.406857	2.91776	1.83103	2.51887	0.408458	2.90464	1.87883	2.5836	1.93869	2.66471	2.10828	2.89708			1.8293	2.51875	1.90581	2.61681	1.96175	2.69595				
0.403891	2.94522	1.83717	2.51932	0.405382	2.93086	1.88498	2.58387	1.94467	2.66448	2.11085	2.89144			1.83544	2.51919	1.91121	2.61593	1.96604	2.69331				
0.401139	2.97521	1.84331	2.51976	0.402521	2.95954	1.89115	2.58414	1.95066	2.66427	2.11345	2.88588			1.84158	2.51964	1.91656	2.615	1.97039	2.69077				
0.398598	3.00784	1.84945	2.52022	0.399872	2.9908	1.89731	2.58441	1.95665	2.66405	2.11607	2.88038			1.84772	2.52009	1.92188	2.61402	1.9748	2.68832				
0.396266	3.04323	1.8556	2.52067	0.397433	3.02477	1.90348	2.58469	1.96264	2.66383	2.11872	2.87496			1.85387	2.52054	1.92715	2.61299	1.97928	2.68599				
0.394138	3.08149	1.86176	2.52113	0.395201	3.06154	1.90964	2.58497	1.96863	2.66362	2.1214	2.86961			1.86002	2.521	1.93238	2.61192	1.98383	2.68375				
0.392211	3.12276	1.86791	2.52159	0.393172	3.10126	1.91581	2.58524	1.97461	2.66341	2.1241	2.86433			1.86618	2.52146	1.93757	2.61079	1.98844	2.68161				
0.390481	3.16717	1.87408	2.52205	0.391342	3.14405	1.92199	2.58552	1.9806	2.6632	2.12683	2.85912			1.87234	2.52192	1.94272	2.60961	1.99311	2.67958				
0.388943	3.21487	1.88024	2.52251	0.389706	3.19004	1.92816	2.5858	1.98659	2.66299	2.12959	2.85398			1.8785	2.52238	1.94782	2.60838	1.99785	2.67764				
0.387594	3.26601	1.88641	2.52298	0.388261	3.2394	1.93433	2.58608	1.99258	2.66278	2.13238	2.8489			1.88467	2.52285	1.95288	2.6071	2.00265	2.67581				
0.38643	3.32076	1.89258	2.52344	0.387003	3.29228	1.94051	2.58635	1.99856	2.66256	2.1352	2.8439			1.89084	2.52331	1.9579	2.60577	2.00752	2.67407				
0.385447	3.37932	1.89875	2.52391	0.385927	3.34887	1.94668	2.58663	2.00455	2.66235	2.13804	2.83896			1.89702	2.52378	1.96288	2.6044	2.01245	2.67242				
0.384641	3.44188	1.90493	2.52438	0.385032	3.40935	1.95286	2.5869	2.01053	2.66214	2.14091	2.83409			1.90319	2.52425	1.96782	2.60299	2.01744	2.67086				
0.38401	3.50868	1.91111	2.52485	0.384311	3.47396	1.95903	2.58717	2.01651	2.66193	2.14381	2.82929			1.90937	2.52472	1.97272	2.60153	2.02249	2.6694				
0.38355	3.57995	1.9173	2.52532	0.383764	3.5429	1.9652	2.58744	2.02249	2.66171	2.14674	2.82455			1.91556	2.52519	1.97759	2.60004	2.0276	2.66801				
0.383257	3.65596	1.92348	2.5258	0.383386	3.61645	1.97138	2.58771	2.02847	2.6615	2.1497	2.81988			1.92174	2.52566	1.98242	2.59851	2.03276	2.66671				
0.383129	3.73699	1.92967	2.52627	0.383175	3.69488	1.97755	2.58797	2.03444	2.66128	2.15268	2.81527			1.92793	2.52613	1.98722	2.59695	2.03798	2.66549				
0.383163	3.82336	1.93586	2.52674	0.383126	3.77848	1.98373	2.58824	2.04041	2.66106	2.1557	2.81073			1.93412	2.52661	1.99199	2.59536	2.04325	2.66433				
0.383354	3.91543	1.94206	2.52721	0.383237	3.86758	1.9899	2.5885	2.04638	2.66083	2.15874	2.80626			1.94031	2.52708	1.99674	2.59374	2.04856	2.66325				
0.3837	4.01355	1.94825	2.52769	0.383504	3.96255	1.99607	2.58875	2.05234	2.6606	2.16181	2.80185			1.94651	2.52755	2.00146	2.59211	2.05393	2.66224				
0.384198	4.11814	1.95445	2.52816	0.383925	4.06378	2.00224	2.58901	2.0583	2.66037	2.16492	2.7975			1.95271	2.52803	2.00616	2.59045	2.05933	2.66128				
0.384842	4.22966	1.96065	2.52863	0.384494	4.1717	2.00841	2.58926	2.06426	2.66014	2.16805	2.79322			1.95891	2.5285	2.01084	2.58879	2.06478	2.66039				
0.385631	4.34861	1.96685	2.52911	0.38521	4.28678	2.01457	2.5895	2.07021	2.65989	2.17121	2.78901			1.96511	2.52897	2.01551	2.5871	2.07026	2.65954				
0.386559	4.47553	1.97306	2.52958	0.386067	4.40955	2.02074	2.58975	2.07615	2.65965	2.17441	2.78486			1.97131	2.52945	2.02016	2.58542	2.07578	2.65875				
0.387623	4.61103	1.97926	2.53005	0.387062	4.54058	2.0269	2.58999	2.08209	2.6594	2.17763	2.78077			1.97752	2.52992	2.02479	2.58372	2.08133	2.65801				
0.388818	4.75578	1.98547	2.53052	0.38819	4.6805	2.03306	2.59022	2.08803	2.65914	2.18089	2.77675			1.98372	2.53039	2.02942	2.58202	2.08691	2.65731				
0.390139	4.91052	1.99168	2.53099	0.389447	4.83004	2.03922	2.59045	2.09395	2.65887	2.18418	2.77279			1.98993	2.53086	2.03404	2.58032	2.09252	2.65665				
0.391582	5.07611	1.99789	2.53146	0.390828	4.98996	2.04538	2.59068	2.09987	2.6586	2.1875	2.7689			1.99614	2.53133	2.03865	2.57863	2.09816	2.65602				
0.393141	5.25345	2.0041	2.53193	0.392329	5.16117	2.05153	2.5909	2.10578	2.65831	2.19086	2.76507			2.00235	2.5318	2.04326	2.57693	2.10382	2.65544				
0.39481	5.44361	2.01032	2.5324	0.393943	5.34463	2.05768	2.59112	2.11168	2.65802	2.19425	2.76131			2.00857	2.53227	2.04786	2.57525	2.10951	2.65488				
0.396351	5.62068	2.01653	2.53286	0.395664	5.54146	2.06383	2.59134	2.11758	2.65772	2.19767	2.75761			2.01478	2.53273	2.05247	2.57357	2.11522	2.65436				
0.397725	5.78067	2.02275	2.53333	0.397488	5.75292	2.06998	2.59154	2.12346	2.65741	2.20114	2.75398			2.021	2.5332	2.05707	2.5719	2.12094	2.65386				
0.3989	5.91971	2.02896	2.53379	0.399408	5.98042	2.07612	2.59175	2.12933	2.65708					2.02721	2.53366	2.06168	2.57025	2.12669	2.65339				
0.399854	6.03422	2.03518	2.53425	0.401417	6.22559	2.08225	2.59194	2.13519	2.65674					2.03343	2.53412	2.06629	2.5686	2.13245	2.65294				
0.400569	6.12113	2.0414	2.53471	0.403507	6.49027	2.08839	2.59213	2.14103	2.65639					2.03964	2.53458	2.0709	2.56697	2.13823	2.65252				
0.401236	6.20319	2.04761	2.53517	0.405673	6.77661	2.09452	2.59232	2.14686	2.65602					2.04586	2.53504	2.07552	2.56536	2.14402	2.65211				
0.401705	6.2615	2.05383	2.53562	0.407906	7.08707	2.10065	2.5925	2.15268	2.65563					2.05208	2.53549	2.08014	2.56377	2.14983	2.65172				
0.402447	6.35468	2.06005	2.53607	0.410197	7.42452	2.10677	2.59267	2.15848	2.65523					2.0583	2.53595	2.08478	2.56219	2.15565	2.65135				
0.403471	6.48563	2.06626	2.53652	0.412538	7.79232	2.11288	2.59283	2.16426	2.6548					2.06451	2.53639	2.08942	2.56063	2.16148	2.651				
0.404793	6.65858	2.07248	2.53696	0.414611	8.14067	2.11899	2.59299	2.17002	2.65436					2.07073	2.53684	2.09407	2.5591	2.16732	2.65066				
0.406426	6.87941	2.07869	2.5374	0.416399	8.4605	2.1251	2.59314	2.17576	2.65389					2.07694	2.53728	2.09874	2.55759	2.17317	2.65034				
0.408386	7.15615	2.08491	2.53784	0.417887	8.74253	2.1312	2.59328	2.18148	2.6534					2.08316	2.53772	2.10341	2.5561	2.17903	2.65003				
0.410689	7.49973	2.09111	2.53827	0.419069	8.97775	2.13729	2.59341	2.18717	2.65288					2.08937	2.53815	2.10811	2.55464	2.1849	2.64973				
0.413039	7.87445	2.09732	2.53868	0.41994	9.15809	2.14337	2.59353	2.19284	2.65233					2.09557	2.53857	2.11282	2.55321	2.19077	2.64944				
0.415428	8.28443	2.10351	2.53909	0.420743	9.32985	2.14945	2.59364	2.19848	2.65175					2.10177	2.53898	2.11755	2.55181	2.19665	2.64916				
0.417846	8.73456	2.1097	2.53948	0.421301	9.45278	2.15552	2.59374	2.20409	2.65113					2.10796	2.53938	2.1223	2.55045	2.20254	2.64889				
0.420283	9.23072	2.11586	2.53985	0.422174	9.65081	2.16158	2.59383							2.11413	2.53975	2.1271	2.54914						
0.422727	9.78003	2.122	2.54019	0.423361	9.93242	2.16763	2.59391							2.12028	2.5401	2.13194	2.5479						
0.425167	10.3912	2.12809	2.54046	0.42486	10.3104	2.17367	2.59398							2.12638	2.54039	2.13686	2.54676						
0.427591	11.075	2.1341	2.54064	0.426665	10.8036	2.1797	2.59403							2.13242	2.5406	2.14191	2.54578						
0.429986	11.8449	2.13997	2.54064	0.428765	11.4392	2.18572	2.59407							2.13833	2.54066	2.14717	2.54505						
0.432339	12.7181	2.1456	2.54037	0.431141	12.2572	2.19172	2.59409							2.14404	2.54048	2.15271	2.54466						
0.434635	13.7167	2.15097	2.53978	0.433468	13.1885	2.19771	2.59409							2.14948	2.53998	2.15851	2.54457						
0.436862	14.8698	2.15612	2.53895	0.435732	14.2583	2.20368	2.59408							2.15468	2.5392	2.16448	2.54469						
0.439003	16.2163	2.16114	2.53797	0.437919	15.5002									2.15973	2.53825	2.17056	2.54493						
0.441043	17.8097	2.1661	2.53692	0.440013	16.9594									2.16471	2.53722	2.17669	2.54523						
0.442968	19.7253	2.17103	2.53583	0.441999	18.6989									2.16964	2.53614	2.18285	2.54557						
0.444762	22.0731	2.17594	2.53474	0.443861	20.809									2.17456	2.53505	2.18904	2.54593						
0.44641	25.02	2.18085	2.53365	0.445586	23.4237									2.17947	2.53396	2.19524	2.54631						
0.447897	28.832	2.18576	2.53257	0.447157	26.7511									2.18438	2.53287	2.20145	2.5467						
0.449209	33.9607	2.19068	2.5315	0.44856	31.1326									2.1893	2.5318								
0.450333	41.2396	2.19561	2.53045	0.449782	37.1701									2.19422	2.53075								
0.451259	52.3957	2.20055	2.52942	0.450811	46.0327									2.19916	2.52971								
0.451975	71.6838			0.451635	60.3317									2.20411	2.52869								
0.452475	113.183			0.452247	87.3322																		
0.452753	267.848			0.452639	157.655																		
				0.452807	803.307																		
