Sym0		Asym0		Sym1		Sym2		Sym3		Sym4		Sym5		Asym1		Asym2		Asym3		Asym4		Asym5	
385  Points		381  Points		385  Points		374  Points		366  Points		329  Points		120  Points		381  Points		375  Points		365  Points		173  Points		120  Points	
Freq (MHz)	Vph (m/ms)	Freq (MHz)	Vph (m/ms)	Freq (MHz)	Vph (m/ms)	Freq (MHz)	Vph (m/ms)	Freq (MHz)	Vph (m/ms)	Freq (MHz)	Vph (m/ms)	Freq (MHz)	Vph (m/ms)	Freq (MHz)	Vph (m/ms)	Freq (MHz)	Vph (m/ms)	Freq (MHz)	Vph (m/ms)	Freq (MHz)	Vph (m/ms)	Freq (MHz)	Vph (m/ms)
2.20267	2.51909	0.346266	182.404	2.20223	2.5191	0.692221	2482.74	1.38441	2107.4	1.45819	5822.89	2.07663	1240.43	0.346159	323.846	2.20156	2.58146	1.03835	1877.84	1.73054	2347.07	1.94425	6050.14
2.19696	2.51921	0.346877	82.477	2.19652	2.51922	0.692457	267.75	1.38392	466.859	1.45861	570.257	2.0765	521.535	0.346604	102.658	2.19679	2.58285	1.03897	363.233	1.73038	568.322	1.94441	739.67
2.19127	2.51935	0.347945	53.422	2.19083	2.51936	0.69307	141.628	1.38283	262.311	1.45972	300.032	2.07626	330.146	0.347509	61.1414	2.19202	2.58425	1.04039	201.323	1.73002	323.242	1.94482	393.996
2.18559	2.5195	0.349462	39.6191	2.18515	2.51951	0.694054	96.383	1.38119	182.237	1.46145	203.755	2.07591	241.489	0.348865	43.6568	2.18724	2.58566	1.04252	139.465	1.72948	225.796	1.94548	268.581
2.17992	2.51966	0.351416	31.5796	2.17948	2.51968	0.6954	73.1353	1.37909	139.492	1.46375	154.403	2.07546	190.345	0.350664	34.0501	2.18246	2.58706	1.04526	106.849	1.72875	173.45	1.94638	203.79
2.17426	2.51985	0.353794	26.3331	2.17382	2.51986	0.697096	58.997	1.37659	112.892	1.46651	124.414	2.07491	157.058	0.352891	27.9942	2.17767	2.58846	1.0485	86.7249	1.72785	140.769	1.94752	164.233
2.16862	2.52004	0.356579	22.6504	2.16818	2.52006	0.699128	49.5021	1.37378	94.735	1.46969	104.271	2.07426	133.664	0.355532	23.84	2.17287	2.58986	1.05215	73.0795	1.72677	118.42	1.9489	137.578
2.16299	2.52026	0.359754	19.9308	2.16255	2.52028	0.701479	42.6935	1.37072	81.5481	1.47319	89.8167	2.07351	116.32	0.358569	20.822	2.16806	2.59126	1.05613	63.2234	1.72552	102.168	1.95049	118.404
2.15737	2.52049	0.363298	17.8459	2.15694	2.52051	0.704131	37.5778	1.36746	71.5346	1.47697	78.942	2.07267	102.947	0.361983	18.5366	2.16324	2.59264	1.06038	55.7737	1.72412	89.8146	1.9523	103.953
2.15177	2.52074	0.367192	16.2009	2.15133	2.52076	0.707066	33.5972	1.36406	63.6712	1.48098	70.466	2.07173	92.3203	0.365753	16.7504	2.15841	2.59402	1.06484	49.9465	1.72258	80.1057	1.95431	92.6744
2.14618	2.52101	0.371414	14.873	2.14575	2.52103	0.710265	30.4146	1.36055	57.3324	1.48518	63.6751	2.07071	83.6715	0.36986	15.3196	2.15355	2.59539	1.06947	45.2649	1.72091	72.2727	1.95651	83.6285
2.14061	2.5213	0.375942	13.781	2.14017	2.52132	0.713708	27.8139	1.35696	52.1141	1.48954	58.1129	2.0696	76.4948	0.37428	14.1503	2.14868	2.59674	1.07425	41.4219	1.71911	65.8191	1.9589	76.2138
2.13505	2.5216	0.380755	12.8689	2.13462	2.52163	0.717377	25.6503	1.35332	47.7435	1.49402	53.4742	2.06842	70.4434	0.378993	13.1789	2.14379	2.59807	1.07914	38.211	1.71719	60.4092	1.96146	70.0269
2.1295	2.52193	0.385832	12.0971	2.12907	2.52195	0.721254	23.8234	1.34965	44.0299	1.49862	49.5467	2.06716	65.2713	0.383978	12.3604	2.13888	2.59939	1.08414	35.4884	1.71518	55.8083	1.96418	64.7871
2.12397	2.52227	0.391152	11.4366	2.12354	2.5223	0.72532	22.2611	1.34597	40.8359	1.50331	46.1789	2.06583	60.7997	0.389213	11.6627	2.13394	2.60068	1.08921	33.1507	1.71308	51.8473	1.96705	60.293
2.11846	2.52263	0.396695	10.8656	2.11803	2.52266	0.729558	20.9104	1.34229	38.0598	1.50807	43.2591	2.06444	56.895	0.393963	11.1342	2.12898	2.60195	1.09436	31.1217	1.71089	48.4011	1.97006	56.3966
2.11296	2.52302	0.402442	10.3678	2.11253	2.52305	0.733954	19.7315	1.33862	35.6251	1.5129	40.7036	2.06299	53.4557	0.398141	10.7324	2.12399	2.60319	1.09956	29.3441	1.70864	45.3754	1.9732	52.9866
2.10747	2.52342	0.408373	9.93027	2.10705	2.52345	0.73849	18.6938	1.33498	33.4727	1.51778	38.4481	2.06148	50.4031	0.401679	10.4293	2.11897	2.60441	1.10481	27.774	1.70633	42.6977	1.97646	49.9774
2.102	2.52384	0.41447	9.54309	2.10158	2.52388	0.743154	17.7737	1.33137	31.5566	1.52271	36.4429	2.05992	47.6754	0.404526	10.2062	2.11392	2.60559	1.1101	26.3769	1.70397	40.3111	1.97983	47.3027
2.09655	2.52429	0.420716	9.19822	2.09613	2.52432	0.74793	16.9524	1.32781	29.8401	1.52768	34.6484	2.05832	45.2233	0.406647	10.0507	2.10884	2.60674	1.11542	25.1258	1.70157	38.1707	1.9833	44.9097
2.09111	2.52476	0.427093	8.88921	2.09069	2.52479	0.752807	16.215	1.3243	28.294	1.53268	33.033	2.05668	43.007	0.408016	9.95479	2.10372	2.60785	1.12077	23.9988	1.69914	36.2404	1.98686	42.7564
2.08569	2.52524	0.433585	8.6108	2.08527	2.52528	0.757772	15.5491	1.32084	26.8944	1.5377	31.5712	2.05501	40.9941	0.409998	9.8215	2.09857	2.60893	1.12613	22.9784	1.69668	34.4906	1.9905	40.8084
2.08028	2.52575	0.440177	8.35867	2.07986	2.5258	0.762813	14.9449	1.31745	25.6216	1.54274	30.242	2.05331	39.1578	0.412173	9.68246	2.09338	2.60997	1.13151	22.05	1.69422	32.8974	1.99421	39.0379
2.07489	2.52629	0.446851	8.12923	2.07448	2.52633	0.767919	14.3943	1.31413	24.4594	1.54779	29.0281	2.05159	37.4759	0.415162	9.5025	2.08816	2.61097	1.13689	21.2016	1.69175	31.4408	1.99799	37.4216
2.06952	2.52684	0.453593	7.91946	2.0691	2.52689	0.77308	13.8903	1.31089	23.3944	1.55285	27.915	2.04985	35.9298	0.418992	9.28882	2.08291	2.61193	1.14228	20.4233	1.68928	30.104	2.00183	35.9403
2.06416	2.52742	0.460389	7.72683	2.06375	2.52747	0.778286	13.4271	1.30773	22.4149	1.55792	26.8906	2.04811	34.5037	0.423692	9.04914	2.07761	2.61285	1.14767	19.7066	1.68682	28.873	2.00572	34.5776
2.05882	2.52802	0.467223	7.54918	2.05841	2.52807	0.783526	13	1.30466	21.5115	1.56298	25.9447	2.04635	33.1843	0.429292	8.7912	2.07228	2.61374	1.15305	19.0445	1.68438	27.7358	2.00965	33.32
2.05349	2.52865	0.474081	7.38467	2.05308	2.5287	0.788792	12.6048	1.30168	20.6758	1.56804	25.0685	2.0446	31.96	0.43582	8.52219	2.06692	2.61458	1.15842	18.4308	1.68197	26.6822	2.01362	32.1556
2.04818	2.5293	0.480949	7.23172	2.04777	2.52935	0.794074	12.238	1.2988	19.9007	1.57309	24.2545	2.04286	30.8211	0.442441	8.27816	2.06152	2.61538	1.16378	17.8603	1.67959	25.7036	2.01761	31.0744
2.04289	2.52997	0.487811	7.08895	2.04248	2.53002	0.799363	11.8965	1.29602	19.18	1.57813	23.4963	2.04113	29.759	0.44914	8.05572	2.05609	2.61615	1.16911	17.3285	1.67724	24.7923	2.02163	30.0678
2.03761	2.53066	0.494653	6.95517	2.0372	2.53072	0.804651	11.5776	1.29336	18.5086	1.58314	22.7881	2.03941	28.7662	0.455902	7.85205	2.05062	2.61688	1.17442	16.8316	1.67494	23.9417	2.02567	29.1281
2.03235	2.53138	0.501462	6.82933	2.03194	2.53144	0.80993	11.2791	1.29081	17.8816	1.58814	22.1252	2.03772	27.8364	0.462713	7.66475	2.04512	2.61757	1.17971	16.3661	1.6727	23.1462	2.02971	28.249
2.0271	2.53213	0.508221	6.71052	2.0267	2.53218	0.814515	11.034	1.28838	17.2952	1.59311	21.5032	2.03606	26.9638	0.469557	7.49177	2.03959	2.61822	1.18496	15.9291	1.67051	22.4007	2.03376	27.4246
2.02188	2.53289	0.514917	6.59791	2.02147	2.53295	0.818408	10.8351	1.28608	16.7456	1.59805	20.9184	2.03443	26.1434	0.47642	7.33136	2.03404	2.61885	1.19017	15.5179	1.66838	21.7007	2.0378	26.6499
2.01666	2.53369	0.521534	6.49079	2.01626	2.53375	0.821615	10.6772	1.28391	16.2297	1.60296	20.3675	2.03285	25.3707	0.483287	7.18203	2.02845	2.61944	1.19535	15.1301	1.66633	21.0425	2.04183	25.9205
2.01146	2.5345	0.528058	6.38853	2.01106	2.53457	0.824141	10.5563	1.28188	15.7448	1.60783	19.8475	2.03131	24.6419	0.490144	7.04244	2.02284	2.61999	1.20047	14.7638	1.66435	20.4225	2.04585	25.2325
2.00628	2.53534	0.534473	6.29054	2.00588	2.53541	0.825992	10.4695	1.27999	15.2884	1.61266	19.3557	2.02982	23.9534	0.496976	6.91148	2.0172	2.62052	1.20555	14.4171	1.66246	19.8375	2.04985	24.5822
2.00111	2.53621	0.540766	6.19632	2.00071	2.53627	0.827174	10.4149	1.27825	14.8581	1.61744	18.89	2.02839	23.3021	0.50377	6.78813	2.01154	2.62102	1.21057	14.0884	1.66065	19.285	2.05382	23.9666
1.99596	2.5371	0.54692	6.10542	1.99556	2.53717	0.828869	10.3375	1.27667	14.4521	1.62217	18.4481	2.02703	22.6851	0.510509	6.67151	2.00585	2.6215	1.21553	13.7763	1.65894	18.7624	2.05776	23.383
1.99082	2.53801	0.552922	6.01743	1.99042	2.53808	0.830705	10.255	1.27525	14.0686	1.62685	18.0282	2.02573	22.0999	0.51718	6.56085	2.00014	2.62195	1.22043	13.4793	1.65733	18.2674	2.06165	22.8287
1.9857	2.53894	0.558759	5.93199	1.9853	2.53902	0.833192	10.1454	1.274	13.7059	1.63147	17.6287	2.02451	21.5443	0.523767	6.45545	1.99442	2.62237	1.22526	13.1963	1.65582	17.7982	2.06551	22.3016
1.98059	2.5399	0.564415	5.84877	1.98019	2.53998	0.836318	10.0107	1.27292	13.3625	1.63602	17.2478	2.02338	21.0161	0.530255	6.35471	1.98867	2.62277	1.23002	12.9264	1.65443	17.3528	2.06931	21.7995
1.97549	2.54088	0.56988	5.7675	1.97509	2.54096	0.840069	9.85339	1.27202	13.0373	1.64051	16.8844	2.02233	20.5136	0.536631	6.25806	1.98291	2.62315	1.2347	12.6684	1.65315	16.9297	2.07305	21.3207
1.9704	2.54189	0.575142	5.68792	1.97001	2.54197	0.844423	9.67625	1.2713	12.7289	1.64493	16.5372	2.02137	20.035	0.542878	6.16502	1.97712	2.62351	1.2393	12.4215	1.65199	16.5273	2.07673	20.8634
1.96533	2.54292	0.58019	5.60984	1.96494	2.543	0.849351	9.48201	1.27077	12.4363	1.64927	16.2049	2.02051	19.5787	0.548982	6.07515	1.97133	2.62385	1.24382	12.1849	1.65096	16.1443	2.08035	20.4262
1.96027	2.54396	0.585017	5.53306	1.95988	2.54404	0.8542	9.29667	1.27044	12.1585	1.65353	15.8866	2.01976	19.1434	0.554929	5.98807	1.96551	2.62418	1.24824	11.958	1.65007	15.7796	2.08388	20.0077
1.95522	2.54503	0.589615	5.45745	1.95483	2.54511	0.858961	9.11947	1.2703	11.8945	1.65771	15.5813	2.01911	18.7277	0.560706	5.90341	1.95969	2.62448	1.25257	11.7399	1.64931	15.4318	2.08734	19.6065
1.95018	2.54612	0.593979	5.38288	1.94979	2.5462	0.863627	8.94976	1.27037	11.6436	1.6618	15.2882	2.01858	18.3305	0.566298	5.82089	1.95385	2.62477	1.2568	11.5302	1.6487	15.1001	2.09072	19.2216
1.94515	2.54722	0.598106	5.30926	1.94476	2.54731	0.868191	8.78695	1.2706	11.435	1.6658	15.0064	2.01817	17.9506	0.571695	5.74022	1.948	2.62505	1.26041	11.3539	1.64824	14.7834	2.094	18.8519
1.94013	2.54834	0.601996	5.23653	1.93974	2.54843	0.872645	8.63048	1.27092	11.2641	1.6697	14.7353	2.01789	17.5871	0.576886	5.66118	1.94213	2.62531	1.26342	11.2079	1.64792	14.4809	2.09719	18.4964
1.93511	2.54948	0.605649	5.16465	1.93472	2.54957	0.876983	8.47987	1.27127	11.1274	1.6735	14.4741	2.01773	17.2391	0.581859	5.58355	1.93626	2.62556	1.26586	11.0902	1.64776	14.1918	2.10027	18.1541
1.93009	2.55063	0.60907	5.0936	1.92971	2.55072	0.881198	8.33467	1.27161	11.0223	1.6772	14.2223	2.01771	16.9056	0.586609	5.50719	1.93038	2.6258	1.26777	10.9989	1.64776	13.9152	2.10326	17.8244
1.92508	2.55178	0.612262	5.02336	1.92469	2.55187	0.885284	8.19448	1.27189	10.9465	1.6808	13.9793	2.01783	16.586	0.591127	5.43194	1.92448	2.62602	1.26915	10.9327	1.64793	13.6506	2.10613	17.5065
1.92007	2.55295	0.615233	4.95395	1.91968	2.55304	0.889236	8.05893	1.27209	10.8987	1.68428	13.7445	2.01808	16.2793	0.595411	5.35771	1.91858	2.62624	1.27003	10.8908	1.64826	13.3973	2.1089	17.1996
1.91506	2.55412	0.617992	4.8854	1.91467	2.55421	0.893047	7.9277	1.27238	10.8309	1.68766	13.5175	2.01849	15.9851	0.599457	5.2844	1.91267	2.62644	1.27128	10.8311	1.64876	13.1546	2.11154	16.9031
1.91004	2.55529	0.620548	4.81773	1.90965	2.55538	0.896713	7.80047	1.27274	10.7584	1.69092	13.2979	2.01904	15.7025	0.603266	5.21196	1.90675	2.62663	1.27263	10.767	1.64943	12.9221	2.11407	16.6164
1.90501	2.55645	0.622914	4.75099	1.90462	2.55654	0.900231	7.67697	1.27326	10.6619	1.69407	13.0852	2.01974	15.4311	0.60684	5.14036	1.90082	2.62682	1.27443	10.681	1.65027	12.6991	2.11649	16.339
1.89996	2.5576	0.6251	4.68521	1.89957	2.55769	0.903595	7.55697	1.27399	10.5429	1.6971	12.8791	2.0206	15.1702	0.610182	5.06959	1.89489	2.627	1.27668	10.5742	1.65128	12.4852	2.11878	16.0705
1.8949	2.55873	0.627119	4.62044	1.89451	2.55882	0.906805	7.44023	1.27499	10.4036	1.70002	12.6792	2.02161	14.9193	0.613298	4.99963	1.88895	2.62717	1.27934	10.4479	1.65247	12.2799	2.12095	15.8102
1.88982	2.55984	0.628985	4.55672	1.88942	2.55993	0.909856	7.32656	1.27631	10.2462	1.70282	12.4852	2.02278	14.678	0.616196	4.93051	1.88301	2.62733	1.28238	10.3036	1.65382	12.0828	2.123	15.5579
1.8847	2.56092	0.63071	4.49409	1.8843	2.561	0.912748	7.21578	1.27804	10.0735	1.7055	12.2969	2.0241	14.4457	0.618885	4.86226	1.87705	2.62749	1.28576	10.1427	1.65535	11.8935	2.12492	15.3131
1.87955	2.56195	0.632308	4.4326	1.87915	2.56202	0.915481	7.10773	1.27998	9.90858	1.70808	12.1139	2.02558	14.222	0.621375	4.7949	1.8711	2.62764	1.28902	9.98661	1.65682	11.7346	2.12673	15.0754
1.87435	2.56292	0.633791	4.37227	1.87395	2.563	0.918054	7.00226	1.28213	9.75108	1.71054	11.936	2.02721	14.0066	0.623678	4.72848	1.86514	2.62778	1.29216	9.83515	1.65818	11.6033	2.12842	14.8446
1.8691	2.56384	0.635173	4.31315	1.8687	2.56391	0.920467	6.89925	1.2845	9.60061	1.71259	11.785	2.029	13.7989	0.625806	4.66304	1.85917	2.62792	1.29519	9.68803	1.65937	11.4976	2.13	14.6203
1.8638	2.56468	0.636465	4.25525	1.86339	2.56474	0.922724	6.79858	1.28708	9.45676	1.71428	11.6591	2.03093	13.5987	0.627771	4.59862	1.8532	2.62805	1.2981	9.54507	1.66036	11.4158	2.13146	14.4023
1.85843	2.56544	0.637678	4.19859	1.85802	2.5655	0.924825	6.70016	1.28985	9.31918	1.71563	11.5569	2.03302	13.4056	0.629588	4.53527	1.84723	2.62818	1.3009	9.40606	1.6611	11.3566	2.13282	14.1902
1.853	2.56612	0.638826	4.1432	1.85258	2.56617	0.926774	6.60388	1.29283	9.18752	1.71667	11.4772	2.03525	13.2191	0.631268	4.47302	1.84125	2.6283	1.30359	9.27083	1.66159	11.3191	2.13407	13.9839
1.8475	2.5667	0.639917	4.08909	1.84707	2.56674	0.928575	6.50969	1.296	9.06146	1.71742	11.4193	2.03762	13.0391	0.632825	4.41192	1.83527	2.62842	1.30617	9.13923	1.66231	11.2658	2.13522	13.783
1.84193	2.56719	0.640962	4.03625	1.84149	2.56722	0.930231	6.41749	1.29935	8.94067	1.7179	11.3826	2.04013	12.8652	0.634273	4.352	1.82929	2.62854	1.30865	9.01111	1.66312	11.2087	2.13629	13.5875
1.83629	2.56759	0.641842	3.99126	1.83585	2.56762	0.931748	6.32723	1.30289	8.82486	1.71857	11.3301	2.04277	12.6971	0.635622	4.29329	1.8233	2.62866	1.31104	8.88636	1.66424	11.1321	2.13726	13.3971
1.83059	2.5679	0.642575	3.95368	1.83014	2.56792	0.93313	6.23886	1.30659	8.71376	1.71929	11.2736	2.04554	12.5346	0.636886	4.23581	1.81731	2.62877	1.31334	8.76486	1.66571	11.0373	2.13816	13.2116
1.82483	2.56813	0.643172	3.92313	1.82438	2.56815	0.934383	6.15233	1.31045	8.60708	1.72025	11.1976	2.04844	12.3773	0.638076	4.17959	1.81132	2.62887	1.31556	8.6465	1.66757	10.9256	2.13898	13.0309
1.81902	2.56829	0.643638	3.89932	1.81856	2.5683	0.935514	6.06759	1.31447	8.50459	1.72143	11.1029	2.05145	12.2251	0.639203	4.12463	1.80533	2.62898	1.3177	8.53121	1.66985	10.7983	2.13973	12.8548
1.81315	2.56838	0.643979	3.88201	1.8127	2.56839	0.936527	5.9846	1.31863	8.40602	1.72282	10.9903	2.05416	12.0963	0.640277	4.07095	1.79933	2.62908	1.31978	8.4189	1.67261	10.6571	2.14042	12.6831
1.80725	2.56842	0.644197	3.87101	1.80679	2.56842	0.93743	5.90333	1.32293	8.31115	1.72439	10.861	2.05654	11.9893	0.641309	4.01855	1.79334	2.62919	1.3218	8.3095	1.6755	10.5208	2.14107	12.5158
1.80131	2.56839	0.644509	3.85532	1.80085	2.56839	0.938229	5.82374	1.32735	8.21977	1.72612	10.7162	2.05855	11.9027	0.642307	3.96744	1.78734	2.62929	1.32378	8.20295	1.67853	10.3893	2.14166	12.3527
1.79534	2.56833	0.644847	3.83842	1.79487	2.56832	0.93893	5.74579	1.33188	8.13166	1.72778	10.575	2.06016	11.8353	0.64328	3.91762	1.78134	2.62939	1.32573	8.09922	1.68168	10.2623	2.14215	12.2139
1.78933	2.56822	0.645305	3.8157	1.78887	2.56821	0.93954	5.66947	1.33652	8.04663	1.72938	10.4374	2.06137	11.7864	0.644235	3.86907	1.77534	2.62949	1.32765	7.99824	1.68496	10.1395	2.14255	12.0979
1.78331	2.56807	0.645884	3.78738	1.78284	2.56806	0.940066	5.59475	1.34125	7.96448	1.73092	10.3032	2.06214	11.7554	0.645182	3.82179	1.76934	2.62959	1.32958	7.9	1.68834	10.0207	2.14287	12.0036
1.77726	2.5679	0.646586	3.75377	1.77679	2.56788	0.940514	5.52159	1.34607	7.88504	1.73242	10.1724	2.06326	11.7112	0.646125	3.77577	1.76334	2.62969	1.3315	7.80446	1.69184	9.9058	2.14311	11.9301
1.77119	2.56769	0.647414	3.7152	1.77072	2.56768	0.94089	5.44997	1.35096	7.80813	1.73388	10.0449	2.06449	11.6636	0.647072	3.731	1.75734	2.62979	1.33346	7.71161	1.69543	9.7945	2.14329	11.8766
1.76511	2.56746	0.648375	3.6721	1.76464	2.56744	0.9412	5.37987	1.35591	7.73361	1.73532	9.92061	2.06618	11.5997	0.648028	3.68745	1.75134	2.62989	1.33545	7.62142	1.69911	9.68665	2.1434	11.8426
1.75901	2.56721	0.649353	3.6302	1.75854	2.56719	0.941452	5.31125	1.36091	7.6613	1.73673	9.79943	2.06835	11.5202	0.649	3.64512	1.74534	2.62999	1.33749	7.53389	1.70287	9.58205	2.14357	11.7941
1.7529	2.56694	0.650353	3.58948	1.75243	2.56692	0.94165	5.24411	1.36595	7.59108	1.73814	9.68132	2.07101	11.4259	0.649991	3.60398	1.73934	2.63009	1.33961	7.44902	1.70671	9.48056	2.14374	11.7418
1.74678	2.56665	0.651378	3.54993	1.74631	2.56662	0.941801	5.17841	1.37102	7.52279	1.73954	9.5662	2.07418	11.3179	0.651007	3.56402	1.73334	2.6302	1.34183	7.36682	1.71061	9.38199	2.14398	11.6715
1.74065	2.56634	0.652434	3.51153	1.74018	2.56632	0.94191	5.11412	1.37611	7.45631	1.74096	9.45402	2.07788	11.1971	0.652051	3.5252	1.72734	2.63031	1.34415	7.28727	1.71458	9.28622	2.14427	11.5837
1.73451	2.56602	0.653523	3.47425	1.73404	2.56599	0.941982	5.05123	1.38121	7.39151	1.74239	9.34473	2.08164	11.0796	0.653128	3.48752	1.72134	2.63042	1.34661	7.21041	1.71859	9.19307	2.14463	11.4794
1.72837	2.56569	0.65465	3.43806	1.72789	2.56566	0.942023	4.98971	1.3863	7.32828	1.74386	9.23826	2.08545	10.9652	0.654241	3.45094	1.71535	2.63053	1.34923	7.13623	1.72265	9.10243	2.14506	11.3594
1.72222	2.56534	0.655817	3.40295	1.72174	2.56531	0.942037	4.92954	1.39138	7.2665	1.74536	9.13457	2.08932	10.8538	0.655392	3.41545	1.70936	2.63065	1.35201	7.06475	1.72674	9.01415	2.14556	11.2249
1.71606	2.56498	0.657026	3.36889	1.71558	2.56495	0.942029	4.87069	1.39644	7.20607	1.74692	9.03362	2.09322	10.7453	0.656586	3.38102	1.70336	2.63077	1.35499	6.99598	1.73086	8.92812	2.14609	11.0937
1.70989	2.56461	0.658282	3.33586	1.70941	2.56458	0.942004	4.81314	1.40146	7.14688	1.74853	8.93535	2.09715	10.6395	0.657825	3.34762	1.69738	2.6309	1.35819	6.92993	1.735	8.84421	2.14664	10.9658
1.70372	2.56423	0.659585	3.30384	1.70324	2.5642	0.941966	4.75686	1.40643	7.08885	1.75021	8.83972	2.10111	10.5362	0.659111	3.31524	1.69139	2.63103	1.36163	6.86661	1.73915	8.76231	2.14723	10.841
1.69755	2.56384	0.660938	3.27279	1.69707	2.56381	0.941919	4.70184	1.41135	7.03187	1.75198	8.7467	2.1051	10.4355	0.660446	3.28384	1.68541	2.63117	1.36531	6.80601	1.74331	8.68232	2.14785	10.7193
1.69137	2.56344	0.662343	3.2427	1.69089	2.56341	0.941867	4.64804	1.41621	6.97586	1.75383	8.65623	2.10909	10.337	0.661832	3.25341	1.67943	2.63131	1.36927	6.74813	1.74746	8.60413	2.14853	10.6006
1.68519	2.56304	0.663802	3.21354	1.68471	2.563	0.941813	4.59545	1.42099	6.92075	1.75578	8.56828	2.1131	10.2409	0.663271	3.22391	1.67345	2.63146	1.37352	6.69296	1.75161	8.52765	2.14927	10.4849
1.679	2.56262	0.665316	3.18528	1.67852	2.56259	0.941762	4.54404	1.42568	6.86645	1.75784	8.48281	2.11711	10.1468	0.664765	3.19534	1.66748	2.63162	1.37807	6.64045	1.75573	8.45278	2.15007	10.372
1.67281	2.5622	0.666885	3.15791	1.67233	2.56217	0.941716	4.49378	1.43029	6.8129	1.76002	8.39978	2.12111	10.0548	0.666315	3.16765	1.66152	2.63179	1.38292	6.59057	1.75984	8.37945	2.15093	10.262
1.66662	2.56177	0.668513	3.13141	1.66614	2.56174	0.941678	4.44467	1.43478	6.76004	1.76232	8.31915	2.1251	9.96474	0.667921	3.14084	1.65556	2.63197	1.3881	6.54326	1.76391	8.30757	2.15187	10.1547
1.66043	2.56134	0.670199	3.10574	1.65995	2.5613	0.941652	4.39666	1.43917	6.70779	1.76475	8.24087	2.12908	9.87654	0.669586	3.11487	1.6496	2.63216	1.39359	6.49846	1.76794	8.23706	2.1529	10.0501
1.65423	2.56089	0.671944	3.08088	1.65375	2.56086	0.94164	4.34974	1.44344	6.65611	1.76732	8.16491	2.13304	9.79012	0.67131	3.08972	1.64366	2.63236	1.39939	6.45609	1.77194	8.16785	2.15401	9.9481
1.64804	2.56045	0.673749	3.05682	1.64755	2.56041	0.941645	4.30389	1.44759	6.60494	1.77004	8.09123	2.13698	9.70539	0.673093	3.06538	1.63771	2.63258	1.40552	6.41604	1.77588	8.09987	2.15521	9.8487
1.64184	2.55999	0.675616	3.03353	1.64135	2.55996	0.94167	4.25909	1.4516	6.55425	1.77292	8.01977	2.14088	9.62228	0.674938	3.04181	1.63178	2.6328	1.41195	6.37821	1.77977	8.03307	2.15651	9.75181
1.63563	2.55953	0.677543	3.01099	1.63515	2.55949	0.941717	4.21531	1.45547	6.50398	1.77595	7.95049	2.14475	9.54072	0.676843	3.01901	1.62586	2.63305	1.41868	6.3425	1.7836	7.96738	2.15791	9.65739
1.62943	2.55906	0.679532	2.98918	1.62895	2.55903	0.941787	4.17253	1.45921	6.45411	1.77914	7.88336	2.14858	9.46065	0.67881	2.99694	1.61994	2.63331	1.42569	6.30879	1.78736	7.90275	2.15942	9.56538
1.62323	2.55859	0.681584	2.96807	1.62275	2.55856	0.941884	4.13073	1.46279	6.4046	1.7825	7.81831	2.15236	9.382	0.680839	2.97558	1.61404	2.63359	1.43298	6.27695	1.79106	7.83912	2.16104	9.47571
1.61702	2.55812	0.683697	2.94766	1.61654	2.55808	0.942009	4.08989	1.46622	6.35542	1.78603	7.7553	2.1561	9.30471	0.68293	2.95492	1.60815	2.63389	1.44053	6.24687	1.79469	7.77645	2.16278	9.38834
1.61082	2.55763	0.685873	2.92792	1.61034	2.5576	0.942164	4.04999	1.4695	6.30656	1.78973	7.69427	2.15979	9.22873	0.685084	2.93494	1.60227	2.63422	1.44832	6.21842	1.79824	7.71471	2.16464	9.30321
1.60461	2.55715	0.688112	2.90882	1.60413	2.55711	0.942351	4.01101	1.47263	6.25799	1.7936	7.63518	2.16342	9.154	0.6873	2.91561	1.5964	2.63457	1.45633	6.19149	1.80171	7.65384	2.16661	9.22028
1.5984	2.55666	0.690413	2.89036	1.59792	2.55662	0.942572	3.97293	1.47559	6.20971	1.79764	7.57796	2.167	9.08048	0.689579	2.89692	1.59055	2.63494	1.46455	6.16596	1.8051	7.59381	2.16871	9.13948
1.59219	2.55616	0.692777	2.87251	1.59171	2.55612	0.942828	3.93573	1.4784	6.16171	1.80186	7.52255	2.17052	9.00812	0.69192	2.87885	1.58471	2.63535	1.47297	6.14172	1.80841	7.5346	2.17094	9.06076
1.58598	2.55566	0.695204	2.85525	1.5855	2.55562	0.94312	3.8994	1.48106	6.11398	1.80624	7.4689	2.17397	8.93688	0.694324	2.86139	1.5789	2.63579	1.48155	6.11866	1.81164	7.47618	2.1733	8.98408
1.57978	2.55515	0.697692	2.83857	1.57929	2.55511	0.94345	3.8639	1.48356	6.06651	1.81079	7.41695	2.17737	8.86673	0.696791	2.8445	1.5731	2.63626	1.4903	6.09668	1.81478	7.41852	2.17578	8.90937
1.57357	2.55464	0.700243	2.82245	1.57308	2.5546	0.94382	3.82923	1.4859	6.01931	1.8155	7.36662	2.1807	8.79763	0.699319	2.82818	1.56732	2.63678	1.49919	6.0757	1.81785	7.3616	2.1784	8.83658
1.56736	2.55413	0.702856	2.80688	1.56687	2.55409	0.94423	3.79536	1.4881	5.97239	1.82037	7.31787	2.18396	8.72954	0.70191	2.81242	1.56157	2.63733	1.50821	6.05561	1.82083	7.30542	2.18114	8.76567
1.56115	2.55361	0.70553	2.79183	1.56066	2.55357	0.944682	3.76228	1.49015	5.92575	1.82539	7.27062	2.18716	8.66243	0.704562	2.79718	1.55584	2.63794	1.51734	6.03634	1.82373	7.24995	2.18402	8.69657
1.55494	2.55309	0.708266	2.7773	1.55445	2.55305	0.945176	3.72998	1.49206	5.87939	1.83056	7.22482	2.1903	8.59629	0.707276	2.78247	1.55013	2.63859	1.52656	6.0178	1.82656	7.19519	2.18702	8.62924
1.54873	2.55256	0.711063	2.76326	1.54824	2.55252	0.945714	3.69842	1.49383	5.83333	1.83588	7.18039	2.19337	8.53109	0.71005	2.76825	1.54446	2.63931	1.53587	5.99993	1.82931	7.14113	2.19014	8.56361
1.54252	2.55203	0.71392	2.74971	1.54203	2.55199	0.946298	3.66761	1.49547	5.78757	1.84132	7.13727	2.19638	8.46681	0.712886	2.75453	1.53882	2.64008	1.54525	5.98264	1.832	7.08778	2.1934	8.49964
1.53631	2.5515	0.716838	2.73663	1.53583	2.55146	0.946926	3.63751	1.49698	5.74213	1.84689	7.0954	2.19933	8.40343	0.715782	2.74128	1.53322	2.64092	1.55469	5.96587	1.83463	7.03514	2.19677	8.43727
1.5301	2.55097	0.719816	2.724	1.52962	2.55092	0.947601	3.60813	1.49836	5.69702	1.85258	7.05472	2.20222	8.34094	0.718738	2.72849	1.52765	2.64183	1.56416	5.94956	1.8372	6.98321	2.20026	8.37645
1.52389	2.55043	0.722853	2.71182	1.52341	2.55038	0.948323	3.57943	1.49963	5.65225	1.85838	7.01516			0.721754	2.71615	1.52213	2.64283	1.57367	5.93364	1.83972	6.932		
1.51768	2.54988	0.72595	2.70006	1.5172	2.54984	0.949094	3.55141	1.50078	5.60783	1.86427	6.97665			0.72483	2.70424	1.51665	2.6439	1.58319	5.91805	1.84221	6.88153		
1.51148	2.54934	0.729106	2.68873	1.51099	2.5493	0.949913	3.52404	1.50183	5.56378	1.87026	6.93915			0.727964	2.69275	1.51122	2.64507	1.59271	5.90273	1.84466	6.83183		
1.50527	2.54879	0.732321	2.6778	1.50479	2.54875	0.950781	3.49733	1.50278	5.5201	1.87634	6.90259			0.731158	2.68168	1.50584	2.64634	1.60222	5.88762	1.8471	6.7829		
1.49906	2.54824	0.735594	2.66726	1.49858	2.5482	0.951698	3.47124	1.50363	5.47681	1.88248	6.8669			0.734411	2.671	1.50051	2.64772	1.61169	5.87265	1.84954	6.73478		
1.49286	2.54769	0.738927	2.65712	1.49238	2.54765	0.952667	3.44577	1.50439	5.43392	1.88869	6.83204			0.737722	2.66072	1.49524	2.6492	1.62113	5.85776	1.85199	6.6875		
1.48666	2.54713	0.742319	2.64735	1.48618	2.54709	0.953686	3.42091	1.50507	5.39143	1.89495	6.79794			0.741093	2.65082	1.49003	2.65081	1.63049	5.8429	1.85446	6.6411		
1.48046	2.54658	0.745771	2.63795	1.47998	2.54654	0.954757	3.39664	1.50567	5.34937	1.90125	6.76455			0.744523	2.64129	1.48488	2.65254	1.63978	5.82798	1.85698	6.59561		
1.47426	2.54602	0.749285	2.62892	1.47378	2.54598	0.955879	3.37294	1.5062	5.30772	1.90758	6.73181			0.748014	2.63213	1.4798	2.6544	1.64896	5.81295	1.85956	6.55109		
1.46806	2.54546	0.752861	2.62026	1.46758	2.54542	0.957054	3.34981	1.50665	5.26651	1.91393	6.69968			0.751568	2.62333	1.47479	2.6564	1.65802	5.79772	1.86222	6.50759		
1.46187	2.5449	0.756505	2.61197	1.46139	2.54486	0.958281	3.32724	1.50705	5.22574	1.92029	6.66809			0.755187	2.6149	1.46984	2.65854	1.66693	5.78223	1.865	6.46516		
1.45568	2.54434	0.760221	2.60405	1.4552	2.5443	0.959561	3.3052	1.50738	5.18542	1.92666	6.637			0.758876	2.60685	1.46497	2.66083	1.67567	5.7664	1.86791	6.42387		
1.44949	2.54378	0.764019	2.59654	1.44901	2.54374	0.960895	3.2837	1.50766	5.14554	1.933	6.60636			0.762643	2.59919	1.46016	2.66327	1.68421	5.75013	1.87099	6.38378		
1.4433	2.54322	0.767915	2.58947	1.44282	2.54318	0.962282	3.26271	1.5079	5.10612	1.93933	6.57612			0.766502	2.59196	1.45543	2.66586	1.69253	5.73335	1.87425	6.34497		
1.43711	2.54266	0.771938	2.58294	1.43663	2.54262	0.963723	3.24223	1.50808	5.06716	1.94562	6.54623			0.770475	2.58522	1.45077	2.6686	1.70058	5.71596	1.87774	6.30752		
1.43093	2.5421	0.776139	2.5771	1.43045	2.54206	0.965219	3.22225	1.50823	5.02867	1.95186	6.51664			0.774604	2.57911	1.44618	2.67149	1.70835	5.69789	1.88148	6.27148		
1.42475	2.54155	0.780602	2.57221	1.42427	2.5415	0.966768	3.20275	1.50834	4.99063	1.95804	6.48731			0.778961	2.57384	1.44166	2.67454	1.71581	5.67904	1.88551	6.23694		
1.41858	2.54099	0.785429	2.56859	1.4181	2.54095	0.968373	3.18373	1.50841	4.95306	1.96416	6.45819			0.783646	2.56973	1.4372	2.67774	1.72292	5.65935	1.88986	6.20395		
1.41241	2.54044	0.790673	2.56637	1.41193	2.5404	0.970032	3.16517	1.50845	4.91596	1.97019	6.42924			0.788742	2.56701	1.43282	2.6811	1.72965	5.63875	1.89454	6.17257		
1.40624	2.53989	0.796273	2.56533	1.40577	2.53985	0.971746	3.14707	1.50847	4.87933	1.97612	6.40042			0.794226	2.5656	1.4285	2.68461	1.736	5.61717	1.89959	6.14284		
1.40008	2.53934	0.80211	2.56507	1.3996	2.5393	0.973516	3.12942	1.50846	4.84316	1.98195	6.37169			0.799991	2.5651	1.42425	2.68827	1.74193	5.5946	1.90502	6.11479		
1.39393	2.5388	0.808089	2.56526	1.39345	2.53876	0.975341	3.1122	1.50844	4.80746	1.98767	6.343			0.805927	2.56516	1.42006	2.69209	1.74744	5.57102	1.91085	6.08841		
1.38778	2.53827	0.814151	2.56572	1.3873	2.53823	0.977222	3.09541	1.50839	4.77222	1.99325	6.31433			0.811965	2.56553	1.41593	2.69605	1.75253	5.54643	1.91708	6.06368		
1.38163	2.53774	0.820265	2.56632	1.38116	2.5377	0.979159	3.07905	1.50833	4.73745	1.9987	6.28564			0.818063	2.56609	1.41186	2.70016	1.75719	5.52087	1.92371	6.04056		
1.37549	2.53722	0.826411	2.56702	1.37502	2.53718	0.981152	3.06309	1.50826	4.70314	2.004	6.2569			0.824199	2.56676	1.40784	2.70442	1.76144	5.49438	1.93073	6.01899		
1.36936	2.53671	0.832577	2.56777	1.36889	2.53667	0.983201	3.04753	1.50818	4.66928	2.00914	6.22807			0.830359	2.56749	1.40389	2.70883	1.76528	5.46704	1.93813	5.9989		
1.36324	2.53621	0.838758	2.56855	1.36277	2.53617	0.985307	3.03237	1.50809	4.63589	2.01411	6.19914			0.836535	2.56827	1.39998	2.71338	1.76875	5.43891	1.94588	5.9802		
1.35713	2.53572	0.844948	2.56935	1.35665	2.53568	0.987471	3.0176	1.50799	4.60295	2.0189	6.17008			0.842722	2.56906	1.39614	2.71808	1.77186	5.41008	1.95398	5.96279		
1.35102	2.53524	0.851144	2.57016	1.35055	2.53521	0.989691	3.00321	1.5079	4.57046	2.02352	6.14088			0.848916	2.56987	1.39234	2.72292	1.77464	5.38065	1.96238	5.94656		
1.34493	2.53478	0.857345	2.57097	1.34446	2.53475	0.991968	2.98919	1.5078	4.53842	2.02794	6.11151			0.855116	2.57068	1.38859	2.7279	1.77711	5.3507	1.97107	5.93143		
1.33884	2.53434	0.863549	2.57178	1.33837	2.5343	0.994304	2.97554	1.5077	4.50682	2.03217	6.08197			0.861319	2.57149	1.3849	2.73303	1.77929	5.32033	1.98003	5.91728		
1.33277	2.53391	0.869756	2.57259	1.3323	2.53388	0.996698	2.96225	1.5076	4.47566	2.03621	6.05225			0.867524	2.5723	1.38125	2.7383	1.78123	5.28962	1.98922	5.90404		
1.32671	2.5335	0.875963	2.57338	1.32624	2.53347	0.99915	2.94931	1.50751	4.44494	2.04004	6.02235			0.873731	2.5731	1.37765	2.74372	1.78293	5.25864	1.99862	5.8916		
1.32067	2.53312	0.882171	2.57417	1.3202	2.53309	1.00166	2.93673	1.50742	4.41465	2.04368	5.99227			0.879939	2.57389	1.3741	2.74927	1.78443	5.22747	2.00821	5.87988		
1.31464	2.53276	0.888378	2.57495	1.31417	2.53274	1.00423	2.92448	1.50735	4.38479	2.04712	5.96201			0.886147	2.57467	1.37059	2.75498	1.78573	5.19618	2.01798	5.86882		
1.30862	2.53243	0.894586	2.57572	1.30816	2.53241	1.00686	2.91257	1.50728	4.35536	2.05035	5.93157			0.892355	2.57544	1.36713	2.76082	1.78687	5.16482	2.02789	5.85835		
1.30263	2.53214	0.900793	2.57647	1.30216	2.53211	1.00956	2.90099	1.50722	4.32634	2.05339	5.90098			0.898562	2.5762	1.36371	2.76681	1.78786	5.13344	2.03794	5.84839		
1.29665	2.53187	0.907	2.57721	1.29619	2.53186	1.01231	2.88975	1.50717	4.29774	2.05624	5.87024			0.904769	2.57695	1.36034	2.77295	1.78872	5.10209	2.0481	5.8389		
1.29069	2.53165	0.913205	2.57795	1.29023	2.53164	1.01512	2.87882	1.50713	4.26955	2.0589	5.83937			0.910975	2.57768	1.35701	2.77924	1.78945	5.07081	2.05837	5.82981		
1.28476	2.53147	0.91941	2.57866	1.2843	2.53146	1.018	2.86822	1.50711	4.24176	2.06138	5.80838			0.91718	2.57841	1.35372	2.78567	1.79008	5.03964	2.06872	5.8211		
1.27885	2.53134	0.925613	2.57937	1.2784	2.53133	1.02095	2.85793	1.50711	4.21438	2.06368	5.7773			0.923383	2.57912	1.35048	2.79226	1.79061	5.0086	2.07915	5.8127		
1.27297	2.53126	0.931815	2.58006	1.27252	2.53126	1.02395	2.84795	1.50712	4.18739	2.0658	5.74614			0.929585	2.57981	1.34728	2.79899	1.79105	4.97772	2.08964	5.80459		
1.26712	2.53124	0.938015	2.58074	1.26667	2.53124	1.02703	2.83829	1.50714	4.16079	2.06777	5.71492			0.935786	2.5805	1.34412	2.80588	1.79142	4.94702	2.10019	5.79672		
1.2613	2.53128	0.944214	2.58141	1.26085	2.53129	1.03017	2.82893	1.50719	4.13458	2.06957	5.68366			0.941986	2.58117	1.34101	2.81293	1.79173	4.91653	2.11077	5.78905		
1.25552	2.53139	0.950411	2.58206	1.25507	2.53141	1.03338	2.81989	1.50726	4.10875	2.07123	5.65239			0.948184	2.58183	1.33793	2.82013	1.79197	4.88625	2.12138	5.78157		
1.24977	2.53158	0.956607	2.58271	1.24932	2.5316	1.03666	2.81114	1.50734	4.0833	2.07274	5.62112			0.95438	2.58248	1.3349	2.82748	1.79216	4.85622	2.13201	5.77422		
1.24406	2.53184	0.962801	2.58334	1.24361	2.53187	1.04002	2.8027	1.50745	4.05822	2.07412	5.58988			0.960575	2.58311	1.33191	2.835	1.7923	4.82642	2.14264	5.76699		
1.23838	2.53219	0.968993	2.58395	1.23795	2.53222	1.04345	2.79457	1.50757	4.0335	2.07537	5.55868			0.966768	2.58373	1.32895	2.84268	1.7924	4.79689	2.15327	5.75983		
1.23276	2.53263	0.975184	2.58456	1.23232	2.53267	1.04695	2.78673	1.50772	4.00915	2.0765	5.52754			0.972959	2.58434	1.32604	2.85053	1.79247	4.76762	2.16389	5.75272		
1.22717	2.53317	0.981373	2.58515	1.22674	2.53322	1.05054	2.7792	1.5079	3.98516	2.07751	5.49648			0.979148	2.58494	1.32318	2.85854	1.7925	4.73863	2.17447	5.74561		
1.22164	2.53381	0.98756	2.58573	1.22121	2.53387	1.0542	2.77198	1.50809	3.96152	2.07842	5.46552			0.985336	2.58553	1.32035	2.86672	1.7925	4.70992	2.18502	5.73849		
1.21615	2.53456	0.993744	2.5863	1.21573	2.53462	1.05795	2.76505	1.50831	3.93823	2.07923	5.43466			0.991521	2.5861	1.31756	2.87507	1.79249	4.68149	2.1955	5.7313		
1.21071	2.53542	0.999927	2.58686	1.21029	2.53549	1.06178	2.75843	1.50856	3.91529	2.07994	5.40394			0.997705	2.58666	1.31481	2.88359	1.79245	4.65335	2.20592	5.72401		
1.20532	2.53639	1.00611	2.5874	1.20491	2.53647	1.0657	2.75212	1.50883	3.89268	2.08057	5.37335			1.00389	2.58721	1.31211	2.89229	1.7924	4.6255				
1.19999	2.53748	1.01229	2.58794	1.19957	2.53757	1.06971	2.74611	1.50913	3.87041	2.08111	5.34292			1.01007	2.58775	1.30944	2.90118	1.79233	4.59794				
1.1947	2.53869	1.01846	2.58846	1.19429	2.53879	1.07381	2.7404	1.50945	3.84847	2.08158	5.31265			1.01624	2.58827	1.30682	2.91024	1.79225	4.57069				
1.18947	2.54002	1.02464	2.58897	1.18906	2.54013	1.078	2.73499	1.50981	3.82685	2.08198	5.28256			1.02242	2.58879	1.30423	2.91948	1.79216	4.54373				
1.18428	2.54147	1.03081	2.58947	1.18388	2.54159	1.08229	2.72988	1.51018	3.80556	2.08231	5.25265			1.02859	2.58929	1.30169	2.92892	1.79207	4.51707				
1.17914	2.54304	1.03698	2.58996	1.17875	2.54316	1.08667	2.72507	1.51059	3.78458	2.08258	5.22294			1.03476	2.58979	1.29919	2.93854	1.79197	4.4907				
1.17405	2.54472	1.04315	2.59044	1.17366	2.54486	1.09114	2.72055	1.51103	3.76391	2.0828	5.19343			1.04093	2.59027	1.29672	2.94836	1.79187	4.46464				
1.16901	2.54652	1.04932	2.59091	1.16862	2.54667	1.09571	2.71631	1.51149	3.74355	2.08296	5.16412			1.0471	2.59074	1.2943	2.95838	1.79177	4.43887				
1.164	2.54843	1.05548	2.59136	1.16362	2.54859	1.10037	2.71235	1.51199	3.7235	2.08308	5.13504			1.05327	2.5912	1.29192	2.96859	1.79167	4.4134				
1.15904	2.55045	1.06164	2.59181	1.15866	2.55061	1.10512	2.70866	1.51251	3.70374	2.08315	5.10617			1.05943	2.59165	1.28958	2.97901	1.79158	4.38823				
1.15412	2.55258	1.0678	2.59224	1.15374	2.55274	1.10996	2.70522	1.51307	3.68428	2.08318	5.07753			1.06559	2.59209	1.28728	2.98963	1.79149	4.36335				
1.14923	2.5548	1.07396	2.59266	1.14885	2.55497	1.11488	2.70202	1.51365	3.66511	2.08318	5.04912			1.07175	2.59251	1.28502	3.00047	1.79141	4.33876				
1.14437	2.55711	1.08011	2.59308	1.14399	2.5573	1.11989	2.69906	1.51426	3.64623	2.08314	5.02095			1.0779	2.59293	1.28281	3.01151	1.79133	4.31447				
1.13954	2.55951	1.08627	2.59348	1.13916	2.5597	1.12497	2.69632	1.51491	3.62763	2.08307	4.99301			1.08405	2.59334	1.28063	3.02278	1.79126	4.29046				
1.13473	2.562	1.09241	2.59387	1.13436	2.56219	1.13013	2.69378	1.51559	3.60931	2.08297	4.96532			1.0902	2.59373	1.27849	3.03426	1.79121	4.26674				
1.12994	2.56455	1.09856	2.59425	1.12957	2.56475	1.13535	2.69143	1.5163	3.59126	2.08285	4.93787			1.09635	2.59412	1.2764	3.04597	1.79116	4.24331				
1.12518	2.56717	1.1047	2.59462	1.12481	2.56738	1.14064	2.68926	1.51704	3.57349	2.08271	4.91067			1.1025	2.59449	1.27434	3.05791	1.79113	4.22016				
1.12042	2.56986	1.11085	2.59498	1.12005	2.57007	1.14599	2.68725	1.51781	3.55598	2.08254	4.88371			1.10864	2.59485	1.27233	3.07007	1.79111	4.19729				
1.11568	2.57259	1.11698	2.59533	1.11531	2.5728	1.15139	2.68539	1.51861	3.53873	2.08236	4.857			1.11478	2.59521	1.27036	3.08248	1.7911	4.1747				
1.11093	2.57536	1.12312	2.59567	1.11057	2.57557	1.15685	2.68366	1.51945	3.52175	2.08216	4.83055			1.12091	2.59555	1.26843	3.09512	1.79111	4.15239				
1.10619	2.57816	1.12925	2.596	1.10583	2.57837	1.16235	2.68207	1.52032	3.50502	2.08195	4.80434			1.12705	2.59588	1.26654	3.10801	1.79113	4.13035				
1.10145	2.58098	1.13538	2.59632	1.10108	2.5812	1.16789	2.68059	1.52122	3.48854	2.08173	4.77839			1.13318	2.5962	1.26469	3.12114	1.79117	4.10858				
1.0967	2.58381	1.1415	2.59662	1.09633	2.58403	1.17347	2.67921	1.52216	3.47231	2.0815	4.75268			1.1393	2.59651	1.26288	3.13453	1.79123	4.08708				
1.09193	2.58664	1.14763	2.59692	1.09156	2.58685	1.17909	2.67793	1.52312	3.45633	2.08126	4.72723			1.14543	2.59681	1.26111	3.14817	1.7913	4.06584				
1.08714	2.58945	1.15374	2.5972	1.08677	2.58967	1.18474	2.67674	1.52413	3.44058	2.08101	4.70203			1.15155	2.5971	1.25939	3.16207	1.79139	4.04487				
1.08233	2.59224	1.15986	2.59747	1.08195	2.59245	1.19042	2.67562	1.52516	3.42508	2.08076	4.67708			1.15766	2.59738	1.2577	3.17624	1.79151	4.02416				
1.07749	2.59499	1.16597	2.59774	1.07711	2.5952	1.19613	2.67458	1.52623	3.40981	2.08051	4.65238			1.16377	2.59764	1.25606	3.19068	1.79164	4.0037				
1.07262	2.59769	1.17208	2.59799	1.07224	2.5979	1.20186	2.67361	1.52733	3.39477	2.08025	4.62792			1.16988	2.5979	1.25445	3.2054	1.79179	3.9835				
1.06771	2.60033	1.17818	2.59823	1.06733	2.60053	1.20762	2.6727	1.52847	3.37996	2.08	4.60372			1.17599	2.59814	1.25289	3.22039	1.79196	3.96355				
1.06276	2.6029	1.18428	2.59845	1.06237	2.6031	1.2134	2.67184	1.52963	3.36537	2.07974	4.57976			1.18209	2.59837	1.25137	3.23566	1.79216	3.94386				
1.05776	2.60539	1.19037	2.59867	1.05737	2.60558	1.21919	2.67103	1.53084	3.35101	2.07949	4.55605			1.18818	2.59859	1.24988	3.25123	1.79237	3.9244				
1.05272	2.6078	1.19646	2.59887	1.05233	2.60798	1.22501	2.67027	1.53207	3.33686	2.07923	4.53259			1.19427	2.5988	1.24844	3.26709	1.79261	3.90519				
1.04763	2.61011	1.20255	2.59906	1.04724	2.61028	1.23084	2.66955	1.53334	3.32293	2.07899	4.50937			1.20036	2.59899	1.24704	3.28324	1.79287	3.88623				
1.04249	2.61232	1.20863	2.59924	1.04209	2.61249	1.23668	2.66887	1.53465	3.30921	2.07874	4.48639			1.20644	2.59918	1.24568	3.2997	1.79315	3.8675				
1.0373	2.61443	1.2147	2.5994	1.0369	2.61459	1.24254	2.66822	1.53599	3.2957	2.07851	4.46365			1.21252	2.59935	1.24436	3.31647	1.79346	3.849				
1.03206	2.61643	1.22077	2.59955	1.03165	2.61658	1.24841	2.66761	1.53736	3.28239	2.07828	4.44115			1.21859	2.5995	1.24307	3.33356	1.79379	3.83074				
1.02677	2.61834	1.22683	2.59969	1.02636	2.61848	1.25429	2.66702	1.53877	3.26929	2.07806	4.41889			1.22465	2.59964	1.24183	3.35096	1.79415	3.81271				
1.02143	2.62014	1.23289	2.59981	1.02101	2.62027	1.26018	2.66647	1.54021	3.25639	2.07784	4.39686			1.23071	2.59977	1.24063	3.36869	1.79452	3.79491				
1.01604	2.62184	1.23894	2.59992	1.01562	2.62197	1.26608	2.66594	1.54169	3.24369	2.07764	4.37507			1.23676	2.59988	1.23946	3.38675	1.79493	3.77733				
1.01061	2.62344	1.24498	2.60001	1.01019	2.62356	1.27199	2.66543	1.5432	3.23118	2.07745	4.35351			1.24281	2.59998	1.23834	3.40514	1.79536	3.75997				
1.00514	2.62496	1.25101	2.60008	1.00471	2.62507	1.27791	2.66495	1.54474	3.21886	2.07726	4.33217			1.24885	2.60006	1.23725	3.42388	1.79581	3.74284				
0.999624	2.62638	1.25704	2.60014	0.999195	2.62649	1.28383	2.66448	1.54632	3.20673	2.07709	4.31107			1.25488	2.60012	1.23621	3.44296	1.79629	3.72592				
0.994072	2.62773	1.26306	2.60018	0.993639	2.62783	1.28977	2.66404	1.54793	3.19479	2.07693	4.2902			1.2609	2.60016	1.2352	3.4624	1.79679	3.70921				
0.988484	2.62899	1.26907	2.6002	0.988049	2.62909	1.2957	2.66361	1.54958	3.18303	2.07679	4.26954			1.26691	2.60019	1.23422	3.4822	1.79732	3.69272				
0.982863	2.63018	1.27507	2.6002	0.982426	2.63027	1.30165	2.66319	1.55126	3.17146	2.07665	4.24912			1.27291	2.6002	1.23329	3.50236	1.79788	3.67643				
0.977212	2.63131	1.28106	2.60018	0.976772	2.63139	1.3076	2.6628	1.55298	3.16006	2.07653	4.22891			1.27891	2.60019	1.23239	3.5229	1.79847	3.66036				
0.971532	2.63237	1.28704	2.60014	0.971091	2.63245	1.31355	2.66241	1.55473	3.14883	2.07643	4.20892			1.28489	2.60015	1.23153	3.54381	1.79908	3.64448				
0.965826	2.63337	1.29301	2.60007	0.965383	2.63345	1.31951	2.66204	1.55651	3.13779	2.07634	4.18914			1.29086	2.6001	1.2307	3.5651	1.79971	3.62881				
0.960096	2.63432	1.29896	2.59998	0.959651	2.63439	1.32547	2.66168	1.55833	3.12691	2.07627	4.16958			1.29682	2.60002	1.22991	3.58679	1.80038	3.61334				
0.954343	2.63522	1.3049	2.59987	0.953896	2.63529	1.33144	2.66133	1.56019	3.1162	2.07621	4.15024			1.30277	2.59991	1.22916	3.60887	1.80107	3.59807				
0.94857	2.63607	1.31083	2.59973	0.948122	2.63614	1.33741	2.66099	1.56207	3.10566	2.07617	4.1311			1.3087	2.59978	1.22844	3.63135	1.80179	3.58299				
0.942778	2.63689	1.31674	2.59956	0.942328	2.63695	1.34338	2.66066	1.564	3.09528	2.07615	4.11217			1.31462	2.59962	1.22775	3.65424	1.80253	3.5681				
0.936969	2.63766	1.32264	2.59936	0.936518	2.63772	1.34936	2.66034	1.56595	3.08506	2.07614	4.09345			1.32052	2.59943	1.22709	3.67755	1.80331	3.5534				
0.931143	2.6384	1.32852	2.59912	0.930691	2.63845	1.35534	2.66002	1.56794	3.075	2.07615	4.07494			1.32641	2.59921	1.22647	3.70128	1.80411	3.53889				
0.925303	2.6391	1.33438	2.59885	0.924849	2.63916	1.36132	2.65972	1.56997	3.0651	2.07618	4.05662			1.33227	2.59896	1.22588	3.72544	1.80494	3.52457				
0.919449	2.63978	1.34022	2.59855	0.918995	2.63983	1.3673	2.65942	1.57202	3.05536	2.07623	4.03851			1.33812	2.59866	1.22532	3.75003	1.8058	3.51042				
0.913583	2.64043	1.34603	2.59821	0.913127	2.64048	1.37329	2.65912	1.57412	3.04577	2.07629	4.02059			1.34394	2.59833	1.22479	3.77507	1.80668	3.49646				
0.907705	2.64105	1.35183	2.59782	0.907248	2.6411	1.37927	2.65884	1.57624	3.03633	2.07638	4.00288			1.34975	2.59796	1.22429	3.80055	1.8076	3.48268				
0.901816	2.64166	1.3576	2.59739	0.901359	2.6417	1.38526	2.65855	1.57841	3.02704	2.07649	3.98535			1.35553	2.59755	1.22381	3.82649	1.80854	3.46907				
0.895918	2.64224	1.36334	2.59691	0.89546	2.64228	1.39125	2.65828	1.5806	3.01789	2.07661	3.96802			1.36128	2.59709	1.22337	3.85288	1.80951	3.45564				
0.89001	2.6428	1.36905	2.59638	0.889552	2.64284	1.39724	2.658	1.58283	3.00889	2.07676	3.95088			1.367	2.59658	1.22294	3.87975	1.81051	3.44238				
0.884095	2.64334	1.37474	2.5958	0.883635	2.64339	1.40323	2.65773	1.58509	3.00003	2.07692	3.93393			1.3727	2.59602	1.22255	3.90709	1.81154	3.42929				
0.878171	2.64387	1.38039	2.59517	0.877711	2.64391	1.40922	2.65747	1.58739	2.99132	2.07711	3.91716			1.37836	2.5954	1.22217	3.9349	1.8126	3.41637				
0.872241	2.64439	1.38601	2.59448	0.87178	2.64443	1.41521	2.6572	1.58972	2.98274	2.07732	3.90058			1.38399	2.59473	1.22182	3.96321	1.81368	3.40361				
0.866304	2.64489	1.39159	2.59372	0.865843	2.64493	1.4212	2.65694	1.59208	2.9743	2.07755	3.88418			1.38959	2.594	1.22148	3.992	1.8148	3.39102				
0.86036	2.64538	1.39713	2.59291	0.859899	2.64542	1.4272	2.65668	1.59448	2.966	2.0778	3.86796			1.39514	2.59321	1.22117	4.02129	1.81594	3.37859				
0.854412	2.64586	1.40264	2.59202	0.85395	2.6459	1.43319	2.65643	1.59692	2.95783	2.07807	3.85193			1.40066	2.59235	1.22087	4.05109	1.81711	3.36632				
0.848458	2.64633	1.40811	2.59108	0.847996	2.64637	1.43918	2.65617	1.59938	2.94979	2.07836	3.83606			1.40615	2.59143	1.22058	4.08139	1.81831	3.35421				
0.8425	2.6468	1.41353	2.59006	0.842037	2.64683	1.44517	2.65592	1.60188	2.94188	2.07868	3.82038			1.41159	2.59043	1.22031	4.1122	1.81954	3.34225				
0.836537	2.64726	1.41891	2.58898	0.836074	2.64729	1.45116	2.65566	1.60442	2.9341	2.07902	3.80486			1.41698	2.58938	1.22005	4.14353	1.8208	3.33045				
0.83057	2.64771	1.42425	2.58783	0.830107	2.64774	1.45715	2.65541	1.60698	2.92645	2.07938	3.78952			1.42234	2.58825	1.21979	4.17539	1.82209	3.3188				
0.8246	2.64815	1.42955	2.58662	0.824137	2.64819	1.46314	2.65516	1.60959	2.91892	2.07976	3.77435			1.42765	2.58706	1.21954	4.20776	1.82341	3.3073				
0.818627	2.6486	1.43481	2.58534	0.818163	2.64863	1.46912	2.6549	1.61222	2.91152	2.08017	3.75935			1.43293	2.5858	1.21929	4.24067	1.82475	3.29595				
0.81265	2.64904	1.44003	2.584	0.812187	2.64907	1.47511	2.65465	1.61489	2.90424	2.0806	3.74451			1.43816	2.58449	1.21904	4.2741	1.82613	3.28474				
0.806671	2.64947	1.44521	2.5826	0.806207	2.64951	1.48109	2.65439	1.6176	2.89708	2.08105	3.72983			1.44335	2.58311	1.21879	4.30806	1.82753	3.27368				
0.800689	2.64991	1.45036	2.58115	0.800225	2.64994	1.48707	2.65414	1.62033	2.89004	2.08153	3.71532			1.44851	2.58168	1.21853	4.34255	1.82897	3.26277				
0.794706	2.65035	1.45546	2.57965	0.794241	2.65038	1.49305	2.65388	1.62311	2.88312	2.08203	3.70097			1.45363	2.58019	1.21825	4.37757	1.83043	3.25199				
0.78872	2.65078	1.46054	2.5781	0.788256	2.65082	1.49902	2.65362	1.62591	2.87631	2.08255	3.68678			1.45872	2.57866	1.21796	4.41312	1.83192	3.24135				
0.782733	2.65122	1.46559	2.57652	0.782268	2.65125	1.505	2.65335	1.62875	2.86962	2.0831	3.67275			1.46378	2.5771	1.21765	4.4492	1.83345	3.23086				
0.776744	2.65166	1.47062	2.57491	0.776279	2.65169	1.51097	2.65308	1.63163	2.86305	2.08367	3.65887			1.46881	2.57549	1.21732	4.48579	1.835	3.22049				
0.770754	2.6521	1.47562	2.57327	0.770289	2.65213	1.51693	2.65281	1.63454	2.85659	2.08427	3.64515			1.47382	2.57386	1.21695	4.5229	1.83658	3.21027				
0.764763	2.65254	1.4806	2.57161	0.764298	2.65258	1.5229	2.65254	1.63748	2.85024	2.08489	3.63157			1.47881	2.57221	1.21655	4.56052	1.83819	3.20017				
0.758771	2.65299	1.48556	2.56994	0.758306	2.65303	1.52886	2.65226	1.64046	2.844	2.08553	3.61815			1.48378	2.57054	1.2161	4.59862	1.83982	3.19021				
0.752778	2.65345	1.49052	2.56825	0.752314	2.65349	1.53481	2.65197	1.64347	2.83788	2.0862	3.60488			1.48874	2.56886	1.21561	4.63721	1.84149	3.18037				
0.746786	2.65391	1.49546	2.56657	0.746321	2.65395	1.54076	2.65168	1.64652	2.83186	2.08689	3.59176			1.49369	2.56717	1.21506	4.67626	1.84319	3.17067				
0.740793	2.65438	1.5004	2.56488	0.740328	2.65442	1.5467	2.65138	1.64961	2.82595	2.08761	3.57878			1.49862	2.56549	1.21444	4.71576	1.84491	3.16109				
0.7348	2.65486	1.50533	2.5632	0.734335	2.65489	1.55264	2.65108	1.65273	2.82015	2.08835	3.56595			1.50356	2.56381	1.21375	4.75569	1.84667	3.15164				
0.728807	2.65534	1.51026	2.56154	0.728343	2.65538	1.55858	2.65076	1.65588	2.81445	2.08911	3.55325			1.50849	2.56213	1.21297	4.79601	1.84845	3.1423				
0.722815	2.65584	1.51519	2.55988	0.722351	2.65588	1.5645	2.65044	1.65908	2.80886	2.08991	3.5407			1.51342	2.56048	1.2121	4.83669	1.85026	3.1331				
0.716824	2.65634	1.52013	2.55825	0.716359	2.65638	1.57042	2.65011	1.66231	2.80338	2.09072	3.52829			1.51835	2.55883	1.21113	4.87772	1.8521	3.12401				
0.710834	2.65686	1.52507	2.55663	0.710369	2.6569	1.57633	2.64977	1.66557	2.798	2.09156	3.51602			1.52329	2.55721	1.21003	4.91903	1.85397	3.11504				
0.704845	2.6574	1.53002	2.55505	0.70438	2.65744	1.58223	2.64941	1.66888	2.79273	2.09243	3.50388			1.52824	2.55561	1.20881	4.9606	1.85587	3.10619				
0.698857	2.65794	1.53497	2.55349	0.698392	2.65799	1.58813	2.64905	1.67222	2.78756	2.09332	3.49188			1.53319	2.55404	1.20745	5.00236	1.8578	3.09745				
0.692871	2.65851	1.53994	2.55195	0.692407	2.65855	1.59401	2.64867	1.6756	2.78249	2.09423	3.48002			1.53815	2.5525	1.20593	5.04427	1.85976	3.08883				
0.686887	2.65909	1.54492	2.55046	0.686423	2.65913	1.59989	2.64827	1.67903	2.77753	2.09518	3.46828			1.54313	2.55099	1.20423	5.08628	1.86174	3.08033				
0.680905	2.65969	1.54992	2.54899	0.680441	2.65974	1.60575	2.64786	1.68249	2.77268	2.09614	3.45668			1.54812	2.54951	1.20235	5.1283	1.86376	3.07193				
0.674926	2.66031	1.55493	2.54756	0.674462	2.66036	1.6116	2.64744	1.68599	2.76793	2.09713	3.44521			1.55312	2.54807	1.20026	5.17028	1.8658	3.06365				
0.66895	2.66096	1.55995	2.54617	0.668486	2.66101	1.61743	2.64699	1.68954	2.76328	2.09815	3.43386			1.55814	2.54667	1.19795	5.21215	1.86787	3.05547				
0.662976	2.66162	1.56499	2.54482	0.662513	2.66168	1.62325	2.64652	1.69313	2.75874	2.09919	3.42264			1.56318	2.5453	1.19541	5.25382	1.86997	3.04741				
0.657007	2.66232	1.57006	2.5435	0.656544	2.66238	1.62906	2.64603	1.69676	2.7543	2.10026	3.41155			1.56823	2.54397	1.19261	5.29523	1.8721	3.03945				
0.651041	2.66305	1.57514	2.54223	0.650579	2.66311	1.63485	2.64552	1.70044	2.74997	2.10135	3.40058			1.57331	2.54268	1.18955	5.33631	1.87426	3.03159				
0.64508	2.66381	1.58024	2.541	0.644618	2.66387	1.64062	2.64498	1.70416	2.74575	2.10247	3.38973			1.5784	2.54144	1.18621	5.37698	1.87645	3.02384				
0.639124	2.6646	1.58536	2.53981	0.638662	2.66466	1.64637	2.64442	1.70794	2.74164	2.10362	3.379			1.58352	2.54023	1.18258	5.41717	1.87866	3.0162				
0.633173	2.66543	1.5905	2.53867	0.632711	2.66549	1.6521	2.64382	1.71176	2.73764	2.10478	3.3684			1.58865	2.53907	1.17865	5.45684	1.8809	3.00865				
0.627228	2.6663	1.59567	2.53756	0.626767	2.66637	1.6578	2.64319	1.71563	2.73374	2.10598	3.35791			1.59381	2.53796	1.17441	5.49594	1.88318	3.00121				
0.621289	2.66722	1.60085	2.53651	0.620829	2.66729	1.66348	2.64252	1.71956	2.72996	2.1072	3.34754			1.59899	2.53688	1.16986	5.53442	1.88547	2.99386				
0.615358	2.66818	1.60606	2.53549	0.614898	2.66826	1.66914	2.64182	1.72354	2.7263	2.10845	3.33729			1.60419	2.53585	1.16501	5.57229	1.8878	2.98662				
0.609434	2.6692	1.6113	2.53452	0.608975	2.66929	1.67476	2.64107	1.72758	2.72275	2.10972	3.32715			1.60941	2.53486	1.15985	5.60952	1.89016	2.97947				
0.603519	2.67028	1.61655	2.53359	0.603061	2.67037	1.68035	2.64029	1.73168	2.71932	2.11101	3.31712			1.61466	2.53392	1.15439	5.64613	1.89254	2.97242				
0.597614	2.67143	1.62183	2.53271	0.597156	2.67152	1.68591	2.63945	1.73584	2.71601	2.11234	3.30721			1.61993	2.53302	1.14865	5.68215	1.89495	2.96546				
0.591719	2.67264	1.62714	2.53187	0.591262	2.67274	1.69144	2.63857	1.74006	2.71282	2.11368	3.29741			1.62523	2.53217	1.14262	5.71762	1.89739	2.95859				
0.585836	2.67394	1.63246	2.53107	0.58538	2.67404	1.69692	2.63764	1.74435	2.70976	2.11506	3.28771			1.63055	2.53135	1.13634	5.7526	1.89986	2.95182				
0.579966	2.67532	1.63782	2.53032	0.579511	2.67543	1.70237	2.63665	1.7487	2.70682	2.11646	3.27813			1.63589	2.53059	1.12981	5.78716	1.90236	2.94514				
0.57411	2.6768	1.64319	2.52961	0.573656	2.67692	1.70778	2.63561	1.75312	2.704	2.11788	3.26866			1.64126	2.52986	1.12306	5.82138	1.90488	2.93855				
0.568269	2.67838	1.64859	2.52894	0.567817	2.67851	1.71314	2.6345	1.75761	2.70131	2.11933	3.25929			1.64665	2.52917	1.1161	5.85534	1.90744	2.93205				
0.562447	2.68009	1.65402	2.52831	0.561996	2.68022	1.71847	2.63334	1.76217	2.69876	2.12081	3.25002			1.65207	2.52853	1.10896	5.88915	1.91002	2.92564				
0.556643	2.68192	1.65947	2.52772	0.556194	2.68207	1.72374	2.63212	1.76681	2.69633	2.12231	3.24086			1.65751	2.52793	1.10165	5.92291	1.91262	2.91932				
0.550862	2.6839	1.66494	2.52718	0.550414	2.68406	1.72898	2.63084	1.77152	2.69402	2.12383	3.23181			1.66297	2.52737	1.09419	5.95672	1.91526	2.91308				
0.545105	2.68605	1.67043	2.52667	0.544659	2.68622	1.73416	2.6295	1.77629	2.69185	2.12539	3.22285			1.66846	2.52685	1.08662	5.99071	1.91792	2.90693				
0.539374	2.68838	1.67595	2.5262	0.538931	2.68857	1.73931	2.62811	1.78115	2.68979	2.12696	3.214			1.67396	2.52636	1.07893	6.02499	1.92061	2.90087				
0.533675	2.69092	1.68149	2.52576	0.533234	2.69112	1.74441	2.62666	1.78607	2.68786	2.12857	3.20525			1.6795	2.52592	1.07116	6.05967	1.92333	2.89488				
0.528009	2.69369	1.68706	2.52537	0.527571	2.69391	1.74946	2.62515	1.79106	2.68605	2.1302	3.19659			1.68505	2.52551	1.06332	6.0949	1.92608	2.88898				
0.522381	2.69672	1.69264	2.52501	0.521947	2.69697	1.75448	2.6236	1.79612	2.68434	2.13185	3.18804			1.69063	2.52513	1.05544	6.13078	1.92885	2.88317				
0.516797	2.70006	1.69825	2.52468	0.516366	2.70033	1.75947	2.622	1.80125	2.68275	2.13353	3.17958			1.69623	2.52479	1.04752	6.16747	1.93166	2.87743				
0.511261	2.70373	1.70388	2.52439	0.510834	2.70403	1.76441	2.62037	1.80643	2.68127	2.13523	3.17121			1.70185	2.52449	1.03959	6.20508	1.93449	2.87178				
0.50578	2.70778	1.70952	2.52413	0.505357	2.70812	1.76933	2.6187	1.81168	2.67988	2.13696	3.16294			1.70749	2.52422	1.03167	6.24378	1.93734	2.8662				
0.50036	2.71227	1.71519	2.5239	0.499942	2.71264	1.77423	2.617	1.81699	2.67858	2.13872	3.15477			1.71315	2.52398	1.02377	6.2837	1.94023	2.8607				
0.49501	2.71726	1.72088	2.5237	0.494598	2.71766	1.77909	2.61528	1.82234	2.67737	2.1405	3.14668			1.71883	2.52377	1.0159	6.325	1.94314	2.85528				
0.489737	2.7228	1.72659	2.52353	0.489332	2.72326	1.78395	2.61355	1.82775	2.67624	2.14231	3.13869			1.72454	2.52359	1.00809	6.36786	1.94608	2.84994				
0.484552	2.72898	1.73232	2.52339	0.484153	2.72949	1.78878	2.61181	1.83321	2.67519	2.14414	3.13079			1.73026	2.52344	1.00035	6.41243	1.94905	2.84467				
0.479464	2.73588	1.73806	2.52328	0.479074	2.73645	1.79361	2.61006	1.83871	2.67421	2.14599	3.12298			1.73599	2.52332	0.9927	6.45891	1.95205	2.83948				
0.474485	2.74359	1.74382	2.52319	0.474104	2.74423	1.79844	2.60833	1.84424	2.6733	2.14787	3.11526			1.74175	2.52322	0.985152	6.5075	1.95507	2.83437				
0.469627	2.75222	1.7496	2.52313	0.469255	2.75293	1.80326	2.6066	1.84982	2.67244	2.14978	3.10762			1.74752	2.52315	0.977724	6.55839	1.95812	2.82933				
0.4649	2.76187	1.7554	2.52309	0.464539	2.76266	1.80809	2.60489	1.85543	2.67164	2.15171	3.10007			1.75331	2.52311	0.970433	6.61182	1.9612	2.82436				
0.460317	2.77265	1.76121	2.52308	0.459968	2.77353	1.81293	2.60321	1.86108	2.6709	2.15367	3.09261			1.75912	2.52308	0.963296	6.66802	1.96431	2.81947				
0.455889	2.78468	1.76704	2.52309	0.455553	2.78567	1.81779	2.60157	1.86675	2.67019	2.15565	3.08523			1.76494	2.52308	0.95633	6.72725	1.96744	2.81465				
0.451626	2.79808	1.77288	2.52312	0.451303	2.79918	1.82266	2.59996	1.87245	2.66954	2.15766	3.07794			1.77078	2.52311	0.949551	6.78977	1.97061	2.8099				
0.447538	2.81296	1.77874	2.52317	0.447228	2.81418	1.82757	2.59841	1.87817	2.66892	2.15969	3.07073			1.77663	2.52315	0.942977	6.85588	1.9738	2.80522				
0.443631	2.82944	1.78461	2.52324	0.443336	2.83079	1.83251	2.59692	1.88392	2.66834	2.16175	3.06361			1.7825	2.52321	0.936625	6.92588	1.97702	2.80061				
0.439912	2.84762	1.79049	2.52332	0.439631	2.84911	1.8375	2.59549	1.88969	2.66779	2.16383	3.05656			1.78838	2.52329	0.93051	7.0001	1.98027	2.79607				
0.436383	2.86761	1.79639	2.52343	0.436118	2.86924	1.84253	2.59415	1.89547	2.66727	2.16593	3.0496			1.79427	2.52339	0.924649	7.07889	1.98354	2.79161				
0.433049	2.88951	1.8023	2.52355	0.432798	2.89129	1.84762	2.59289	1.90128	2.66678	2.16806	3.04271			1.80017	2.52351	0.919058	7.16261	1.98685	2.78721				
0.429908	2.91341	1.80822	2.52369	0.429673	2.91535	1.85277	2.59173	1.9071	2.66632	2.17022	3.03591			1.80609	2.52364	0.913751	7.25165	1.99018	2.78288				
0.426961	2.9394	1.81415	2.52384	0.42674	2.94151	1.85799	2.59067	1.91294	2.66588	2.1724	3.02918			1.81202	2.52379	0.908741	7.34642	1.99355	2.77862				
0.424206	2.96758	1.8201	2.52401	0.424	2.96986	1.86328	2.58972	1.91879	2.66546	2.1746	3.02253			1.81796	2.52395	0.904041	7.44734	1.99694	2.77442				
0.421641	2.99803	1.82605	2.52419	0.42145	3.00049	1.86866	2.58888	1.92465	2.66506	2.17683	3.01595			1.82391	2.52413	0.899662	7.55487	2.00036	2.7703				
0.419263	3.03084	1.83202	2.52439	0.419086	3.03349	1.8741	2.58815	1.93053	2.66468	2.17909	3.00946			1.82987	2.52432	0.895612	7.66947	2.00382	2.76624				
0.41707	3.06613	1.83799	2.52459	0.416907	3.06898	1.87963	2.58754	1.93641	2.66432	2.18137	3.00303			1.83585	2.52452	0.891899	7.79163	2.0073	2.76225				
0.415059	3.104	1.84398	2.52481	0.41491	3.10705	1.88523	2.58703	1.94231	2.66398	2.18367	2.99669			1.84183	2.52473	0.888528	7.92186	2.01081	2.75833				
0.413226	3.14456	1.84997	2.52504	0.413092	3.14782	1.8909	2.58661	1.94821	2.66364	2.186	2.99041			1.84782	2.52496	0.885501	8.0607	2.01436	2.75447				
0.411571	3.18794	1.85598	2.52528	0.41145	3.19142	1.89663	2.58629	1.95413	2.66333	2.18835	2.98421			1.85382	2.5252	0.88282	8.20871	2.01794	2.75068				
0.410089	3.23426	1.86199	2.52553	0.409981	3.23798	1.90241	2.58604	1.96005	2.66302	2.19073	2.97808			1.85983	2.52544	0.880482	8.36648	2.02154	2.74696				
0.408779	3.28369	1.86801	2.52579	0.408684	3.28765	1.90825	2.58587	1.96598	2.66273	2.19313	2.97202			1.86584	2.5257	0.878486	8.53463	2.02518	2.74331				
0.407638	3.33636	1.87403	2.52606	0.407556	3.34059	1.91413	2.58575	1.97191	2.66245	2.19555	2.96603			1.87187	2.52596	0.876825	8.71383	2.02886	2.73972				
0.406664	3.39246	1.88007	2.52634	0.406596	3.39696	1.92005	2.58569	1.97785	2.66218	2.198	2.96011			1.8779	2.52624	0.875494	8.9048	2.03256	2.7362				
0.405856	3.45217	1.88611	2.52662	0.4058	3.45696	1.92601	2.58568	1.9838	2.66191	2.20047	2.95426			1.88394	2.52652	0.874483	9.10828	2.0363	2.73274				
0.405211	3.51569	1.89216	2.52692	0.405168	3.52078	1.93199	2.5857	1.98975	2.66166					1.88999	2.52681	0.873784	9.3251	2.04008	2.72936				
0.404728	3.58323	1.89822	2.52722	0.404697	3.58864	1.93799	2.58575	1.99571	2.66141					1.89604	2.52711	0.873386	9.55617	2.04389	2.72604				
0.404405	3.65503	1.90428	2.52752	0.404386	3.66078	1.94402	2.58583	2.00167	2.66117					1.9021	2.52741	0.873276	9.76992	2.04773	2.72279				
0.404239	3.73135	1.91035	2.52784	0.404233	3.73746	1.95007	2.58594	2.00764	2.66094					1.90817	2.52772	0.873351	9.96179	2.05162	2.71961				
0.404229	3.81245	1.91642	2.52815	0.404234	3.81895	1.95613	2.58606	2.01361	2.66072					1.91424	2.52804	0.873526	10.1275	2.05554	2.7165				
0.404372	3.89865	1.9225	2.52848	0.40439	3.90556	1.9622	2.5862	2.01958	2.6605					1.92032	2.52836	0.873736	10.2633	2.0595	2.71346				
0.404668	3.99026	1.92859	2.52881	0.404697	3.9976	1.96829	2.58636	2.02555	2.66028					1.9264	2.52869	0.873929	10.3659	2.0635	2.71049				
0.405112	4.08765	1.93468	2.52914	0.405152	4.09545	1.97439	2.58653	2.03153	2.66008					1.93249	2.52902	0.874135	10.4624	2.06754	2.70759				
0.405703	4.19119	1.94077	2.52948	0.405755	4.19949	1.9805	2.58671	2.03751	2.65987					1.93858	2.52936	0.874295	10.5308	2.07162	2.70476				
0.406438	4.30132	1.94687	2.52983	0.406501	4.31015	1.98661	2.5869	2.0435	2.65967					1.94468	2.5297	0.87457	10.6398	2.07574	2.702				
0.407315	4.41849	1.95298	2.53017	0.407389	4.42789	1.99273	2.5871	2.04948	2.65948					1.95078	2.53005	0.874994	10.7921	2.07991	2.69932				
0.408331	4.54323	1.95909	2.53052	0.408415	4.55323	1.99886	2.5873	2.05547	2.65928					1.95689	2.5304	0.87561	10.9918	2.08412	2.69671				
0.409481	4.67607	1.9652	2.53088	0.409576	4.68674	2.00499	2.58751	2.06146	2.65909					1.96301	2.53075	0.876471	11.2446	2.08838	2.69418				
0.410764	4.81766	1.97132	2.53124	0.410869	4.82903	2.01112	2.58772	2.06745	2.65891					1.96912	2.53111	0.877637	11.5577	2.09269	2.69172				
0.412175	4.96868	1.97745	2.5316	0.412289	4.9808	2.01726	2.58794	2.07345	2.65873					1.97524	2.53147	0.879173	11.9407	2.09704	2.68934				
0.41371	5.12987	1.98357	2.53196	0.413834	5.14283	2.02341	2.58816	2.07944	2.65855					1.98137	2.53183	0.880911	12.3514	2.10145	2.68704				
0.415366	5.3021	1.9897	2.53233	0.415499	5.31595	2.02955	2.58838	2.08543	2.65837					1.9875	2.5322	0.882839	12.7923	2.10591	2.68482				
0.417138	5.48631	1.99584	2.5327	0.41728	5.50113	2.0357	2.58861	2.09143	2.65819					1.99363	2.53256	0.884947	13.2664	2.11041	2.68268				
0.419021	5.68357	2.00197	2.53307	0.419172	5.69944	2.04185	2.58883	2.09742	2.65802					1.99977	2.53293	0.887227	13.7772	2.11498	2.68061				
0.420749	5.86702	2.00811	2.53344	0.421169	5.91209	2.04801	2.58906	2.10342	2.65784					2.00591	2.53331	0.889667	14.3284	2.11959	2.67863				
0.422283	6.0326	2.01426	2.53382	0.423268	6.14043	2.05416	2.58929	2.10942	2.65767					2.01205	2.53368	0.892259	14.9248	2.12426	2.67672				
0.423593	6.17637	2.0204	2.53419	0.425461	6.38602	2.06032	2.58952	2.11541	2.6575					2.01819	2.53406	0.894993	15.5715	2.12899	2.6749				
0.424654	6.2947	2.02655	2.53457	0.427744	6.65061	2.06648	2.58975	2.12141	2.65733					2.02434	2.53444	0.897863	16.2748	2.13377	2.67316				
0.425448	6.38446	2.03271	2.53495	0.43011	6.93623	2.07263	2.58997	2.12741	2.65716					2.0305	2.53481	0.900858	17.0419	2.1386	2.67149				
0.426188	6.46917	2.03886	2.53533	0.432551	7.24521	2.07879	2.5902	2.1334	2.65699					2.03665	2.53519	0.90397	17.8813	2.14349	2.6699				
0.426708	6.52934	2.04502	2.53571	0.435061	7.58022	2.08495	2.59043	2.1394	2.65682					2.04281	2.53558	0.907192	18.8032	2.14843	2.66839				
0.427531	6.62547	2.05118	2.5361	0.437633	7.94441	2.09111	2.59065	2.14539	2.65666					2.04897	2.53596	0.910515	19.82	2.15343	2.66696				
0.428666	6.76048	2.05734	2.53648	0.440257	8.34144	2.09727	2.59088	2.15138	2.65649					2.05513	2.53634	0.91393	20.9464	2.15848	2.6656				
0.430129	6.93866	2.06351	2.53687	0.44258	8.71756	2.10343	2.5911	2.15737	2.65632					2.06129	2.53673	0.91743	22.2007	2.16359	2.6643				
0.431936	7.16595	2.06968	2.53725	0.444582	9.06298	2.10959	2.59132	2.16336	2.65615					2.06746	2.53711	0.921004	23.6052	2.16874	2.66308				
0.434106	7.45048	2.07585	2.53764	0.44625	9.36765	2.11575	2.59154	2.16935	2.65597					2.07363	2.5375	0.924643	25.188	2.17394	2.66193				
0.436655	7.80326	2.08202	2.53802	0.447574	9.62183	2.12191	2.59176	2.17534	2.6558					2.0798	2.53788	0.928337	26.9848	2.17919	2.66084				
0.439261	8.18742	2.08819	2.53841	0.448551	9.81673	2.12807	2.59198	2.18132	2.65563					2.08597	2.53827	0.932074	29.0412	2.18448	2.65981				
0.441913	8.60703	2.09437	2.5388	0.449451	10.0024	2.13422	2.59219	2.18731	2.65545					2.09215	2.53866	0.93584	31.4172	2.18982	2.65884				
0.444604	9.06691	2.10055	2.53918	0.450077	10.1353	2.14038	2.59241	2.19329	2.65527					2.09833	2.53904	0.939619	34.1928	2.1952	2.65792				
0.447323	9.57282	2.10673	2.53957	0.451057	10.3494	2.14654	2.59262	2.19926	2.65509					2.10451	2.53943	0.943394	37.4769	2.20062	2.65706				
0.450061	10.1317	2.11291	2.53996	0.45239	10.654	2.15269	2.59283	2.20524	2.65491					2.11069	2.53982	0.947141	41.4227						
0.452805	10.752	2.11909	2.54034	0.454075	11.0629	2.15884	2.59303							2.11687	2.5402	0.950832	46.2515						
0.455543	11.444	2.12528	2.54073	0.456106	11.5967	2.165	2.59323							2.12305	2.54059	0.954434	52.2963						
0.458263	12.2207	2.13146	2.54111	0.458473	12.2849	2.17115	2.59343							2.12924	2.54098	0.957901	60.0825						
0.460952	13.0984	2.13765	2.5415	0.461158	13.1712	2.1773	2.59363							2.13543	2.54136	0.961179	70.4899						
0.463593	14.0978	2.14384	2.54188	0.463796	14.1811	2.18345	2.59383							2.14161	2.54175	0.964199	85.1141						
0.466173	15.246	2.15003	2.54227	0.466369	15.3422	2.18959	2.59402							2.1478	2.54213	0.966874	107.181						
0.468673	16.5789	2.15622	2.54265	0.468863	16.6913	2.19574	2.59421							2.15399	2.54251	0.969105	144.351						
0.471078	18.1449	2.16241	2.54303	0.47126	18.278	2.20188	2.59439							2.16019	2.5429	0.970785	220.327						
0.473369	20.0117	2.16861	2.54342	0.473541	20.1716									2.16638	2.54328	0.971814	463.051						
0.475527	22.2759	2.1748	2.5438	0.475688	22.4718									2.17257	2.54366								
0.477534	25.0809	2.181	2.54418	0.477682	25.3267									2.17877	2.54404								
0.47937	28.6493	2.18719	2.54456	0.479504	28.9671									2.18496	2.54442								
0.481017	33.3462	2.19339	2.54493	0.481136	33.7735									2.19116	2.5448								
0.482457	39.8147	2.19959	2.54531	0.48256	40.4202									2.19736	2.54517								
0.483675	49.3034	2.20578	2.54568	0.483759	50.2283									2.20355	2.54555								
0.484654	64.5966			0.484719	66.1841																		
0.485382	93.4258			0.485428	96.768																		
0.485851	168.232			0.485876	179.355																		
0.486053	837.182			0.486057	1210.24																		
