Sym0		Asym0		Sym1		Sym2		Sym3		Sym4		Sym5		Asym1		Asym2		Asym3		Asym4		Asym5	
397  Points		396  Points		398  Points		388  Points		371  Points		361  Points		162  Points		396  Points		386  Points		378  Points		361  Points		172  Points	
Freq (MHz)	Vph (m/ms)	Freq (MHz)	Vph (m/ms)	Freq (MHz)	Vph (m/ms)	Freq (MHz)	Vph (m/ms)	Freq (MHz)	Vph (m/ms)	Freq (MHz)	Vph (m/ms)	Freq (MHz)	Vph (m/ms)	Freq (MHz)	Vph (m/ms)	Freq (MHz)	Vph (m/ms)	Freq (MHz)	Vph (m/ms)	Freq (MHz)	Vph (m/ms)	Freq (MHz)	Vph (m/ms)
2.20024	2.43672	0.346111	1984.21	2.20381	2.43649	0.692236	761.246	1.06947	1399.36	1.38445	1175.2	1.78246	5330.17	0.346151	342.987	0.712947	327.861	1.03837	648.772	1.42594	638.764	1.73059	876.762
2.19495	2.43708	0.34636	139.558	2.1985	2.43684	0.69244	215.261	1.06942	348.156	1.38459	397.248	1.78242	674.697	0.346557	104.491	0.712825	159.044	1.03856	265.759	1.42584	314.081	1.73075	404.265
2.18967	2.43747	0.347041	72.4629	2.1932	2.43721	0.692869	125.426	1.06929	198.788	1.38486	239.064	1.78231	360.121	0.347393	61.7695	0.71262	104.962	1.03892	167.155	1.42568	208.216	1.73104	262.731
2.18441	2.43787	0.348147	49.0582	2.18793	2.4376	0.693521	88.555	1.0691	139.089	1.38527	171.015	1.78214	245.589	0.348651	43.9582	0.712336	78.3069	1.03944	121.961	1.42546	155.711	1.73144	194.631
2.17916	2.4383	0.34967	37.183	2.18268	2.43801	0.694393	68.4878	1.06884	106.95	1.3858	133.152	1.7819	186.314	0.350321	34.215	0.711975	62.4314	1.04011	96.0389	1.42518	124.341	1.73196	154.592
2.17394	2.43876	0.351596	30.0216	2.17744	2.43845	0.695479	55.8783	1.06852	86.863	1.38646	109.041	1.78161	150.076	0.352389	28.0873	0.711543	51.8938	1.04094	79.2341	1.42485	103.48	1.73259	128.237
2.16874	2.43923	0.353909	25.2453	2.17223	2.43891	0.696772	47.2269	1.06815	73.1175	1.38725	92.3451	1.78125	125.628	0.354838	23.889	0.711045	44.3879	1.04191	67.4602	1.42445	88.6036	1.73334	109.579
2.16355	2.43973	0.356592	21.8417	2.16703	2.43939	0.698266	40.9273	1.06772	63.1188	1.38815	80.1021	1.78084	108.02	0.357651	20.8409	0.710489	38.7688	1.04303	58.755	1.42402	77.459	1.73419	95.6762
2.15839	2.44026	0.359626	19.2998	2.16185	2.4399	0.69995	36.1386	1.06724	55.5178	1.38918	70.7421	1.78038	94.7336	0.360805	18.5329	0.709881	34.4039	1.04429	52.0593	1.42353	68.7979	1.73514	84.9186
2.15324	2.44081	0.362986	17.3338	2.15669	2.44044	0.701817	32.3777	1.06673	49.5441	1.39031	63.3555	1.77988	84.3504	0.364279	16.7286	0.709231	30.9153	1.04568	46.7509	1.42301	61.8729	1.7362	76.3485
2.14812	2.44138	0.366652	15.7711	2.15155	2.44099	0.703854	29.3477	1.06617	44.7254	1.39155	57.3787	1.77933	76.0125	0.368049	15.2824	0.708548	28.063	1.04719	42.4404	1.42245	56.2095	1.73734	69.3611
2.14301	2.44198	0.370599	14.5016	2.14643	2.44158	0.706051	26.8555	1.0656	40.7562	1.39289	52.4442	1.77874	69.1694	0.372091	14.0994	0.707843	25.6875	1.04882	38.8714	1.42187	51.4916	1.73858	63.5557
2.13793	2.44261	0.374802	13.4515	2.14133	2.44219	0.708396	24.7707	1.065	37.43	1.39432	48.3018	1.77813	63.452	0.376381	13.1153	0.707127	23.6788	1.05056	35.8685	1.42127	47.5006	1.7399	58.6562
2.13286	2.44326	0.379237	12.5698	2.13625	2.44282	0.710877	23.0016	1.06439	34.6025	1.39583	44.7753	1.77748	58.6038	0.380894	12.2848	0.706413	21.9583	1.0524	33.3072	1.42065	44.0807	1.74129	54.4664
2.12781	2.44394	0.383879	11.8197	2.1312	2.44348	0.71348	21.482	1.06378	32.1695	1.39743	41.7372	1.77682	54.4404	0.385604	11.5753	0.705713	20.4685	1.05432	31.0973	1.42003	41.1176	1.74275	50.8427
2.12279	2.44465	0.388701	11.1743	2.12616	2.44417	0.716193	20.1629	1.06317	30.0542	1.39909	39.0929	1.77615	50.8265	0.390486	10.9625	0.705041	19.1663	1.05633	29.1712	1.41941	38.5257	1.74428	47.6778
2.11779	2.44539	0.393681	10.6134	2.12114	2.44489	0.719001	19.0073	1.06258	28.1983	1.40082	36.7705	1.77547	47.6601	0.395516	10.4282	0.704413	18.019	1.05841	27.4777	1.4188	36.2396	1.74587	44.89
2.1128	2.44615	0.398791	10.1216	2.11614	2.44563	0.721892	17.9866	1.06202	26.5572	1.40261	34.7148	1.77479	44.8631	0.400668	9.95821	0.703843	17.0009	1.06055	25.9771	1.41821	34.2083	1.7475	42.4156
2.10784	2.44694	0.404009	9.6867	2.11116	2.44641	0.72485	17.0784	1.0615	25.0961	1.40444	32.8823	1.77412	42.3746	0.405918	9.5415	0.703347	16.0921	1.06274	24.6383	1.41765	32.3919	1.74918	40.2047
2.1029	2.44776	0.409308	9.29929	2.10621	2.4472	0.727861	16.2651	1.06103	23.7873	1.40632	31.2386	1.77346	40.1464	0.41124	9.16928	0.702943	15.2764	1.06497	23.4363	1.41711	30.7581	1.7509	38.2173
2.09797	2.44861	0.414663	8.95169	2.10127	2.44803	0.730913	15.5324	1.06061	22.6084	1.40822	29.7558	1.77283	38.1399	0.41661	8.83451	0.702649	14.5408	1.06723	22.3512	1.41663	29.2811	1.75265	36.4211
2.09307	2.44948	0.420051	8.63775	2.09636	2.44889	0.733989	14.8687	1.06027	21.5416	1.41015	28.4114	1.77222	36.3237	0.422004	8.53145	0.702483	13.8749	1.06952	21.3665	1.41619	27.9396	1.75442	34.7898
2.08819	2.45039	0.425447	8.3524	2.09146	2.44978	0.737076	14.2645	1.06	20.5718	1.4121	27.1867	1.77166	34.6723	0.427396	8.25537	0.702465	13.2698	1.07181	20.4688	1.41582	26.716	1.7562	33.3015
2.08333	2.45132	0.430826	8.09146	2.08659	2.45069	0.740159	13.7119	1.05983	19.687	1.41405	26.0663	1.77113	33.1645	0.432075	8.03372	0.702614	12.7182	1.07411	19.647	1.41551	25.5958	1.758	31.9381
2.0785	2.45229	0.436163	7.85144	2.08174	2.45164	0.743225	13.2042	1.05977	18.8767	1.416	25.0373	1.77066	31.7825	0.436036	7.85696	0.70295	12.2142	1.0764	18.8915	1.41528	24.5667	1.7598	30.6845
2.07368	2.45328	0.441434	7.62943	2.07691	2.45261	0.74626	12.7361	1.05982	18.1324	1.41794	24.0889	1.77025	30.5114	0.439284	7.71837	0.703494	11.7524	1.07867	18.1945	1.41514	23.6183	1.76159	29.5278
2.06888	2.45431	0.446614	7.42294	2.0721	2.45362	0.74925	12.3026	1.06	17.4467	1.41987	23.2118	1.7699	29.3386	0.441831	7.6132	0.704267	11.3287	1.08091	17.5493	1.41509	22.7417	1.76337	28.457
2.06411	2.45537	0.451681	7.22989	2.06731	2.45465	0.752182	11.8999	1.06032	16.8134	1.42178	22.3981	1.76962	28.2534	0.44369	7.5382	0.705288	10.9391	1.08312	16.9501	1.41515	21.9294	1.76513	27.4628
2.05935	2.45645	0.45661	7.04847	2.06254	2.45572	0.755043	11.5245	1.06078	16.2271	1.42365	21.641	1.76943	27.2465	0.444874	7.49118	0.706578	10.5804	1.08527	16.392	1.41531	21.1748	1.76687	26.5372
2.05462	2.45757	0.461381	6.87716	2.05779	2.45682	0.757822	11.1734	1.06141	15.6831	1.42549	20.9346	1.76932	26.31	0.446565	7.42487	0.708156	10.2499	1.08738	15.8707	1.4156	20.4723	1.76859	25.6732
2.04991	2.45872	0.465971	6.71464	2.05307	2.45795	0.760505	10.844	1.0622	15.1774	1.42729	20.274	1.7693	25.437	0.448389	7.35443	0.710038	9.945	1.08942	15.3824	1.416	19.8169	1.77026	24.8647
2.04521	2.4599	0.470363	6.55982	2.04836	2.4591	0.763083	10.5342	1.06318	14.7064	1.42903	19.6546	1.76938	24.6213	0.450845	7.26123	0.71224	9.66354	1.09139	14.924	1.41654	19.2043	1.7719	24.1064
2.04054	2.46111	0.474539	6.41172	2.04367	2.46029	0.765546	10.242	1.06434	14.2671	1.43072	19.0725	1.76956	23.8578	0.453905	7.14736	0.714776	9.40356	1.09329	14.4927	1.41722	18.6307	1.77349	23.3937
2.03589	2.46235	0.478484	6.26956	2.03901	2.46151	0.767884	9.96561	1.06569	13.8566	1.43235	18.5244	1.76985	23.1418	0.457531	7.01512	0.717656	9.16329	1.0951	14.0858	1.41803	18.0926	1.77503	22.7225
2.03125	2.46361	0.482187	6.13267	2.03436	2.46276	0.770089	9.70365	1.06724	13.4726	1.43391	18.0073	1.77025	22.4692	0.46167	6.86687	0.720888	8.94114	1.09682	13.7014	1.419	17.5871	1.77652	22.089
2.02663	2.46491	0.485639	6.00048	2.02973	2.46404	0.772155	9.45478	1.069	13.1128	1.4354	17.5184	1.77077	21.8363	0.466249	6.70486	0.724477	8.73565	1.09845	13.3373	1.42011	17.1116	1.77795	21.4903
2.02203	2.46623	0.488834	5.87254	2.02511	2.46534	0.774075	9.21786	1.07097	12.7754	1.43682	17.0554	1.77141	21.2398	0.470628	6.55048	0.728423	8.54547	1.09998	12.9919	1.42138	16.6636	1.77932	20.9233
2.01743	2.46757	0.491772	5.74849	2.02051	2.46667	0.775845	8.99186	1.07314	12.4585	1.43817	16.6163	1.77218	20.6769	0.474789	6.40278	0.732724	8.36939	1.10141	12.6637	1.4228	16.241	1.78062	20.3855
2.01285	2.46893	0.494453	5.62803	2.01592	2.46802	0.777461	8.77591	1.07554	12.1605	1.43943	16.199	1.77307	20.145	0.47872	6.26096	0.737376	8.20624	1.10274	12.3513	1.42439	15.8418	1.78186	19.8747
2.00825	2.47029	0.496883	5.51095	2.01133	2.46938	0.778922	8.56921	1.07815	11.88	1.44062	15.802	1.77408	19.6416	0.482407	6.12437	0.741708	8.07378	1.10396	12.0535	1.42613	15.4643	1.78303	19.3888
2.00362	2.4716	0.499068	5.39706	2.00673	2.47073	0.780226	8.37106	1.08097	11.6158	1.44172	15.4238	1.77523	19.1647	0.485843	5.99246	0.7456	7.96749	1.10508	11.7692	1.42803	15.1069	1.78414	18.9259
1.99886	2.47278	0.501019	5.28625	2.00207	2.47201	0.781235	8.20488	1.084	11.3666	1.44274	15.0628	1.77651	18.7124	0.489023	5.86477	0.748954	7.88391	1.1061	11.4974	1.43009	14.7682	1.78517	18.4844
1.9938	2.47358	0.502748	5.17842	1.99724	2.4731	0.782001	8.0677	1.08724	11.1312	1.44368	14.7181	1.77791	18.2828	0.491945	5.74094	0.751689	7.82044	1.10701	11.2374	1.43231	14.4469	1.78614	18.0629
1.98824	2.47375	0.504268	5.07351	1.99203	2.4737	0.782572	7.95722	1.09068	10.9088	1.44454	14.3884	1.77945	17.8745	0.494611	5.6207	0.753746	7.77518	1.10781	10.9882	1.43467	14.1416	1.78704	17.6599
1.98229	2.47345	0.505596	4.97146	1.98631	2.47369	0.782982	7.87169	1.09432	10.6983	1.44532	14.0727	1.78111	17.4859	0.497025	5.50382	0.755083	7.74683	1.10853	10.7492	1.43719	13.8514	1.78787	17.2742
1.97618	2.47295	0.506747	4.87223	1.98029	2.4733	0.783261	7.80979	1.09815	10.4989	1.44602	13.7702	1.78289	17.1157	0.499195	5.39013	0.757032	7.70688	1.10914	10.5199	1.43986	13.5752	1.78863	16.9047
1.97	2.47236	0.507737	4.7758	1.97415	2.47276	0.78343	7.77061	1.10216	10.3098	1.44666	13.4801	1.7848	16.7627	0.501132	5.27951	0.759186	7.6645	1.10967	10.2995	1.44266	13.3121	1.78933	16.5504
1.96379	2.47172	0.508584	4.68214	1.96796	2.47215	0.783659	7.71487	1.10635	10.1303	1.44722	13.2015	1.78683	16.4258	0.502847	5.17186	0.762173	7.60858	1.11012	10.0876	1.4456	13.0611	1.78998	16.2104
1.95757	2.47106	0.509302	4.59123	1.96174	2.47151	0.783889	7.65504	1.11069	9.95967	1.44772	12.9338	1.78897	16.1039	0.504356	5.06712	0.766045	7.54053	1.11049	9.88371	1.44867	12.8215	1.79056	15.8838
1.95134	2.47039	0.509908	4.50303	1.95552	2.47084	0.784174	7.57491	1.1152	9.79732	1.44817	12.6765	1.79122	15.7961	0.505672	4.96524	0.77086	7.46202	1.11079	9.68747	1.45186	12.5926	1.7911	15.5699
1.9451	2.46971	0.510418	4.41752	1.94928	2.47017	0.784485	7.47557	1.11984	9.64265	1.44856	12.4289	1.79358	15.5014	0.506813	4.86619	0.776684	7.37486	1.11104	9.49847	1.45517	12.3736	1.79159	15.2679
1.93887	2.46903	0.510846	4.33466	1.94305	2.46949	0.784792	7.3583	1.12462	9.49512	1.44891	12.1906	1.79604	15.2192	0.507794	4.76993	0.783586	7.28087	1.11123	9.31637	1.45858	12.164	1.79204	14.9772
1.93263	2.46834	0.511206	4.25441	1.93681	2.4688	0.785058	7.22459	1.12951	9.35421	1.44922	11.961	1.79859	14.9485	0.508632	4.67644	0.790703	7.19279	1.11139	9.14087	1.46209	11.9631	1.79245	14.6972
1.9264	2.46765	0.511511	4.17675	1.93058	2.46812	0.785241	7.07602	1.13451	9.21944	1.44951	11.7397	1.80123	14.6888	0.509343	4.5857	0.798016	7.11008	1.11153	8.9717	1.46569	11.7703	1.79284	14.4274
1.92017	2.46696	0.511774	4.10161	1.92434	2.46743	0.785302	6.93243	1.1396	9.09039	1.44977	11.5265	1.80395	14.4392	0.509943	4.49767	0.805505	7.03223	1.11165	8.80861	1.46936	11.5851	1.7932	14.1673
1.91394	2.46627	0.511977	4.03816	1.91811	2.46674	0.785247	6.79356	1.14478	8.96663	1.45003	11.3208	1.80674	14.1994	0.510447	4.41232	0.81315	6.9588	1.11177	8.65139	1.47311	11.4071	1.79355	13.9164
1.90771	2.46558	0.512137	3.98554	1.91189	2.46604	0.785083	6.65921	1.15002	8.84777	1.45028	11.1224	1.8096	13.9685	0.51087	4.32962	0.820933	6.88936	1.11191	8.49985	1.47691	11.2359	1.79389	13.6742
1.90149	2.46489	0.512263	3.94303	1.90566	2.46535	0.784818	6.52918	1.15531	8.73346	1.45055	10.9311	1.81252	13.7462	0.511227	4.24954	0.828834	6.82354	1.11205	8.3723	1.48077	11.0708	1.79424	13.4404
1.89527	2.4642	0.51236	3.91005	1.89944	2.46466	0.78446	6.40328	1.16064	8.62335	1.45084	10.7464	1.81548	13.5319	0.511529	4.17203	0.836833	6.76096	1.11221	8.26679	1.48466	10.9117	1.79459	13.2147
1.88906	2.46351	0.512431	3.88615	1.89323	2.46397	0.784015	6.28134	1.166	8.51712	1.45116	10.5682	1.81849	13.3251	0.511789	4.09705	0.844911	6.7013	1.11237	8.18176	1.48858	10.7581	1.79497	12.9966
1.88285	2.46283	0.512476	3.87101	1.88701	2.46329	0.783491	6.16321	1.17136	8.41446	1.45154	10.3962	1.82153	13.1255	0.512019	4.02455	0.853047	6.64424	1.11251	8.11592	1.49252	10.6096	1.79537	12.786
1.87665	2.46214	0.512542	3.84946	1.88081	2.4626	0.782896	6.04874	1.17603	8.3277	1.45197	10.2303	1.82459	12.9325	0.512229	3.95448	0.861222	6.58949	1.11263	8.06829	1.49646	10.4659	1.79582	12.5824
1.87045	2.46146	0.512613	3.82632	1.8746	2.46192	0.782236	5.93779	1.17999	8.25558	1.45248	10.0701	1.82767	12.7459	0.512429	3.88679	0.869414	6.53676	1.11271	8.03815	1.50039	10.3268	1.79632	12.3856
1.86425	2.46078	0.512712	3.7953	1.86841	2.46124	0.781519	5.83023	1.18326	8.19713	1.45309	9.91571	1.83076	12.5652	0.512629	3.82142	0.8776	6.48579	1.11284	7.9953	1.5043	10.1919	1.79687	12.1954
1.85807	2.46011	0.512841	3.75684	1.86221	2.46056	0.780752	5.72594	1.18583	8.15165	1.4538	9.76677	1.83384	12.3901	0.512836	3.75832	0.885758	6.43632	1.113	7.94934	1.50819	10.0609	1.7975	12.0116
1.85188	2.45943	0.513005	3.71144	1.85603	2.45988	0.779941	5.62481	1.18771	8.11859	1.45463	9.62318	1.8369	12.2203	0.513058	3.69743	0.89386	6.38809	1.11323	7.88788	1.51203	9.93362	1.79821	11.8338
1.84571	2.45877	0.513212	3.6597	1.84985	2.45921	0.779093	5.52673	1.18891	8.09761	1.4556	9.48481	1.83995	12.0555	0.513304	3.63869	0.901882	6.34086	1.11358	7.81186	1.51581	9.80979	1.79901	11.662
1.83953	2.4581	0.513475	3.60231	1.84367	2.45855	0.778213	5.43158	1.19063	8.06766	1.45672	9.35153	1.84296	11.8954	0.513578	3.58205	0.909793	6.29436	1.11407	7.72245	1.51953	9.68918	1.79991	11.4959
1.83337	2.45744	0.513772	3.54697	1.8375	2.45788	0.777308	5.33928	1.19249	8.0354	1.45802	9.22322	1.84593	11.7398	0.513889	3.52745	0.917562	6.24837	1.11477	7.6211	1.52318	9.57158	1.80093	11.3354
1.82721	2.45678	0.514107	3.49363	1.83134	2.45722	0.776383	5.24972	1.19501	7.992	1.4595	9.09977	1.84886	11.5883	0.514239	3.47482	0.925155	6.20262	1.11577	7.50945	1.52673	9.45679	1.80207	11.1802
1.82106	2.45613	0.514487	3.44224	1.82519	2.45657	0.775444	5.16282	1.19816	7.93785	1.46118	8.98106	1.85172	11.4408	0.514636	3.42411	0.932538	6.15687	1.117	7.40279	1.53018	9.34462	1.80335	11.0303
1.81492	2.45549	0.514916	3.39273	1.81904	2.45592	0.774496	5.07849	1.20193	7.87339	1.46308	8.867	1.85452	11.2971	0.515084	3.37527	0.939671	6.11087	1.11851	7.30114	1.53353	9.23491	1.80478	10.8853
1.80878	2.45485	0.515398	3.34505	1.81289	2.45528	0.773543	4.99664	1.20627	7.79911	1.46522	8.75746	1.85725	11.1569	0.515586	3.32824	0.946518	6.06439	1.12033	7.20451	1.53675	9.12749	1.80636	10.7453
1.80265	2.45422	0.515938	3.29915	1.80676	2.45464	0.772591	4.9172	1.21114	7.71549	1.46759	8.65235	1.85989	11.02	0.516148	3.28297	0.953037	6.01721	1.1225	7.11294	1.53984	9.02221	1.8081	10.61
1.79653	2.45359	0.516538	3.25496	1.80063	2.45401	0.771644	4.84009	1.21587	7.63342	1.46987	8.56427	1.86245	10.8863	0.516771	3.23939	0.959192	5.96911	1.12506	7.02643	1.5428	8.91895	1.81001	10.4794
1.79042	2.45297	0.517203	3.21244	1.79452	2.45339	0.770705	4.76524	1.22044	7.55272	1.47198	8.49172	1.86491	10.7556	0.51746	3.19746	0.964948	5.91993	1.12805	6.945	1.54561	8.81758	1.8121	10.3532
1.78431	2.45236	0.517936	3.17154	1.7884	2.45277	0.76978	4.69258	1.22484	7.47325	1.47383	8.43344	1.86726	10.6278	0.518218	3.15713	0.970275	5.86952	1.13149	6.86862	1.54827	8.71799	1.81438	10.2313
1.77822	2.45176	0.518739	3.1322	1.7823	2.45216	0.768872	4.62203	1.22906	7.39485	1.47537	8.38844	1.86951	10.5026	0.519047	3.11835	0.975151	5.81781	1.13542	6.79723	1.55045	8.63257	1.81685	10.1136
1.77213	2.45116	0.519614	3.09438	1.77621	2.45156	0.767985	4.55353	1.23307	7.3174	1.47654	8.35595	1.87165	10.3801	0.519949	3.08106	0.97956	5.76476	1.13984	6.73073	1.55222	8.56073	1.81951	10
1.76605	2.45058	0.520565	3.05802	1.77013	2.45097	0.767122	4.48703	1.23687	7.24079	1.47731	8.33542	1.87367	10.26	0.520927	3.04521	0.983498	5.71039	1.14476	6.66896	1.55362	8.50196	1.82236	9.89028
1.75998	2.45	0.521592	3.02308	1.76405	2.45039	0.766286	4.42245	1.24044	7.16491	1.47844	8.30627	1.87557	10.1423	0.521983	3.01078	0.986969	5.65479	1.15019	6.61172	1.55468	8.4559	1.82542	9.78434
1.75393	2.44944	0.522698	2.98951	1.75799	2.44982	0.765481	4.35975	1.24377	7.08968	1.4797	8.27505	1.87736	10.0268	0.523118	2.97769	0.989989	5.59808	1.15612	6.55876	1.55543	8.42226	1.82867	9.68203
1.74788	2.44889	0.523885	2.95727	1.75193	2.44926	0.76471	4.29886	1.24686	7.01504	1.48147	8.23338	1.87902	9.91352	0.524335	2.94592	0.992576	5.54042	1.16251	6.50982	1.55591	8.40082	1.83212	9.58322
1.74184	2.44834	0.525154	2.92632	1.74589	2.44871	0.763975	4.23974	1.24971	6.94093	1.48382	8.18193	1.88055	9.8023	0.525633	2.91543	0.994761	5.48201	1.16935	6.46458	1.55657	8.37014	1.83577	9.48778
1.73582	2.44781	0.526506	2.89661	1.73986	2.44817	0.763279	4.18232	1.2523	6.86734	1.48679	8.12156	1.88197	9.69311	0.527016	2.88616	0.996573	5.42304	1.1766	6.42275	1.55727	8.33696	1.8396	9.39556
1.72981	2.4473	0.527942	2.8681	1.73384	2.44764	0.762626	4.12657	1.25465	6.79422	1.49047	8.05322	1.88327	9.58586	0.528483	2.85808	0.998046	5.3637	1.18423	6.38401	1.55819	8.29213	1.84363	9.30642
1.7238	2.44679	0.529465	2.84076	1.72783	2.44713	0.762016	4.07242	1.25674	6.72159	1.49495	7.97799	1.88445	9.48051	0.530037	2.83115	0.999214	5.30421	1.19221	6.34807	1.55929	8.23589	1.84783	9.22024
1.71782	2.44631	0.531074	2.81455	1.72183	2.44663	0.761453	4.01984	1.2586	6.64944	1.49971	7.90601	1.88551	9.37701	0.531678	2.80534	1.00011	5.24473	1.20051	6.31465	1.56055	8.16857	1.8522	9.13688
1.71184	2.44583	0.532771	2.78943	1.71585	2.44615	0.760939	3.96879	1.26021	6.5778	1.50472	7.83712	1.88646	9.27532	0.533407	2.78061	1.00077	5.18542	1.20908	6.28349	1.56191	8.09052	1.85675	9.05621
1.70588	2.44538	0.534557	2.76538	1.70987	2.44568	0.760476	3.91921	1.2616	6.50667	1.50999	7.77117	1.88731	9.17539	0.535226	2.75693	1.00121	5.12644	1.21791	6.25435	1.56332	8.00218	1.86145	8.9781
1.69993	2.44494	0.536434	2.74235	1.70392	2.44523	0.760067	3.87106	1.26277	6.4361	1.5155	7.708	1.88806	9.07721	0.537135	2.73427	1.00147	5.0679	1.22695	6.22701	1.56457	7.91513	1.8663	8.90241
1.694	2.44451	0.538402	2.72033	1.69797	2.44479	0.759712	3.82431	1.26372	6.36611	1.52124	7.64744	1.88872	8.98074	0.539138	2.7126	1.00157	5.00992	1.23619	6.20128	1.56568	7.82934	1.87064	8.83834
1.68808	2.44411	0.540465	2.69928	1.69204	2.44438	0.759415	3.77892	1.26448	6.29674	1.5272	7.58934	1.88922	8.89805	0.541235	2.6919	1.00154	4.95257	1.2456	6.17697	1.56665	7.7448	1.87442	8.78505
1.68217	2.44373	0.542624	2.67919	1.68613	2.44398	0.759176	3.73485	1.26506	6.22803	1.53335	7.53355	1.8896	8.82857	0.543429	2.67215	1.00138	4.89594	1.25515	6.15395	1.56748	7.66152	1.87759	8.74186
1.67629	2.44336	0.544883	2.66003	1.68023	2.44361	0.758998	3.69207	1.26545	6.16001	1.5397	7.47993	1.88988	8.77181	0.545725	2.65334	1.00113	4.84009	1.26484	6.13205	1.56818	7.57949	1.88013	8.70826
1.67042	2.44302	0.547246	2.64182	1.67435	2.44325	0.758883	3.65053	1.26569	6.09272	1.54621	7.42832	1.89009	8.72737	0.548129	2.63545	1.00079	4.78507	1.27463	6.11116	1.56878	7.49873	1.88202	8.68385
1.66456	2.44271	0.549722	2.62453	1.66849	2.44292	0.758832	3.61022	1.26577	6.02619	1.55289	7.37859	1.89023	8.69495	0.550648	2.61852	1.00038	4.73091	1.28451	6.09116	1.56927	7.41923	1.88324	8.66836
1.65873	2.44241	0.552322	2.60821	1.66264	2.44261	0.758847	3.57108	1.26571	5.96044	1.55971	7.33061	1.89032	8.67431	0.553296	2.60255	0.999904	4.67764	1.29447	6.07194	1.56966	7.34102	1.88499	8.64627
1.65291	2.44215	0.555063	2.59291	1.65681	2.44232	0.758929	3.53311	1.26553	5.89552	1.56665	7.28426	1.89044	8.64479	0.556095	2.58763	0.999385	4.62528	1.30448	6.05339	1.56998	7.26411	1.88691	8.62249
1.64711	2.4419	0.557975	2.57871	1.651	2.44206	0.75908	3.49625	1.26523	5.83143	1.57371	7.2394	1.89057	8.6129	0.559078	2.57388	0.998827	4.57385	1.31454	6.03543	1.57023	7.18853	1.88954	8.59052
1.64133	2.44169	0.561103	2.56581	1.64521	2.44183	0.759301	3.4605	1.26482	5.7682	1.58086	7.19594	1.89073	8.56988	0.562302	2.56151	0.998239	4.52337	1.32462	6.01796	1.57043	7.11429	1.8929	8.55069
1.63558	2.44151	0.564524	2.5545	1.63943	2.44163	0.759594	3.42581	1.26431	5.70584	1.5881	7.15375	1.89091	8.51602	0.565854	2.55088	0.997629	4.47383	1.33471	6.00089	1.57059	7.04144	1.89701	8.50339
1.62984	2.44135	0.568344	2.54521	1.63368	2.44145	0.759962	3.39216	1.26372	5.64438	1.59541	7.11273	1.89112	8.45171	0.569847	2.54244	0.997004	4.42523	1.34479	5.98414	1.57074	6.97001	1.90188	8.44906
1.62413	2.44123	0.572674	2.53837	1.62796	2.44131	0.760404	3.35954	1.26304	5.58382	1.60276	7.07277	1.89135	8.37744	0.574377	2.53653	0.996369	4.37759	1.35484	5.9676	1.5709	6.90004	1.90752	8.38817
1.61843	2.44114	0.577551	2.53407	1.62225	2.4412	0.760923	3.32791	1.2623	5.52418	1.61016	7.03378	1.89159	8.29376	0.579439	2.53308	0.995732	4.33088	1.36485	5.95119	1.57108	6.8316	1.91323	8.32874
1.61277	2.44109	0.5829	2.53191	1.61656	2.44112	0.761521	3.29725	1.26149	5.46544	1.61757	6.99566	1.89183	8.21173	0.584925	2.53152	0.995096	4.28511	1.37478	5.93481	1.57131	6.76473	1.91897	8.27066
1.60712	2.44107	0.588585	2.53123	1.6109	2.44108	0.762199	3.26754	1.26062	5.40763	1.62499	6.9583	1.89208	8.13137	0.590701	2.53124	0.994466	4.24026	1.38462	5.91833	1.57162	6.69953	1.92474	8.21385
1.6015	2.44109	0.594488	2.5315	1.60527	2.44107	0.762958	3.23876	1.25971	5.35074	1.6324	6.92162	1.89236	8.0527	0.59666	2.53175	0.993846	4.19634	1.39433	5.90163	1.57205	6.63608	1.93053	8.15821
1.59591	2.44115	0.600527	2.53233	1.59966	2.4411	0.763802	3.21089	1.25875	5.29477	1.63977	6.88553	1.89267	7.97573	0.602736	2.53273	0.993241	4.15332	1.40388	5.88457	1.57263	6.57449	1.93631	8.10366
1.59034	2.44125	0.606654	2.53352	1.59407	2.44118	0.764731	3.18391	1.25775	5.23972	1.6471	6.84992	1.89305	7.90049	0.608885	2.534	0.992654	4.11119	1.41323	5.867	1.57341	6.5149	1.94209	8.0501
1.5848	2.44139	0.612836	2.53491	1.58851	2.44129	0.765748	3.15781	1.25672	5.18558	1.65435	6.8147	1.8935	7.827	0.615083	2.53545	0.992087	4.06995	1.42232	5.84872	1.57444	6.45747	1.94784	7.99745
1.57928	2.44157	0.619057	2.53643	1.58298	2.44144	0.766855	3.13257	1.25566	5.13235	1.66152	6.77978	1.89405	7.75529	0.621314	2.537	0.991544	4.02958	1.43111	5.82954	1.57578	6.40237	1.95355	7.94562
1.5738	2.4418	0.625303	2.53803	1.57747	2.44164	0.768055	3.10817	1.25458	5.08003	1.66857	6.74505	1.89471	7.68541	0.627567	2.53862	0.991028	3.99007	1.43952	5.80923	1.57749	6.3498	1.95921	7.89454
1.56834	2.44208	0.631567	2.53967	1.572	2.44189	0.769349	3.08461	1.25348	5.02859	1.67549	6.71043	1.89552	7.61738	0.633836	2.54027	0.99054	3.9514	1.4475	5.78753	1.57965	6.29999	1.9648	7.84411
1.56292	2.44241	0.637843	2.54132	1.56655	2.44218	0.770742	3.06186	1.25237	4.97805	1.68225	6.67581	1.89648	7.55125	0.640115	2.54192	0.990084	3.91355	1.45497	5.76421	1.58234	6.25316	1.9703	7.79427
1.55752	2.44279	0.644127	2.54298	1.56114	2.44253	0.772235	3.03993	1.25124	4.92838	1.68882	6.64108	1.89764	7.48707	0.646402	2.54358	0.989661	3.87652	1.46186	5.73903	1.58562	6.20951	1.97569	7.74493
1.55216	2.44321	0.650417	2.54463	1.55575	2.44292	0.773834	3.0188	1.25011	4.87957	1.69519	6.60616	1.89901	7.42488	0.652693	2.54523	0.989273	3.8403	1.46809	5.71178	1.58956	6.1692	1.98098	7.69602
1.54683	2.44369	0.65671	2.54627	1.5504	2.44337	0.77554	2.99847	1.24898	4.83163	1.70131	6.57095	1.90062	7.36474	0.658987	2.54686	0.988922	3.80485	1.47363	5.68232	1.59421	6.13231	1.98612	7.64747
1.54152	2.44423	0.663005	2.54788	1.54508	2.44387	0.777359	2.97892	1.24784	4.78453	1.70717	6.53534	1.9025	7.30669	0.665283	2.54846	0.98861	3.77018	1.47845	5.65063	1.59958	6.09883	1.99112	7.59919
1.53626	2.44482	0.669301	2.54947	1.53979	2.44442	0.779295	2.96017	1.24671	4.73826	1.71274	6.49926	1.90467	7.25078	0.671579	2.55004	0.988338	3.73627	1.48255	5.61675	1.60566	6.06865	1.99595	7.55114
1.53102	2.44547	0.675597	2.55103	1.53453	2.44503	0.781352	2.9422	1.24558	4.69282	1.718	6.46263	1.90716	7.19703	0.677874	2.55159	0.988108	3.7031	1.48595	5.58083	1.61244	6.04158	2.0006	7.50323
1.52582	2.44618	0.681891	2.55256	1.52931	2.4457	0.783537	2.92501	1.24446	4.64819	1.72292	6.42538	1.90999	7.14549	0.684168	2.55311	0.987921	3.67065	1.48869	5.54312	1.61985	6.01733	2.00506	7.45543
1.52066	2.44695	0.688184	2.55406	1.52412	2.44643	0.785854	2.90861	1.24335	4.60435	1.7275	6.38746	1.91318	7.09616	0.690461	2.55459	0.987778	3.63893	1.49086	5.50388	1.62784	5.99561	2.00931	7.40766
1.51552	2.44778	0.694476	2.55552	1.51896	2.44722	0.78831	2.89299	1.24225	4.56131	1.7317	6.34883	1.91674	7.04905	0.696751	2.55604	0.987681	3.6079	1.4925	5.4634	1.63633	5.9761	2.01333	7.3599
1.51043	2.44867	0.700764	2.55695	1.51384	2.44807	0.790911	2.87816	1.24116	4.51904	1.73553	6.30949	1.92069	7.00414	0.703039	2.55746	0.987631	3.57756	1.49369	5.42197	1.64526	5.9585	2.01713	7.3121
1.50536	2.44963	0.70705	2.55835	1.50875	2.44898	0.793663	2.86413	1.24009	4.47753	1.73897	6.26944	1.92503	6.96139	0.709324	2.55885	0.987628	3.5479	1.4945	5.37984	1.65457	5.94253	2.02068	7.26423
1.50034	2.45065	0.713333	2.55971	1.5037	2.44996	0.796572	2.85089	1.23904	4.43677	1.74204	6.22869	1.92976	6.92075	0.715605	2.56019	0.987674	3.5189	1.49498	5.33723	1.66419	5.92797	2.02399	7.21627
1.49535	2.45174	0.719612	2.56104	1.49869	2.451	0.799643	2.83844	1.23801	4.39675	1.74474	6.1873	1.93488	6.88215	0.721883	2.56151	0.98777	3.49054	1.49518	5.29435	1.67408	5.9146	2.02705	7.16821
1.49039	2.45289	0.725887	2.56233	1.49371	2.45211	0.802882	2.82678	1.237	4.35745	1.74708	6.14531	1.94037	6.84551	0.728157	2.56279	0.987917	3.46283	1.49515	5.25134	1.68421	5.90225	2.02986	7.12005
1.48547	2.45411	0.732159	2.56359	1.48876	2.45329	0.806291	2.81591	1.23601	4.31887	1.74908	6.10279	1.94622	6.81072	0.734427	2.56403	0.988115	3.43573	1.49493	5.20835	1.69452	5.89077	2.03242	7.07179
1.48058	2.4554	0.738426	2.56481	1.48386	2.45453	0.809873	2.80581	1.23505	4.28099	1.75075	6.05982	1.95242	6.77768	0.740693	2.56525	0.988365	3.40925	1.49454	5.16549	1.705	5.88003	2.03473	7.02344
1.47573	2.45676	0.744689	2.566	1.47898	2.45584	0.813629	2.79647	1.23411	4.2438	1.75211	6.01649	1.95894	6.74627	0.746954	2.56642	0.988669	3.38337	1.49402	5.12283	1.71562	5.86993	2.0368	6.97503
1.47092	2.45819	0.750947	2.56715	1.47414	2.45722	0.817557	2.78786	1.2332	4.20729	1.75318	5.97286	1.96576	6.71639	0.75321	2.56756	0.989026	3.35808	1.49339	5.08045	1.72635	5.86037	2.03864	6.92658
1.46614	2.45969	0.757201	2.56827	1.46934	2.45868	0.821653	2.77995	1.23232	4.17145	1.754	5.92903	1.97286	6.68792	0.759462	2.56867	0.989437	3.33336	1.49266	5.03842	1.73717	5.85129	2.04025	6.87814
1.4614	2.46126	0.763449	2.56936	1.46457	2.4602	0.825912	2.77272	1.23147	4.13626	1.75457	5.88506	1.98022	6.66075	0.765708	2.56974	0.989904	3.30921	1.49184	4.99676	1.74808	5.84262	2.04165	6.82972
1.45669	2.46289	0.769692	2.57041	1.45984	2.46179	0.830327	2.76611	1.23065	4.10171	1.75493	5.84104	1.9878	6.63477	0.77195	2.57078	0.990427	3.28561	1.49097	4.95552	1.75905	5.83429	2.04285	6.78139
1.45201	2.4646	0.77593	2.57142	1.45514	2.46345	0.834889	2.76009	1.22986	4.0678	1.75508	5.79704	1.9956	6.60988	0.778185	2.57178	0.991005	3.26256	1.49003	4.91473	1.77007	5.82625	2.04386	6.73318
1.44737	2.46638	0.782162	2.57241	1.45048	2.46518	0.839589	2.75462	1.2291	4.0345	1.75505	5.7531	2.00358	6.58598	0.784415	2.57275	0.991641	3.24004	1.48906	4.87441	1.78113	5.81847	2.0447	6.68513
1.44276	2.46823	0.788387	2.57335	1.44584	2.46698	0.844417	2.74964	1.22838	4.00182	1.75486	5.7093	2.01173	6.56299	0.790638	2.57369	0.992335	3.21804	1.48804	4.83457	1.79221	5.81088	2.04539	6.63731
1.43818	2.47014	0.794607	2.57427	1.44124	2.46885	0.849362	2.74512	1.22769	3.96974	1.75453	5.66568	2.02002	6.54082	0.796856	2.57459	0.993086	3.19656	1.487	4.79523	1.80331	5.80346	2.04594	6.58975
1.43363	2.47213	0.80082	2.57514	1.43667	2.47079	0.854414	2.741	1.22704	3.93825	1.75406	5.62228	2.02845	6.51939	0.803066	2.57545	0.993897	3.17558	1.48593	4.7564	1.81442	5.79615	2.04637	6.54252
1.42911	2.47418	0.807026	2.57599	1.43214	2.4728	0.859562	2.73726	1.22643	3.90733	1.75348	5.57915	2.03698	6.49863	0.80927	2.57628	0.994766	3.1551	1.48485	4.71809	1.82551	5.78892	2.0467	6.49566
1.42462	2.4763	0.813225	2.5768	1.42763	2.47487	0.864798	2.73384	1.22585	3.87699	1.75279	5.53631	2.04561	6.47848	0.815466	2.57708	0.995696	3.13511	1.48375	4.68029	1.83658	5.78172	2.04695	6.44922
1.42016	2.47849	0.819416	2.57757	1.42315	2.47701	0.870112	2.73073	1.22531	3.8472	1.75201	5.49381	2.05432	6.45885	0.821654	2.57784	0.996686	3.11559	1.48265	4.64301	1.84762	5.77451	2.04714	6.40328
1.41572	2.48073	0.8256	2.57831	1.41869	2.47922	0.875497	2.72787	1.2248	3.81797	1.75115	5.45165	2.06309	6.4397	0.827835	2.57856	0.997737	3.09654	1.48154	4.60626	1.85859	5.76722	2.0473	6.3579
1.41131	2.48304	0.831775	2.57901	1.41426	2.48148	0.880945	2.72525	1.22434	3.78927	1.75021	5.40987	2.0719	6.42097	0.834007	2.57925	0.998849	3.07795	1.48043	4.57003	1.86949	5.7598	2.04746	6.31313
1.40691	2.4854	0.837941	2.57967	1.40986	2.48381	0.886449	2.72284	1.22392	3.7611	1.74921	5.36848	2.08075	6.40259	0.84017	2.5799	1.00002	3.05981	1.47933	4.53433	1.88028	5.75216	2.04764	6.26908
1.40254	2.48781	0.844098	2.5803	1.40547	2.48619	0.892003	2.72062	1.22354	3.73346	1.74815	5.3275	2.0896	6.38452	0.846323	2.58051	1.00126	3.04212	1.47823	4.49913	1.89094	5.74423	2.04788	6.22584
1.39818	2.49028	0.850245	2.58088	1.4011	2.48862	0.897602	2.71857	1.2232	3.70632	1.74703	5.28694	2.09846	6.36669	0.852467	2.58109	1.00256	3.02487	1.47714	4.46446	1.90143	5.73589	2.04822	6.18351
1.39384	2.49278	0.856382	2.58143	1.39675	2.4911	0.903242	2.71666	1.2229	3.67969	1.74588	5.24681	2.10729	6.34904	0.858599	2.58162	1.00393	3.00805	1.47606	4.4303	1.9117	5.72701	2.04872	6.14223
1.3895	2.49532	0.862507	2.58194	1.39241	2.49362	0.908917	2.71489	1.22264	3.65355	1.74469	5.20712	2.11609	6.33153	0.864721	2.58211	1.00536	2.99165	1.47499	4.39664	1.9217	5.71742	2.04944	6.10218
1.38517	2.49789	0.868621	2.5824	1.38807	2.49617	0.914624	2.71324	1.22243	3.6279	1.74346	5.16787	2.12483	6.31408	0.87083	2.58256	1.00685	2.97567	1.47393	4.36349	1.93133	5.70691	2.05046	6.06356
1.38083	2.50048	0.874722	2.58282	1.38374	2.49874	0.92036	2.71169	1.22226	3.60273	1.74221	5.12907	2.13349	6.29664	0.876926	2.58296	1.00842	2.96011	1.4729	4.33083	1.94052	5.69524	2.05187	6.02661
1.37649	2.50306	0.88081	2.5832	1.3794	2.50133	0.926122	2.71024	1.22213	3.57802	1.74093	5.09073	2.14204	6.27914	0.883009	2.58332	1.01005	2.94495	1.47188	4.29866	1.94916	5.6821	2.05379	5.99163
1.37212	2.50564	0.886883	2.58352	1.37505	2.50391	0.931907	2.70888	1.22205	3.55377	1.73963	5.05284	2.15047	6.2615	0.889077	2.58363	1.01175	2.93019	1.47087	4.26699	1.95712	5.66719	2.05633	5.95894
1.36772	2.50818	0.892941	2.5838	1.37068	2.50648	0.937712	2.7076	1.22201	3.52998	1.73832	5.01541	2.15875	6.24365	0.895128	2.58389	1.01352	2.91583	1.46989	4.23579	1.96428	5.65017	2.05963	5.92885
1.36329	2.51067	0.898982	2.58403	1.36627	2.50901	0.943536	2.70638	1.22202	3.50664	1.73699	4.97843	2.16684	6.2255	0.901163	2.5841	1.01536	2.90186	1.46894	4.20507	1.97054	5.6308	2.0638	5.90164
1.3588	2.51308	0.905004	2.5842	1.36182	2.51147	0.949377	2.70523	1.22208	3.48373	1.73565	4.94192	2.17471	6.20697	0.907179	2.58425	1.01727	2.88828	1.468	4.17482	1.97582	5.60892	2.0689	5.87747
1.35424	2.51537	0.911008	2.58432	1.3573	2.51385	0.955232	2.70414	1.22218	3.46125	1.73431	4.90586	2.18233	6.18796	0.913175	2.58435	1.01926	2.87508	1.46709	4.14503	1.98013	5.58456	2.07497	5.85633
1.34959	2.51753	0.91699	2.58437	1.35271	2.5161	0.961101	2.70309	1.22233	3.43919	1.73296	4.87025	2.18966	6.16838	0.919149	2.58438	1.02132	2.86227	1.46621	4.1157	1.9835	5.5579	2.08197	5.83805
1.34483	2.51951	0.922949	2.58436	1.34803	2.5182	0.966981	2.70209	1.22252	3.41755	1.73161	4.8351	2.19665	6.14811	0.925099	2.58434	1.02346	2.84984	1.46535	4.08682	1.98603	5.52923	2.0898	5.82233
1.33996	2.52128	0.928884	2.58428	1.34324	2.52012	0.972872	2.70114	1.22276	3.39632	1.73026	4.8004	2.20327	6.12707	0.931024	2.58423	1.02568	2.83779	1.46452	4.05838	1.98783	5.49893	2.09835	5.80882
1.33496	2.52282	0.934791	2.58413	1.33833	2.52181	0.978772	2.70022	1.22305	3.37549	1.72891	4.76615			0.936921	2.58405	1.02798	2.82611	1.46371	4.03039	1.98903	5.46736	2.10751	5.79715
1.32982	2.52411	0.940669	2.58389	1.33328	2.52328	0.98468	2.69934	1.22339	3.35506	1.72756	4.73234			0.942787	2.58379	1.03037	2.81482	1.46294	4.00282	1.98974	5.43483	2.11717	5.78698
1.32454	2.52515	0.946514	2.58358	1.3281	2.52448	0.990596	2.69849	1.22378	3.33501	1.72622	4.69898			0.94862	2.58344	1.03284	2.8039	1.46219	3.97568	1.99004	5.40161	2.12723	5.77803
1.31913	2.52595	0.952324	2.58317	1.32277	2.52544	0.996518	2.69766	1.22421	3.31535	1.72489	4.66605			0.954417	2.58299	1.03541	2.79337	1.46148	3.94897	1.99002	5.36794	2.13761	5.77007
1.31359	2.52651	0.958095	2.58266	1.31732	2.52616	1.00245	2.69686	1.2247	3.29607	1.72357	4.63355			0.960173	2.58245	1.03806	2.78321	1.4608	3.92267	1.98974	5.33399	2.14825	5.7629
1.30794	2.52685	0.963825	2.58204	1.31174	2.52664	1.00838	2.69609	1.22523	3.27715	1.72226	4.60148			0.965886	2.58179	1.04082	2.77345	1.46015	3.89677	1.98925	5.2999	2.1591	5.75639
1.30219	2.52701	0.969508	2.58131	1.30606	2.52693	1.01431	2.69533	1.22581	3.2586	1.72096	4.56984			0.971552	2.58101	1.04368	2.76407	1.45953	3.87128	1.98859	5.26576	2.17013	5.7504
1.29636	2.52701	0.975141	2.58045	1.30028	2.52703	1.02025	2.69459	1.22645	3.24041	1.71968	4.53862			0.977166	2.58011	1.04664	2.75508	1.45894	3.84619	1.98779	5.23168	2.18129	5.74486
1.29045	2.52685	0.980719	2.57947	1.29442	2.52697	1.02619	2.69386	1.22713	3.22257	1.7184	4.50781			0.982723	2.57907	1.04972	2.74649	1.45839	3.82149	1.98687	5.1977	2.19257	5.73968
1.28448	2.52658	0.986238	2.57833	1.28849	2.52678	1.03214	2.69315	1.22787	3.20509	1.71715	4.47742			0.988219	2.57789	1.05291	2.7383	1.45787	3.79717	1.98586	5.16389	2.20394	5.73481
1.27846	2.5262	0.991693	2.57705	1.2825	2.52647	1.03808	2.69245	1.22865	3.18794	1.71591	4.44743			0.99365	2.57655	1.05621	2.73052	1.45739	3.77324	1.98478	5.13028		
1.27239	2.52573	0.997079	2.5756	1.27646	2.52606	1.04402	2.69175	1.22949	3.17113	1.71469	4.41784			0.99901	2.57504	1.05965	2.72316	1.45694	3.74968	1.98362	5.0969		
1.26629	2.52518	1.00239	2.57398	1.27039	2.52556	1.04997	2.69107	1.23038	3.15465	1.71349	4.38865			1.00429	2.57335	1.06321	2.71621	1.45653	3.72648	1.98242	5.06378		
1.26015	2.52456	1.00763	2.57218	1.26427	2.52498	1.05591	2.69039	1.23133	3.13851	1.7123	4.35986			1.0095	2.57149	1.06691	2.70967	1.45615	3.70366	1.98117	5.03093		
1.25399	2.52388	1.01278	2.5702	1.25812	2.52434	1.06185	2.68971	1.23232	3.12268	1.71114	4.33145			1.01462	2.56943	1.07074	2.70356	1.45581	3.68118	1.97988	4.99838		
1.2478	2.52314	1.01785	2.56802	1.25195	2.52364	1.06779	2.68904	1.23337	3.10718	1.71	4.30343			1.01966	2.56719	1.0747	2.69786	1.4555	3.65907	1.97857	4.96614		
1.2416	2.52236	1.02283	2.56565	1.24576	2.52289	1.07372	2.68836	1.23448	3.09198	1.70888	4.27578			1.02461	2.56475	1.07881	2.69257	1.45524	3.6373	1.97723	4.93421		
1.23537	2.52154	1.02772	2.56309	1.23955	2.52209	1.07965	2.68768	1.23564	3.0771	1.70778	4.24851			1.02947	2.56212	1.08306	2.68769	1.45501	3.61587	1.97588	4.90259		
1.22913	2.52067	1.03253	2.56035	1.23332	2.52126	1.08558	2.687	1.23685	3.06253	1.70671	4.22161			1.03425	2.55931	1.08744	2.6832	1.45482	3.59478	1.97451	4.8713		
1.22288	2.51978	1.03725	2.55742	1.22707	2.52038	1.0915	2.68632	1.23812	3.04826	1.70566	4.19507			1.03894	2.55632	1.09195	2.67909	1.45466	3.57402	1.97313	4.84035		
1.21662	2.51884	1.04189	2.55433	1.22082	2.51947	1.09741	2.68562	1.23945	3.03429	1.70464	4.16889			1.04355	2.55317	1.0966	2.67533	1.45455	3.55359	1.97174	4.80972		
1.21034	2.51788	1.04645	2.55108	1.21455	2.51853	1.10332	2.68491	1.24083	3.02061	1.70364	4.14307			1.04808	2.54987	1.10136	2.67192	1.45447	3.53348	1.97035	4.77942		
1.20406	2.5169	1.05094	2.5477	1.20827	2.51756	1.10922	2.6842	1.24228	3.00723	1.70267	4.1176			1.05255	2.54645	1.10624	2.66882	1.45443	3.51369	1.96896	4.74946		
1.19777	2.51588	1.05537	2.5442	1.20199	2.51656	1.11511	2.68347	1.24378	2.99414	1.70172	4.09247			1.05696	2.54291	1.11123	2.66602	1.45443	3.49422	1.96756	4.71984		
1.19147	2.51484	1.05974	2.5406	1.1957	2.51554	1.12099	2.68272	1.24534	2.98134	1.7008	4.06769			1.06131	2.53928	1.11633	2.6635	1.45447	3.47505	1.96618	4.69054		
1.18517	2.51378	1.06406	2.53693	1.1894	2.5145	1.12686	2.68195	1.24696	2.96883	1.69991	4.04324			1.06561	2.53558	1.12151	2.66122	1.45455	3.45619	1.96479	4.66158		
1.17886	2.5127	1.06834	2.5332	1.18309	2.51343	1.13271	2.68116	1.24865	2.9566	1.69904	4.01912			1.06988	2.53184	1.12678	2.65916	1.45467	3.43763	1.96341	4.63295		
1.17255	2.5116	1.07259	2.52943	1.17678	2.51234	1.13855	2.68034	1.25039	2.94465	1.6982	3.99534			1.07412	2.52806	1.13213	2.65731	1.45483	3.41937	1.96205	4.60465		
1.16623	2.51047	1.07681	2.52564	1.17047	2.51123	1.14437	2.67949	1.25221	2.93298	1.6974	3.97187			1.07833	2.52427	1.13755	2.65565	1.45504	3.40139	1.96069	4.57668		
1.15991	2.50933	1.08101	2.52186	1.16415	2.5101	1.15018	2.67861	1.25409	2.92159	1.69662	3.94873			1.08253	2.52049	1.14303	2.65414	1.45528	3.38371	1.95934	4.54903		
1.15359	2.50817	1.08521	2.51809	1.15783	2.50895	1.15596	2.6777	1.25604	2.91049	1.69587	3.9259			1.08672	2.51673	1.14857	2.65279	1.45556	3.3663	1.958	4.5217		
1.14726	2.507	1.0894	2.51435	1.1515	2.50779	1.16172	2.67674	1.25806	2.89967	1.69515	3.90339			1.09091	2.513	1.15415	2.65157	1.45588	3.34918	1.95668	4.4947		
1.14093	2.5058	1.09359	2.51065	1.14518	2.5066	1.16746	2.67573	1.26015	2.88913	1.69446	3.88118			1.09511	2.50933	1.15979	2.65046	1.45625	3.33233	1.95537	4.46801		
1.1346	2.50459	1.09779	2.50701	1.13885	2.50541	1.17317	2.67468	1.26232	2.87887	1.6938	3.85927			1.09931	2.50571	1.16546	2.64946	1.45665	3.31575	1.95408	4.44164		
1.12827	2.50337	1.102	2.50344	1.13252	2.50419	1.17885	2.67356	1.26457	2.8689	1.69317	3.83767			1.10353	2.50217	1.17118	2.64855	1.4571	3.29944	1.9528	4.41558		
1.12194	2.50213	1.10623	2.49995	1.12619	2.50296	1.1845	2.67238	1.26689	2.85921	1.69258	3.81636			1.10777	2.4987	1.17692	2.64773	1.45759	3.2834	1.95154	4.38983		
1.11561	2.50088	1.11048	2.49654	1.11986	2.50172	1.19011	2.67113	1.26931	2.84982	1.69201	3.79534			1.11203	2.49532	1.18269	2.64698	1.45812	3.26761	1.9503	4.36438		
1.10928	2.49961	1.11476	2.49322	1.11352	2.50046	1.19568	2.6698	1.27181	2.84073	1.69148	3.77461			1.11631	2.49204	1.18849	2.64629	1.4587	3.25208	1.94908	4.33924		
1.10294	2.49833	1.11907	2.49	1.10719	2.49919	1.2012	2.66839	1.27441	2.83193	1.69098	3.75416			1.12063	2.48886	1.19432	2.64566	1.45931	3.2368	1.94787	4.3144		
1.09661	2.49704	1.1234	2.48689	1.10086	2.49791	1.20667	2.66688	1.2771	2.82344	1.69051	3.73399			1.12498	2.48579	1.20016	2.64508	1.45997	3.22178	1.94669	4.28985		
1.09028	2.49573	1.12778	2.48388	1.09453	2.49661	1.21209	2.66526	1.2799	2.81526	1.69007	3.7141			1.12937	2.48282	1.20602	2.64455	1.46067	3.207	1.94553	4.2656		
1.08395	2.49442	1.13219	2.48099	1.0882	2.4953	1.21745	2.66353	1.2828	2.8074	1.68967	3.69448			1.1338	2.47997	1.2119	2.64406	1.46142	3.19246	1.94438	4.24163		
1.07762	2.4931	1.13664	2.47822	1.08187	2.49398	1.22274	2.66167	1.28582	2.79987	1.6893	3.67513			1.13827	2.47725	1.21779	2.6436	1.46221	3.17816	1.94326	4.21796		
1.0713	2.49176	1.14114	2.47557	1.07554	2.49266	1.22796	2.65968	1.28896	2.79267	1.68896	3.65604			1.14278	2.47464	1.22369	2.64318	1.46304	3.16409	1.94216	4.19457		
1.06497	2.49042	1.14568	2.47304	1.06921	2.49132	1.23311	2.65754	1.29222	2.7858	1.68866	3.63722			1.14734	2.47216	1.2296	2.64278	1.46391	3.15026	1.94109	4.17145		
1.05865	2.48907	1.15027	2.47064	1.06289	2.48998	1.23817	2.65525	1.29561	2.77929	1.68839	3.61865			1.15194	2.4698	1.23553	2.64241	1.46483	3.13666	1.94004	4.14862		
1.05234	2.48772	1.15491	2.46837	1.05657	2.48863	1.24315	2.6528	1.29913	2.77312	1.68816	3.60034			1.1566	2.46758	1.24146	2.64205	1.46579	3.12329	1.93901	4.12606		
1.04603	2.48636	1.1596	2.46622	1.05026	2.48727	1.24804	2.65019	1.30279	2.7673	1.68795	3.58229			1.1613	2.46548	1.2474	2.64172	1.4668	3.11014	1.938	4.10378		
1.03972	2.48499	1.16433	2.46421	1.04395	2.48591	1.25284	2.64741	1.3066	2.76184	1.68779	3.56448			1.16606	2.46351	1.25334	2.6414	1.46784	3.09721	1.93702	4.08176		
1.03342	2.48363	1.16913	2.46232	1.03764	2.48454	1.25755	2.64446	1.31054	2.75674	1.68766	3.54691			1.17087	2.46168	1.25929	2.64109	1.46894	3.0845	1.93607	4.06		
1.02712	2.48226	1.17397	2.46057	1.03134	2.48318	1.26216	2.64134	1.31463	2.75198	1.68756	3.52959			1.17574	2.45997	1.26524	2.64079	1.47008	3.07201	1.93514	4.03851		
1.02083	2.4809	1.17887	2.45895	1.02505	2.48181	1.26668	2.63807	1.31886	2.74756	1.6875	3.51251			1.18065	2.45839	1.27119	2.6405	1.47126	3.05973	1.93423	4.01728		
1.01455	2.47954	1.18382	2.45745	1.01876	2.48045	1.27112	2.63464	1.32323	2.74347	1.68747	3.49567			1.18563	2.45694	1.27715	2.64022	1.47249	3.04766	1.93336	3.9963		
1.00828	2.47819	1.18883	2.45608	1.01248	2.47909	1.27547	2.63109	1.32773	2.7397	1.68748	3.47905			1.19065	2.45562	1.28311	2.63994	1.47376	3.0358	1.9325	3.97558		
1.00202	2.47684	1.19389	2.45484	1.00621	2.47774	1.27975	2.62741	1.33236	2.73623	1.68752	3.46267			1.19574	2.45442	1.28906	2.63967	1.47508	3.02414	1.93168	3.95511		
0.995766	2.47551	1.19901	2.45371	0.999956	2.4764	1.28396	2.62363	1.33711	2.73304	1.6876	3.44651			1.20087	2.45334	1.29502	2.63939	1.47645	3.01269	1.93088	3.93488		
0.989529	2.4742	1.20418	2.45271	0.99371	2.47508	1.28812	2.61977	1.34198	2.73011	1.68771	3.43058			1.20606	2.45238	1.30097	2.63912	1.47786	3.00144	1.93011	3.9149		
0.983306	2.4729	1.2094	2.45183	0.987477	2.47377	1.29223	2.61584	1.34695	2.72743	1.68786	3.41487			1.2113	2.45153	1.30692	2.63884	1.47932	2.99038	1.92936	3.89516		
0.977099	2.47164	1.21467	2.45105	0.981259	2.47248	1.2963	2.61188	1.35202	2.72497	1.68805	3.39938			1.21659	2.4508	1.31287	2.63856	1.48082	2.97953	1.92865	3.87566		
0.970911	2.4704	1.22	2.45039	0.975059	2.47123	1.30034	2.60791	1.35719	2.72271	1.68827	3.3841			1.22194	2.45018	1.31882	2.63827	1.48237	2.96887	1.92796	3.8564		
0.964744	2.46921	1.22537	2.44983	0.968877	2.47001	1.30437	2.60394	1.36243	2.72063	1.68853	3.36904			1.22733	2.44965	1.32476	2.63797	1.48397	2.9584	1.9273	3.83736		
0.958601	2.46806	1.2308	2.44937	0.962718	2.46883	1.3084	2.60001	1.36775	2.71873	1.68882	3.35418			1.23277	2.44923	1.33069	2.63767	1.48562	2.94813	1.92666	3.81856		
0.952485	2.46697	1.23627	2.44901	0.956583	2.4677	1.31244	2.59612	1.37314	2.71697	1.68916	3.33954			1.23826	2.44891	1.33662	2.63736	1.48732	2.93804	1.92606	3.79999		
0.9464	2.46595	1.24178	2.44875	0.950477	2.46663	1.3165	2.59232	1.37858	2.71535	1.68952	3.3251			1.24379	2.44867	1.34254	2.63703	1.48906	2.92814	1.92549	3.78164		
0.94035	2.465	1.24734	2.44856	0.944403	2.46563	1.32059	2.58862	1.38408	2.71386	1.68993	3.31086			1.24936	2.44852	1.34845	2.63669	1.49086	2.91843	1.92494	3.76351		
0.934339	2.46415	1.25294	2.44847	0.938365	2.46471	1.32474	2.58506	1.38964	2.71247	1.69037	3.29682			1.25498	2.44845	1.35435	2.63634	1.49271	2.90891	1.92442	3.74561		
0.928374	2.46341	1.25858	2.44845	0.932369	2.46389	1.32895	2.58165	1.39523	2.71118	1.69085	3.28298			1.26063	2.44846	1.36024	2.63597	1.49461	2.89957	1.92394	3.72792		
0.922461	2.4628	1.26426	2.4485	0.92642	2.46319	1.33324	2.57844	1.40087	2.70998	1.69136	3.26933			1.26632	2.44854	1.36612	2.63558	1.49656	2.89042	1.92348	3.71044		
0.916606	2.46234	1.26997	2.44863	0.920525	2.46263	1.33764	2.57544	1.40654	2.70886	1.69192	3.25588			1.27205	2.44869	1.37199	2.63517	1.49856	2.88145	1.92305	3.69318		
0.910817	2.46205	1.27572	2.44882	0.914691	2.46222	1.34214	2.57269	1.41224	2.70781	1.69251	3.24261			1.27781	2.4489	1.37784	2.63473	1.50062	2.87266	1.92266	3.67612		
0.905103	2.46196	1.2815	2.44907	0.908926	2.46199	1.34679	2.57022	1.41797	2.70683	1.69313	3.22954			1.2836	2.44917	1.38368	2.63427	1.50273	2.86405	1.92229	3.65928		
0.899472	2.46209	1.28731	2.44937	0.903238	2.46197	1.35157	2.56805	1.42373	2.7059	1.6938	3.21665			1.28942	2.4495	1.3895	2.63379	1.5049	2.85563	1.92195	3.64264		
0.893933	2.46248	1.29316	2.44973	0.897636	2.46219	1.35651	2.56618	1.42952	2.70503	1.6945	3.20394			1.29528	2.44988	1.39531	2.63327	1.50713	2.84739	1.92164	3.6262		
0.888493	2.46315	1.29902	2.45014	0.892129	2.46267	1.36161	2.56463	1.43532	2.7042	1.69524	3.19142			1.30116	2.4503	1.40109	2.63272	1.50941	2.83933	1.92137	3.60996		
0.883162	2.46414	1.30492	2.4506	0.886725	2.46344	1.36685	2.56337	1.44114	2.70342	1.69602	3.17907			1.30706	2.45078	1.40685	2.63213	1.51176	2.83145	1.92112	3.59391		
0.877945	2.46545	1.31084	2.4511	0.88143	2.46453	1.37224	2.56239	1.44698	2.70268	1.69683	3.1669			1.31299	2.45129	1.41259	2.6315	1.51417	2.82376	1.92091	3.57807		
0.872847	2.46712	1.31679	2.45164	0.876252	2.46596	1.37776	2.56166	1.45283	2.70197	1.69768	3.15491			1.31894	2.45184	1.4183	2.63083	1.51664	2.81625	1.92072	3.56241		
0.86787	2.46916	1.32275	2.45221	0.871194	2.46775	1.3834	2.56114	1.4587	2.70129	1.69858	3.14309			1.32492	2.45243	1.42398	2.63012	1.51918	2.80893	1.92057	3.54695		
0.863015	2.47157	1.32874	2.45282	0.866257	2.46991	1.38913	2.56082	1.46458	2.70064	1.69951	3.13144			1.33091	2.45305	1.42963	2.62935	1.52178	2.80179	1.92045	3.53168		
0.858278	2.47436	1.33475	2.45346	0.861441	2.47245	1.39495	2.56065	1.47047	2.70001	1.70047	3.11996			1.33693	2.4537	1.43525	2.62853	1.52446	2.79485	1.92036	3.51659		
0.853656	2.47751	1.34078	2.45413	0.856743	2.47535	1.40084	2.56062	1.47637	2.69941	1.70148	3.10864			1.34296	2.45438	1.44083	2.62765	1.52721	2.7881	1.9203	3.50169		
0.849143	2.48103	1.34682	2.45483	0.852157	2.47863	1.40679	2.56069	1.48229	2.69883	1.70253	3.0975			1.34901	2.45508	1.44638	2.62671	1.53004	2.78154	1.92027	3.48696		
0.84473	2.48489	1.35288	2.45555	0.847678	2.48226	1.41278	2.56085	1.4882	2.69827	1.70361	3.08651			1.35508	2.45581	1.45188	2.6257	1.53294	2.77518	1.92028	3.47242		
0.840412	2.48908	1.35896	2.45629	0.843298	2.48623	1.41882	2.56109	1.49413	2.69773	1.70473	3.07569			1.36116	2.45656	1.45734	2.62462	1.53593	2.76902	1.92031	3.45806		
0.836177	2.49358	1.36505	2.45705	0.839007	2.49053	1.4249	2.56139	1.50006	2.6972	1.7059	3.06503			1.36726	2.45734	1.46275	2.62346	1.539	2.76306	1.92038	3.44387		
0.832019	2.49837	1.37116	2.45784	0.834799	2.49512	1.431	2.56173	1.50599	2.69668	1.7071	3.05452			1.37337	2.45812	1.4681	2.62221	1.54216	2.75731	1.92048	3.42986		
0.827927	2.50343	1.37728	2.45864	0.830664	2.50001	1.43713	2.56212	1.51194	2.69618	1.70834	3.04417			1.37949	2.45893	1.4734	2.62088	1.54541	2.75177	1.92061	3.41602		
0.823893	2.50873	1.38341	2.45945	0.826592	2.50515	1.44328	2.56254	1.51788	2.69569	1.70962	3.03398			1.38563	2.45975	1.47865	2.61945	1.54875	2.74644	1.92078	3.40235		
0.819908	2.51426	1.38955	2.46028	0.822575	2.51053	1.44944	2.56299	1.52383	2.69521	1.71094	3.02394			1.39178	2.46059	1.48382	2.61792	1.5522	2.74133	1.92097	3.38884		
0.815963	2.52	1.39571	2.46112	0.818604	2.51613	1.45562	2.56345	1.52978	2.69473	1.7123	3.01406			1.39794	2.46143	1.48894	2.61629	1.55574	2.73644	1.9212	3.3755		
0.812049	2.52591	1.40187	2.46198	0.814671	2.52193	1.46181	2.56394	1.53573	2.69427	1.7137	3.00432			1.40411	2.46229	1.49398	2.61456	1.55939	2.73177	1.92146	3.36233		
0.808156	2.53197	1.40805	2.46285	0.810765	2.52789	1.46801	2.56444	1.54168	2.6938	1.71514	2.99473			1.41029	2.46316	1.49895	2.61271	1.56314	2.72732	1.92175	3.34932		
0.804276	2.53816	1.41423	2.46372	0.806877	2.534	1.47422	2.56494	1.54763	2.69335	1.71663	2.9853			1.41647	2.46404	1.50385	2.61075	1.56701	2.7231	1.92208	3.33647		
0.800397	2.54445	1.42043	2.4646	0.802998	2.54022	1.48044	2.56546	1.55359	2.69289	1.71815	2.97601			1.42267	2.46493	1.50868	2.60868	1.57098	2.7191	1.92244	3.32378		
0.79651	2.5508	1.42663	2.4655	0.799118	2.54654	1.48666	2.56598	1.55954	2.69244	1.71972	2.96686			1.42888	2.46582	1.51343	2.60649	1.57506	2.71532	1.92283	3.31125		
0.792604	2.55719	1.43284	2.46639	0.795226	2.55291	1.49289	2.56651	1.56549	2.69199	1.72133	2.95786			1.43509	2.46672	1.5181	2.60419	1.57925	2.71176	1.92325	3.29887		
0.788667	2.56357	1.43906	2.4673	0.791311	2.5593	1.49912	2.56704	1.57144	2.69154	1.72298	2.94901			1.44131	2.46763	1.5227	2.60178	1.58355	2.70841	1.92371	3.28664		
0.78469	2.56992	1.44529	2.46821	0.787362	2.56567	1.50535	2.56757	1.57738	2.69109	1.72467	2.94029			1.44754	2.46854	1.52723	2.59927	1.58796	2.70528	1.9242	3.27457		
0.780659	2.57619	1.45152	2.46912	0.783368	2.572	1.51159	2.5681	1.58332	2.69063	1.72641	2.93172			1.45377	2.46945	1.53169	2.59666	1.59247	2.70234	1.92472	3.26264		
0.776565	2.58234	1.45776	2.47004	0.779318	2.57823	1.51783	2.56862	1.58926	2.69018	1.72819	2.92329			1.46001	2.47037	1.53608	2.59396	1.59709	2.69961	1.92527	3.25087		
0.772398	2.58834	1.464	2.47096	0.775201	2.58434	1.52406	2.56915	1.5952	2.68971	1.73002	2.915			1.46626	2.47129	1.54041	2.59117	1.6018	2.69705	1.92586	3.23924		
0.768148	2.59416	1.47025	2.47188	0.771007	2.59028	1.5303	2.56967	1.60112	2.68924	1.73189	2.90686			1.47251	2.47222	1.54467	2.5883	1.60661	2.69468	1.92648	3.22776		
0.763807	2.59976	1.47651	2.47281	0.766728	2.59603	1.53654	2.57018	1.60704	2.68877	1.7338	2.89885			1.47877	2.47314	1.54889	2.58537	1.61151	2.69247	1.92714	3.21642		
0.75937	2.60512	1.48277	2.47373	0.762356	2.60155	1.54278	2.57069	1.61296	2.68828	1.73577	2.89098			1.48504	2.47407	1.55305	2.58237	1.61649	2.69042	1.92782	3.20523		
0.754832	2.61021	1.48903	2.47466	0.757886	2.60682	1.54901	2.5712	1.61886	2.68779	1.73778	2.88325			1.4913	2.475	1.55717	2.57933	1.62155	2.68852	1.92854	3.19417		
0.750191	2.61503	1.49531	2.47559	0.753314	2.61183	1.55524	2.57169	1.62476	2.68728	1.73984	2.87566			1.49758	2.47593	1.56125	2.57624	1.62668	2.68675	1.9293	3.18325		
0.745447	2.61956	1.50158	2.47652	0.748639	2.61655	1.56148	2.57218	1.63064	2.68676	1.74196	2.86821			1.50385	2.47685	1.5653	2.57312	1.63188	2.68511	1.93009	3.17247		
0.740603	2.62381	1.50786	2.47745	0.743862	2.62099	1.5677	2.57267	1.63652	2.68623	1.74412	2.86091			1.51013	2.47778	1.56931	2.56997	1.63715	2.68358	1.93091	3.16183		
0.735661	2.62778	1.51414	2.47837	0.738985	2.62515	1.57393	2.57314	1.64238	2.68568	1.74633	2.85374			1.51642	2.47871	1.57331	2.56681	1.64247	2.68217	1.93176	3.15132		
0.730625	2.63149	1.52043	2.4793	0.734012	2.62903	1.58015	2.5736	1.64822	2.68511	1.7486	2.84672			1.5227	2.47963	1.57728	2.56364	1.64785	2.68085	1.93265	3.14095		
0.725503	2.63493	1.52672	2.48022	0.728947	2.63265	1.58637	2.57406	1.65405	2.68451	1.75093	2.83984			1.52899	2.48055	1.58123	2.56046	1.65328	2.67962	1.93357	3.13071		
0.720298	2.63814	1.53301	2.48114	0.723797	2.63602	1.59258	2.5745	1.65987	2.6839	1.75331	2.8331			1.53528	2.48147	1.58518	2.55729	1.65875	2.67847	1.93453	3.12059		
0.715018	2.64112	1.5393	2.48206	0.718567	2.63915	1.59879	2.57493	1.66566	2.68325	1.75576	2.82651			1.54158	2.48239	1.58911	2.55414	1.66426	2.6774	1.93551	3.11061		
0.709669	2.6439	1.5456	2.48297	0.713263	2.64206	1.60499	2.57535	1.67143	2.68258	1.75826	2.82007			1.54788	2.4833	1.59304	2.55099	1.66981	2.67639	1.93654	3.10076		
0.704256	2.64648	1.5519	2.48388	0.707892	2.64477	1.61119	2.57576	1.67718	2.68187	1.76083	2.81378			1.55418	2.48421	1.59697	2.54787	1.6754	2.67545	1.93759	3.09103		
0.698787	2.64889	1.5582	2.48479	0.70246	2.6473	1.61738	2.57615	1.6829	2.68113	1.76347	2.80764			1.56048	2.48512	1.6009	2.54477	1.68102	2.67456	1.93869	3.08143		
0.693265	2.65115	1.5645	2.48569	0.696973	2.64965	1.62356	2.57653	1.68859	2.68034	1.76618	2.80166			1.56678	2.48602	1.60484	2.54171	1.68666	2.67373	1.93981	3.07195		
0.687696	2.65327	1.5708	2.48659	0.691435	2.65186	1.62974	2.57689	1.69425	2.67951	1.76897	2.79585			1.57308	2.48691	1.60878	2.53867	1.69233	2.67294	1.94097	3.06259		
0.682084	2.65526	1.5771	2.48747	0.685851	2.65394	1.6359	2.57724	1.69988	2.67863	1.77183	2.79019			1.57938	2.48779	1.61273	2.53568	1.69803	2.67219	1.94216	3.05336		
0.676435	2.65713	1.5834	2.48835	0.680227	2.65589	1.64206	2.57757	1.70546	2.6777	1.77477	2.78471			1.58568	2.48867	1.6167	2.53272	1.70374	2.67149	1.94339	3.04425		
0.670751	2.6589	1.5897	2.48923	0.674566	2.65773	1.64821	2.57788	1.71101	2.67671	1.7778	2.7794			1.59197	2.48954	1.62068	2.52982	1.70947	2.67082	1.94465	3.03526		
0.665036	2.66059	1.59599	2.49008	0.668872	2.65947	1.65434	2.57817	1.7165	2.67565	1.78092	2.77427			1.59827	2.49039	1.62468	2.52696	1.71523	2.67018	1.94595	3.02638		
0.659294	2.66219	1.60228	2.49093	0.663147	2.66112	1.66046	2.57843	1.72195	2.67452	1.78413	2.76932			1.60455	2.49123	1.6287	2.52416	1.72099	2.66956	1.94728	3.01762		
0.653526	2.66371	1.60856	2.49176	0.657396	2.6627	1.66657	2.57868	1.72735	2.67332	1.78745	2.76457			1.61083	2.49205	1.63275	2.52142	1.72677	2.66898	1.94865	3.00898		
0.647736	2.66518	1.61483	2.49256	0.651621	2.6642	1.67266	2.5789	1.73268	2.67204	1.79087	2.76001			1.6171	2.49285	1.63684	2.51875	1.73256	2.66841	1.95005	3.00046		
0.641926	2.66659	1.62109	2.49334	0.645824	2.66565	1.67874	2.57909	1.73796	2.67067	1.7944	2.75565			1.62335	2.49361	1.64096	2.51616	1.73837	2.66787	1.95149	2.99205		
0.636097	2.66795	1.62732	2.49408	0.640007	2.66704	1.6848	2.57926	1.74317	2.66921	1.79804	2.7515			1.62957	2.49433	1.64514	2.51367	1.74418	2.66735	1.95296	2.98375		
0.630252	2.66927	1.63352	2.49475	0.634173	2.66839	1.69084	2.57939	1.74831	2.66766	1.80181	2.74755			1.63575	2.49497	1.64939	2.51132	1.75	2.66684	1.95447	2.97556		
0.624393	2.67055	1.63966	2.49533	0.628323	2.66969	1.69686	2.57949	1.75339	2.66602	1.80569	2.74383			1.64186	2.49551	1.65375	2.50914	1.75583	2.66634	1.95601	2.96749		
0.61852	2.6718	1.6457	2.49577	0.622459	2.67096	1.70285	2.57956	1.75839	2.66428	1.8097	2.74031			1.64786	2.49587	1.65828	2.50724	1.76166	2.66586	1.95759	2.95952		
0.612636	2.67302	1.65159	2.49596	0.616583	2.6722	1.70882	2.57958	1.76333	2.66245	1.81384	2.73701			1.65366	2.49594	1.66308	2.50575	1.7675	2.66539	1.95921	2.95167		
0.606741	2.67423	1.65722	2.49577	0.610695	2.67342	1.71476	2.57956	1.76819	2.66053	1.81811	2.73393			1.65918	2.49558	1.66823	2.5048	1.77335	2.66493	1.96086	2.94393		
0.600837	2.67541	1.66251	2.49507	0.604797	2.67462	1.72066	2.57949	1.773	2.65853	1.82249	2.73105			1.66434	2.49469	1.67375	2.50441	1.77919	2.66448	1.96255	2.93629		
0.594925	2.67659	1.66746	2.49386	0.59889	2.6758	1.72654	2.57938	1.77774	2.65645	1.82701	2.72838			1.66918	2.49332	1.67957	2.50447	1.78504	2.66403	1.96428	2.92876		
0.589006	2.67775	1.67215	2.49227	0.592975	2.67697	1.73237	2.5792	1.78243	2.65431	1.83164	2.7259			1.67381	2.49164	1.68558	2.50482	1.79089	2.66359	1.96604	2.92134		
0.58308	2.67892	1.67669	2.49047	0.587054	2.67814	1.73816	2.57896	1.78708	2.65212	1.83638	2.72361			1.67831	2.48979	1.6917	2.50532	1.79674	2.66315	1.96784	2.91403		
0.577149	2.68008	1.68115	2.48856	0.581127	2.6793	1.7439	2.57865	1.7917	2.64989	1.84124	2.7215			1.68275	2.48786	1.69789	2.50593	1.80259	2.66271	1.96968	2.90682		
0.571214	2.68125	1.68556	2.48661	0.575194	2.68046	1.74959	2.57827	1.79629	2.64765	1.8462	2.71955			1.68716	2.4859	1.70413	2.5066	1.80843	2.66227	1.97156	2.89972		
0.565275	2.68242	1.68996	2.48464	0.569258	2.68163	1.75523	2.57781	1.80087	2.6454	1.85125	2.71776			1.69155	2.48393	1.71039	2.5073	1.81428	2.66183	1.97348	2.89272		
0.559334	2.68361	1.69436	2.48269	0.563318	2.68281	1.7608	2.57727	1.80544	2.64317	1.85639	2.71611			1.69595	2.48198	1.71668	2.50803	1.82012	2.66139	1.97543	2.88583		
0.55339	2.68482	1.69877	2.48075	0.557375	2.68401	1.76631	2.57663	1.81003	2.64096	1.86161	2.71459			1.70036	2.48006	1.72297	2.50878	1.82596	2.66095	1.97743	2.87904		
0.547445	2.68604	1.70318	2.47885	0.551431	2.68522	1.77175	2.57589	1.81465	2.63881	1.86691	2.71318			1.70479	2.47817	1.72928	2.50953	1.83179	2.6605	1.97946	2.87235		
0.541499	2.6873	1.70762	2.47699	0.545486	2.68645	1.77711	2.57504	1.81929	2.63672	1.87228	2.71189			1.70923	2.47632	1.7356	2.51029	1.83761	2.66005	1.98154	2.86577		
0.535554	2.68858	1.71207	2.47516	0.53954	2.68771	1.78239	2.57408	1.82399	2.63471	1.87771	2.71069			1.71369	2.47451	1.74192	2.51106	1.84343	2.65958	1.98366	2.8593		
0.529609	2.68989	1.71655	2.47338	0.533595	2.68901	1.78758	2.57301	1.82874	2.6328	1.8832	2.70959			1.71817	2.47275	1.74825	2.51183	1.84924	2.65911	1.98582	2.85292		
0.523667	2.69125	1.72104	2.47164	0.527651	2.69034	1.79269	2.57182	1.83355	2.63098	1.88873	2.70856			1.72267	2.47102	1.75458	2.51259	1.85504	2.65863	1.98803	2.84666		
0.517727	2.69265	1.72556	2.46995	0.521709	2.69171	1.7977	2.5705	1.83843	2.62928	1.89431	2.70761			1.7272	2.46934	1.76092	2.51336	1.86083	2.65814	1.99028	2.84049		
0.51179	2.69411	1.7301	2.4683	0.51577	2.69313	1.80263	2.56907	1.84338	2.6277	1.89994	2.70672			1.73175	2.46771	1.76725	2.51412	1.8666	2.65763	1.99257	2.83443		
0.505858	2.69562	1.73467	2.46669	0.509835	2.6946	1.80747	2.56752	1.84842	2.62624	1.9056	2.70589			1.73633	2.46612	1.77359	2.51489	1.87237	2.65711	1.99491	2.82848		
0.499931	2.6972	1.73926	2.46513	0.503904	2.69613	1.81222	2.56586	1.85353	2.6249	1.91129	2.70511			1.74093	2.46458	1.77993	2.51565	1.87812	2.65657	1.9973	2.82263		
0.49401	2.69885	1.74388	2.46362	0.497979	2.69774	1.81688	2.56409	1.85872	2.62367	1.91702	2.70438			1.74556	2.46309	1.78628	2.5164	1.88385	2.65601	1.99974	2.81689		
0.488096	2.70059	1.74853	2.46216	0.492061	2.69942	1.82147	2.56222	1.86399	2.62257	1.92277	2.7037			1.75021	2.46164	1.79262	2.51716	1.88957	2.65543	2.00223	2.81126		
0.482191	2.70242	1.7532	2.46074	0.48615	2.70118	1.82598	2.56026	1.86934	2.62158	1.92855	2.70305			1.75489	2.46024	1.79896	2.5179	1.89527	2.65483	2.00477	2.80573		
0.476296	2.70435	1.75789	2.45937	0.480248	2.70304	1.83043	2.55822	1.87475	2.62069	1.93435	2.70244			1.7596	2.45888	1.8053	2.51865	1.90094	2.6542	2.00736	2.80031		
0.470412	2.7064	1.76262	2.45804	0.474356	2.70501	1.83481	2.5561	1.88023	2.61991	1.94017	2.70186			1.76433	2.45757	1.81165	2.51939	1.9066	2.65355	2.01	2.79501		
0.464541	2.70858	1.76737	2.45676	0.468476	2.7071	1.83914	2.55392	1.88578	2.61921	1.94601	2.70131			1.76909	2.45631	1.81799	2.52012	1.91223	2.65287	2.01271	2.78982		
0.458685	2.7109	1.77214	2.45552	0.46261	2.70933	1.84342	2.55169	1.89138	2.6186	1.95186	2.70079			1.77388	2.45509	1.82433	2.52085	1.91783	2.65215	2.01547	2.78474		
0.452845	2.71339	1.77695	2.45433	0.456759	2.7117	1.84766	2.54941	1.89703	2.61807	1.95773	2.70029			1.77869	2.45391	1.83068	2.52158	1.9234	2.6514	2.01829	2.77977		
0.447024	2.71607	1.78178	2.45318	0.450925	2.71425	1.85186	2.5471	1.90274	2.6176	1.96361	2.69981			1.78353	2.45278	1.83702	2.5223	1.92895	2.65061	2.02117	2.77493		
0.441224	2.71895	1.78663	2.45208	0.445111	2.71699	1.85603	2.54476	1.90848	2.6172	1.9695	2.69935			1.7884	2.45169	1.84336	2.52301	1.93446	2.64977	2.02412	2.7702		
0.435449	2.72206	1.79152	2.45102	0.439319	2.71995	1.86017	2.54239	1.91427	2.61685	1.97541	2.6989			1.79329	2.45065	1.8497	2.52372	1.93993	2.6489	2.02714	2.7656		
0.429702	2.72545	1.79643	2.45	0.433552	2.72315	1.86429	2.54001	1.92009	2.61655	1.98132	2.69848			1.79821	2.44965	1.85604	2.52442	1.94536	2.64797	2.03023	2.76112		
0.423986	2.72913	1.80136	2.44903	0.427815	2.72663	1.8684	2.53763	1.92594	2.6163	1.98725	2.69807			1.80316	2.44869	1.86238	2.52512	1.95075	2.647	2.03339	2.75677		
0.418306	2.73316	1.80633	2.4481	0.42211	2.73042	1.87249	2.53524	1.93182	2.61609	1.99318	2.69767			1.80813	2.44777	1.86871	2.52581	1.9561	2.64597	2.03663	2.75255		
0.412666	2.73759	1.81132	2.44721	0.416443	2.73458	1.87657	2.53285	1.93773	2.61591	1.99912	2.69728			1.81313	2.4469	1.87505	2.52649	1.96139	2.64488	2.03995	2.74846		
0.407074	2.74247	1.81633	2.44636	0.410818	2.73915	1.88064	2.53047	1.94365	2.61577	2.00506	2.6969			1.81816	2.44606	1.88138	2.52716	1.96664	2.64373	2.04335	2.74451		
0.401535	2.74787	1.82138	2.44555	0.405243	2.74419	1.88472	2.5281	1.9496	2.61565	2.01101	2.69654			1.82321	2.44527	1.88771	2.52783	1.97183	2.64251	2.04683	2.7407		
0.396058	2.75387	1.82645	2.44479	0.399723	2.74978	1.88879	2.52575	1.95557	2.61556	2.01696	2.69618			1.82829	2.44452	1.89404	2.5285	1.97697	2.64123	2.0504	2.73702		
0.390651	2.76057	1.83154	2.44406	0.394268	2.756	1.89286	2.52341	1.96155	2.61549	2.02292	2.69582			1.83339	2.4438	1.90037	2.52915	1.98205	2.63987	2.05406	2.73349		
0.385325	2.76807	1.83666	2.44337	0.388887	2.76294	1.89693	2.52108	1.96755	2.61543	2.02888	2.69548			1.83852	2.44313	1.90669	2.5298	1.98706	2.63844	2.05782	2.7301		
0.380092	2.7765	1.84181	2.44271	0.38359	2.77073	1.90102	2.51879	1.97355	2.6154	2.03484	2.69514			1.84367	2.44249	1.91301	2.53044	1.99201	2.63694	2.06167	2.72686		
0.374966	2.78601	1.84698	2.4421	0.378391	2.77951	1.9051	2.51651	1.97957	2.61538	2.0408	2.6948			1.84886	2.44188	1.91933	2.53107	1.9969	2.63536	2.06561	2.72377		
0.369963	2.79678	1.85217	2.44152	0.373304	2.78941	1.9092	2.51426	1.9856	2.61537	2.04677	2.69447			1.85406	2.44132	1.92564	2.53169	2.00172	2.6337	2.06965	2.72082		
0.365099	2.80901	1.8574	2.44098	0.368344	2.80064	1.91331	2.51203	1.99164	2.61537	2.05274	2.69414			1.85929	2.44079	1.93195	2.53231	2.00647	2.63196	2.07379	2.71802		
0.360393	2.82292	1.86264	2.44047	0.36353	2.8134	1.91743	2.50984	1.99768	2.61538	2.0587	2.69381			1.86454	2.44029	1.93826	2.53291	2.01116	2.63014	2.07803	2.71536		
0.355866	2.83877	1.86791	2.44	0.358881	2.82792	1.92156	2.50767	2.00373	2.6154	2.06467	2.69349			1.86982	2.43983	1.94456	2.53351	2.01577	2.62825	2.08237	2.71284		
0.351538	2.85683	1.8732	2.43956	0.354418	2.84446	1.9257	2.50553	2.00978	2.61543	2.07064	2.69316			1.87512	2.43941	1.95086	2.53409	2.02033	2.62629	2.0868	2.71047		
0.34743	2.8774	1.87852	2.43915	0.35016	2.86331	1.92986	2.50343	2.01584	2.61546	2.0766	2.69284			1.88045	2.43901	1.95715	2.53466	2.02482	2.62426	2.09132	2.70822		
0.34356	2.90078	1.88386	2.43878	0.346128	2.88478	1.93404	2.50136	2.0219	2.61549	2.08256	2.69251			1.8858	2.43865	1.96343	2.53522	2.02925	2.62216	2.09593	2.70611		
0.339946	2.92729	1.88922	2.43844	0.342341	2.90916	1.93823	2.49932	2.02797	2.61553	2.08852	2.69219			1.89117	2.43832	1.96971	2.53577	2.03363	2.62	2.10064	2.70413		
0.336601	2.95725	1.89461	2.43813	0.338814	2.93677	1.94244	2.49731	2.03403	2.61556	2.09448	2.69186			1.89656	2.43802	1.97597	2.53631	2.03795	2.61779	2.10542	2.70227		
0.333533	2.99093	1.90001	2.43785	0.335559	2.96792	1.94666	2.49535	2.0401	2.6156	2.10043	2.69153			1.90198	2.43775	1.98223	2.53683	2.04222	2.61553	2.11029	2.70052		
0.330749	3.02863	1.90544	2.4376	0.332585	3.00289	1.95091	2.49341	2.04616	2.61564	2.10637	2.69119			1.90741	2.43751	1.98848	2.53733	2.04645	2.61322	2.11524	2.69888		
0.328249	3.07061	1.91089	2.43738	0.329894	3.04198	1.95517	2.49151	2.05223	2.61568	2.11232	2.69085			1.91287	2.4373	1.99472	2.53782	2.05065	2.61088	2.12025	2.69734		
0.32603	3.11713	1.91637	2.43718	0.327487	3.08543	1.95946	2.48966	2.05829	2.61571	2.11825	2.6905			1.91835	2.43712	2.00095	2.53829	2.0548	2.60851	2.12534	2.69589		
0.324085	3.16844	1.92186	2.43702	0.325359	3.1335	1.96376	2.48784	2.06435	2.61575	2.12418	2.69014			1.92385	2.43696	2.00716	2.53874	2.05893	2.60612	2.13049	2.69454		
0.322406	3.22477	1.92737	2.43688	0.323503	3.18643	1.9681	2.48606	2.07041	2.61577	2.1301	2.68978			1.92937	2.43683	2.01336	2.53917	2.06304	2.60372	2.1357	2.69327		
0.320984	3.2864	1.9329	2.43676	0.32191	3.24448	1.97246	2.48433	2.07646	2.6158	2.13601	2.68941			1.93491	2.43673	2.01954	2.53957	2.06713	2.60131	2.14096	2.69207		
0.319808	3.35357	1.93846	2.43667	0.32057	3.3079	1.97686	2.48265	2.08251	2.61581	2.14191	2.68903			1.94047	2.43665	2.02569	2.53995	2.07122	2.5989	2.14628	2.69095		
0.318866	3.42661	1.94403	2.43661	0.319472	3.37698	1.98131	2.48105	2.08856	2.61582	2.1478	2.68863			1.94605	2.43659	2.03183	2.54029	2.0753	2.5965	2.15165	2.6899		
0.318147	3.50582	1.94962	2.43657	0.318605	3.45201	1.98583	2.47955	2.09459	2.61583	2.15368	2.68822			1.95164	2.43656	2.03794	2.5406	2.07938	2.59412	2.15706	2.6889		
0.317642	3.59157	1.95523	2.43655	0.317958	3.53333	1.99051	2.47826	2.10063	2.61582	2.15954	2.6878			1.95726	2.43655	2.04402	2.54087	2.08347	2.59177	2.16251	2.68797		
0.317338	3.68425	1.96085	2.43656	0.31752	3.62131	1.99554	2.4774	2.10665	2.61581	2.16539	2.68736			1.96289	2.43657	2.05006	2.54109	2.08759	2.58945	2.16799	2.68708		
0.317226	3.78432	1.9665	2.43659	0.31728	3.71638	2.0011	2.4772	2.11267	2.61578	2.17122	2.68691			1.96854	2.4366	2.05606	2.54126	2.09173	2.58718	2.17351	2.68624		
0.317295	3.89229	1.97216	2.43663	0.317229	3.819	2.00705	2.47749	2.11867	2.61575	2.17704	2.68643			1.97421	2.43666	2.06202	2.54138	2.0959	2.58496	2.17907	2.68545		
0.317536	4.00871	1.97784	2.4367	0.317356	3.92968	2.01317	2.47799	2.12467	2.6157	2.18283	2.68594			1.97989	2.43673	2.06792	2.54142	2.10012	2.58282	2.18465	2.68469		
0.317939	4.13423	1.98353	2.43679	0.317651	4.04903	2.01937	2.47858	2.13065	2.61564	2.1886	2.68541			1.98559	2.43683	2.07375	2.54139	2.10439	2.58075	2.19026	2.68397		
0.318494	4.26955	1.98924	2.4369	0.318105	4.17769	2.0256	2.47921	2.13662	2.61556	2.19435	2.68487			1.99131	2.43694	2.07952	2.54127	2.10873	2.57877	2.19589	2.68329		
0.319192	4.41549	1.99497	2.43702	0.318709	4.31642	2.03186	2.47986	2.14258	2.61547	2.20007	2.68429			1.99704	2.43707	2.0852	2.54105	2.11315	2.57691	2.20154	2.68263		
0.320024	4.57296	2.00071	2.43717	0.319452	4.46605	2.03813	2.48053	2.14853	2.61535					2.00279	2.43722	2.09079	2.54071	2.11766	2.57516				
0.32098	4.743	2.00646	2.43733	0.320326	4.62754	2.0444	2.4812	2.15445	2.61522					2.00855	2.43739	2.09628	2.54026	2.12227	2.57354				
0.321907	4.90236	2.01223	2.43751	0.321321	4.80198	2.05069	2.48188	2.16036	2.61507					2.01433	2.43757	2.10165	2.53967	2.12699	2.57208				
0.322761	5.04711	2.01802	2.4377	0.322427	4.9906	2.05698	2.48256	2.16625	2.61489					2.02012	2.43777	2.10691	2.53894	2.13184	2.57076				
0.323509	5.17347	2.02382	2.43791	0.323635	5.19483	2.06328	2.48324	2.17212	2.61469					2.02592	2.43799	2.11204	2.53807	2.13681	2.56961				
0.324125	5.27791	2.02963	2.43813	0.324935	5.41629	2.06957	2.48393	2.17796	2.61447					2.03174	2.43822	2.11706	2.53706	2.14191	2.56862				
0.324591	5.3574	2.03546	2.43837	0.326316	5.6569	2.07588	2.48461	2.18378	2.61421					2.03757	2.43846	2.12195	2.53591	2.14714	2.56778				
0.325029	5.43261	2.04129	2.43863	0.32777	5.91885	2.08218	2.48529	2.18957	2.61392					2.04341	2.43872	2.12673	2.53464	2.15249	2.5671				
0.32534	5.48616	2.04714	2.43889	0.329285	6.20474	2.08849	2.48597	2.19533	2.6136					2.04926	2.43899	2.13141	2.53325	2.15796	2.56656				
0.325833	5.5719	2.05301	2.43917	0.330647	6.47576	2.0948	2.48666	2.20105	2.61324					2.05513	2.43928	2.136	2.53176	2.16353	2.56614				
0.326518	5.69273	2.05888	2.43947	0.331833	6.72475	2.10111	2.48734							2.06101	2.43957	2.14051	2.53019	2.1692	2.56584				
0.327409	5.8529	2.06477	2.43977	0.332829	6.9444	2.10743	2.48802							2.0669	2.43988	2.14495	2.52854	2.17494	2.56563				
0.328519	6.05837	2.07067	2.44009	0.333623	7.12765	2.11374	2.48869							2.0728	2.4402	2.14934	2.52684	2.18076	2.56551				
0.32986	6.31734	2.07657	2.44041	0.334211	7.26816	2.12006	2.48937							2.07871	2.44053	2.15368	2.52509	2.18664	2.56546				
0.331442	6.64112	2.08249	2.44075	0.334753	7.402	2.12638	2.49004							2.08464	2.44087	2.15798	2.5233	2.19257	2.56548				
0.33306	6.99705	2.08842	2.4411	0.335132	7.4978	2.1327	2.49072							2.09057	2.44123	2.16225	2.52149	2.19855	2.56555				
0.334705	7.38981	2.09436	2.44145	0.335724	7.65213	2.13903	2.49139							2.09651	2.44159	2.16649	2.51967	2.20457	2.56566				
0.336363	7.82507	2.10031	2.44182	0.336531	7.87161	2.14535	2.49206							2.10246	2.44196	2.17072	2.51783						
0.338025	8.3098	2.10627	2.4422	0.337552	8.16624	2.15168	2.49272							2.10843	2.44234	2.17494	2.51599						
0.33968	8.85262	2.11224	2.44258	0.338785	8.55063	2.158	2.49339							2.1144	2.44272	2.17915	2.51414						
0.341315	9.46437	2.11821	2.44297	0.340221	9.04595	2.16433	2.49405							2.12038	2.44312	2.18335	2.5123						
0.34292	10.1589	2.1242	2.44338	0.341847	9.68326	2.17066	2.49471							2.12637	2.44352	2.18755	2.51047						
0.344483	10.9539	2.13019	2.44378	0.34344	10.4087	2.17699	2.49536							2.13236	2.44393	2.19175	2.50865						
0.345993	11.8731	2.13619	2.4442	0.344987	11.2417	2.18332	2.49602							2.13837	2.44435	2.19596	2.50685						
0.34744	12.948	2.1422	2.44462	0.346477	12.2082	2.18965	2.49667							2.14438	2.44478	2.20017	2.50505						
0.348812	14.222	2.14822	2.44505	0.3479	13.3431	2.19598	2.49732							2.1504	2.44521								
0.350099	15.7569	2.15424	2.44548	0.349246	14.6952	2.20231	2.49797							2.15643	2.44564								
0.351292	17.6428	2.16028	2.44592	0.350503	16.3339									2.16246	2.44608								
0.35238	20.0171	2.16631	2.44637	0.351662	18.3624									2.1685	2.44653								
0.353356	23.1003	2.17236	2.44682	0.352714	20.9404									2.17455	2.44698								
0.354211	27.2697	2.17841	2.44727	0.353651	24.3287									2.1806	2.44744								
0.354938	33.2283	2.18447	2.44773	0.354465	28.9857									2.18666	2.4479								
0.355531	42.4546	2.19053	2.4482	0.355148	35.7956									2.19272	2.44836								
0.355985	58.6757	2.19659	2.44866	0.355696	46.715									2.19879	2.44883								
0.356297	94.7699	2.20267	2.44913	0.356104	67.1036									2.20486	2.4493								
0.356463	245.463			0.356368	118.814																		
				0.356485	515.159																		
