Sym0		Asym0		Sym1		Sym2		Sym3		Sym4		Sym5		Asym1		Asym2		Asym3		Asym4		Asym5	
386  Points		381  Points		386  Points		373  Points		366  Points		337  Points		128  Points		380  Points		378  Points		366  Points		173  Points		125  Points	
Freq (MHz)	Vph (m/ms)	Freq (MHz)	Vph (m/ms)	Freq (MHz)	Vph (m/ms)	Freq (MHz)	Vph (m/ms)	Freq (MHz)	Vph (m/ms)	Freq (MHz)	Vph (m/ms)	Freq (MHz)	Vph (m/ms)	Freq (MHz)	Vph (m/ms)	Freq (MHz)	Vph (m/ms)	Freq (MHz)	Vph (m/ms)	Freq (MHz)	Vph (m/ms)	Freq (MHz)	Vph (m/ms)
2.20333	2.51425	0.346226	211.125	2.20392	2.51426	0.692354	348.149	1.38444	15703.5	1.42625	653.357	2.07666	14125.2	0.346316	158.576	2.20096	2.56472	1.03833	41456.2	1.73053	1860.64	1.90095	6976.64
2.19752	2.51425	0.346784	87.8534	2.19812	2.51425	0.692847	161.275	1.38382	577.663	1.42793	317.998	2.07658	846.06	0.346982	77.2563	2.1962	2.56608	1.03866	445.309	1.7303	534.46	1.90114	736.913
2.19173	2.51427	0.347798	55.6059	2.19233	2.51426	0.693698	105.051	1.38217	293.894	1.43052	210.44	2.07637	436.047	0.348103	51.2013	2.19145	2.56745	1.03962	224.063	1.72982	311.968	1.90164	389.101
2.18595	2.51429	0.34926	40.7915	2.18654	2.51429	0.6949	77.9835	1.37969	196.807	1.4338	157.471	2.07603	293.673	0.349669	38.3995	2.18671	2.56884	1.04118	149.869	1.7291	220.204	1.90244	264.425
2.18018	2.51433	0.351161	32.307	2.18077	2.51432	0.696441	62.0811	1.37662	147.742	1.43757	125.964	2.07556	221.356	0.351671	30.8118	2.18197	2.57024	1.04328	112.73	1.72814	170.099	1.90355	200.33
2.17443	2.51438	0.353485	26.8261	2.17502	2.51437	0.698311	51.6286	1.37315	118.119	1.44168	105.079	2.07496	177.59	0.354093	25.8068	2.17724	2.57166	1.04586	90.4569	1.72696	138.522	1.90493	161.306
2.16868	2.51445	0.356217	23.0051	2.16927	2.51444	0.700493	44.2425	1.36941	98.2889	1.44605	90.2241	2.07424	148.251	0.356918	22.268	2.17252	2.57309	1.04887	75.6249	1.72557	116.794	1.90659	135.058
2.16295	2.51453	0.359339	20.197	2.16354	2.51452	0.702973	38.7517	1.36551	84.0833	1.45061	79.118	2.0734	127.212	0.360129	19.6409	2.1678	2.57454	1.05225	65.0465	1.72399	100.925	1.90851	116.201
2.15723	2.51462	0.362831	18.0521	2.15781	2.51461	0.705734	34.5139	1.36149	73.4065	1.4553	70.5016	2.07244	111.384	0.363706	17.6188	2.16308	2.57599	1.05593	57.1258	1.72222	88.8234	1.91068	102.003
2.15152	2.51473	0.366673	16.3646	2.1521	2.51472	0.708758	31.1471	1.35742	65.0892	1.46011	63.6227	2.07137	99.0441	0.367627	16.0183	2.15836	2.57746	1.05987	50.9757	1.72028	79.288	1.91307	90.9296
2.14583	2.51486	0.370843	15.0055	2.14641	2.51484	0.712028	28.4099	1.35331	58.4277	1.465	58.004	2.07019	89.1516	0.371872	14.723	2.15364	2.57893	1.06403	46.0639	1.7182	71.5797	1.91568	82.0544
2.14014	2.515	0.375321	13.8898	2.14073	2.51498	0.715525	26.1426	1.34919	52.9729	1.46996	53.3285	2.06891	81.0434	0.376419	13.6556	2.14893	2.58041	1.06838	42.0517	1.71598	65.2182	1.91848	74.7834
2.13448	2.51516	0.380084	12.9595	2.13506	2.51514	0.719232	24.235	1.34508	48.4246	1.47498	49.3772	2.06753	74.276	0.381247	12.7624	2.14421	2.5819	1.07289	38.7132	1.71365	59.8784	1.92147	68.719
2.12882	2.51533	0.385112	12.1732	2.1294	2.51531	0.723132	22.6086	1.341	44.5747	1.48004	45.994	2.06606	68.5417	0.386333	12.0054	2.13948	2.58339	1.07753	35.8925	1.71121	55.332	1.92462	63.5846
2.12318	2.51553	0.390382	11.501	2.12376	2.51551	0.727209	21.2062	1.33694	41.2743	1.48515	43.0645	2.06451	63.6202	0.391658	11.3565	2.13475	2.58488	1.08229	33.4779	1.70869	51.4144	1.92792	59.1822
2.11755	2.51574	0.395876	10.9205	2.11813	2.51571	0.731446	19.9851	1.33293	38.414	1.49028	40.5033	2.06288	59.35	0.396477	10.8629	2.13002	2.58637	1.08715	31.3878	1.70608	48.0033	1.93136	55.3662
2.11194	2.51597	0.401572	10.4147	2.11251	2.51594	0.73583	18.9125	1.32897	35.9117	1.49543	38.245	2.06118	55.6094	0.400706	10.4863	2.12527	2.58786	1.09208	29.561	1.70342	45.0065	1.93493	52.0271
2.10634	2.51621	0.407452	9.97054	2.10691	2.51619	0.740344	17.9632	1.32506	33.7046	1.5006	36.2389	2.05942	52.3057	0.404281	10.2015	2.12052	2.58934	1.09709	27.9508	1.70071	42.3528	1.93861	49.0809
2.10076	2.51648	0.413498	9.57769	2.10133	2.51645	0.744975	17.1173	1.32121	31.7436	1.50579	34.4448	2.0576	49.3664	0.407155	9.99143	2.11575	2.59082	1.10216	26.5208	1.69796	39.9867	1.94239	46.4625
2.09519	2.51677	0.41969	9.22793	2.09576	2.51674	0.749711	16.3588	1.31743	29.9902	1.51099	32.8309	2.05573	46.7343	0.409293	9.84482	2.11097	2.59229	1.10727	25.2423	1.69518	37.8638	1.94626	44.12
2.08964	2.51707	0.426012	8.91465	2.09021	2.51704	0.754538	15.6749	1.31372	28.4134	1.51619	31.3711	2.05381	44.3636	0.410672	9.75425	2.10617	2.59375	1.11242	24.0925	1.69239	35.9486	1.95022	42.0121
2.0841	2.5174	0.432447	8.6325	2.08467	2.51736	0.759445	15.0552	1.31009	26.988	1.5214	30.0445	2.05185	42.2172	0.412669	9.62829	2.10136	2.59519	1.11761	23.0528	1.68959	34.2123	1.95424	40.1053
2.07858	2.51775	0.438978	8.37702	2.07914	2.51771	0.76442	14.491	1.30654	25.6936	1.52661	28.8334	2.04987	40.2647	0.414857	9.49676	2.09652	2.59662	1.12282	22.108	1.68679	32.631	1.95833	38.3722
2.07307	2.51811	0.44559	8.14457	2.07363	2.51808	0.769453	13.9751	1.30308	24.5132	1.53181	27.7234	2.04786	38.4812	0.417863	9.32629	2.09166	2.59803	1.12804	21.2457	1.684	31.185	1.96248	36.79
2.06758	2.5185	0.452266	7.93207	2.06814	2.51846	0.774532	13.5016	1.29971	23.4326	1.537	26.7023	2.04583	36.8455	0.421709	9.12352	2.08678	2.59941	1.13328	20.4555	1.68122	29.8578	1.96667	35.3399
2.06211	2.51892	0.458991	7.73692	2.06267	2.51887	0.779648	13.0652	1.29643	22.4401	1.54218	25.7597	2.04379	35.3401	0.426423	8.89562	2.08187	2.60077	1.13853	19.7285	1.67847	28.6356	1.97089	34.0059
2.05665	2.51935	0.465751	7.55695	2.05721	2.5193	0.784792	12.6618	1.29326	21.5254	1.54734	24.8868	2.04174	33.9502	0.43203	8.64977	2.07693	2.6021	1.14377	19.0574	1.67576	27.5065	1.97516	32.7746
2.05121	2.51981	0.47253	7.39026	2.05176	2.51976	0.789952	12.2876	1.29019	20.6801	1.55249	24.0761	2.0397	32.663	0.438556	8.39271	2.07196	2.6034	1.14901	18.4359	1.67308	26.4604	1.97944	31.6346
2.04578	2.52029	0.479312	7.23524	2.04634	2.52024	0.79512	11.9395	1.28723	19.8968	1.55761	23.321	2.03766	31.4676	0.445163	8.15887	2.06696	2.60467	1.15424	17.8587	1.67046	25.4887	1.98375	30.5758
2.04037	2.52079	0.486084	7.09049	2.04093	2.52074	0.800288	11.6147	1.28438	19.1691	1.56271	22.6161	2.03563	30.3547	0.451835	7.94517	2.06192	2.6059	1.15946	17.321	1.66788	24.5839	1.98806	29.59
2.03498	2.52132	0.492829	6.9548	2.03553	2.52126	0.805445	11.3108	1.28166	18.4917	1.56778	21.9563	2.03363	29.3161	0.458558	7.74898	2.05685	2.60709	1.16465	16.8188	1.66537	23.7394	1.99239	28.6698
2.02961	2.52187	0.499533	6.8271	2.03016	2.52181	0.810584	11.0257	1.27906	17.8596	1.57282	21.3373	2.03165	28.3448	0.465316	7.56809	2.05174	2.60825	1.16982	16.3487	1.66292	22.9496	1.99671	27.8087
2.02425	2.52244	0.50618	6.70646	2.0248	2.52238	0.81504	10.7911	1.27659	17.2688	1.57782	20.7555	2.0297	27.4344	0.472094	7.4006	2.0466	2.60936	1.17495	15.9075	1.66054	22.2096	2.00103	27.0012
2.01891	2.52304	0.512756	6.59205	2.01946	2.52298	0.818817	10.6006	1.27426	16.7155	1.58279	20.2074	2.02779	26.5797	0.478877	7.24487	2.04142	2.61044	1.18006	15.4926	1.65824	21.5148	2.00534	26.2422
2.01359	2.52367	0.519244	6.48315	2.01413	2.5236	0.821924	10.4491	1.27207	16.1965	1.58771	19.6902	2.02593	25.7756	0.48565	7.0995	2.0362	2.61147	1.18512	15.1016	1.65602	20.8616	2.00963	25.5276
2.00828	2.52432	0.525629	6.37909	2.00882	2.52425	0.824368	10.3329	1.27003	15.709	1.59258	19.2012	2.02411	25.0181	0.492397	6.96326	2.03094	2.61246	1.19013	14.7323	1.6539	20.2463	2.0139	24.8534
2.00299	2.52499	0.531897	6.27932	2.00353	2.52492	0.826158	10.2495	1.26814	15.2504	1.5974	18.738	2.02235	24.3032	0.499104	6.83508	2.02565	2.6134	1.1951	14.383	1.65186	19.6659	2.01814	24.2161
1.99772	2.52569	0.538031	6.1833	1.99826	2.52562	0.8273	10.1969	1.26641	14.8184	1.60217	18.2987	2.02065	23.6276	0.505755	6.71401	2.02031	2.6143	1.20001	14.0519	1.64993	19.1178	2.02235	23.6129
1.99246	2.52642	0.544016	6.09058	1.993	2.52634	0.828936	10.1225	1.26484	14.411	1.60688	17.8812	2.01902	22.9883	0.512336	6.59923	2.01495	2.61516	1.20486	13.7375	1.64811	18.5994	2.02652	23.0408
1.98723	2.52717	0.549839	6.00076	1.98776	2.52709	0.830707	10.0431	1.26344	14.0263	1.61152	17.484	2.01746	22.3825	0.51883	6.48999	2.00954	2.61598	1.20965	13.4386	1.6464	18.1085	2.03064	22.4975
1.98201	2.52795	0.555485	5.91346	1.98254	2.52787	0.833104	9.93739	1.26222	13.6627	1.6161	17.1055	2.01598	21.8079	0.525223	6.38564	2.0041	2.61676	1.21437	13.1538	1.64481	17.6432	2.03472	21.9807
1.9768	2.52875	0.560942	5.82839	1.97733	2.52867	0.836112	9.80746	1.26118	13.3188	1.62061	16.7442	2.01459	21.2621	0.531498	6.28561	1.99863	2.6175	1.21901	12.8821	1.64334	17.2017	2.03874	21.4885
1.97161	2.52958	0.566197	5.74524	1.97214	2.5295	0.839715	9.65559	1.26032	12.9932	1.62504	16.3991	2.01328	20.7432	0.537641	6.18936	1.99312	2.6182	1.22358	12.6226	1.64199	16.7823	2.0427	21.019
1.96644	2.53044	0.571239	5.6638	1.96697	2.53035	0.843888	9.48428	1.25966	12.6846	1.6294	16.0689	2.01208	20.2493	0.543637	6.09644	1.98758	2.61886	1.22806	12.3743	1.64079	16.3836	2.04659	20.5707
1.96129	2.53132	0.576059	5.58385	1.96182	2.53123	0.848598	9.29615	1.2592	12.392	1.63367	15.7525	2.01097	19.7789	0.54947	6.00645	1.98201	2.61949	1.23246	12.1364	1.63972	16.0042	2.05041	20.142
1.95615	2.53223	0.58065	5.50522	1.95668	2.53214	0.853216	9.11631	1.25894	12.1144	1.63786	15.4492	2.00997	19.3304	0.555128	5.919	1.97642	2.62008	1.23676	11.9082	1.63879	15.6429	2.05415	19.7315
1.95103	2.53317	0.585006	5.42778	1.95155	2.53307	0.857736	8.9441	1.25888	11.8507	1.64195	15.1579	2.00909	18.9024	0.560597	5.83379	1.97079	2.62065	1.24097	11.689	1.63801	15.2985	2.05782	19.3381
1.94592	2.53413	0.589124	5.35142	1.94644	2.53403	0.86215	8.7789	1.25904	11.6002	1.64595	14.8779	2.00832	18.4938	0.565865	5.75053	1.96515	2.62118	1.24507	11.4782	1.63739	14.9701	2.06139	18.9606
1.94083	2.53511	0.593002	5.27606	1.94135	2.53501	0.86645	8.62015	1.25941	11.3621	1.64985	14.6085	2.00768	18.1032	0.570921	5.66898	1.95947	2.62168	1.24907	11.2753	1.63692	14.6566	2.06488	18.5979
1.93575	2.53613	0.596641	5.20164	1.93627	2.53602	0.870629	8.46736	1.2599	11.164	1.65365	14.349	2.00716	17.7297	0.575756	5.58894	1.95378	2.62215	1.25248	11.1044	1.63662	14.3572	2.06826	18.2491
1.93069	2.53716	0.600043	5.12815	1.93121	2.53705	0.874682	8.32006	1.26046	11.0019	1.65734	14.0987	2.00678	17.3722	0.580362	5.51023	1.94806	2.6226	1.25531	10.9629	1.63648	14.0712	2.07155	17.9134
1.92564	2.53822	0.603215	5.05556	1.92616	2.53811	0.878601	8.17785	1.26101	10.8722	1.66093	13.8573	2.00654	17.0299	0.584734	5.43272	1.94232	2.62303	1.2576	10.8487	1.6365	13.7976	2.07473	17.59
1.9206	2.53931	0.606162	4.98388	1.92112	2.5392	0.882381	8.04035	1.26151	10.7724	1.66441	13.624	2.00643	16.702	0.588867	5.35629	1.93657	2.62343	1.25939	10.7601	1.6367	13.536	2.0778	17.278
1.91558	2.54042	0.608893	4.91313	1.91609	2.5403	0.886017	7.90724	1.26191	10.7005	1.66778	13.3985	2.00647	16.3875	0.59276	5.28087	1.93079	2.62381	1.26069	10.6958	1.63707	13.2855	2.08077	16.9769
1.91057	2.54155	0.611418	4.84333	1.91108	2.54143	0.889505	7.77819	1.26218	10.6551	1.67103	13.1803	2.00666	16.0859	0.596414	5.2064	1.925	2.62417	1.26151	10.6551	1.63761	13.0456	2.08361	16.686
1.90556	2.5427	0.613749	4.77453	1.90608	2.54258	0.89284	7.65294	1.26259	10.5908	1.67416	12.969	2.007	15.7965	0.599832	5.13284	1.9192	2.62451	1.26268	10.5971	1.63833	12.8158	2.08634	16.4047
1.90057	2.54387	0.615898	4.70675	1.90108	2.54374	0.896019	7.53124	1.26306	10.522	1.67719	12.7643	2.0075	15.5186	0.603018	5.06019	1.91338	2.62483	1.26393	10.5348	1.63923	12.5955	2.08895	16.1325
1.89559	2.54505	0.617877	4.64006	1.8961	2.54493	0.89904	7.41287	1.26374	10.4303	1.68009	12.5657	2.00815	15.2516	0.605979	4.98845	1.90754	2.62514	1.26562	10.4513	1.6403	12.3842	2.09143	15.8689
1.89061	2.54626	0.619699	4.57448	1.89112	2.54613	0.901901	7.29762	1.26469	10.3174	1.68288	12.373	2.00896	14.9949	0.608724	4.91764	1.90169	2.62543	1.26771	10.3474	1.64155	12.1814	2.0938	15.6135
1.88563	2.54748	0.621379	4.51006	1.88614	2.54735	0.904601	7.18531	1.26594	10.1852	1.68555	12.186	2.00993	14.7481	0.611262	4.84778	1.89583	2.6257	1.27019	10.2246	1.64298	11.9867	2.09604	15.3659
1.88066	2.5487	0.622929	4.44683	1.88117	2.54858	0.90714	7.0758	1.26756	10.0359	1.68812	12.0042	2.01105	14.5107	0.613605	4.77891	1.88996	2.62596	1.273	10.084	1.64458	11.7998	2.09816	15.1255
1.87569	2.54994	0.624362	4.38484	1.8762	2.54981	0.909519	6.96892	1.26963	9.87196	1.69057	11.8276	2.01234	14.2822	0.615765	4.71108	1.88408	2.62621	1.27612	9.9273	1.64635	11.6201	2.10016	14.8922
1.87072	2.55118	0.625692	4.32411	1.87123	2.55105	0.911738	6.86457	1.27192	9.71542	1.69291	11.6558	2.01378	14.0621	0.617754	4.64431	1.87819	2.62645	1.27913	9.7752	1.64803	11.4692	2.10204	14.6656
1.86574	2.55242	0.626931	4.26467	1.86625	2.55229	0.913801	6.76261	1.27442	9.5659	1.69487	11.51	2.01538	13.8501	0.619586	4.57865	1.87229	2.62667	1.28202	9.62751	1.64957	11.3445	2.1038	14.4454
1.86075	2.55365	0.628092	4.20654	1.86126	2.55353	0.915709	6.66296	1.27712	9.42301	1.69647	11.3883	2.01713	13.6458	0.621275	4.51416	1.86638	2.62688	1.28479	9.484	1.6509	11.2441	2.10545	14.2312
1.85574	2.55488	0.629185	4.14973	1.85626	2.55475	0.917467	6.56552	1.28003	9.28637	1.69776	11.2895	2.01903	13.4488	0.622833	4.45086	1.86046	2.62709	1.28745	9.34449	1.652	11.1664	2.10699	14.0229
1.85072	2.55608	0.630221	4.09426	1.85123	2.55596	0.919079	6.47022	1.28314	9.15564	1.69875	11.2126	2.02108	13.2586	0.624273	4.38879	1.85454	2.62728	1.29001	9.2088	1.65283	11.1101	2.10843	13.8203
1.84567	2.55725	0.631211	4.04013	1.84619	2.55713	0.92055	6.37699	1.28643	9.03047	1.69947	11.1566	2.02328	13.0751	0.62561	4.32798	1.84861	2.62747	1.29246	9.07679	1.65337	11.0745	2.10976	13.623
1.84058	2.55839	0.632043	3.99405	1.84111	2.55828	0.921884	6.28575	1.28991	8.91055	1.69992	11.1211	2.02562	12.8979	0.626854	4.26845	1.84267	2.62764	1.29481	8.94832	1.65417	11.0238	2.111	13.4309
1.83546	2.55948	0.632735	3.95558	1.83599	2.55937	0.923087	6.19647	1.29356	8.79557	1.70057	11.0704	2.02809	12.7267	0.62802	4.21023	1.83673	2.62781	1.29707	8.82326	1.65505	10.9695	2.11215	13.2438
1.83029	2.56051	0.633298	3.92432	1.83083	2.56041	0.924165	6.10908	1.29738	8.68527	1.70125	11.0158	2.0307	12.5612	0.629116	4.15334	1.83078	2.62798	1.29925	8.70149	1.65628	10.8967	2.11322	13.0615
1.82507	2.56147	0.633738	3.89997	1.82561	2.56138	0.925124	6.02355	1.30135	8.57934	1.70217	10.9423	2.03343	12.4011	0.630156	4.09778	1.82482	2.62813	1.30135	8.58293	1.65788	10.8065	2.11421	12.8839
1.81979	2.56236	0.634059	3.88226	1.82033	2.56227	0.925972	5.93983	1.30547	8.47756	1.70331	10.8507	2.03628	12.2461	0.631148	4.04356	1.81886	2.62828	1.30339	8.46749	1.6599	10.7001	2.11513	12.7107
1.81444	2.56315	0.634265	3.87101	1.81499	2.56307	0.926713	5.85788	1.30973	8.37965	1.70464	10.7419	2.03925	12.0961	0.632104	3.99069	1.81289	2.62843	1.30536	8.35509	1.66236	10.5788	2.11599	12.542
1.80902	2.56385	0.634558	3.85497	1.80958	2.56378	0.927356	5.77768	1.31412	8.2854	1.70615	10.6169	2.04232	11.9508	0.633031	3.93916	1.80693	2.62857	1.30729	8.24567	1.66531	10.4442	2.11679	12.3775
1.80352	2.56445	0.634877	3.83769	1.80409	2.56439	0.927907	5.69918	1.31862	8.19457	1.70783	10.4769	2.04508	11.8278	0.633937	3.88896	1.80095	2.6287	1.30919	8.13917	1.66839	10.3143	2.11755	12.2171
1.79796	2.56495	0.635309	3.81446	1.79853	2.5649	0.928372	5.62235	1.32323	8.10697	1.70944	10.3405	2.04749	11.7255	0.634832	3.8401	1.79498	2.62883	1.31106	8.03554	1.6716	10.1888	2.11827	12.0607
1.79232	2.56535	0.635856	3.78553	1.7929	2.56532	0.928757	5.54717	1.32793	8.02239	1.71101	10.2075	2.04952	11.6426	0.635722	3.79254	1.789	2.62896	1.31293	7.93475	1.67491	10.0674	2.11887	11.9276
1.78662	2.56566	0.636518	3.75119	1.7872	2.56564	0.929071	5.47361	1.33272	7.94064	1.71254	10.0779	2.05115	11.5781	0.636614	3.7463	1.78301	2.62908	1.31479	7.83676	1.67833	9.94994	2.11937	11.8163
1.78085	2.56589	0.637301	3.71182	1.78145	2.56587	0.929318	5.40164	1.33759	7.86154	1.71404	9.95158	2.05236	11.5313	0.637514	3.70133	1.77703	2.6292	1.31669	7.74156	1.68185	9.83626	2.11977	11.7259
1.77503	2.56604	0.63821	3.66783	1.77563	2.56602	0.929506	5.33123	1.34251	7.78492	1.71552	9.82848	2.05314	11.5016	0.638427	3.65764	1.77104	2.62932	1.31861	7.64913	1.68546	9.72612	2.12009	11.6554
1.76917	2.56611	0.639138	3.62508	1.76977	2.56611	0.92964	5.26235	1.34749	7.71062	1.71698	9.70853	2.05427	11.4593	0.63936	3.61519	1.76505	2.62943	1.3206	7.55945	1.68916	9.61936	2.12032	11.6041
1.76326	2.56613	0.640088	3.58357	1.76386	2.56613	0.929726	5.19499	1.35251	7.63849	1.71844	9.59165	2.0555	11.4137	0.640316	3.57397	1.75906	2.62954	1.32265	7.47253	1.69293	9.51578	2.12047	11.5715
1.75731	2.56609	0.641065	3.54327	1.75792	2.56609	0.92977	5.1291	1.35756	7.56838	1.71991	9.47779	2.0572	11.3525	0.6413	3.53395	1.75306	2.62965	1.3248	7.38836	1.69676	9.41522	2.12068	11.525
1.75133	2.566	0.642074	3.50416	1.75194	2.56601	0.929777	5.06467	1.36263	7.50015	1.7214	9.36689	2.05937	11.2762	0.642317	3.49511	1.74707	2.62976	1.32707	7.30695	1.70065	9.31752	2.12091	11.4748
1.74532	2.56587	0.643118	3.46621	1.74593	2.56588	0.929752	5.00168	1.3677	7.43366	1.72292	9.25889	2.06202	11.1858	0.643369	3.45742	1.74107	2.62987	1.32946	7.22832	1.7046	9.22253	2.12122	11.4074
1.73928	2.5657	0.6442	3.42939	1.7399	2.56572	0.929701	4.94008	1.37277	7.36881	1.72447	9.15374	2.06518	11.082	0.644461	3.42087	1.73507	2.62998	1.33202	7.15247	1.70858	9.13011	2.12162	11.3232
1.73323	2.5655	0.645324	3.39369	1.73385	2.56552	0.929629	4.87987	1.37783	7.30546	1.72608	9.0514	2.06885	10.966	0.645595	3.38543	1.72908	2.63008	1.33475	7.07941	1.7126	9.04011	2.1221	11.2231
1.72715	2.56527	0.646492	3.35907	1.72777	2.56529	0.929539	4.82101	1.38286	7.2435	1.72774	8.95181	2.07258	10.853	0.646774	3.35107	1.72308	2.63019	1.33768	7.00917	1.71664	8.95241	2.12268	11.1081
1.72106	2.56501	0.647707	3.32552	1.72168	2.56504	0.929437	4.76347	1.38785	7.18284	1.72947	8.85494	2.07634	10.7429	0.648001	3.31776	1.71708	2.6303	1.34083	6.94175	1.7207	8.86689	2.12337	10.9791
1.71495	2.56473	0.648972	3.293	1.71558	2.56476	0.929327	4.70724	1.39279	7.12336	1.73129	8.76073	2.08014	10.6355	0.649278	3.28548	1.71108	2.63041	1.34422	6.87716	1.72477	8.78343	2.12409	10.8533
1.70884	2.56443	0.650288	3.26149	1.70946	2.56446	0.929211	4.65228	1.39768	7.06497	1.7332	8.66915	2.08396	10.5309	0.650606	3.25421	1.70508	2.63052	1.34788	6.81541	1.72884	8.70192	2.12484	10.7306
1.70271	2.56411	0.651658	3.23097	1.70334	2.56415	0.929095	4.59857	1.4025	7.00759	1.7352	8.58016	2.0878	10.4287	0.651989	3.22392	1.69909	2.63063	1.35181	6.75647	1.73291	8.62225	2.12564	10.611
1.69657	2.56378	0.653083	3.20141	1.6972	2.56381	0.928982	4.54609	1.40723	6.95113	1.73732	8.49372	2.09166	10.3289	0.653427	3.19458	1.69309	2.63074	1.35604	6.70034	1.73696	8.54432	2.12649	10.4944
1.69042	2.56343	0.654564	3.17278	1.69105	2.56346	0.928875	4.49482	1.41188	6.89551	1.73955	8.40978	2.09553	10.2314	0.654922	3.16617	1.68709	2.63086	1.36058	6.64699	1.741	8.46804	2.1274	10.3807
1.68427	2.56306	0.656103	3.14507	1.6849	2.5631	0.928777	4.44472	1.41644	6.84065	1.74192	8.3283	2.0994	10.1361	0.656475	3.13867	1.6811	2.63098	1.36544	6.59637	1.745	8.39333	2.12838	10.2698
1.67811	2.56268	0.657702	3.11824	1.67874	2.56272	0.928692	4.39577	1.42088	6.7865	1.74442	8.24924	2.10326	10.0429	0.658087	3.11204	1.67511	2.6311	1.37062	6.54841	1.74897	8.32009	2.12943	10.1618
1.67194	2.56229	0.65936	3.09228	1.67257	2.56233	0.928621	4.34795	1.42521	6.73297	1.74706	8.17257	2.10712	9.95166	0.65976	3.08628	1.66912	2.63123	1.37613	6.50305	1.7529	8.24825	2.13057	10.0565
1.66576	2.56189	0.661079	3.06715	1.6664	2.56193	0.928569	4.30124	1.42942	6.68003	1.74985	8.09822	2.11095	9.86231	0.661494	3.06135	1.66313	2.63136	1.38197	6.4602	1.75679	8.17773	2.13178	9.95379
1.65959	2.56148	0.662861	3.04284	1.66022	2.56152	0.928537	4.25561	1.43349	6.62761	1.7528	8.02617	2.11477	9.77476	0.66329	3.03722	1.65714	2.6315	1.38813	6.41976	1.76062	8.10847	2.13309	9.85374
1.6534	2.56106	0.664704	3.01932	1.65404	2.5611	0.928529	4.21103	1.43743	6.57567	1.75591	7.95636	2.11856	9.68894	0.665148	3.01389	1.65116	2.63164	1.39461	6.38161	1.76439	8.0404	2.1345	9.75625
1.64722	2.56063	0.666611	2.99657	1.64785	2.56067	0.928545	4.1675	1.44123	6.52416	1.75919	7.88874	2.12232	9.60477	0.667069	2.99132	1.64518	2.63179	1.40139	6.34565	1.7681	7.97346	2.13601	9.66125
1.64103	2.56019	0.66858	2.97457	1.64166	2.56023	0.928589	4.12497	1.44487	6.47305	1.76264	7.82326	2.12604	9.52218	0.669054	2.96949	1.63921	2.63195	1.40846	6.31173	1.77174	7.90759	2.13763	9.5687
1.63483	2.55974	0.670614	2.9533	1.63547	2.55979	0.928662	4.08344	1.44837	6.42232	1.76627	7.75987	2.12972	9.44109	0.671102	2.94839	1.63324	2.63212	1.41582	6.27974	1.77531	7.84275	2.13935	9.47854
1.62864	2.55928	0.672711	2.93274	1.62927	2.55933	0.928766	4.04288	1.4517	6.37192	1.77006	7.69851	2.13335	9.36145	0.673215	2.92799	1.62728	2.63229	1.42343	6.24954	1.7788	7.77888	2.1412	9.39071
1.62244	2.55882	0.674873	2.91286	1.62307	2.55887	0.928903	4.00327	1.45488	6.32185	1.77404	7.63913	2.13694	9.2832	0.675391	2.90827	1.62132	2.63248	1.43128	6.22102	1.78221	7.71595	2.14316	9.30516
1.61624	2.55835	0.677098	2.89365	1.61687	2.5584	0.929076	3.96459	1.4579	6.27208	1.77819	7.58166	2.14047	9.20627	0.677632	2.88921	1.61536	2.63268	1.43937	6.19403	1.78554	7.65391	2.14525	9.22184
1.61003	2.55787	0.679387	2.87508	1.61067	2.55792	0.929284	3.92682	1.46076	6.22261	1.78251	7.52605	2.14395	9.13062	0.679937	2.8708	1.60942	2.63289	1.44766	6.16847	1.78879	7.59273	2.14746	9.14068
1.60383	2.55739	0.681741	2.85714	1.60446	2.55744	0.929531	3.88993	1.46346	6.17342	1.787	7.47222	2.14737	9.0562	0.682306	2.853	1.60348	2.63311	1.45615	6.14422	1.79195	7.53238	2.1498	9.06164
1.59762	2.5569	0.684159	2.83981	1.59826	2.55695	0.929816	3.85391	1.466	6.12452	1.79166	7.42013	2.15073	8.98295	0.684738	2.83582	1.59755	2.63335	1.46481	6.12117	1.79503	7.47283	2.15227	8.98466
1.59141	2.5564	0.686641	2.82308	1.59205	2.55645	0.930143	3.81874	1.46838	6.07589	1.79649	7.36969	2.15403	8.91085	0.687235	2.81922	1.59162	2.6336	1.47362	6.0992	1.79802	7.41406	2.15487	8.90968
1.5852	2.5559	0.689186	2.80691	1.58584	2.55595	0.930511	3.78441	1.4706	6.02755	1.80147	7.32084	2.15727	8.83986	0.689795	2.80318	1.58571	2.63388	1.48258	6.07824	1.80092	7.35605	2.15759	8.83665
1.57899	2.55539	0.691795	2.79131	1.57963	2.55544	0.930923	3.75088	1.47267	5.97949	1.80661	7.27353	2.16044	8.76993	0.692419	2.78771	1.57981	2.63417	1.49167	6.05818	1.80374	7.29879	2.16045	8.76552
1.57278	2.55488	0.694466	2.77624	1.57341	2.55493	0.931378	3.71815	1.4746	5.93173	1.8119	7.22767	2.16354	8.70104	0.695105	2.77276	1.57392	2.63449	1.50087	6.03894	1.80649	7.24227	2.16344	8.69622
1.56656	2.55436	0.697201	2.7617	1.5672	2.55441	0.931879	3.68619	1.47638	5.88428	1.81733	7.1832	2.16658	8.63315	0.697855	2.75834	1.56804	2.63482	1.51016	6.02044	1.80915	7.18648	2.16655	8.62871
1.56035	2.55383	0.699998	2.74766	1.56098	2.55389	0.932425	3.65499	1.47802	5.83714	1.82289	7.14006	2.16956	8.56626	0.700667	2.74443	1.56218	2.63519	1.51953	6.00259	1.81175	7.13142	2.16979	8.56292
1.55413	2.5533	0.702858	2.73412	1.55477	2.55336	0.933019	3.62454	1.47952	5.79032	1.82857	7.09817	2.17248	8.50032	0.703541	2.731	1.55633	2.63559	1.52898	5.98534	1.81427	7.07708	2.17315	8.49881
1.54792	2.55277	0.705779	2.72107	1.54855	2.55282	0.933661	3.59481	1.4809	5.74384	1.83437	7.05747	2.17533	8.43533	0.706477	2.71805	1.5505	2.63601	1.53847	5.9686	1.81674	7.02348	2.17664	8.4363
1.5417	2.55223	0.708762	2.70847	1.54234	2.55228	0.934352	3.56579	1.48216	5.69772	1.84028	7.01791	2.17812	8.37126	0.709474	2.70557	1.54469	2.63647	1.54801	5.95231	1.81915	6.97063	2.18024	8.37536
1.53548	2.55168	0.711807	2.69633	1.53612	2.55174	0.935091	3.53746	1.48329	5.65196	1.84629	6.9794	2.18086	8.30811	0.712534	2.69353	1.5389	2.63697	1.55757	5.93642	1.82152	6.91853	2.18395	8.31592
1.52927	2.55113	0.714913	2.68463	1.5299	2.55119	0.935881	3.50982	1.48432	5.60657	1.85238	6.94189	2.18355	8.24586	0.715654	2.68194	1.53313	2.63752	1.56715	5.92084	1.82385	6.8672	2.18778	8.25792
1.52305	2.55058	0.71808	2.67336	1.52369	2.55064	0.936722	3.48283	1.48524	5.56157	1.85855	6.90531	2.18619	8.18451	0.718835	2.67077	1.52739	2.6381	1.57672	5.90552	1.82616	6.81667	2.1917	8.20132
1.51683	2.55002	0.721308	2.66251	1.51747	2.55008	0.937615	3.45649	1.48606	5.51697	1.8648	6.86961	2.18878	8.12404	0.722078	2.66001	1.52167	2.63874	1.58627	5.8904	1.82845	6.76696	2.19573	8.14605
1.51062	2.54946	0.724598	2.65207	1.51125	2.54952	0.938559	3.43079	1.48679	5.47279	1.8711	6.83472	2.19134	8.06447	0.725383	2.64966	1.51598	2.63944	1.5958	5.87542	1.83075	6.7181	2.19985	8.09206
1.5044	2.54889	0.727951	2.64202	1.50504	2.54895	0.939556	3.40571	1.48742	5.42903	1.87744	6.80059	2.19386	8.00577	0.72875	2.63971	1.51032	2.64019	1.60527	5.8605	1.83307	6.67013	2.20406	8.0393
1.49818	2.54832	0.731367	2.63238	1.49882	2.54838	0.940605	3.38124	1.48798	5.3857	1.88383	6.76716	2.19636	7.94797	0.732182	2.63016	1.50469	2.64101	1.61467	5.84558	1.83543	6.62309		
1.49197	2.54775	0.734848	2.62312	1.4926	2.54781	0.941709	3.35735	1.48846	5.34281	1.89024	6.73437	2.19884	7.89106	0.735679	2.621	1.49911	2.64191	1.62398	5.8306	1.83784	6.57702		
1.48575	2.54718	0.738399	2.61426	1.48639	2.54723	0.942866	3.33405	1.48886	5.30037	1.89667	6.70216	2.20131	7.83504	0.739246	2.61223	1.49356	2.64288	1.63319	5.81548	1.84032	6.53199		
1.47954	2.5466	0.742023	2.60581	1.48017	2.54665	0.944077	3.31132	1.48921	5.25839	1.90309	6.67049			0.742889	2.60388	1.48806	2.64394	1.64226	5.80013	1.84291	6.48804		
1.47333	2.54601	0.74573	2.59778	1.47396	2.54607	0.945343	3.28914	1.48949	5.21687	1.90951	6.6393			0.746618	2.59595	1.4826	2.64509	1.65118	5.78449	1.84563	6.44525		
1.46711	2.54543	0.749536	2.59021	1.46775	2.54549	0.946664	3.2675	1.48971	5.17583	1.91591	6.60853			0.75045	2.58851	1.4772	2.64634	1.65992	5.76846	1.8485	6.40367		
1.4609	2.54484	0.753466	2.5832	1.46154	2.5449	0.94804	3.2464	1.48988	5.13525	1.92228	6.57814			0.754415	2.58164	1.47185	2.6477	1.66844	5.75195	1.85156	6.3634		
1.45469	2.54425	0.757567	2.57687	1.45533	2.54431	0.949472	3.22582	1.49	5.09516	1.92861	6.54808			0.758567	2.57551	1.46655	2.64917	1.67672	5.73488	1.85483	6.3245		
1.44848	2.54366	0.761918	2.57149	1.44912	2.54372	0.95096	3.20574	1.49008	5.05554	1.93487	6.5183			0.762991	2.57039	1.46132	2.65077	1.68472	5.71714	1.85836	6.28705		
1.44228	2.54306	0.766623	2.56738	1.44291	2.54312	0.952505	3.18616	1.49013	5.01641	1.94107	6.48875			0.767794	2.56662	1.45615	2.6525	1.69242	5.69865	1.86217	6.25115		
1.43607	2.54247	0.771755	2.56474	1.43671	2.54253	0.954106	3.16707	1.49013	4.97777	1.94719	6.45938			0.773024	2.56433	1.45105	2.65436	1.69979	5.67932	1.86629	6.21684		
1.42987	2.54187	0.777271	2.56342	1.43051	2.54193	0.955763	3.14846	1.49011	4.93961	1.95322	6.43015			0.778616	2.56326	1.44602	2.65637	1.70678	5.65907	1.87077	6.18421		
1.42367	2.54127	0.783058	2.563	1.42431	2.54133	0.957478	3.13032	1.49005	4.90194	1.95914	6.40101			0.784449	2.56299	1.44106	2.65852	1.71339	5.63783	1.87561	6.1533		
1.41747	2.54067	0.789009	2.56312	1.41811	2.54073	0.95925	3.11263	1.48998	4.86476	1.96494	6.37193			0.790428	2.5632	1.43617	2.66083	1.71957	5.61555	1.88085	6.12414		
1.41128	2.54007	0.795057	2.56355	1.41191	2.54014	0.96108	3.09539	1.48988	4.82807	1.97061	6.34287			0.796492	2.56368	1.43136	2.6633	1.72533	5.5922	1.88651	6.09674		
1.40509	2.53948	0.801163	2.56416	1.40572	2.53954	0.962967	3.07859	1.48976	4.79186	1.97614	6.31378			0.802608	2.56433	1.42662	2.66593	1.73064	5.56778	1.89258	6.07109		
1.3989	2.53888	0.807306	2.56488	1.39953	2.53894	0.964913	3.06222	1.48963	4.75613	1.98152	6.28463			0.808758	2.56506	1.42196	2.66872	1.73551	5.5423	1.89907	6.04715		
1.39271	2.53828	0.813472	2.56567	1.39335	2.53835	0.966918	3.04628	1.48948	4.72088	1.98674	6.2554			0.814928	2.56586	1.41737	2.67168	1.73994	5.5158	1.90597	6.02486		
1.38653	2.53769	0.819654	2.56649	1.38717	2.53775	0.968981	3.03074	1.48933	4.68612	1.99178	6.22605			0.821114	2.56668	1.41285	2.6748	1.74394	5.48835	1.91327	6.00414		
1.38036	2.5371	0.825848	2.56733	1.38099	2.53716	0.971103	3.01562	1.48916	4.65183	1.99665	6.19656			0.827309	2.56753	1.40841	2.67809	1.74754	5.46003	1.92095	5.98489		
1.37418	2.53651	0.832048	2.56818	1.37482	2.53657	0.973284	3.00089	1.48899	4.61802	2.00132	6.1669			0.833511	2.56839	1.40404	2.68155	1.75076	5.43093	1.92898	5.96702		
1.36802	2.53593	0.838254	2.56904	1.36865	2.53599	0.975526	2.98656	1.48882	4.58467	2.0058	6.13707			0.839717	2.56924	1.39974	2.68517	1.75362	5.40114	1.93734	5.95041		
1.36186	2.53535	0.844463	2.5699	1.36249	2.53541	0.977828	2.9726	1.48865	4.55179	2.01008	6.10704			0.845927	2.5701	1.39552	2.68896	1.75615	5.37076	1.946	5.93495		
1.3557	2.53478	0.850674	2.57075	1.35633	2.53484	0.980191	2.95903	1.48847	4.51938	2.01415	6.07681			0.852139	2.57095	1.39135	2.69292	1.75838	5.33989	1.95493	5.92054		
1.34955	2.53422	0.856887	2.57159	1.35018	2.53428	0.982615	2.94583	1.4883	4.48742	2.01801	6.04638			0.858351	2.57179	1.38726	2.69703	1.76033	5.30863	1.96412	5.90707		
1.34341	2.53366	0.8631	2.57242	1.34404	2.53372	0.985101	2.93299	1.48814	4.45592	2.02167	6.01575			0.864565	2.57262	1.38322	2.7013	1.76204	5.27706	1.97352	5.89446		
1.33727	2.53312	0.869313	2.57325	1.3379	2.53317	0.98765	2.92052	1.48798	4.42487	2.02512	5.98491			0.870778	2.57344	1.37925	2.70574	1.76352	5.24526	1.98313	5.8826		
1.33115	2.53258	0.875527	2.57406	1.33177	2.53263	0.990262	2.9084	1.48782	4.39426	2.02836	5.95388			0.876992	2.57425	1.37534	2.71033	1.76481	5.21331	1.99291	5.87143		
1.32503	2.53206	0.88174	2.57486	1.32566	2.53211	0.992938	2.89663	1.48768	4.3641	2.03139	5.92267			0.883204	2.57504	1.37148	2.71508	1.76592	5.18126	2.00285	5.86087		
1.31892	2.53155	0.887952	2.57564	1.31955	2.5316	0.99568	2.8852	1.48755	4.33437	2.03422	5.8913			0.889416	2.57583	1.36768	2.71999	1.76686	5.14918	2.01292	5.85084		
1.31283	2.53105	0.894163	2.57642	1.31345	2.5311	0.998487	2.87412	1.48743	4.30507	2.03686	5.85977			0.895627	2.5766	1.36394	2.72505	1.76767	5.11712	2.02312	5.8413		
1.30674	2.53058	0.900373	2.57717	1.30736	2.53063	1.00136	2.86338	1.48732	4.2762	2.0393	5.82811			0.901837	2.57735	1.36025	2.73027	1.76835	5.08512	2.03342	5.83219		
1.30067	2.53012	0.906582	2.57792	1.30129	2.53017	1.0043	2.85297	1.48723	4.24776	2.04156	5.79634			0.908045	2.57809	1.35662	2.73564	1.76892	5.05323	2.04381	5.82345		
1.29461	2.52969	0.912789	2.57865	1.29523	2.52974	1.00732	2.8429	1.48715	4.21973	2.04364	5.76448			0.914252	2.57882	1.35303	2.74117	1.76938	5.02146	2.05428	5.81505		
1.28856	2.52929	0.918995	2.57937	1.28918	2.52933	1.0104	2.83315	1.48709	4.19211	2.04555	5.73255			0.920458	2.57954	1.3495	2.74685	1.76976	4.98986	2.06481	5.80693		
1.28254	2.52891	0.925199	2.58007	1.28315	2.52895	1.01356	2.82373	1.48704	4.1649	2.04729	5.70058			0.926661	2.58024	1.34601	2.75268	1.77006	4.95845	2.07539	5.79907		
1.27653	2.52856	0.931401	2.58076	1.27714	2.5286	1.01679	2.81464	1.48702	4.13809	2.04888	5.66859			0.932864	2.58093	1.34258	2.75867	1.77029	4.92725	2.08602	5.79142		
1.27054	2.52825	0.937602	2.58144	1.27115	2.52828	1.0201	2.80588	1.48702	4.11167	2.05032	5.63659			0.939064	2.5816	1.33919	2.76481	1.77046	4.89627	2.09668	5.78395		
1.26457	2.52798	0.943801	2.58211	1.26518	2.52801	1.02349	2.79745	1.48703	4.08565	2.05162	5.60462			0.945262	2.58226	1.33585	2.77112	1.77058	4.86554	2.10735	5.77664		
1.25862	2.52776	0.949998	2.58276	1.25923	2.52778	1.02696	2.78934	1.48707	4.06002	2.05279	5.57269			0.951459	2.58291	1.33255	2.77757	1.77064	4.83506	2.11804	5.76943		
1.2527	2.52758	0.956194	2.58339	1.25331	2.52759	1.03051	2.78155	1.48713	4.03476	2.05384	5.54082			0.957654	2.58354	1.3293	2.78419	1.77066	4.80485	2.12872	5.76231		
1.24681	2.52745	0.962387	2.58402	1.24741	2.52746	1.03415	2.77409	1.48721	4.00989	2.05477	5.50903			0.963847	2.58416	1.3261	2.79097	1.77065	4.77492	2.13939	5.75524		
1.24094	2.52739	0.968579	2.58463	1.24154	2.52739	1.03787	2.76696	1.48732	3.98538	2.05559	5.47734			0.970038	2.58477	1.32294	2.7979	1.77061	4.74527	2.15003	5.74819		
1.23511	2.52739	0.974768	2.58523	1.23571	2.52738	1.04169	2.76016	1.48745	3.96124	2.0563	5.44577			0.976227	2.58537	1.31982	2.805	1.77053	4.71591	2.16063	5.74111		
1.22931	2.52746	0.980955	2.58581	1.22991	2.52745	1.0456	2.75368	1.48761	3.93746	2.05692	5.41433			0.982414	2.58595	1.31675	2.81227	1.77044	4.68685	2.17117	5.73398		
1.22355	2.52761	0.98714	2.58638	1.22414	2.52759	1.0496	2.74753	1.48779	3.91404	2.05746	5.38304			0.988598	2.58652	1.31372	2.8197	1.77032	4.65809	2.18165	5.72674		
1.21783	2.52784	0.993323	2.58695	1.21842	2.52781	1.0537	2.7417	1.488	3.89097	2.05791	5.35191			0.994781	2.58708	1.31074	2.82729	1.77019	4.62963	2.19203	5.71935		
1.21216	2.52816	0.999504	2.58749	1.21274	2.52812	1.0579	2.7362	1.48824	3.86825	2.05828	5.32095			1.00096	2.58762	1.3078	2.83506	1.77004	4.60148	2.2023	5.71176		
1.20652	2.52858	1.00568	2.58803	1.2071	2.52853	1.0622	2.73101	1.4885	3.84587	2.05858	5.29018			1.00714	2.58815	1.3049	2.843	1.76989	4.57364				
1.20094	2.5291	1.01186	2.58855	1.20151	2.52904	1.06659	2.72614	1.48879	3.82382	2.05882	5.2596			1.01331	2.58867	1.30204	2.85111	1.76972	4.54611				
1.1954	2.52973	1.01803	2.58906	1.19596	2.52966	1.07109	2.72158	1.48911	3.80211	2.05899	5.22922			1.01949	2.58918	1.29923	2.8594	1.76955	4.51889				
1.18991	2.53048	1.0242	2.58956	1.19047	2.5304	1.07568	2.71732	1.48946	3.78073	2.05911	5.19906			1.02566	2.58968	1.29646	2.86787	1.76938	4.49198				
1.18448	2.53135	1.03037	2.59005	1.18503	2.53125	1.08037	2.71334	1.48984	3.75967	2.05918	5.16911			1.03183	2.59017	1.29374	2.87652	1.7692	4.46538				
1.1791	2.53233	1.03654	2.59053	1.17965	2.53223	1.08515	2.70965	1.49025	3.73893	2.0592	5.13939			1.03799	2.59064	1.29105	2.88535	1.76903	4.43908				
1.17377	2.53345	1.0427	2.59099	1.17432	2.53333	1.09002	2.70622	1.49068	3.7185	2.05918	5.10991			1.04416	2.5911	1.28841	2.89437	1.76886	4.4131				
1.1685	2.53469	1.04887	2.59144	1.16904	2.53456	1.09498	2.70304	1.49115	3.69838	2.05911	5.08066			1.05032	2.59155	1.28581	2.90358	1.76869	4.38742				
1.16328	2.53607	1.05503	2.59189	1.16381	2.53592	1.10002	2.7001	1.49165	3.67857	2.05901	5.05165			1.05648	2.59199	1.28325	2.91299	1.76853	4.36205				
1.15812	2.53757	1.06118	2.59231	1.15864	2.53741	1.10513	2.69738	1.49218	3.65906	2.05888	5.02289			1.06263	2.59241	1.28074	2.92258	1.76837	4.33699				
1.153	2.53921	1.06733	2.59273	1.15353	2.53903	1.11032	2.69487	1.49275	3.63984	2.05872	4.99438			1.06879	2.59283	1.27826	2.93238	1.76822	4.31222				
1.14794	2.54097	1.07349	2.59314	1.14846	2.54078	1.11558	2.69255	1.49334	3.62092	2.05853	4.96612			1.07494	2.59323	1.27583	2.94238	1.76808	4.28776				
1.14293	2.54286	1.07963	2.59353	1.14344	2.54266	1.1209	2.69041	1.49397	3.60229	2.05831	4.93812			1.08108	2.59362	1.27344	2.95258	1.76796	4.26359				
1.13796	2.54486	1.08578	2.59392	1.13846	2.54465	1.12628	2.68843	1.49463	3.58394	2.05808	4.91037			1.08723	2.594	1.27109	2.96299	1.76784	4.23972				
1.13303	2.54699	1.09192	2.59429	1.13353	2.54677	1.13171	2.6866	1.49532	3.56587	2.05782	4.88288			1.09337	2.59437	1.26879	2.97361	1.76774	4.21614				
1.12814	2.54923	1.09806	2.59465	1.12864	2.549	1.13719	2.6849	1.49604	3.54807	2.05755	4.85565			1.0995	2.59473	1.26653	2.98445	1.76765	4.19286				
1.12329	2.55158	1.10419	2.595	1.12379	2.55133	1.14272	2.68333	1.4968	3.53055	2.05727	4.82868			1.10564	2.59508	1.26431	2.9955	1.76758	4.16986				
1.11848	2.55402	1.11032	2.59533	1.11897	2.55377	1.14828	2.68188	1.49759	3.51329	2.05697	4.80198			1.11177	2.59541	1.26213	3.00678	1.76752	4.14715				
1.11369	2.55656	1.11645	2.59566	1.11418	2.5563	1.15389	2.68052	1.49841	3.4963	2.05666	4.77553			1.1179	2.59573	1.25999	3.01828	1.76748	4.12472				
1.10893	2.55919	1.12258	2.59597	1.10942	2.55892	1.15953	2.67926	1.49927	3.47957	2.05634	4.74935			1.12402	2.59604	1.2579	3.03001	1.76745	4.10257				
1.1042	2.56191	1.1287	2.59627	1.10468	2.56162	1.1652	2.67808	1.50016	3.46309	2.05602	4.72343			1.13014	2.59634	1.25585	3.04198	1.76745	4.0807				
1.09948	2.56469	1.13481	2.59656	1.09996	2.5644	1.1709	2.67699	1.50109	3.44687	2.05569	4.69776			1.13626	2.59662	1.25384	3.05418	1.76746	4.0591				
1.09477	2.56753	1.14093	2.59683	1.09526	2.56724	1.17662	2.67596	1.50205	3.4309	2.05535	4.67236			1.14237	2.5969	1.25187	3.06663	1.76749	4.03778				
1.09008	2.57043	1.14703	2.5971	1.09056	2.57013	1.18237	2.675	1.50305	3.41517	2.05502	4.64722			1.14847	2.59716	1.24995	3.07932	1.76754	4.01672				
1.08539	2.57338	1.15314	2.59735	1.08587	2.57307	1.18814	2.67409	1.50407	3.39968	2.05468	4.62234			1.15458	2.59741	1.24806	3.09226	1.76761	3.99593				
1.0807	2.57635	1.15924	2.59759	1.08118	2.57605	1.19393	2.67324	1.50514	3.38444	2.05434	4.59772			1.16068	2.59764	1.24622	3.10545	1.7677	3.97541				
1.07601	2.57935	1.16533	2.59781	1.07649	2.57904	1.19974	2.67244	1.50624	3.36942	2.05401	4.57335			1.16677	2.59786	1.24442	3.1189	1.76782	3.95514				
1.0713	2.58236	1.17142	2.59802	1.07178	2.58205	1.20557	2.67169	1.50737	3.35464	2.05367	4.54923			1.17286	2.59807	1.24267	3.13262	1.76796	3.93513				
1.06658	2.58536	1.17751	2.59822	1.06707	2.58505	1.21141	2.67097	1.50854	3.34009	2.05335	4.52538			1.17894	2.59826	1.24095	3.1466	1.76811	3.91537				
1.06184	2.58835	1.18358	2.5984	1.06233	2.58805	1.21726	2.67029	1.50974	3.32576	2.05302	4.50177			1.18502	2.59844	1.23928	3.16085	1.7683	3.89587				
1.05708	2.59131	1.18966	2.59857	1.05757	2.59101	1.22313	2.66965	1.51098	3.31165	2.0527	4.47841			1.19109	2.59861	1.23765	3.17538	1.7685	3.87662				
1.05229	2.59423	1.19572	2.59872	1.05278	2.59394	1.22901	2.66904	1.51225	3.29777	2.05239	4.45531			1.19715	2.59875	1.23606	3.19019	1.76873	3.85761				
1.04745	2.5971	1.20178	2.59886	1.04795	2.59681	1.2349	2.66846	1.51356	3.28409	2.05209	4.43245			1.20321	2.59889	1.23452	3.20529	1.76898	3.83884				
1.04259	2.5999	1.20783	2.59898	1.04309	2.59961	1.2408	2.6679	1.5149	3.27063	2.0518	4.40983			1.20926	2.599	1.23301	3.22068	1.76926	3.82031				
1.03767	2.60262	1.21388	2.59908	1.03818	2.60235	1.2467	2.66737	1.51628	3.25738	2.05151	4.38746			1.2153	2.5991	1.23155	3.23636	1.76956	3.80203				
1.03271	2.60526	1.21992	2.59917	1.03322	2.60499	1.25262	2.66686	1.51769	3.24433	2.05124	4.36533			1.22134	2.59919	1.23013	3.25235	1.76989	3.78397				
1.0277	2.6078	1.22595	2.59924	1.02822	2.60754	1.25854	2.66638	1.51914	3.23149	2.05097	4.34345			1.22737	2.59925	1.22875	3.26864	1.77025	3.76615				
1.02264	2.61023	1.23197	2.59928	1.02316	2.60999	1.26447	2.66591	1.52062	3.21885	2.05072	4.3218			1.23338	2.59929	1.22741	3.28525	1.77063	3.74856				
1.01752	2.61256	1.23798	2.59931	1.01805	2.61233	1.27041	2.66546	1.52214	3.2064	2.05048	4.30038			1.23939	2.59932	1.22611	3.30217	1.77103	3.73119				
1.01235	2.61478	1.24398	2.59932	1.01289	2.61456	1.27635	2.66503	1.5237	3.19415	2.05026	4.2792			1.24539	2.59932	1.22486	3.31941	1.77146	3.71404				
1.00713	2.61689	1.24997	2.5993	1.00767	2.61668	1.2823	2.66461	1.52529	3.18209	2.05004	4.25825			1.25138	2.5993	1.22364	3.33699	1.77192	3.69712				
1.00186	2.61889	1.25595	2.59927	1.0024	2.61869	1.28826	2.6642	1.52691	3.17022	2.04985	4.23753			1.25736	2.59925	1.22247	3.35489	1.77241	3.68041				
0.996534	2.62078	1.26192	2.5992	0.997082	2.62059	1.29421	2.66381	1.52857	3.15854	2.04966	4.21704			1.26332	2.59918	1.22133	3.37314	1.77292	3.66392				
0.99116	2.62256	1.26787	2.59911	0.991713	2.62238	1.30017	2.66344	1.53027	3.14704	2.0495	4.19677			1.26927	2.59909	1.22024	3.39173	1.77346	3.64765				
0.985739	2.62424	1.27381	2.599	0.986297	2.62407	1.30614	2.66307	1.532	3.13572	2.04935	4.17672			1.27521	2.59897	1.21918	3.41067	1.77403	3.63158				
0.980274	2.62582	1.27973	2.59885	0.980836	2.62566	1.31211	2.66271	1.53377	3.12458	2.04921	4.1569			1.28113	2.59881	1.21817	3.42998	1.77462	3.61572				
0.974767	2.62731	1.28564	2.59867	0.975333	2.62716	1.31808	2.66237	1.53557	3.11362	2.04909	4.1373			1.28703	2.59863	1.21719	3.44964	1.77525	3.60006				
0.96922	2.6287	1.29153	2.59846	0.96979	2.62857	1.32406	2.66203	1.53741	3.10283	2.04899	4.11791			1.29292	2.59841	1.21626	3.46967	1.7759	3.58461				
0.963637	2.63002	1.29741	2.59822	0.964211	2.62989	1.33003	2.6617	1.53928	3.09221	2.04891	4.09874			1.29879	2.59816	1.21536	3.49008	1.77658	3.56936				
0.958021	2.63126	1.30326	2.59794	0.958597	2.63114	1.33601	2.66137	1.54119	3.08175	2.04885	4.07978			1.30464	2.59786	1.2145	3.51088	1.77729	3.55431				
0.952372	2.63243	1.30909	2.59761	0.952952	2.63231	1.342	2.66106	1.54313	3.07147	2.0488	4.06103			1.31046	2.59753	1.21367	3.53206	1.77802	3.53945				
0.946695	2.63353	1.3149	2.59725	0.947278	2.63342	1.34798	2.66075	1.54511	3.06135	2.04878	4.04249			1.31627	2.59716	1.21289	3.55363	1.77879	3.52478				
0.940991	2.63458	1.32069	2.59684	0.941576	2.63447	1.35396	2.66045	1.54712	3.05139	2.04877	4.02415			1.32205	2.59673	1.21214	3.57561	1.77958	3.5103				
0.935262	2.63556	1.32644	2.59638	0.93585	2.63546	1.35995	2.66015	1.54917	3.04159	2.04878	4.00602			1.3278	2.59626	1.21143	3.598	1.78041	3.49601				
0.92951	2.6365	1.33217	2.59587	0.9301	2.6364	1.36594	2.65985	1.55126	3.03195	2.04881	3.9881			1.33352	2.59574	1.21075	3.6208	1.78126	3.48191				
0.923737	2.63739	1.33787	2.5953	0.92433	2.6373	1.37192	2.65956	1.55338	3.02246	2.04887	3.97037			1.33921	2.59516	1.21011	3.64402	1.78214	3.46799				
0.917945	2.63823	1.34354	2.59468	0.91854	2.63815	1.37791	2.65928	1.55553	3.01312	2.04894	3.95284			1.34487	2.59453	1.2095	3.66767	1.78305	3.45425				
0.912136	2.63903	1.34917	2.594	0.912732	2.63895	1.3839	2.659	1.55772	3.00394	2.04904	3.9355			1.35049	2.59383	1.20892	3.69175	1.78399	3.44069				
0.90631	2.6398	1.35477	2.59325	0.906908	2.63972	1.38989	2.65872	1.55995	2.9949	2.04915	3.91836			1.35608	2.59307	1.20838	3.71628	1.78496	3.42731				
0.900469	2.64054	1.36032	2.59244	0.901068	2.64046	1.39588	2.65844	1.56221	2.98602	2.04929	3.90141			1.36163	2.59224	1.20787	3.74126	1.78596	3.4141				
0.894615	2.64124	1.36584	2.59156	0.895215	2.64117	1.40187	2.65816	1.5645	2.97727	2.04945	3.88465			1.36714	2.59135	1.20739	3.76669	1.78698	3.40106				
0.888748	2.64192	1.37132	2.59061	0.88935	2.64185	1.40786	2.65789	1.56684	2.96867	2.04964	3.86808			1.3726	2.59038	1.20694	3.79259	1.78804	3.3882				
0.882869	2.64257	1.37675	2.58959	0.883472	2.6425	1.41385	2.65762	1.5692	2.96022	2.04984	3.85169			1.37803	2.58934	1.20651	3.81895	1.78913	3.3755				
0.87698	2.64319	1.38214	2.5885	0.877584	2.64313	1.41983	2.65735	1.5716	2.9519	2.05007	3.83549			1.38341	2.58823	1.20612	3.84579	1.79025	3.36297				
0.871081	2.6438	1.38749	2.58733	0.871686	2.64374	1.42582	2.65708	1.57404	2.94371	2.05032	3.81947			1.38874	2.58704	1.20575	3.87312	1.79139	3.3506				
0.865173	2.64439	1.39279	2.58609	0.865779	2.64433	1.4318	2.6568	1.57651	2.93567	2.05059	3.80363			1.39404	2.58579	1.20541	3.90093	1.79257	3.33839				
0.859256	2.64496	1.39805	2.58478	0.859863	2.6449	1.43779	2.65653	1.57902	2.92776	2.05089	3.78797			1.39928	2.58446	1.20509	3.92924	1.79378	3.32635				
0.853332	2.64551	1.40326	2.5834	0.853939	2.64545	1.44377	2.65626	1.58156	2.91998	2.0512	3.77248			1.40449	2.58306	1.2048	3.95805	1.79501	3.31446				
0.847401	2.64605	1.40844	2.58195	0.848009	2.646	1.44975	2.65598	1.58414	2.91233	2.05155	3.75717			1.40965	2.5816	1.20452	3.98737	1.79628	3.30272				
0.841463	2.64658	1.41357	2.58045	0.842072	2.64653	1.45572	2.65571	1.58675	2.90481	2.05191	3.74202			1.41478	2.58009	1.20426	4.01721	1.79758	3.29115				
0.83552	2.6471	1.41867	2.57889	0.836129	2.64704	1.4617	2.65543	1.5894	2.89742	2.0523	3.72705			1.41986	2.57851	1.20403	4.04757	1.7989	3.27972				
0.82957	2.6476	1.42373	2.57728	0.83018	2.64755	1.46767	2.65515	1.59208	2.89016	2.05272	3.71225			1.42491	2.57689	1.2038	4.07845	1.80026	3.26844				
0.823616	2.6481	1.42875	2.57562	0.824226	2.64805	1.47364	2.65486	1.5948	2.88302	2.05316	3.69761			1.42994	2.57522	1.20359	4.10987	1.80164	3.25731				
0.817657	2.64859	1.43375	2.57392	0.818268	2.64854	1.4796	2.65457	1.59756	2.87601	2.05362	3.68314			1.43493	2.57352	1.20339	4.14182	1.80306	3.24633				
0.811694	2.64907	1.43873	2.5722	0.812306	2.64903	1.48556	2.65428	1.60035	2.86911	2.05411	3.66883			1.4399	2.57179	1.2032	4.17431	1.80451	3.23549				
0.805728	2.64955	1.44368	2.57045	0.806339	2.6495	1.49152	2.65398	1.60318	2.86234	2.05462	3.65469			1.44484	2.57003	1.20301	4.20734	1.80598	3.2248				
0.799757	2.65003	1.44861	2.56868	0.800369	2.64998	1.49747	2.65368	1.60604	2.85569	2.05516	3.6407			1.44977	2.56826	1.20283	4.24093	1.80749	3.21425				
0.793784	2.6505	1.45353	2.56689	0.794396	2.65045	1.50342	2.65337	1.60894	2.84916	2.05572	3.62687			1.45468	2.56647	1.20265	4.27506	1.80903	3.20383				
0.787807	2.65097	1.45843	2.5651	0.78842	2.65092	1.50936	2.65305	1.61188	2.84275	2.05631	3.6132			1.45959	2.56468	1.20246	4.30975	1.81059	3.19355				
0.781828	2.65144	1.46333	2.56331	0.782441	2.65139	1.5153	2.65273	1.61485	2.83645	2.05692	3.59968			1.46448	2.56289	1.20227	4.34498	1.81219	3.18341				
0.775847	2.6519	1.46822	2.56152	0.77646	2.65186	1.52123	2.6524	1.61787	2.83027	2.05755	3.58631			1.46937	2.5611	1.20206	4.38077	1.81382	3.17341				
0.769864	2.65237	1.47311	2.55974	0.770477	2.65232	1.52715	2.65206	1.62092	2.8242	2.05822	3.57309			1.47426	2.55933	1.20184	4.41711	1.81547	3.16354				
0.763879	2.65284	1.47799	2.55798	0.764492	2.65279	1.53307	2.6517	1.624	2.81825	2.0589	3.56003			1.47915	2.55757	1.2016	4.45399	1.81716	3.15379				
0.757893	2.65331	1.48288	2.55624	0.758506	2.65326	1.53898	2.65134	1.62713	2.81241	2.05962	3.54711			1.48404	2.55583	1.20133	4.49141	1.81887	3.14418				
0.751905	2.65379	1.48778	2.55451	0.752518	2.65374	1.54488	2.65097	1.63029	2.80669	2.06036	3.53433			1.48893	2.55411	1.20103	4.52937	1.82062	3.13469				
0.745916	2.65427	1.49268	2.55281	0.74653	2.65422	1.55077	2.65058	1.6335	2.80108	2.06112	3.5217			1.49383	2.55242	1.2007	4.56786	1.8224	3.12534				
0.739927	2.65475	1.49759	2.55114	0.74054	2.6547	1.55665	2.65018	1.63674	2.79558	2.06191	3.50922			1.49875	2.55076	1.20032	4.60686	1.8242	3.1161				
0.733937	2.65524	1.50251	2.54951	0.73455	2.65519	1.56252	2.64976	1.64003	2.7902	2.06272	3.49687			1.50367	2.54912	1.19989	4.64636	1.82604	3.10699				
0.727946	2.65574	1.50744	2.5479	0.72856	2.65569	1.56837	2.64932	1.64335	2.78492	2.06356	3.48467			1.50861	2.54753	1.1994	4.68635	1.8279	3.098				
0.721956	2.65624	1.51239	2.54633	0.72257	2.65619	1.57422	2.64887	1.64672	2.77976	2.06443	3.4726			1.51356	2.54597	1.19885	4.7268	1.8298	3.08913				
0.715966	2.65676	1.51735	2.5448	0.716579	2.6567	1.58005	2.6484	1.65013	2.77471	2.06532	3.46067			1.51853	2.54445	1.19822	4.76769	1.83172	3.08038				
0.709976	2.65728	1.52233	2.54331	0.71059	2.65723	1.58586	2.6479	1.65359	2.76978	2.06624	3.44888			1.52351	2.54297	1.19751	4.809	1.83367	3.07175				
0.703987	2.65782	1.52733	2.54187	0.7046	2.65776	1.59166	2.64738	1.65709	2.76496	2.06719	3.43721			1.52851	2.54153	1.19669	4.85068	1.83566	3.06323				
0.697998	2.65837	1.53235	2.54046	0.698612	2.65831	1.59744	2.64683	1.66064	2.76025	2.06816	3.42569			1.53354	2.54014	1.19577	4.89271	1.83767	3.05483				
0.692011	2.65893	1.53739	2.5391	0.692625	2.65888	1.6032	2.64626	1.66423	2.75566	2.06916	3.41429			1.53858	2.53878	1.19473	4.93505	1.83972	3.04654				
0.686025	2.65951	1.54245	2.53778	0.686639	2.65945	1.60893	2.64566	1.66788	2.75118	2.07018	3.40302			1.54364	2.53748	1.19356	4.97764	1.84179	3.03836				
0.680041	2.66011	1.54753	2.53651	0.680654	2.66005	1.61465	2.64502	1.67157	2.74682	2.07123	3.39188			1.54873	2.53622	1.19223	5.02043	1.84389	3.0303				
0.674059	2.66072	1.55263	2.53529	0.674672	2.66066	1.62034	2.64435	1.67532	2.74258	2.0723	3.38086			1.55383	2.535	1.19075	5.06336	1.84602	3.02234				
0.66808	2.66136	1.55775	2.53411	0.668692	2.66129	1.626	2.64364	1.67912	2.73846	2.0734	3.36997			1.55897	2.53384	1.18908	5.10638	1.84818	3.01449				
0.662102	2.66202	1.5629	2.53298	0.662715	2.66195	1.63164	2.64288	1.68298	2.73446	2.07453	3.35921			1.56412	2.53272	1.18722	5.14941	1.85037	3.00674				
0.656128	2.6627	1.56808	2.53189	0.65674	2.66263	1.63724	2.64209	1.68689	2.73058	2.07568	3.34857			1.5693	2.53165	1.18515	5.19238	1.85259	2.99911				
0.650157	2.66341	1.57328	2.53086	0.650769	2.66334	1.64282	2.64124	1.69087	2.72684	2.07686	3.33804			1.5745	2.53062	1.18284	5.23521	1.85484	2.99157				
0.64419	2.66415	1.5785	2.52987	0.644801	2.66407	1.64835	2.64035	1.69491	2.72321	2.07807	3.32764			1.57973	2.52964	1.18029	5.27783	1.85712	2.98414				
0.638227	2.66491	1.58375	2.52893	0.638837	2.66483	1.65385	2.6394	1.69901	2.71972	2.0793	3.31736			1.58499	2.52871	1.17748	5.32014	1.85943	2.97681				
0.632268	2.66572	1.58902	2.52804	0.632878	2.66563	1.65931	2.6384	1.70318	2.71636	2.08056	3.30719			1.59027	2.52783	1.17439	5.36209	1.86176	2.96958				
0.626315	2.66656	1.59432	2.52719	0.626924	2.66647	1.66473	2.63734	1.70742	2.71313	2.08185	3.29714			1.59557	2.527	1.17101	5.40358	1.86413	2.96245				
0.620367	2.66744	1.59964	2.52639	0.620976	2.66735	1.6701	2.63621	1.71172	2.71004	2.08316	3.2872			1.6009	2.52621	1.16733	5.44457	1.86652	2.95542				
0.614425	2.66836	1.60499	2.52563	0.615033	2.66827	1.67543	2.63503	1.7161	2.70709	2.0845	3.27738			1.60626	2.52546	1.16334	5.48498	1.86895	2.94848				
0.60849	2.66934	1.61037	2.52493	0.609098	2.66924	1.68071	2.63378	1.72056	2.70427	2.08586	3.26767			1.61164	2.52477	1.15903	5.52477	1.8714	2.94165				
0.602562	2.67036	1.61577	2.52426	0.603169	2.67026	1.68595	2.63246	1.72509	2.7016	2.08725	3.25807			1.61705	2.52411	1.1544	5.56392	1.87388	2.9349				
0.596643	2.67145	1.6212	2.52364	0.597249	2.67134	1.69113	2.63108	1.72969	2.69906	2.08867	3.24858			1.62248	2.5235	1.14946	5.6024	1.87639	2.92825				
0.590733	2.6726	1.62665	2.52307	0.591338	2.67248	1.69627	2.62964	1.73438	2.69665	2.09011	3.2392			1.62794	2.52294	1.14421	5.64022	1.87893	2.92169				
0.584833	2.67382	1.63212	2.52253	0.585437	2.67369	1.70137	2.62813	1.73914	2.69438	2.09158	3.22993			1.63342	2.52241	1.13865	5.6774	1.8815	2.91523				
0.578944	2.67512	1.63763	2.52204	0.579547	2.67498	1.70642	2.62657	1.74397	2.69225	2.09307	3.22076			1.63893	2.52193	1.1328	5.71397	1.8841	2.90885				
0.573068	2.6765	1.64315	2.52159	0.573669	2.67635	1.71142	2.62495	1.74888	2.69025	2.09459	3.2117			1.64446	2.52149	1.12667	5.74999	1.88672	2.90257				
0.567205	2.67798	1.6487	2.52118	0.567805	2.67782	1.71639	2.62328	1.75386	2.68837	2.09614	3.20274			1.65001	2.52108	1.12029	5.78553	1.88938	2.89637				
0.561358	2.67956	1.65427	2.5208	0.561956	2.67939	1.72131	2.62157	1.75891	2.68661	2.09771	3.19388			1.65559	2.52072	1.11366	5.82065	1.89206	2.89026				
0.555527	2.68126	1.65987	2.52046	0.556123	2.68108	1.72621	2.61982	1.76403	2.68496	2.09931	3.18513			1.66119	2.52039	1.10681	5.85546	1.89477	2.88424				
0.549715	2.68309	1.66548	2.52016	0.550309	2.68289	1.73107	2.61803	1.76922	2.68343	2.10094	3.17648			1.66681	2.5201	1.09975	5.89005	1.89751	2.8783				
0.543924	2.68506	1.67112	2.5199	0.544516	2.68485	1.73591	2.61621	1.77446	2.682	2.10259	3.16792			1.67245	2.51984	1.09252	5.92452	1.90028	2.87245				
0.538156	2.6872	1.67678	2.51967	0.538746	2.68697	1.74072	2.61438	1.77977	2.68067	2.10427	3.15947			1.67812	2.51962	1.08513	5.959	1.90308	2.86668				
0.532414	2.68951	1.68246	2.51947	0.533001	2.68927	1.74552	2.61253	1.78513	2.67943	2.10597	3.15111			1.68381	2.51943	1.0776	5.9936	1.90591	2.861				
0.526702	2.69204	1.68817	2.5193	0.527285	2.69177	1.7503	2.61067	1.79054	2.67828	2.1077	3.14285			1.68951	2.51927	1.06995	6.02844	1.90877	2.8554				
0.521022	2.69479	1.69389	2.51917	0.521602	2.69449	1.75508	2.60882	1.79599	2.6772	2.10946	3.13468			1.69524	2.51914	1.06221	6.06364	1.91166	2.84988				
0.515379	2.6978	1.69963	2.51906	0.515955	2.69748	1.75986	2.60698	1.8015	2.6762	2.11124	3.12661			1.70098	2.51904	1.05439	6.09934	1.91457	2.84444				
0.509778	2.7011	1.70539	2.51898	0.51035	2.70075	1.76464	2.60515	1.80704	2.67526	2.11305	3.11863			1.70675	2.51897	1.04651	6.13567	1.91751	2.83908				
0.504223	2.70474	1.71116	2.51893	0.50479	2.70435	1.76942	2.60335	1.81262	2.67439	2.11489	3.11074			1.71253	2.51892	1.0386	6.17277	1.92049	2.8338				
0.498721	2.70875	1.71696	2.5189	0.499282	2.70832	1.77423	2.60159	1.81824	2.67357	2.11675	3.10295			1.71833	2.5189	1.03066	6.21077	1.92349	2.8286				
0.493279	2.7132	1.72277	2.5189	0.493834	2.71272	1.77905	2.59986	1.82389	2.67281	2.11863	3.09524			1.72414	2.5189	1.02272	6.24983	1.92652	2.82348				
0.487904	2.71813	1.7286	2.51892	0.488451	2.7176	1.7839	2.59819	1.82956	2.67209	2.12054	3.08763			1.72997	2.51893	1.0148	6.2901	1.92958	2.81844				
0.482605	2.72362	1.73444	2.51897	0.483144	2.72303	1.78878	2.59658	1.83527	2.67142	2.12248	3.0801			1.73582	2.51898	1.00691	6.33173	1.93267	2.81347				
0.477391	2.72974	1.7403	2.51903	0.477921	2.72908	1.79371	2.59503	1.841	2.67079	2.12444	3.07266			1.74168	2.51905	0.999061	6.3749	1.93579	2.80858				
0.472272	2.73657	1.74617	2.51912	0.472792	2.73584	1.79868	2.59357	1.84675	2.6702	2.12643	3.06531			1.74756	2.51915	0.991283	6.41979	1.93894	2.80376				
0.46726	2.74422	1.75206	2.51923	0.467768	2.7434	1.80371	2.5922	1.85252	2.66964	2.12845	3.05804			1.75345	2.51926	0.983587	6.46658	1.94212	2.79902				
0.462367	2.75279	1.75796	2.51935	0.462862	2.75187	1.80881	2.59093	1.85831	2.66911	2.13049	3.05086			1.75935	2.51939	0.97599	6.51547	1.94534	2.79435				
0.457604	2.76238	1.76387	2.5195	0.458086	2.76135	1.81397	2.58977	1.86412	2.66861	2.13255	3.04376			1.76527	2.51953	0.968508	6.56668	1.94858	2.78976				
0.452985	2.77312	1.7698	2.51966	0.453452	2.77197	1.81921	2.58873	1.86995	2.66814	2.13465	3.03674			1.7712	2.5197	0.96116	6.62043	1.95185	2.78525				
0.448521	2.78514	1.77573	2.51983	0.448971	2.78385	1.82453	2.5878	1.87579	2.66769	2.13676	3.02981			1.77714	2.51988	0.953961	6.67696	1.95515	2.7808				
0.444224	2.79855	1.78168	2.52002	0.444656	2.79711	1.82994	2.587	1.88164	2.66726	2.13891	3.02296			1.78309	2.52007	0.946929	6.73654	1.95848	2.77643				
0.440103	2.81349	1.78764	2.52023	0.440517	2.81189	1.83542	2.58632	1.88751	2.66686	2.14107	3.01619			1.78905	2.52028	0.940082	6.79944	1.96185	2.77213				
0.436168	2.83008	1.79361	2.52045	0.436562	2.8283	1.84099	2.58575	1.89339	2.66647	2.14327	3.00949			1.79502	2.5205	0.933435	6.86596	1.96524	2.76791				
0.432424	2.84843	1.7996	2.52068	0.432799	2.84647	1.84663	2.58529	1.89928	2.6661	2.14549	3.00288			1.80101	2.52074	0.927008	6.9364	1.96867	2.76375				
0.428877	2.86867	1.80559	2.52092	0.429231	2.86651	1.85233	2.58493	1.90518	2.66574	2.14773	2.99634			1.807	2.52098	0.920815	7.01112	1.97213	2.75967				
0.42553	2.8909	1.81159	2.52118	0.425863	2.88852	1.8581	2.58465	1.91108	2.6654	2.15	2.98989			1.813	2.52124	0.914875	7.09045	1.97563	2.75566				
0.422383	2.91522	1.8176	2.52145	0.422696	2.91262	1.86392	2.58446	1.917	2.66508	2.15229	2.9835			1.81902	2.52151	0.909202	7.1748	1.97915	2.75173				
0.419437	2.94173	1.82362	2.52172	0.419729	2.93891	1.86979	2.58432	1.92292	2.66477	2.15461	2.9772			1.82504	2.52179	0.903813	7.26454	1.98271	2.74786				
0.416689	2.97053	1.82964	2.52201	0.416961	2.96747	1.8757	2.58425	1.92886	2.66447	2.15696	2.97096			1.83106	2.52208	0.89872	7.36011	1.98631	2.74407				
0.414138	3.00172	1.83568	2.52231	0.414391	2.99841	1.88164	2.58423	1.93479	2.66418	2.15933	2.96481			1.8371	2.52238	0.893937	7.46195	1.98994	2.74035				
0.411781	3.0354	1.84172	2.52261	0.412014	3.03183	1.88762	2.58425	1.94074	2.6639	2.16172	2.95872			1.84314	2.52268	0.889476	7.57052	1.99361	2.73671				
0.409615	3.07168	1.84777	2.52292	0.409828	3.06784	1.89362	2.5843	1.94668	2.66363	2.16414	2.95271			1.8492	2.523	0.885346	7.68631	1.99731	2.73313				
0.407637	3.11067	1.85383	2.52324	0.407831	3.10655	1.89965	2.58439	1.95264	2.66336	2.16659	2.94677			1.85525	2.52332	0.881553	7.80984	2.00105	2.72963				
0.405843	3.15249	1.85989	2.52357	0.406018	3.14807	1.9057	2.5845	1.9586	2.66311	2.16906	2.9409			1.86132	2.52365	0.878105	7.94163	2.00483	2.72621				
0.40423	3.19727	1.86596	2.52391	0.404387	3.19254	1.91176	2.58463	1.96456	2.66286	2.17156	2.9351			1.86739	2.52399	0.875004	8.08225	2.00865	2.72286				
0.402796	3.24515	1.87204	2.52425	0.402935	3.24009	1.91783	2.58478	1.97053	2.66262	2.17408	2.92937			1.87347	2.52433	0.872252	8.23228	2.01251	2.71958				
0.401538	3.29629	1.87812	2.52459	0.401658	3.29089	1.92392	2.58495	1.9765	2.66239	2.17662	2.92371			1.87955	2.52468	0.869847	8.39234	2.01641	2.71638				
0.400452	3.35085	1.88421	2.52495	0.400556	3.3451	1.93002	2.58513	1.98247	2.66216	2.17919	2.91812			1.88564	2.52503	0.867787	8.56309	2.02035	2.71325				
0.399538	3.40901	1.8903	2.5253	0.399624	3.40288	1.93613	2.58533	1.98845	2.66194	2.18179	2.9126			1.89174	2.52539	0.866066	8.74523	2.02433	2.71021				
0.398791	3.47098	1.8964	2.52567	0.39886	3.46445	1.94225	2.58553	1.99443	2.66172	2.18441	2.90714			1.89784	2.52575	0.864677	8.93949	2.02836	2.70724				
0.398211	3.53696	1.90251	2.52604	0.398263	3.53001	1.94837	2.58574	2.00041	2.66151	2.18705	2.90175			1.90395	2.52612	0.863613	9.14669	2.03243	2.70434				
0.397794	3.60719	1.90861	2.52641	0.397829	3.59979	1.9545	2.58596	2.00639	2.6613	2.18972	2.89642			1.91006	2.5265	0.862863	9.36767	2.03655	2.70153				
0.397539	3.68191	1.91473	2.52678	0.397557	3.67404	1.96064	2.58618	2.01238	2.6611	2.19242	2.89116			1.91617	2.52687	0.862459	9.57224	2.04072	2.6988				
0.397442	3.7614	1.92085	2.52716	0.397445	3.75303	1.96678	2.58641	2.01837	2.6609	2.19514	2.88597			1.92229	2.52725	0.862291	9.75597	2.04494	2.69616				
0.397503	3.84596	1.92697	2.52755	0.397489	3.83705	1.97293	2.58664	2.02436	2.6607	2.19788	2.88084			1.92842	2.52764	0.862271	9.91474	2.04921	2.69359				
0.397717	3.9359	1.9331	2.52793	0.397688	3.92643	1.97907	2.58688	2.03035	2.66051	2.20065	2.87577			1.93454	2.52802	0.862329	10.0449	2.05353	2.69111				
0.398083	4.03158	1.93923	2.52832	0.398039	4.0215	1.98523	2.58711	2.03634	2.66031					1.94068	2.52841	0.862414	10.1432	2.05791	2.68871				
0.398598	4.13339	1.94537	2.52871	0.398539	4.12267	1.99138	2.58735	2.04233	2.66012					1.94681	2.52881	0.862521	10.2357	2.06234	2.6864				
0.39926	4.24174	1.95151	2.52911	0.399185	4.23033	1.99754	2.58759	2.04833	2.65993					1.95295	2.5292	0.862613	10.3013	2.06682	2.68417				
0.400064	4.35709	1.95765	2.52951	0.399975	4.34494	2.00369	2.58783	2.05432	2.65975					1.9591	2.5296	0.862783	10.4057	2.07136	2.68203				
0.401009	4.47996	1.96379	2.5299	0.400905	4.46701	2.00985	2.58808	2.06031	2.65956					1.96524	2.53	0.863068	10.5518	2.07596	2.67998				
0.402089	4.61089	1.96994	2.53031	0.401972	4.59709	2.01601	2.58832	2.06631	2.65938					1.97139	2.5304	0.863511	10.7434	2.08062	2.67801				
0.403303	4.75051	1.9761	2.53071	0.403173	4.73579	2.02218	2.58856	2.0723	2.6592					1.97755	2.5308	0.86417	10.9859	2.08533	2.67613				
0.404646	4.89949	1.98225	2.53111	0.404503	4.88377	2.02834	2.58881	2.0783	2.65902					1.98371	2.53121	0.865107	11.2863	2.0901	2.67434				
0.406114	5.05859	1.98841	2.53152	0.405958	5.0418	2.0345	2.58905	2.08429	2.65883					1.98986	2.53161	0.866389	11.6538	2.09493	2.67263				
0.407702	5.22865	1.99457	2.53193	0.407534	5.21069	2.04067	2.58929	2.09028	2.65865					1.99603	2.53202	0.867882	12.0478	2.09982	2.671				
0.409406	5.41062	2.00074	2.53233	0.409227	5.3914	2.04683	2.58953	2.09627	2.65847					2.00219	2.53243	0.869575	12.4708	2.10476	2.66945				
0.411222	5.60554	2.00691	2.53274	0.411031	5.58494	2.05299	2.58977	2.10226	2.65829					2.00836	2.53284	0.871455	12.9255	2.10976	2.66799				
0.41289	5.7869	2.01308	2.53315	0.412941	5.79251	2.05916	2.59	2.10825	2.65811					2.01453	2.53325	0.873511	13.4151	2.11482	2.6666				
0.414373	5.95064	2.01925	2.53356	0.414953	6.01543	2.06532	2.59024	2.11424	2.65793					2.0207	2.53366	0.875734	13.9433	2.11993	2.66529				
0.41564	6.09285	2.02542	2.53398	0.417059	6.2552	2.07149	2.59047	2.12023	2.65774					2.02688	2.53407	0.878112	14.5144	2.12509	2.66405				
0.416666	6.20992	2.0316	2.53439	0.419255	6.51354	2.07765	2.59071	2.12621	2.65756					2.03306	2.53448	0.880635	15.1333	2.1303	2.66288				
0.417435	6.29873	2.03778	2.5348	0.421532	6.79242	2.08381	2.59093	2.13219	2.65737					2.03924	2.5349	0.883293	15.8057	2.13556	2.66178				
0.418152	6.38256	2.04396	2.53521	0.423885	7.09409	2.08997	2.59116	2.13817	2.65718					2.04542	2.53531	0.886077	16.5383	2.14087	2.66074				
0.418656	6.44212	2.05014	2.53562	0.426306	7.42118	2.09613	2.59139	2.14415	2.65699					2.0516	2.53572	0.888977	17.3392	2.14621	2.65976				
0.419452	6.53727	2.05633	2.53604	0.428786	7.77673	2.10229	2.59161	2.15012	2.65679					2.05779	2.53613	0.891983	18.2177	2.15161	2.65884				
0.420552	6.67093	2.06252	2.53645	0.431318	8.16432	2.10845	2.59183	2.15609	2.6566					2.06397	2.53655	0.895085	19.1852	2.15704	2.65797				
0.421969	6.84736	2.0687	2.53686	0.43356	8.53147	2.11461	2.59205	2.16206	2.6564					2.07016	2.53696	0.898273	20.2553	2.1625	2.65715				
0.42372	7.0725	2.07489	2.53727	0.435492	8.8686	2.12076	2.59226	2.16802	2.65619					2.07635	2.53737	0.901537	21.4446	2.16801	2.65638				
0.425822	7.35441	2.08109	2.53768	0.437101	9.16594	2.12692	2.59247	2.17398	2.65599					2.08255	2.53778	0.904865	22.7737	2.17354	2.65566				
0.428292	7.70408	2.08728	2.53809	0.438378	9.41397	2.13307	2.59268	2.17994	2.65577					2.08874	2.53819	0.908246	24.2681	2.17911	2.65497				
0.430815	8.08503	2.09347	2.53851	0.43932	9.60416	2.13922	2.59288	2.18588	2.65556					2.09494	2.5386	0.911667	25.9601	2.18471	2.65433				
0.433382	8.50133	2.09967	2.53891	0.440188	9.78531	2.14537	2.59308	2.19183	2.65533					2.10113	2.53901	0.915113	27.8907	2.19033	2.65372				
0.435983	8.95782	2.10587	2.53932	0.440792	9.91499	2.15152	2.59328	2.19777	2.6551					2.10733	2.53942	0.91857	30.1138	2.19598	2.65315				
0.43861	9.46029	2.11207	2.53973	0.441736	10.1239	2.15766	2.59347	2.2037	2.65487					2.11353	2.53983	0.922018	32.7004	2.20165	2.65261				
0.441251	10.0157	2.11827	2.54014	0.443021	10.421	2.16381	2.59366							2.11973	2.54023	0.925436	35.747						
0.443895	10.6326	2.12447	2.54054	0.444643	10.8199	2.16994	2.59385							2.12593	2.54064	0.928801	39.3875						
0.44653	11.3214	2.13067	2.54095	0.446599	11.3405	2.17608	2.59403							2.13213	2.54104	0.932083	43.8139						
0.449143	12.0953	2.13687	2.54135	0.448876	12.0116	2.18222	2.59421							2.13833	2.54145	0.935248	49.3111						
0.451719	12.9706	2.14307	2.54175	0.451457	12.8757	2.18835	2.59438							2.14454	2.54185	0.938258	56.3217						
0.454246	13.9687	2.14928	2.54216	0.45399	13.86	2.19447	2.59454							2.15074	2.54225	0.941065	65.5725						
0.456707	15.117	2.15548	2.54255	0.456458	14.9914	2.2006	2.59471							2.15694	2.54265	0.943617	78.3467						
0.459086	16.4523	2.16168	2.54295	0.458847	16.3055									2.16315	2.54304	0.945854	97.143						
0.461368	18.0245	2.16789	2.54334	0.461139	17.8507									2.16935	2.54344	0.947714	127.564						
0.463534	19.9033	2.17409	2.54374	0.463318	19.6941									2.17555	2.54383	0.949135	185.308						
0.465568	22.189	2.18029	2.54413	0.465366	21.9322									2.18176	2.54422	0.950063	337.557						
0.467451	25.0314	2.1865	2.54451	0.467266	24.7087									2.18796	2.5446	0.950459	1874.17						
0.469167	28.6652	2.19269	2.54489	0.469	28.2469									2.19416	2.54498								
0.470699	33.4784	2.19889	2.54527	0.470551	32.9145									2.20035	2.54536								
0.47203	40.1646	2.20509	2.54564	0.471903	39.3621																		
0.473146	50.0949			0.473042	48.861																		
0.474033	66.4137			0.473953	64.2737																		
0.474682	98.274			0.474627	93.6778																		
0.475084	188.317			0.475055	172.172																		
0.475235	2206.28			0.475231	1051.86																		
