Sym0		Asym0		Sym1		Sym2		Sym3		Sym4		Sym5		Asym1		Asym2		Asym3		Asym4		Asym5	
387  Points		384  Points		387  Points		374  Points		367  Points		356  Points		145  Points		385  Points		381  Points		367  Points		175  Points		133  Points	
Freq (MHz)	Vph (m/ms)	Freq (MHz)	Vph (m/ms)	Freq (MHz)	Vph (m/ms)	Freq (MHz)	Vph (m/ms)	Freq (MHz)	Vph (m/ms)	Freq (MHz)	Vph (m/ms)	Freq (MHz)	Vph (m/ms)	Freq (MHz)	Vph (m/ms)	Freq (MHz)	Vph (m/ms)	Freq (MHz)	Vph (m/ms)	Freq (MHz)	Vph (m/ms)	Freq (MHz)	Vph (m/ms)
2.20418	2.50508	0.346227	209.633	2.20194	2.50499	0.692348	336.431	1.3411	9267.63	1.38445	4454.05	2.07657	1111.06	0.346141	401.074	0.894065	3025.75	1.03833	3912.77	1.73046	1585	1.7884	993.159
2.19818	2.50483	0.346782	87.5936	2.19594	2.50474	0.692802	158.706	1.3405	546.672	1.38517	529.05	2.0762	497.128	0.346541	109.304	0.893868	343.415	1.03858	403.683	1.72969	508.857	1.78947	435.595
2.19219	2.50459	0.347789	55.5008	2.18995	2.5045	0.693577	103.942	1.33891	281.314	1.38694	281.577	2.07557	320.117	0.347394	63.4183	0.893363	181.937	1.03923	212.951	1.7282	302.844	1.7913	279.215
2.1862	2.50435	0.34924	40.7335	2.18396	2.50426	0.694668	77.3564	1.33654	189.127	1.38956	192.114	2.07468	235.995	0.348695	44.7893	0.892558	123.663	1.04028	144.733	1.72609	215.386	1.79378	205.64
2.18022	2.50412	0.351125	32.269	2.17799	2.50404	0.696068	61.6672	1.33359	142.26	1.39282	145.992	2.07354	186.829	0.350433	34.7217	0.89147	93.592	1.0417	109.711	1.72349	166.983	1.79677	162.894
2.17425	2.5039	0.353429	26.7981	2.17202	2.50381	0.697767	51.3257	1.33023	113.873	1.39655	117.874	2.07216	154.57	0.352595	28.4351	0.890117	75.2267	1.04349	88.4136	1.7205	136.237	1.80018	134.969
2.16829	2.50368	0.356137	22.9825	2.16606	2.5036	0.699754	44.0033	1.32661	94.8317	1.40061	98.9468	2.07056	131.77	0.355167	24.1489	0.888522	62.8381	1.04561	74.1054	1.71723	114.971	1.80391	115.302
2.16233	2.50347	0.359229	20.1776	2.1601	2.5034	0.702015	38.5518	1.32281	81.1714	1.40492	85.3403	2.06875	114.798	0.35813	21.0481	0.88671	53.9123	1.04804	63.8384	1.71374	99.3844	1.80789	100.704
2.15638	2.50327	0.362687	18.0345	2.15416	2.5032	0.704538	34.3391	1.31889	70.8934	1.40942	75.089	2.06676	101.67	0.361465	18.7073	0.884706	47.1726	1.05077	56.1171	1.7101	87.4689	1.81208	89.4417
2.15044	2.50308	0.36649	16.3479	2.14822	2.50301	0.707308	30.989	1.31491	62.8805	1.41406	67.0889	2.06461	91.2108	0.365153	16.8821	0.882536	41.9017	1.05375	50.1025	1.70635	78.064	1.81642	80.4891
2.14451	2.5029	0.370615	14.9892	2.14229	2.50284	0.71031	28.2633	1.3109	56.4587	1.41881	60.6722	2.0623	82.6807	0.36917	15.4226	0.880227	37.6657	1.05698	45.2874	1.70253	70.4521	1.82089	73.2026
2.13859	2.50273	0.375042	13.8735	2.13638	2.50267	0.713528	26.0039	1.30687	51.1975	1.42364	55.4114	2.05986	75.5902	0.373496	14.2315	0.877801	34.1865	1.06042	41.3471	1.69866	64.1653	1.82546	67.1569
2.13268	2.50257	0.379748	12.9429	2.13047	2.50251	0.716948	24.1018	1.30285	46.8089	1.42854	51.0202	2.05731	69.6029	0.37811	13.2429	0.875283	31.2777	1.06405	38.0642	1.69476	58.8857	1.83012	62.0601
2.12677	2.50241	0.384712	12.1561	2.12457	2.50236	0.720554	22.4793	1.29886	43.093	1.4335	47.2994	2.05465	64.4796	0.382988	12.4108	0.872695	28.8098	1.06786	35.2877	1.69086	54.3895	1.83484	57.7052
2.12088	2.50227	0.389911	11.4831	2.11867	2.50222	0.724332	21.0798	1.2949	39.9066	1.4385	44.1064	2.05191	60.0456	0.388109	11.7018	0.870057	26.6897	1.07182	32.9093	1.68696	50.5147	1.83962	53.9412
2.11499	2.50214	0.395326	10.9018	2.11279	2.5021	0.728266	19.8606	1.29098	37.1446	1.44354	41.3364	2.0491	56.1706	0.393453	11.0913	0.867389	24.849	1.07591	30.8495	1.68307	47.1413	1.84445	50.6554
2.10912	2.50202	0.400935	10.395	2.10692	2.50198	0.732343	18.7895	1.28712	34.7279	1.44861	38.9105	2.04623	52.7551	0.398998	10.5607	0.864709	23.2362	1.08013	29.0485	1.67921	44.178	1.84931	47.7622
2.10326	2.50191	0.406719	9.94976	2.10106	2.50188	0.736548	17.8412	1.28332	32.596	1.45369	36.7684	2.04331	49.722	0.403979	10.1522	0.862033	21.8119	1.08445	27.4607	1.67539	41.5548	1.8542	45.1952
2.0974	2.50182	0.412659	9.55566	2.09521	2.50179	0.740868	16.9959	1.27959	30.7018	1.4588	34.8628	2.04036	47.0107	0.408323	9.83766	0.859379	20.5452	1.08887	26.0504	1.6716	39.2165	1.85911	42.902
2.09156	2.50173	0.418734	9.20454	2.08938	2.50171	0.74529	16.2378	1.27592	29.008	1.46391	33.1567	2.03739	44.5725	0.411979	9.59797	0.856761	19.4118	1.09336	24.7894	1.66786	37.1195	1.86404	40.8411
2.08573	2.50166	0.424928	8.8898	2.08355	2.50164	0.749801	15.5541	1.27234	27.4848	1.46903	31.6202	2.0344	42.3684	0.414907	9.42022	0.854193	18.3921	1.09792	23.6553	1.66418	35.2284	1.86898	38.9787
2.07991	2.50161	0.431222	8.60603	2.07773	2.50159	0.754389	14.9345	1.26885	26.1079	1.47416	30.2291	2.0314	40.3662	0.417079	9.29562	0.851691	17.4703	1.10254	22.6297	1.66055	33.5147	1.87392	37.2875
2.0741	2.50157	0.437598	8.34883	2.07193	2.50155	0.759042	14.3702	1.26544	24.8577	1.47928	28.9637	2.02841	38.5397	0.418478	9.21844	0.849266	16.6333	1.1072	21.6979	1.65699	31.9547	1.87887	35.7448
2.06831	2.50154	0.44404	8.11452	2.06614	2.50153	0.763749	13.8541	1.26213	23.7176	1.48439	27.8075	2.02543	36.8668	0.420499	9.11081	0.846934	15.8704	1.1119	20.8473	1.6535	30.5289	1.88382	34.3318
2.06252	2.50152	0.45053	7.90001	2.06036	2.50152	0.768498	13.3802	1.25892	22.6742	1.4895	26.747	2.02247	35.3291	0.42271	8.99805	0.844706	15.1726	1.11663	20.0678	1.65009	29.2209	1.88876	33.0328
2.05675	2.50153	0.457052	7.70272	2.0546	2.50153	0.773278	12.9435	1.25582	21.7158	1.49459	25.7707	2.01953	33.911	0.425739	8.85135	0.842597	14.5324	1.12138	19.3508	1.64675	28.017	1.89368	31.8343
2.051	2.50154	0.463589	7.52044	2.04884	2.50156	0.77808	12.5395	1.25283	20.8329	1.49966	24.8687	2.01663	32.5992	0.429602	8.676	0.840619	13.9434	1.12615	18.6889	1.64349	26.9054	1.8986	30.7252
2.04525	2.50158	0.470124	7.35129	2.04311	2.5016	0.782891	12.1647	1.24996	20.0171	1.50471	24.0329	2.01376	31.3824	0.434317	8.47775	0.838784	13.4001	1.13092	18.0759	1.64032	25.8761	1.9035	29.6955
2.03952	2.50163	0.476641	7.19364	2.03738	2.50165	0.787703	11.8158	1.24721	19.2614	1.50974	23.2562	2.01095	30.2507	0.439899	8.26243	0.837108	12.8979	1.13569	17.5065	1.63725	24.9205	1.90837	28.7372
2.03381	2.5017	0.483122	7.04609	2.03167	2.50173	0.792505	11.4902	1.24459	18.5596	1.51474	22.5323	2.00818	29.1957	0.44636	8.03554	0.835603	12.4327	1.14045	16.976	1.63427	24.0312	1.91322	27.8428
2.0281	2.50179	0.489552	6.90741	2.02597	2.50182	0.797286	11.1853	1.2421	17.9064	1.51971	21.856	2.00547	28.21	0.452864	7.82748	0.834283	12.0011	1.14519	16.4806	1.63139	23.2016	1.91804	27.0061
2.02242	2.50189	0.495912	6.77653	2.02029	2.50194	0.802038	10.8992	1.23976	17.2972	1.52464	21.2227	2.00283	27.2872	0.459393	7.6358	0.833162	11.5999	1.14991	16.0167	1.62862	22.4263	1.92283	26.2216
2.01674	2.50202	0.502187	6.65252	2.01463	2.50207	0.80675	10.6299	1.23757	16.7281	1.52953	20.6282	2.00026	26.4215	0.465932	7.45843	0.832254	11.2266	1.15461	15.5813	1.62596	21.7002	1.92758	25.4845
2.01109	2.50216	0.50836	6.53455	2.00897	2.50222	0.811413	10.3759	1.23552	16.1954	1.53438	20.0691	1.99776	25.608	0.472462	7.29357	0.831573	10.8788	1.15926	15.1717	1.62341	21.0189	1.93229	24.7905
2.00545	2.50233	0.514413	6.42189	2.00334	2.50239	0.815429	10.1658	1.23364	15.696	1.53918	19.5421	1.99534	24.8422	0.478968	7.13969	0.831135	10.5545	1.16388	14.7857	1.62099	20.3787	1.93696	24.1359
1.99982	2.50251	0.520329	6.31388	1.99772	2.50259	0.818813	9.99446	1.23193	15.2271	1.54393	19.0444	1.993	24.1203	0.485433	6.99544	0.830961	10.2896	1.16845	14.421	1.61869	19.7761	1.94158	23.5173
1.99421	2.50272	0.526094	6.20995	1.99212	2.5028	0.821581	9.85769	1.23038	14.7863	1.54862	18.5737	1.99076	23.4386	0.491839	6.85968	0.830974	10.0759	1.17297	14.0759	1.61651	19.2081	1.94614	22.9317
1.98862	2.50295	0.531691	6.10962	1.98653	2.50304	0.823749	9.75256	1.22901	14.3714	1.55325	18.1276	1.98862	22.7941	0.498171	6.73136	0.831101	9.90714	1.17742	13.7487	1.61448	18.6719	1.95065	22.3765
1.98304	2.5032	0.537105	6.01241	1.98096	2.5033	0.82533	9.67687	1.22783	13.9803	1.55782	17.7042	1.98658	22.184	0.504411	6.60961	0.831278	9.77861	1.18181	13.4379	1.61258	18.1652	1.9551	21.8492
1.97748	2.50347	0.542322	5.91796	1.97541	2.50358	0.826336	9.62912	1.22684	13.6114	1.56233	17.3016	1.98464	21.6057	0.510543	6.49361	0.831452	9.68676	1.18613	13.1422	1.61082	17.6858	1.95949	21.3477
1.97194	2.50377	0.54733	5.82592	1.96987	2.50389	0.827775	9.56141	1.22605	13.2631	1.56676	16.9184	1.98282	21.0569	0.516549	6.38269	0.831584	9.62912	1.19038	12.8605	1.60921	17.2316	1.9638	20.8701
1.96642	2.50409	0.552118	5.736	1.96435	2.50422	0.829327	9.48902	1.22545	12.9338	1.57111	16.553	1.98112	20.5356	0.522413	6.2762	0.831801	9.54782	1.19454	12.5915	1.60776	16.8009	1.96805	20.4146
1.96091	2.50444	0.556675	5.64796	1.95885	2.50458	0.831419	9.39251	1.22507	12.6224	1.57538	16.2041	1.97953	20.0399	0.528119	6.17362	0.832074	9.46145	1.19862	12.3345	1.60646	16.3921	1.97221	19.9796
1.95542	2.50481	0.560996	5.5616	1.95337	2.50496	0.834031	9.27353	1.2249	12.3275	1.57957	15.8705	1.97808	19.5681	0.533652	6.07445	0.832509	9.34728	1.2026	12.0885	1.60533	16.0037	1.9763	19.5637
1.94995	2.50521	0.565074	5.47675	1.94791	2.50537	0.837137	9.13398	1.22494	12.0482	1.58368	15.5512	1.97675	19.1186	0.538997	5.97828	0.833166	9.20812	1.20649	11.8527	1.60435	15.6344	1.98029	19.1655
1.9445	2.50563	0.568908	5.39329	1.94247	2.5058	0.840703	8.97597	1.2252	11.7834	1.58769	15.2452	1.97557	18.69	0.544141	5.88472	0.834123	9.04731	1.21028	11.6263	1.60355	15.2829	1.9842	18.7838
1.93907	2.50608	0.572496	5.31113	1.93704	2.50626	0.844686	8.80166	1.22569	11.5321	1.5916	14.9515	1.97452	18.281	0.549071	5.79347	0.83548	8.8686	1.21396	11.4088	1.60292	14.9482	1.98802	18.4177
1.93365	2.50656	0.57584	5.23019	1.93163	2.50675	0.848545	8.63428	1.22641	11.2937	1.59542	14.6694	1.97362	17.8905	0.553777	5.70426	0.837353	8.67598	1.21754	11.1995	1.60247	14.6292	1.99174	18.0659
1.92826	2.50707	0.578945	5.15046	1.92625	2.50727	0.852273	8.47327	1.22735	11.0672	1.59914	14.3981	1.97287	17.5173	0.558251	5.61684	0.839571	8.49585	1.221	10.998	1.6022	14.3249	1.99535	17.7277
1.92289	2.5076	0.581817	5.0719	1.92088	2.50781	0.855863	8.31814	1.22853	10.852	1.60275	14.1369	1.97227	17.1604	0.562485	5.53103	0.842141	8.32742	1.22435	10.8036	1.60211	14.0346	1.99886	17.4021
1.91753	2.50817	0.584465	4.99452	1.91553	2.50839	0.85931	8.16846	1.22993	10.6474	1.60625	13.8852	1.97182	16.8189	0.566476	5.44669	0.845064	8.16991	1.22758	10.616	1.6022	13.7573	2.00227	17.0885
1.91219	2.50876	0.586899	4.91834	1.9102	2.50899	0.862608	8.02382	1.23134	10.4773	1.60965	13.6425	1.97154	16.4919	0.570221	5.36371	0.848341	8.02264	1.2303	10.4576	1.60248	13.4924	2.00556	16.786
1.90688	2.50938	0.589129	4.84337	1.90489	2.50962	0.865753	7.88386	1.23269	10.3379	1.61293	13.4081	1.97141	16.1786	0.573722	5.28199	0.851972	7.88492	1.23255	10.3263	1.60294	13.2391	2.00874	16.4941
1.90158	2.51003	0.591169	4.76967	1.8996	2.51029	0.86874	7.74826	1.23389	10.2264	1.6161	13.1816	1.97145	15.8782	0.57698	5.20149	0.855951	7.75611	1.23435	10.2201	1.60359	12.9968	2.0118	16.2121
1.89631	2.51072	0.593032	4.69725	1.89434	2.51098	0.871568	7.61673	1.2349	10.1406	1.61915	12.9625	1.97166	15.5901	0.580001	5.12218	0.860272	7.63562	1.23575	10.1376	1.60442	12.7648	2.01474	15.9394
1.89105	2.51143	0.594732	4.62616	1.88909	2.5117	0.874234	7.48902	1.23568	10.0788	1.62209	12.7505	1.97203	15.3137	0.582791	5.04404	0.864927	7.52286	1.23676	10.0778	1.60545	12.5427	2.01757	15.6756
1.88581	2.51217	0.596283	4.55644	1.88386	2.51246	0.876737	7.36488	1.23619	10.0398	1.62492	12.5452	1.97256	15.0482	0.585361	4.96709	0.869903	7.41729	1.2374	10.0398	1.60665	12.3299	2.02027	15.4202
1.8806	2.51295	0.597698	4.48813	1.87865	2.51325	0.879076	7.24412	1.23695	9.98448	1.62763	12.3462	1.97327	14.7932	0.587721	4.89134	0.87519	7.31839	1.23831	9.98575	1.60804	12.1258	2.02286	15.1727
1.8754	2.51376	0.598993	4.42125	1.87346	2.51407	0.881252	7.12654	1.2378	9.92532	1.63024	12.1533	1.97414	14.548	0.589881	4.81682	0.880773	7.22566	1.23928	9.92761	1.60961	11.93	2.02532	14.9327
1.87022	2.5146	0.600181	4.35583	1.86829	2.51492	0.883266	7.01199	1.239	9.84646	1.63273	11.966	1.97517	14.3123	0.591856	4.74357	0.886636	7.13863	1.24058	9.84958	1.61135	11.7421	2.02767	14.7
1.86507	2.51547	0.601274	4.29189	1.86314	2.5158	0.885121	6.90032	1.24059	9.74929	1.63511	11.7842	1.97637	14.0854	0.593659	4.67163	0.892764	7.05687	1.24218	9.75255	1.61327	11.5617	2.0299	14.474
1.85993	2.51637	0.602287	4.22946	1.85801	2.51672	0.88682	6.7914	1.24262	9.63546	1.63739	11.6076	1.97773	13.8671	0.595304	4.60103	0.899139	6.97995	1.24406	9.63761	1.61535	11.3883	2.03201	14.2545
1.85482	2.51731	0.60323	4.16854	1.85291	2.51766	0.888365	6.68511	1.24515	9.50685	1.63957	11.436	1.97924	13.6568	0.596805	4.53181	0.905744	6.9075	1.24619	9.506	1.6176	11.2216	2.03401	14.0413
1.84972	2.51827	0.604116	4.10914	1.84782	2.51864	0.889763	6.58135	1.24824	9.36546	1.64165	11.2692	1.98091	13.4541	0.598175	4.464	0.912561	6.83914	1.24852	9.3591	1.62	11.0612	2.0359	13.8339
1.84464	2.51927	0.604955	4.05127	1.84274	2.51966	0.891017	6.48003	1.25153	9.23033	1.64365	11.1069	1.98273	13.2587	0.59943	4.39764	0.919573	6.77454	1.25076	9.21642	1.62255	10.9068	2.03768	13.6323
1.83958	2.52031	0.605656	4.00207	1.83769	2.5207	0.892133	6.38107	1.255	9.10108	1.64556	10.9491	1.9847	13.0702	0.600583	4.33275	0.926761	6.71337	1.25289	9.07779	1.62489	10.7769	2.03936	13.4362
1.83454	2.52137	0.606236	3.96104	1.83266	2.52178	0.893118	6.28439	1.25866	8.97735	1.64716	10.8151	1.98681	12.8882	0.601646	4.26935	0.934107	6.65534	1.25493	8.94306	1.62697	10.6694	2.04095	13.2453
1.82952	2.52247	0.606707	3.92774	1.82765	2.52289	0.893976	6.18993	1.26248	8.85882	1.64848	10.7033	1.98905	12.7125	0.602632	4.20746	0.941594	6.60018	1.25688	8.81208	1.62874	10.5826	2.04245	13.0594
1.82452	2.5236	0.607074	3.90181	1.82265	2.52403	0.894716	6.09763	1.26646	8.74517	1.64955	10.6125	1.99142	12.5427	0.603554	4.14709	0.949204	6.54762	1.25876	8.68475	1.63018	10.5154	2.04386	12.8785
1.81953	2.52476	0.607343	3.88297	1.81767	2.52521	0.895343	6.00744	1.27059	8.63611	1.65037	10.5419	1.99392	12.3785	0.604421	4.08823	0.956919	6.49743	1.26057	8.56094	1.63125	10.4667	2.0452	12.7022
1.81456	2.52596	0.607514	3.87101	1.81271	2.52641	0.895865	5.9193	1.27486	8.53133	1.65097	10.4905	1.99654	12.2197	0.605246	4.0309	0.964722	6.44937	1.26232	8.44056	1.63195	10.4358	2.04646	12.5305
1.80961	2.52718	0.607759	3.85396	1.80776	2.52764	0.896289	5.83317	1.27926	8.43059	1.65135	10.4578	1.99926	12.066	0.606038	3.97509	0.972596	6.40323	1.26402	8.32354	1.63296	10.3919	2.04767	12.3632
1.80467	2.52843	0.608025	3.8356	1.80283	2.52891	0.896621	5.749	1.28378	8.33363	1.65189	10.4113	2.00209	11.9171	0.606805	3.92078	0.980522	6.35882	1.26569	8.2098	1.63407	10.3448	2.04882	12.2002
1.79975	2.52971	0.608386	3.81094	1.79791	2.5302	0.896869	5.66675	1.2884	8.2402	1.65248	10.3611	2.00501	11.7728	0.607557	3.86798	0.988484	6.31594	1.26734	8.09928	1.63561	10.2815	2.04992	12.0413
1.79484	2.53102	0.608844	3.78024	1.79301	2.53152	0.89704	5.58639	1.29312	8.15008	1.65326	10.2937	2.00803	11.6329	0.608302	3.81665	0.996462	6.27441	1.26899	7.99194	1.63759	10.2031	2.05098	11.8864
1.78995	2.53236	0.609399	3.74384	1.78812	2.53287	0.89714	5.50787	1.29791	8.06306	1.65424	10.2097	2.01112	11.4971	0.609047	3.76679	1.00444	6.23406	1.27064	7.88773	1.64004	10.1104	2.05202	11.7355
1.78506	2.53372	0.610058	3.70216	1.78324	2.53424	0.897176	5.43115	1.30278	7.97893	1.6554	10.1099	2.01429	11.3653	0.609799	3.71838	1.01239	6.19472	1.27232	7.78662	1.64298	10.0045	2.05303	11.5884
1.78019	2.53511	0.610829	3.65565	1.77837	2.53563	0.897155	5.35621	1.30771	7.89749	1.65675	9.9954	2.01753	11.2373	0.610563	3.67138	1.02031	6.15624	1.27404	7.68859	1.64644	9.88664	2.05403	11.445
1.77532	2.53651	0.61162	3.61052	1.7735	2.53704	0.897082	5.283	1.31268	7.81857	1.65828	9.86725	2.0204	11.1286	0.611347	3.62579	1.02816	6.11845	1.27583	7.59364	1.64998	9.77249	2.05503	11.3052
1.77046	2.53794	0.612437	3.56676	1.76865	2.53847	0.896965	5.21149	1.31768	7.74199	1.6598	9.74253	2.02287	11.0381	0.612154	3.58157	1.03594	6.08121	1.2777	7.50175	1.65359	9.66185	2.0559	11.1863
1.76561	2.53937	0.613284	3.52434	1.76379	2.53992	0.896808	5.14164	1.32271	7.66758	1.66132	9.62116	2.02494	10.9646	0.612991	3.53869	1.04361	6.04436	1.27968	7.41292	1.65727	9.55452	2.05666	11.087
1.76075	2.54082	0.614166	3.48322	1.75894	2.54137	0.896617	5.07344	1.32775	7.5952	1.66285	9.50306	2.02659	10.9073	0.613861	3.49713	1.05115	6.00776	1.28178	7.32717	1.661	9.45032	2.05729	11.0063
1.7559	2.54228	0.615087	3.44338	1.75408	2.54282	0.896398	5.00683	1.33279	7.52469	1.66441	9.38817	2.0278	10.8656	0.614768	3.45685	1.05854	5.97128	1.28403	7.2445	1.66478	9.34907	2.05779	10.9433
1.75103	2.54374	0.61605	3.40479	1.74921	2.54428	0.896156	4.94179	1.33781	7.45591	1.66601	9.27644	2.02858	10.8392	0.615716	3.41784	1.06577	5.93477	1.28646	7.16494	1.66859	9.25062	2.05817	10.8976
1.74616	2.54519	0.617059	3.36742	1.74433	2.54573	0.895896	4.87828	1.3428	7.38873	1.66765	9.1678	2.02971	10.8014	0.616709	3.38006	1.07279	5.89811	1.28909	7.08849	1.67244	9.15481	2.05841	10.8685
1.74127	2.54662	0.618116	3.33125	1.73943	2.54716	0.895623	4.81628	1.34776	7.32303	1.66935	9.0622	2.03094	10.7608	0.617749	3.34348	1.0796	5.86116	1.29195	7.01518	1.6763	9.06149	2.05876	10.827
1.73636	2.54804	0.619225	3.29623	1.73451	2.54856	0.89534	4.75575	1.35267	7.25868	1.67112	8.95959	2.03261	10.7061	0.61884	3.30807	1.08616	5.82382	1.29505	6.94502	1.68017	8.97053	2.05915	10.7823
1.73141	2.54942	0.620386	3.26234	1.72956	2.54993	0.895053	4.69666	1.35751	7.19558	1.67298	8.85992	2.03474	10.6379	0.619983	3.2738	1.09245	5.78598	1.29843	6.87802	1.68404	8.88178	2.05968	10.7222
1.72644	2.55076	0.621604	3.22956	1.72456	2.55124	0.894765	4.63898	1.36228	7.13362	1.67492	8.76315	2.03732	10.5568	0.621181	3.24064	1.09846	5.74755	1.3021	6.81418	1.68791	8.79514	2.06037	10.6472
1.72141	2.55203	0.62288	3.19785	1.71952	2.55249	0.89448	4.58268	1.36697	7.0727	1.67697	8.66923	2.04036	10.4635	0.622437	3.20857	1.10416	5.70846	1.30609	6.75348	1.69176	8.71048	2.06123	10.5582
1.71633	2.55324	0.624214	3.16719	1.71442	2.55367	0.894201	4.52773	1.37156	7.01272	1.67914	8.57811	2.04386	10.3589	0.623751	3.17755	1.10953	5.66864	1.3104	6.69591	1.69558	8.62769	2.06228	10.4559
1.71119	2.55436	0.62561	3.13754	1.70925	2.55475	0.893933	4.4741	1.37604	6.9536	1.68143	8.48974	2.04736	10.2567	0.625126	3.14756	1.11458	5.62807	1.31506	6.6414	1.69938	8.54666	2.06355	10.3413
1.70598	2.55537	0.627068	3.10887	1.70401	2.55573	0.893678	4.42176	1.3804	6.89527	1.68386	8.40409	2.05086	10.1568	0.626563	3.11856	1.11928	5.58674	1.32007	6.58991	1.70314	8.4673	2.06488	10.2297
1.70069	2.55628	0.62859	3.08117	1.69868	2.55659	0.89344	4.37068	1.38464	6.83764	1.68643	8.32111	2.05434	10.0591	0.628062	3.09053	1.12364	5.54464	1.32543	6.54135	1.70685	8.38952	2.06629	10.121
1.69531	2.55707	0.630176	3.0544	1.69328	2.55734	0.893221	4.32084	1.38875	6.78065	1.68916	8.24074	2.05781	9.96351	0.629626	3.06344	1.12766	5.50182	1.33116	6.49562	1.71051	8.31322	2.06778	10.0151
1.68985	2.55774	0.631827	3.02853	1.68779	2.55796	0.893024	4.2722	1.39271	6.72424	1.69205	8.16294	2.06126	9.86993	0.631256	3.03727	1.13134	5.45832	1.33723	6.45261	1.71411	8.23833	2.06937	9.91201
1.68431	2.55829	0.633545	3.00355	1.68222	2.55846	0.892852	4.22474	1.39652	6.66835	1.6951	8.08765	2.06468	9.77827	0.63295	3.01199	1.13469	5.4142	1.34365	6.41218	1.71764	8.16477	2.07106	9.81164
1.67869	2.55872	0.63533	2.97941	1.67657	2.55885	0.892706	4.17844	1.40018	6.61294	1.69833	8.01483	2.06806	9.68843	0.634712	2.98757	1.13772	5.36955	1.3504	6.3742	1.72111	8.09248	2.07285	9.71393
1.67299	2.55903	0.637182	2.95611	1.67084	2.55913	0.892591	4.13325	1.40367	6.55797	1.70174	7.94441	2.07141	9.60033	0.636541	2.96398	1.14045	5.32445	1.35746	6.33851	1.72449	8.02137	2.07474	9.61882
1.66723	2.55925	0.639101	2.93361	1.66506	2.55931	0.892506	4.08917	1.407	6.5034	1.70534	7.87634	2.07471	9.5139	0.638437	2.94121	1.1429	5.279	1.36483	6.30497	1.7278	7.95141	2.07676	9.52625
1.6614	2.55938	0.641089	2.9119	1.65921	2.5594	0.892456	4.04617	1.41015	6.4492	1.70912	7.81056	2.07797	9.42905	0.640402	2.91923	1.14507	5.23328	1.37247	6.27343	1.73102	7.88252	2.07889	9.43616
1.65553	2.55942	0.643145	2.89094	1.65332	2.55942	0.892441	4.00421	1.41313	6.39536	1.71308	7.74699	2.08117	9.34574	0.642435	2.89802	1.147	5.1874	1.38038	6.24373	1.73415	7.81467	2.08115	9.34849
1.6496	2.55939	0.64527	2.87071	1.64738	2.55937	0.892464	3.96328	1.41595	6.34186	1.71724	7.68558	2.08432	9.26388	0.644536	2.87754	1.14871	5.14145	1.38853	6.21573	1.73719	7.74781	2.08353	9.26317
1.64364	2.5593	0.647463	2.8512	1.6414	2.55925	0.892525	3.92335	1.41858	6.28868	1.72158	7.62625	2.08741	9.18343	0.646705	2.85779	1.1502	5.09552	1.39691	6.18928	1.74014	7.6819	2.08604	9.18016
1.63764	2.55916	0.649724	2.83238	1.63539	2.55909	0.892627	3.8844	1.42105	6.23581	1.7261	7.56893	2.09043	9.10432	0.648944	2.83874	1.1515	5.04967	1.40548	6.16426	1.74299	7.6169	2.08868	9.09939
1.63162	2.55896	0.652054	2.81423	1.62935	2.55888	0.892772	3.84641	1.42334	6.18327	1.73081	7.51355	2.0934	9.02652	0.65125	2.82036	1.15264	5.004	1.41425	6.14055	1.74574	7.55278	2.09145	9.02079
1.62556	2.55873	0.654453	2.79673	1.62329	2.55863	0.89296	3.80935	1.42546	6.13104	1.73569	7.46003	2.0963	8.94997	0.653626	2.80264	1.15361	4.95858	1.42317	6.11801	1.7484	7.48952	2.09436	8.94431
1.61949	2.55846	0.65692	2.77986	1.61721	2.55835	0.893194	3.77321	1.42742	6.07914	1.74075	7.40829	2.09913	8.87463	0.656069	2.78556	1.15445	4.91345	1.43225	6.09655	1.75097	7.42711	2.0974	8.86988
1.61339	2.55815	0.659455	2.76361	1.6111	2.55803	0.893473	3.73795	1.42922	6.02758	1.74597	7.35827	2.10189	8.80047	0.658581	2.76909	1.15516	4.86867	1.44145	6.07606	1.75344	7.36551	2.10057	8.79744
1.60728	2.55782	0.662058	2.74794	1.60499	2.55769	0.893801	3.70357	1.43087	5.97635	1.75136	7.30987	2.10459	8.72745	0.661161	2.75323	1.15577	4.82429	1.45077	6.05644	1.75583	7.30473	2.10387	8.72693
1.60115	2.55746	0.664729	2.73286	1.59886	2.55732	0.894176	3.67004	1.43236	5.92548	1.75689	7.26303	2.10722	8.65555	0.663808	2.73795	1.15627	4.78036	1.46019	6.03761	1.75813	7.24475	2.1073	8.65828
1.59501	2.55708	0.667467	2.71833	1.59271	2.55693	0.894602	3.63734	1.43371	5.87499	1.76257	7.21766	2.10979	8.58472	0.666524	2.72323	1.15669	4.73691	1.4697	6.01948	1.76035	7.18557	2.11085	8.59144
1.58886	2.55667	0.670273	2.70434	1.58656	2.55652	0.895078	3.60545	1.43492	5.82487	1.76839	7.17369	2.11229	8.51497	0.669307	2.70906	1.15703	4.69396	1.47927	6.00198	1.76249	7.1272	2.11453	8.52633
1.5827	2.55625	0.673147	2.69089	1.58039	2.55609	0.895606	3.57435	1.436	5.77516	1.77433	7.13104	2.11473	8.44625	0.672157	2.69543	1.15731	4.65154	1.4889	5.98502	1.76457	7.06963	2.11832	8.46289
1.57653	2.55581	0.676088	2.67794	1.57422	2.55564	0.896187	3.54403	1.43695	5.72586	1.78038	7.08964	2.11712	8.37857	0.675076	2.68231	1.15753	4.60968	1.49858	5.96854	1.76659	7.01289	2.12223	8.40107
1.57035	2.55536	0.679098	2.6655	1.56804	2.55518	0.89682	3.51447	1.43779	5.67699	1.78655	7.04942	2.11945	8.31189	0.678062	2.6697	1.15771	4.56838	1.50828	5.95247	1.76855	6.95697	2.12625	8.3408
1.56417	2.55488	0.682177	2.65356	1.56185	2.5547	0.897508	3.48565	1.43851	5.62856	1.79281	7.0103	2.12174	8.24623	0.681117	2.65759	1.15784	4.52768	1.51799	5.93673	1.77048	6.90191	2.13038	8.28201
1.55798	2.5544	0.685326	2.64209	1.55566	2.55422	0.898251	3.45755	1.43913	5.58059	1.79916	6.97221	2.12398	8.18156	0.684242	2.64595	1.15793	4.48756	1.5277	5.92127	1.77238	6.84773	2.1346	8.22464
1.55178	2.5539	0.688546	2.6311	1.54946	2.55371	0.899049	3.43016	1.43965	5.53309	1.80558	6.93508	2.12618	8.11789	0.687437	2.6348	1.158	4.44805	1.53739	5.90601	1.77427	6.79445	2.13891	8.16864
1.54558	2.55339	0.691842	2.62059	1.54326	2.5532	0.899904	3.40346	1.44007	5.48608	1.81206	6.89884	2.12835	8.05521	0.690707	2.62413	1.15805	4.40915	1.54704	5.89089	1.77616	6.74211	2.14331	8.11393
1.53937	2.55287	0.695217	2.61056	1.53705	2.55267	0.900815	3.37743	1.44041	5.43956	1.8186	6.86344	2.13049	7.99353	0.694054	2.61393	1.15808	4.37086	1.55665	5.87583	1.77807	6.69076	2.14778	8.06047
1.53316	2.55234	0.69868	2.60103	1.53084	2.55214	0.901784	3.35206	1.44067	5.39355	1.82518	6.82879	2.13262	7.93285	0.697486	2.60423	1.15809	4.33319	1.56618	5.86076	1.78002	6.64043	2.15233	8.00819
1.52695	2.5518	0.702245	2.59203	1.52462	2.55159	0.902811	3.32734	1.44086	5.34804	1.83178	6.79485	2.13475	7.87317	0.701015	2.59504	1.1581	4.29613	1.57562	5.84561	1.78203	6.59119	2.15694	7.95703
1.52073	2.55125	0.705935	2.58365	1.51841	2.55104	0.903896	3.30325	1.44098	5.30306	1.8384	6.76154	2.13687	7.81451	0.704658	2.58644	1.15811	4.25969	1.58494	5.83028	1.78412	6.54309	2.16161	7.90695
1.51451	2.55069	0.709788	2.576	1.51219	2.55047	0.905041	3.27978	1.44103	5.25861	1.84503	6.7288	2.13901	7.75687	0.708449	2.57852	1.15811	4.22386	1.59412	5.81469	1.78632	6.49621	2.16632	7.85787
1.50829	2.55012	0.713875	2.56931	1.50596	2.5499	0.906245	3.25691	1.44103	5.2147	1.85165	6.69658	2.14117	7.70026	0.712447	2.57147	1.15812	4.18864	1.60313	5.79875	1.78867	6.45062	2.17108	7.80975
1.50207	2.54954	0.718297	2.56394	1.49974	2.54932	0.907509	3.23463	1.44097	5.17132	1.85824	6.66482	2.14336	7.64471	0.716741	2.5656	1.15813	4.15402	1.61194	5.78235	1.79119	6.4064	2.17586	7.76253
1.49584	2.54895	0.723154	2.56018	1.49351	2.54873	0.908833	3.21292	1.44087	5.12849	1.8648	6.63345	2.14559	7.59022	0.721442	2.56127	1.15816	4.12001	1.62051	5.76539	1.79393	6.36366	2.18067	7.71616
1.48961	2.54836	0.728455	2.55806	1.48728	2.54814	0.910218	3.19178	1.44073	5.0862	1.87131	6.60243	2.14789	7.53681	0.726598	2.55862	1.15819	4.08659	1.62882	5.74776	1.79691	6.32248	2.18549	7.6706
1.48338	2.54776	0.734103	2.55717	1.48105	2.54753	0.911665	3.1712	1.44054	5.04446	1.87776	6.57168	2.15025	7.4845	0.732142	2.55736	1.15824	4.05377	1.63681	5.72933	1.80018	6.28297	2.19032	7.62578
1.47715	2.54715	0.739973	2.55707	1.47482	2.54692	0.913173	3.15115	1.44033	5.00327	1.88414	6.54117	2.1527	7.43332	0.737948	2.55704	1.15831	4.02152	1.64447	5.71001	1.80377	6.24523	2.19514	7.58167
1.47092	2.54653	0.745977	2.55742	1.46858	2.5463	0.914744	3.13164	1.44008	4.96263	1.89042	6.51082	2.15524	7.38327	0.743914	2.55726	1.1584	3.98986	1.65174	5.68967	1.80773	6.20934	2.19995	7.53821
1.46468	2.54591	0.752062	2.55805	1.46235	2.54568	0.916377	3.11264	1.4398	4.92254	1.8966	6.4806	2.15789	7.33438	0.749976	2.55781	1.1585	3.95877	1.65859	5.66822	1.8121	6.17539	2.20474	7.49536
1.45845	2.54528	0.758197	2.55883	1.45611	2.54505	0.918074	3.09415	1.4395	4.883	1.90266	6.45045	2.16067	7.28667	0.756096	2.55855	1.15863	3.92824	1.66499	5.64559	1.81689	6.14342		
1.45221	2.54465	0.764363	2.55971	1.44988	2.54441	0.919834	3.07616	1.43918	4.844	1.90859	6.42032	2.16358	7.24016	0.762253	2.5594	1.15879	3.89826	1.67093	5.62171	1.82215	6.11348		
1.44598	2.544	0.770551	2.56064	1.44364	2.54376	0.921659	3.05866	1.43885	4.80555	1.91437	6.39017	2.16665	7.19486	0.768434	2.56032	1.15897	3.86884	1.67637	5.59657	1.82787	6.08557		
1.43974	2.54336	0.776753	2.56161	1.43741	2.54311	0.923548	3.04164	1.4385	4.76764	1.91999	6.35994	2.16988	7.15079	0.774632	2.56128	1.15917	3.83995	1.68131	5.57018	1.83406	6.05964		
1.4335	2.5427	0.782965	2.5626	1.43117	2.54246	0.925503	3.02509	1.43814	4.73028	1.92543	6.3296	2.17328	7.10797	0.780841	2.56226	1.15941	3.8116	1.68577	5.54257	1.84072	6.03564		
1.42726	2.54204	0.789183	2.56359	1.42493	2.5418	0.927523	3.009	1.43777	4.69344	1.93069	6.29911	2.17688	7.06639	0.787057	2.56325	1.15968	3.78377	1.68975	5.51382	1.84784	6.01347		
1.42103	2.54138	0.795406	2.56458	1.41869	2.54113	0.929611	2.99337	1.4374	4.65715	1.93575	6.26843	2.18067	7.02608	0.793279	2.56424	1.15997	3.75646	1.69327	5.48402	1.85538	5.99302		
1.41479	2.54071	0.801632	2.56557	1.41246	2.54046	0.931766	2.97818	1.43702	4.62137	1.94061	6.23754	2.18467	6.98703	0.799504	2.56523	1.1603	3.72966	1.69636	5.45328	1.86333	5.97416		
1.40855	2.54003	0.80786	2.56655	1.40622	2.53978	0.933989	2.96343	1.43664	4.58613	1.94524	6.20642	2.18889	6.94924	0.805732	2.56622	1.16067	3.70337	1.69906	5.42174	1.87164	5.95675		
1.40232	2.53935	0.814089	2.56752	1.39998	2.5391	0.936282	2.94912	1.43627	4.5514	1.94966	6.17504	2.19333	6.91269	0.81196	2.56719	1.16107	3.67756	1.70139	5.3895	1.8803	5.94066		
1.39608	2.53867	0.820319	2.56847	1.39375	2.53841	0.938645	2.93523	1.43589	4.51719	1.95384	6.14339	2.198	6.87739	0.81819	2.56815	1.1615	3.65224	1.7034	5.3567	1.88925	5.92576		
1.38985	2.53798	0.826548	2.56941	1.38751	2.53772	0.941079	2.92176	1.43552	4.48348	1.95779	6.11146	2.20289	6.84331	0.824419	2.56909	1.16197	3.6274	1.70511	5.32345	1.89848	5.91192		
1.38361	2.53729	0.832777	2.57034	1.38128	2.53703	0.943587	2.9087	1.43516	4.45028	1.9615	6.07926			0.830648	2.57003	1.16248	3.60303	1.70655	5.28986	1.90795	5.89902		
1.37738	2.53659	0.839005	2.57125	1.37505	2.53633	0.946168	2.89606	1.43481	4.41758	1.96497	6.04679			0.836876	2.57094	1.16302	3.57912	1.70777	5.25603	1.91763	5.88696		
1.37115	2.53589	0.845232	2.57215	1.36882	2.53563	0.948825	2.88383	1.43447	4.38537	1.96821	6.01406			0.843104	2.57184	1.1636	3.55566	1.70877	5.22204	1.9275	5.87564		
1.36492	2.53519	0.851457	2.57302	1.36259	2.53493	0.951559	2.872	1.43413	4.35365	1.97122	5.98107			0.84933	2.57273	1.16423	3.53266	1.70959	5.18797	1.93754	5.86498		
1.35869	2.53448	0.857682	2.57389	1.35636	2.53422	0.954372	2.86057	1.43382	4.3224	1.974	5.94786			0.855555	2.57359	1.16489	3.51009	1.71025	5.15388	1.94772	5.8549		
1.35247	2.53378	0.863904	2.57473	1.35014	2.53351	0.957267	2.84953	1.43351	4.29164	1.97655	5.91444			0.861778	2.57444	1.16559	3.48795	1.71077	5.11984	1.95802	5.84534		
1.34624	2.53306	0.870125	2.57556	1.34391	2.5328	0.960245	2.8389	1.43323	4.26134	1.97889	5.88083			0.867999	2.57528	1.16633	3.46624	1.71116	5.08589	1.96844	5.83623		
1.34002	2.53235	0.876344	2.57637	1.33769	2.53209	0.963309	2.82866	1.43296	4.23151	1.98102	5.84707			0.874219	2.5761	1.16711	3.44494	1.71144	5.05208	1.97894	5.82751		
1.3338	2.53164	0.882561	2.57717	1.33147	2.53137	0.966461	2.81882	1.43271	4.20214	1.98295	5.81318			0.880437	2.5769	1.16794	3.42406	1.71163	5.01844	1.98953	5.81914		
1.32759	2.53093	0.888776	2.57795	1.32526	2.53066	0.969705	2.80937	1.43247	4.17321	1.98469	5.77919			0.886652	2.57768	1.1688	3.40357	1.71172	4.985	2.00018	5.81108		
1.32137	2.53021	0.894989	2.57871	1.31905	2.52995	0.973043	2.80032	1.43226	4.14474	1.98625	5.74513			0.892866	2.57845	1.16971	3.38349	1.71175	4.95179	2.01089	5.80328		
1.31516	2.5295	0.901199	2.57945	1.31284	2.52923	0.976477	2.79167	1.43207	4.1167	1.98764	5.71104			0.899077	2.5792	1.17067	3.36379	1.71171	4.91884	2.02163	5.7957		
1.30896	2.52879	0.907408	2.58018	1.30664	2.52852	0.980012	2.78341	1.43191	4.0891	1.98887	5.67693			0.905286	2.57994	1.17166	3.34447	1.71161	4.88615	2.03241	5.78831		
1.30276	2.52808	0.913614	2.5809	1.30044	2.52781	0.983649	2.77555	1.43176	4.06193	1.98995	5.64283			0.911493	2.58065	1.1727	3.32553	1.71146	4.85375	2.04321	5.78108		
1.29656	2.52737	0.919818	2.58159	1.29424	2.52711	0.987392	2.76809	1.43164	4.03517	1.99088	5.60878			0.917698	2.58136	1.17378	3.30696	1.71126	4.82165	2.05402	5.77396		
1.29037	2.52667	0.926019	2.58228	1.28806	2.52641	0.991243	2.76103	1.43155	4.00884	1.99168	5.5748			0.9239	2.58204	1.17491	3.28875	1.71103	4.78986	2.06482	5.76693		
1.28419	2.52597	0.932218	2.58294	1.28187	2.52571	0.995204	2.75436	1.43148	3.98291	1.99236	5.54091			0.9301	2.58272	1.17608	3.2709	1.71077	4.75839	2.07562	5.75995		
1.27801	2.52528	0.938414	2.58359	1.2757	2.52502	0.999276	2.74808	1.43144	3.95739	1.99292	5.50713			0.936297	2.58337	1.17729	3.2534	1.71048	4.72725	2.08638	5.75298		
1.27183	2.52459	0.944608	2.58423	1.26953	2.52434	1.00346	2.74219	1.43143	3.93227	1.99337	5.47349			0.942491	2.58401	1.17855	3.23624	1.71017	4.69643	2.0971	5.74599		
1.26567	2.52391	0.950798	2.58485	1.26336	2.52366	1.00776	2.73668	1.43144	3.90754	1.99373	5.43999			0.948683	2.58464	1.17985	3.21942	1.70984	4.66596	2.10777	5.73893		
1.25951	2.52325	0.956987	2.58545	1.25721	2.523	1.01217	2.73154	1.43149	3.8832	1.99399	5.40667			0.954872	2.58525	1.1812	3.20293	1.70949	4.63582	2.11836	5.73176		
1.25337	2.52259	0.963172	2.58604	1.25107	2.52235	1.01669	2.72675	1.43156	3.85924	1.99417	5.37354			0.961058	2.58584	1.18259	3.18677	1.70913	4.60603	2.12886	5.72443		
1.24723	2.52195	0.969354	2.58662	1.24493	2.52171	1.02131	2.72232	1.43166	3.83565	1.99427	5.34061			0.967242	2.58642	1.18403	3.17093	1.70876	4.57658	2.13924	5.71688		
1.2411	2.52132	0.975534	2.58718	1.23881	2.52109	1.02605	2.71821	1.43179	3.81244	1.9943	5.30789			0.973422	2.58699	1.18551	3.1554	1.70839	4.54747	2.14948	5.70903		
1.23498	2.52071	0.98171	2.58772	1.2327	2.52049	1.03088	2.71441	1.43196	3.78959	1.99426	5.27539			0.9796	2.58754	1.18704	3.14019	1.70801	4.51871	2.15954	5.70082		
1.22888	2.52012	0.987884	2.58825	1.2266	2.51991	1.0358	2.71091	1.43215	3.76711	1.99417	5.24313			0.985774	2.58807	1.18862	3.12528	1.70763	4.4903	2.16939	5.69215		
1.22279	2.51956	0.994054	2.58877	1.22052	2.51935	1.04082	2.70769	1.43238	3.74497	1.99401	5.21111			0.991946	2.58859	1.19024	3.11066	1.70725	4.46223	2.17899	5.68293		
1.21672	2.51902	1.00022	2.58927	1.21445	2.51883	1.04592	2.70471	1.43264	3.72319	1.99381	5.17935			0.998114	2.5891	1.1919	3.09634	1.70687	4.4345	2.18829	5.67303		
1.21066	2.51851	1.00638	2.58976	1.2084	2.51833	1.05109	2.70198	1.43293	3.70175	1.99356	5.14785			1.00428	2.58959	1.19361	3.08231	1.7065	4.40711	2.19722	5.66234		
1.20462	2.51804	1.01254	2.59023	1.20237	2.51787	1.05634	2.69946	1.43325	3.68065	1.99327	5.11661			1.01044	2.59007	1.19537	3.06856	1.70614	4.38007	2.20575	5.6507		
1.1986	2.5176	1.0187	2.59069	1.19636	2.51745	1.06166	2.69714	1.43361	3.65988	1.99294	5.08565			1.0166	2.59053	1.19717	3.05509	1.70578	4.35336				
1.19261	2.51721	1.02485	2.59113	1.19037	2.51707	1.06703	2.69501	1.434	3.63945	1.99258	5.05496			1.02275	2.59098	1.19902	3.0419	1.70543	4.32699				
1.18664	2.51686	1.031	2.59156	1.18441	2.51675	1.07247	2.69304	1.43443	3.61933	1.99219	5.02455			1.0289	2.59141	1.20091	3.02898	1.70509	4.30096				
1.18069	2.51657	1.03715	2.59197	1.17848	2.51648	1.07795	2.69121	1.43489	3.59954	1.99177	4.99442			1.03505	2.59183	1.20285	3.01632	1.70477	4.27525				
1.17478	2.51634	1.04329	2.59237	1.17257	2.51627	1.08348	2.68953	1.43539	3.58006	1.99132	4.96458			1.04119	2.59223	1.20484	3.00392	1.70446	4.24988				
1.1689	2.51618	1.04943	2.59275	1.1667	2.51613	1.08906	2.68797	1.43592	3.56089	1.99085	4.93503			1.04733	2.59262	1.20687	2.99177	1.70416	4.22483				
1.16305	2.51609	1.05556	2.59312	1.16087	2.51607	1.09467	2.68652	1.43648	3.54203	1.99037	4.90577			1.05346	2.593	1.20895	2.97988	1.70387	4.2001				
1.15724	2.51608	1.06169	2.59347	1.15508	2.5161	1.10031	2.68517	1.43708	3.52346	1.98987	4.8768			1.05959	2.59335	1.21108	2.96824	1.70361	4.17569				
1.15147	2.51616	1.06781	2.59381	1.14933	2.51622	1.10599	2.68391	1.43772	3.5052	1.98935	4.84812			1.06572	2.5937	1.21325	2.95684	1.70336	4.1516				
1.14575	2.51635	1.07393	2.59413	1.14362	2.51644	1.1117	2.68274	1.4384	3.48722	1.98883	4.81973			1.07184	2.59402	1.21547	2.94568	1.70313	4.12782				
1.14008	2.51664	1.08004	2.59443	1.13797	2.51678	1.11743	2.68164	1.4391	3.46953	1.98829	4.79164			1.07795	2.59433	1.21773	2.93476	1.70291	4.10435				
1.13445	2.51705	1.08615	2.59472	1.13236	2.51723	1.12319	2.68062	1.43985	3.45213	1.98775	4.76384			1.08406	2.59463	1.22004	2.92406	1.70272	4.08119				
1.12889	2.51758	1.09225	2.59499	1.12682	2.51782	1.12897	2.67965	1.44063	3.435	1.9872	4.73633			1.09016	2.5949	1.2224	2.9136	1.70255	4.05833				
1.12338	2.51825	1.09834	2.59525	1.12133	2.51854	1.13477	2.67874	1.44145	3.41815	1.98664	4.70911			1.09626	2.59516	1.2248	2.90337	1.7024	4.03577				
1.11792	2.51906	1.10443	2.59549	1.1159	2.5194	1.14058	2.67788	1.44231	3.40157	1.98609	4.68219			1.10235	2.59541	1.22726	2.89335	1.70227	4.01351				
1.11254	2.52002	1.11051	2.5957	1.11053	2.52042	1.14641	2.67707	1.4432	3.38525	1.98553	4.65555			1.10844	2.59563	1.22975	2.88356	1.70216	3.99154				
1.10721	2.52113	1.11659	2.5959	1.10523	2.52159	1.15226	2.67631	1.44413	3.3692	1.98497	4.6292			1.11451	2.59584	1.2323	2.87398	1.70208	3.96987				
1.10195	2.5224	1.12266	2.59609	1.09999	2.52292	1.15812	2.67558	1.4451	3.3534	1.98442	4.60314			1.12058	2.59603	1.23489	2.86461	1.70201	3.94848				
1.09675	2.52384	1.12872	2.59625	1.09482	2.52441	1.16399	2.67489	1.44611	3.33786	1.98387	4.57736			1.12665	2.59619	1.23754	2.85545	1.70198	3.92737				
1.09162	2.52543	1.13477	2.59639	1.08971	2.52607	1.16988	2.67423	1.44715	3.32257	1.98332	4.55186			1.1327	2.59634	1.24022	2.8465	1.70197	3.90654				
1.08655	2.52719	1.14081	2.5965	1.08466	2.52789	1.17577	2.67361	1.44823	3.30753	1.98278	4.52665			1.13875	2.59647	1.24296	2.83776	1.70198	3.88599				
1.08153	2.52911	1.14684	2.5966	1.07968	2.52987	1.18168	2.67301	1.44935	3.29273	1.98225	4.50172			1.14478	2.59657	1.24575	2.82922	1.70202	3.86571				
1.07658	2.53119	1.15287	2.59667	1.07475	2.53201	1.18759	2.67243	1.4505	3.27818	1.98172	4.47706			1.15081	2.59665	1.24858	2.82087	1.70208	3.84571				
1.07169	2.53342	1.15888	2.59672	1.06987	2.5343	1.19351	2.67188	1.4517	3.26385	1.9812	4.45269			1.15683	2.5967	1.25147	2.81273	1.70217	3.82597				
1.06685	2.53581	1.16488	2.59674	1.06505	2.53674	1.19944	2.67135	1.45293	3.24976	1.9807	4.42858			1.16283	2.59673	1.2544	2.80478	1.70229	3.80649				
1.06205	2.53834	1.17087	2.59673	1.06027	2.53932	1.20537	2.67085	1.4542	3.23591	1.9802	4.40475			1.16882	2.59674	1.25739	2.79703	1.70244	3.78727				
1.0573	2.541	1.17685	2.5967	1.05554	2.54203	1.21131	2.67036	1.45551	3.22227	1.97972	4.38118			1.17481	2.59671	1.26043	2.78947	1.70261	3.76831				
1.0526	2.5438	1.18281	2.59663	1.05085	2.54488	1.21726	2.66988	1.45685	3.20886	1.97924	4.35788			1.18077	2.59666	1.26352	2.7821	1.70281	3.74961				
1.04793	2.54672	1.18875	2.59653	1.04619	2.54784	1.22321	2.66943	1.45824	3.19567	1.97878	4.33485			1.18672	2.59657	1.26666	2.77492	1.70304	3.73115				
1.04329	2.54975	1.19468	2.5964	1.04157	2.55091	1.22917	2.66898	1.45966	3.18269	1.97834	4.31207			1.19266	2.59645	1.26986	2.76793	1.70329	3.71294				
1.03869	2.55288	1.2006	2.59623	1.03697	2.55408	1.23513	2.66855	1.46112	3.16993	1.97791	4.28956			1.19858	2.59629	1.27311	2.76113	1.70358	3.69498				
1.0341	2.55611	1.20649	2.59602	1.03239	2.55735	1.24109	2.66814	1.46262	3.15738	1.97749	4.26731			1.20448	2.59609	1.27641	2.75451	1.70389	3.67726				
1.02954	2.55943	1.21236	2.59577	1.02783	2.56069	1.24706	2.66773	1.46416	3.14503	1.97709	4.24531			1.21036	2.59586	1.27978	2.74809	1.70424	3.65977				
1.02499	2.56281	1.21821	2.59547	1.02329	2.5641	1.25302	2.66733	1.46573	3.13289	1.97671	4.22356			1.21622	2.59558	1.2832	2.74185	1.70461	3.64252				
1.02044	2.56626	1.22404	2.59513	1.01874	2.56756	1.259	2.66695	1.46735	3.12095	1.97634	4.20206			1.22205	2.59525	1.28668	2.7358	1.70501	3.62551				
1.0159	2.56975	1.22984	2.59473	1.0142	2.57107	1.26497	2.66657	1.469	3.1092	1.97599	4.18081			1.22786	2.59488	1.29022	2.72994	1.70544	3.60872				
1.01136	2.57327	1.23561	2.59429	1.00965	2.5746	1.27095	2.6662	1.47069	3.09766	1.97566	4.1598			1.23364	2.59445	1.29383	2.72427	1.7059	3.59216				
1.0068	2.57681	1.24136	2.59378	1.0051	2.57814	1.27692	2.66583	1.47242	3.0863	1.97535	4.13903			1.2394	2.59396	1.2975	2.7188	1.7064	3.57582				
1.00223	2.58036	1.24707	2.59321	1.00052	2.58168	1.2829	2.66548	1.47419	3.07513	1.97506	4.11851			1.24512	2.59341	1.30124	2.71351	1.70692	3.5597				
0.997643	2.58389	1.25275	2.59258	0.995918	2.5852	1.28888	2.66512	1.476	3.06415	1.97479	4.09822			1.25081	2.5928	1.30505	2.70842	1.70747	3.5438				
0.993023	2.58739	1.25839	2.59188	0.991286	2.58868	1.29486	2.66478	1.47784	3.05336	1.97453	4.07817			1.25647	2.59213	1.30893	2.70353	1.70806	3.52812				
0.98837	2.59084	1.26399	2.5911	0.986618	2.59211	1.30085	2.66443	1.47973	3.04275	1.9743	4.05835			1.26208	2.59138	1.31288	2.69883	1.70867	3.51265				
0.983676	2.59422	1.26955	2.59025	0.981909	2.59547	1.30683	2.66409	1.48165	3.03231	1.97409	4.03876			1.26766	2.59055	1.31691	2.69433	1.70932	3.49739				
0.978938	2.59753	1.27507	2.58931	0.977152	2.59875	1.31281	2.66376	1.48361	3.02206	1.9739	4.01939			1.27319	2.58964	1.32102	2.69004	1.70999	3.48233				
0.974149	2.60075	1.28054	2.5883	0.972343	2.60193	1.31879	2.66343	1.48561	3.01198	1.97373	4.00025			1.27867	2.58865	1.32521	2.68594	1.7107	3.46748				
0.969305	2.60386	1.28596	2.58719	0.967478	2.60499	1.32477	2.66309	1.48765	3.00207	1.97358	3.98134			1.28411	2.58758	1.32948	2.68205	1.71144	3.45283				
0.964404	2.60685	1.29133	2.586	0.962555	2.60794	1.33075	2.66276	1.48973	2.99233	1.97346	3.96264			1.2895	2.58641	1.33383	2.67837	1.71221	3.43838				
0.959444	2.60972	1.29666	2.58471	0.957571	2.61076	1.33673	2.66244	1.49185	2.98275	1.97336	3.94416			1.29484	2.58516	1.33827	2.67489	1.71301	3.42412				
0.954421	2.61245	1.30193	2.58334	0.952526	2.61344	1.34271	2.66211	1.494	2.97335	1.97328	3.9259			1.30013	2.58382	1.34279	2.67161	1.71385	3.41006				
0.949337	2.61505	1.30715	2.58187	0.947419	2.61599	1.34868	2.66178	1.4962	2.9641	1.97322	3.90785			1.30537	2.58238	1.3474	2.66853	1.71471	3.39619				
0.944191	2.61752	1.31232	2.58032	0.94225	2.6184	1.35466	2.66145	1.49843	2.95502	1.97319	3.89001			1.31056	2.58086	1.3521	2.66565	1.71561	3.38251				
0.938985	2.61984	1.31743	2.57869	0.937022	2.62068	1.36063	2.66112	1.5007	2.9461	1.97318	3.87238			1.31569	2.57925	1.35688	2.66296	1.71654	3.36902				
0.933721	2.62204	1.3225	2.57697	0.931736	2.62282	1.3666	2.66078	1.50302	2.93733	1.9732	3.85495			1.32078	2.57757	1.36175	2.66046	1.7175	3.35571				
0.9284	2.6241	1.32753	2.57518	0.926395	2.62484	1.37256	2.66045	1.50537	2.92872	1.97324	3.83773			1.32582	2.5758	1.36669	2.65815	1.7185	3.34258				
0.923026	2.62603	1.33251	2.57333	0.921002	2.62673	1.37853	2.66011	1.50776	2.92027	1.9733	3.82071			1.33081	2.57397	1.37172	2.65601	1.71952	3.32963				
0.917602	2.62785	1.33745	2.57141	0.91556	2.6285	1.38449	2.65976	1.51019	2.91196	1.97339	3.80389			1.33577	2.57207	1.37682	2.65403	1.72058	3.31686				
0.912131	2.62956	1.34236	2.56944	0.910072	2.63017	1.39044	2.65942	1.51266	2.90381	1.9735	3.78726			1.34068	2.57012	1.382	2.65221	1.72167	3.30427				
0.906615	2.63116	1.34723	2.56743	0.904541	2.63174	1.39639	2.65906	1.51517	2.8958	1.97364	3.77083			1.34557	2.56812	1.38724	2.65054	1.72279	3.29184				
0.901059	2.63267	1.35207	2.56538	0.89897	2.63321	1.40234	2.6587	1.51773	2.88794	1.97381	3.75459			1.35042	2.56609	1.39255	2.649	1.72395	3.27959				
0.895465	2.63408	1.35689	2.56331	0.893363	2.63459	1.40828	2.65833	1.52032	2.88023	1.974	3.73855			1.35525	2.56402	1.39792	2.64759	1.72513	3.2675				
0.889837	2.63541	1.3617	2.56121	0.887722	2.63589	1.41421	2.65796	1.52295	2.87266	1.97421	3.72269			1.36006	2.56193	1.40335	2.6463	1.72635	3.25559				
0.884176	2.63667	1.36648	2.55911	0.88205	2.63712	1.42014	2.65758	1.52563	2.86524	1.97446	3.70701			1.36485	2.55983	1.40882	2.64512	1.7276	3.24383				
0.878486	2.63785	1.37125	2.557	0.87635	2.63827	1.42606	2.65718	1.52834	2.85796	1.97472	3.69153			1.36962	2.55772	1.41435	2.64404	1.72889	3.23224				
0.87277	2.63897	1.37602	2.55489	0.870624	2.63937	1.43197	2.65678	1.5311	2.85082	1.97502	3.67622			1.37439	2.55561	1.41992	2.64306	1.7302	3.2208				
0.867028	2.64003	1.38078	2.5528	0.864874	2.64041	1.43788	2.65636	1.53391	2.84381	1.97534	3.66109			1.37916	2.55351	1.42553	2.64215	1.73155	3.20953				
0.861265	2.64103	1.38554	2.55072	0.859102	2.64139	1.44377	2.65593	1.53675	2.83695	1.97568	3.64614			1.38392	2.55143	1.43118	2.64132	1.73293	3.19841				
0.85548	2.64199	1.3903	2.54866	0.853311	2.64233	1.44966	2.65549	1.53964	2.83023	1.97606	3.63137			1.38868	2.54936	1.43686	2.64056	1.73435	3.18744				
0.849677	2.6429	1.39507	2.54663	0.847501	2.64323	1.45553	2.65503	1.54257	2.82364	1.97646	3.61676			1.39344	2.54732	1.44257	2.63987	1.73579	3.17663				
0.843856	2.64377	1.39985	2.54462	0.841674	2.64408	1.4614	2.65455	1.54555	2.8172	1.97689	3.60234			1.39821	2.5453	1.44831	2.63923	1.73727	3.16597				
0.83802	2.6446	1.40463	2.54266	0.835832	2.6449	1.46725	2.65405	1.54857	2.81089	1.97734	3.58808			1.403	2.54333	1.45408	2.63864	1.73878	3.15545				
0.832169	2.6454	1.40943	2.54073	0.829976	2.64569	1.47308	2.65353	1.55165	2.80472	1.97782	3.57399			1.40779	2.54138	1.45987	2.6381	1.74033	3.14508				
0.826305	2.64617	1.41424	2.53884	0.824107	2.64645	1.4789	2.65299	1.55477	2.79868	1.97833	3.56006			1.4126	2.53948	1.46568	2.63761	1.7419	3.13486				
0.820429	2.64691	1.41907	2.537	0.818227	2.64718	1.48471	2.65242	1.55793	2.79279	1.97886	3.5463			1.41742	2.53763	1.47151	2.63715	1.74351	3.12478				
0.814542	2.64762	1.42392	2.53521	0.812335	2.64788	1.49049	2.65183	1.56115	2.78703	1.97943	3.5327			1.42226	2.53582	1.47736	2.63673	1.74515	3.11484				
0.808644	2.64832	1.42878	2.53347	0.806434	2.64857	1.49626	2.6512	1.56442	2.78141	1.98002	3.51926			1.42712	2.53406	1.48322	2.63634	1.74682	3.10503				
0.802737	2.64899	1.43367	2.53177	0.800524	2.64924	1.502	2.65054	1.56775	2.77593	1.98064	3.50598			1.432	2.53235	1.4891	2.63597	1.74853	3.09537				
0.796822	2.64964	1.43858	2.53013	0.794606	2.64988	1.50773	2.64985	1.57112	2.77059	1.98128	3.49286			1.4369	2.53069	1.49499	2.63564	1.75027	3.08584				
0.790898	2.65028	1.44351	2.52855	0.78868	2.65052	1.51342	2.64912	1.57456	2.7654	1.98195	3.47989			1.44183	2.52909	1.5009	2.63533	1.75203	3.07644				
0.784968	2.65091	1.44847	2.52702	0.782747	2.65114	1.51909	2.64834	1.57805	2.76035	1.98266	3.46707			1.44677	2.52754	1.50681	2.63503	1.75384	3.06718				
0.779031	2.65152	1.45346	2.52555	0.776808	2.65174	1.52473	2.64752	1.58161	2.75544	1.98338	3.45441			1.45175	2.52605	1.51274	2.63476	1.75567	3.05805				
0.773088	2.65212	1.45847	2.52414	0.770863	2.65234	1.53033	2.64665	1.58523	2.75069	1.98414	3.4419			1.45675	2.52461	1.51867	2.63451	1.75754	3.04905				
0.76714	2.65271	1.4635	2.52278	0.764912	2.65293	1.53591	2.64573	1.58891	2.74608	1.98493	3.42953			1.46178	2.52324	1.52461	2.63427	1.75944	3.04017				
0.761186	2.65329	1.46857	2.52148	0.758957	2.65351	1.54144	2.64475	1.59266	2.74163	1.98574	3.41731			1.46684	2.52192	1.53056	2.63405	1.76137	3.03142				
0.755228	2.65387	1.47366	2.52024	0.752998	2.65409	1.54693	2.64371	1.59648	2.73734	1.98658	3.40524			1.47192	2.52066	1.53651	2.63384	1.76333	3.0228				
0.749267	2.65444	1.47879	2.51907	0.747034	2.65466	1.55238	2.64261	1.60037	2.7332	1.98745	3.39331			1.47703	2.51946	1.54247	2.63364	1.76533	3.01429				
0.743301	2.65501	1.48394	2.51795	0.741068	2.65523	1.55779	2.64143	1.60434	2.72923	1.98835	3.38152			1.48217	2.51832	1.54844	2.63345	1.76735	3.00591				
0.737332	2.65558	1.48912	2.51688	0.735098	2.65579	1.56314	2.64018	1.60839	2.72542	1.98927	3.36987			1.48735	2.51724	1.55441	2.63327	1.76941	2.99765				
0.731361	2.65615	1.49433	2.51588	0.729125	2.65636	1.56845	2.63886	1.61252	2.72177	1.99022	3.35835			1.49255	2.51622	1.56038	2.6331	1.77151	2.98951				
0.725386	2.65671	1.49958	2.51494	0.72315	2.65692	1.5737	2.63746	1.61674	2.7183	1.99121	3.34698			1.49778	2.51525	1.56636	2.63293	1.77363	2.98148				
0.71941	2.65728	1.50485	2.51405	0.717173	2.65749	1.5789	2.63598	1.62103	2.71499	1.99222	3.33574			1.50304	2.51435	1.57234	2.63278	1.77579	2.97358				
0.713432	2.65785	1.51015	2.51322	0.711194	2.65806	1.58405	2.63442	1.62542	2.71185	1.99325	3.32463			1.50833	2.5135	1.57833	2.63262	1.77797	2.96578				
0.707452	2.65842	1.51548	2.51245	0.705214	2.65864	1.58914	2.63279	1.62989	2.70889	1.99432	3.31366			1.51366	2.51271	1.58431	2.63248	1.78019	2.9581				
0.701471	2.659	1.52084	2.51173	0.699232	2.65922	1.59417	2.63107	1.63445	2.70609	1.99542	3.30281			1.51901	2.51197	1.5903	2.63234	1.78245	2.95053				
0.695489	2.65959	1.52624	2.51106	0.69325	2.65981	1.59916	2.62928	1.6391	2.70346	1.99654	3.2921			1.52439	2.51128	1.59629	2.6322	1.78473	2.94307				
0.689506	2.66019	1.53166	2.51045	0.687267	2.66041	1.60409	2.62742	1.64383	2.70099	1.99769	3.28151			1.5298	2.51065	1.60228	2.63206	1.78705	2.93572				
0.683523	2.66079	1.53711	2.50989	0.681284	2.66102	1.60897	2.62549	1.64865	2.69867	1.99887	3.27105			1.53524	2.51008	1.60827	2.63193	1.7894	2.92848				
0.67754	2.6614	1.54258	2.50938	0.675301	2.66164	1.6138	2.6235	1.65356	2.69652	2.00008	3.26072			1.54071	2.50955	1.61427	2.6318	1.79178	2.92134				
0.671558	2.66203	1.54809	2.50892	0.669319	2.66227	1.61859	2.62146	1.65854	2.6945	2.00131	3.25051			1.54621	2.50907	1.62026	2.63166	1.79419	2.91431				
0.665576	2.66267	1.55362	2.50851	0.663337	2.66292	1.62335	2.61937	1.6636	2.69263	2.00258	3.24042			1.55173	2.50864	1.62625	2.63153	1.79664	2.90739				
0.659594	2.66333	1.55918	2.50814	0.657356	2.66358	1.62807	2.61724	1.66873	2.69089	2.00387	3.23045			1.55728	2.50826	1.63224	2.6314	1.79911	2.90057				
0.653614	2.664	1.56477	2.50782	0.651376	2.66426	1.63276	2.61508	1.67394	2.68927	2.00519	3.2206			1.56286	2.50793	1.63823	2.63127	1.80162	2.89385				
0.647636	2.6647	1.57038	2.50754	0.645399	2.66496	1.63743	2.61291	1.6792	2.68777	2.00654	3.21087			1.56846	2.50763	1.64422	2.63114	1.80417	2.88723				
0.641659	2.66541	1.57602	2.5073	0.639423	2.66568	1.64208	2.61072	1.68453	2.68638	2.00792	3.20125			1.57409	2.50738	1.65021	2.63101	1.80674	2.88071				
0.635684	2.66615	1.58168	2.50711	0.633449	2.66643	1.64673	2.60854	1.68992	2.68508	2.00933	3.19175			1.57974	2.50717	1.65619	2.63087	1.80935	2.8743				
0.629713	2.66691	1.58736	2.50695	0.627478	2.6672	1.65137	2.60636	1.69535	2.68388	2.01076	3.18237			1.58542	2.507	1.66218	2.63073	1.81199	2.86798				
0.623744	2.6677	1.59307	2.50683	0.621511	2.668	1.65601	2.6042	1.70084	2.68277	2.01223	3.1731			1.59112	2.50687	1.66816	2.63059	1.81466	2.86175				
0.617778	2.66852	1.5988	2.50674	0.615547	2.66884	1.66066	2.60207	1.70637	2.68173	2.01372	3.16394			1.59684	2.50677	1.67414	2.63045	1.81736	2.85563				
0.611817	2.66937	1.60455	2.50669	0.609587	2.6697	1.66532	2.59997	1.71193	2.68076	2.01524	3.15489			1.60258	2.5067	1.68011	2.6303	1.8201	2.8496				
0.60586	2.67027	1.61032	2.50667	0.603632	2.67061	1.67001	2.59793	1.71754	2.67985	2.01679	3.14595			1.60835	2.50667	1.68608	2.63015	1.82287	2.84367				
0.599908	2.6712	1.61611	2.50668	0.597682	2.67156	1.67472	2.59595	1.72318	2.67901	2.01836	3.13711			1.61413	2.50667	1.69205	2.62999	1.82568	2.83782				
0.593961	2.67217	1.62192	2.50672	0.591737	2.67255	1.67948	2.59405	1.72885	2.67822	2.01997	3.12839			1.61994	2.50671	1.69801	2.62983	1.82851	2.83208				
0.588021	2.6732	1.62775	2.50679	0.5858	2.6736	1.68428	2.59223	1.73455	2.67748	2.0216	3.11977			1.62576	2.50676	1.70397	2.62966	1.83138	2.82642				
0.582087	2.67428	1.6336	2.50689	0.579869	2.67469	1.68914	2.59051	1.74028	2.67679	2.02326	3.11125			1.6316	2.50685	1.70992	2.62948	1.83429	2.82086				
0.576161	2.67541	1.63946	2.50701	0.573946	2.67585	1.69407	2.5889	1.74603	2.67613	2.02495	3.10284			1.63746	2.50696	1.71587	2.6293	1.83723	2.81539				
0.570244	2.67661	1.64534	2.50715	0.568031	2.67708	1.69907	2.58741	1.7518	2.67552	2.02667	3.09453			1.64333	2.5071	1.72181	2.62911	1.8402	2.81001				
0.564335	2.67788	1.65124	2.50732	0.562127	2.67838	1.70415	2.58607	1.7576	2.67494	2.02841	3.08632			1.64922	2.50726	1.72775	2.62891	1.84321	2.80472				
0.558437	2.67923	1.65715	2.50751	0.556233	2.67976	1.70932	2.58486	1.76341	2.67439	2.03018	3.07821			1.65513	2.50744	1.73368	2.6287	1.84625	2.79952				
0.552551	2.68066	1.66307	2.50772	0.550351	2.68122	1.71458	2.58381	1.76923	2.67387	2.03199	3.0702			1.66105	2.50764	1.7396	2.62848	1.84933	2.79441				
0.546677	2.68219	1.66901	2.50795	0.544483	2.68279	1.71994	2.5829	1.77507	2.67337	2.03381	3.06229			1.66698	2.50786	1.74551	2.62825	1.85244	2.78939				
0.540818	2.68383	1.67496	2.50819	0.538629	2.68447	1.7254	2.58214	1.78093	2.67291	2.03567	3.05447			1.67293	2.50811	1.75141	2.62801	1.85559	2.78446				
0.534974	2.68558	1.68093	2.50846	0.532792	2.68627	1.73094	2.58152	1.7868	2.67246	2.03756	3.04675			1.67889	2.50836	1.75731	2.62776	1.85878	2.77961				
0.529148	2.68746	1.6869	2.50874	0.526973	2.6882	1.73656	2.58103	1.79268	2.67203	2.03947	3.03913			1.68486	2.50864	1.76319	2.62749	1.862	2.77486				
0.523342	2.68949	1.69289	2.50903	0.521175	2.69029	1.74226	2.58065	1.79857	2.67162	2.04141	3.0316			1.69084	2.50893	1.76907	2.62721	1.86526	2.77019				
0.517558	2.69168	1.69889	2.50934	0.515399	2.69255	1.74803	2.58037	1.80447	2.67123	2.04338	3.02416			1.69684	2.50923	1.77493	2.62692	1.86856	2.76562				
0.511798	2.69406	1.7049	2.50967	0.50965	2.695	1.75386	2.58019	1.81038	2.67086	2.04538	3.01681			1.70284	2.50955	1.78078	2.62661	1.8719	2.76113				
0.506066	2.69664	1.71092	2.51	0.503929	2.69766	1.75973	2.58007	1.8163	2.6705	2.0474	3.00956			1.70886	2.50989	1.78662	2.62628	1.87528	2.75673				
0.500365	2.69945	1.71695	2.51035	0.498241	2.70057	1.76565	2.58003	1.82222	2.67015	2.04946	3.00239			1.71489	2.51023	1.79244	2.62593	1.87869	2.75242				
0.4947	2.70253	1.72299	2.51071	0.492589	2.70375	1.77161	2.58004	1.82816	2.66982	2.05154	2.99532			1.72092	2.51059	1.79824	2.62556	1.88215	2.74819				
0.489074	2.7059	1.72904	2.51108	0.486979	2.70725	1.7776	2.58009	1.8341	2.6695	2.05365	2.98833			1.72697	2.51095	1.80403	2.62517	1.88566	2.74406				
0.483492	2.70961	1.73509	2.51146	0.481416	2.7111	1.78362	2.58019	1.84004	2.66919	2.05578	2.98143			1.73302	2.51133	1.80981	2.62475	1.8892	2.74002				
0.477961	2.71371	1.74116	2.51185	0.475906	2.71535	1.78967	2.58031	1.84599	2.66889	2.05795	2.97461			1.73909	2.51172	1.81556	2.62432	1.89279	2.73607				
0.472488	2.71824	1.74723	2.51225	0.470455	2.72006	1.79573	2.58047	1.85195	2.66859	2.06014	2.96788			1.74516	2.51211	1.82129	2.62385	1.89643	2.73221				
0.467079	2.72327	1.75331	2.51265	0.465073	2.7253	1.80181	2.58065	1.85791	2.66831	2.06236	2.96123			1.75123	2.51251	1.82701	2.62336	1.90011	2.72845				
0.461744	2.72888	1.7594	2.51307	0.459768	2.73114	1.8079	2.58085	1.86387	2.66803	2.0646	2.95467			1.75732	2.51293	1.83269	2.62284	1.90384	2.72478				
0.456492	2.73514	1.76549	2.51349	0.45455	2.73767	1.81401	2.58106	1.86984	2.66776	2.06688	2.94819			1.76341	2.51334	1.83836	2.62229	1.90762	2.7212				
0.451334	2.74214	1.77159	2.51392	0.44943	2.74498	1.82012	2.58129	1.87581	2.6675	2.06918	2.94179			1.76951	2.51377	1.844	2.6217	1.91145	2.71772				
0.446282	2.75	1.7777	2.51435	0.444421	2.75318	1.82625	2.58154	1.88178	2.66724	2.07151	2.93548			1.77561	2.5142	1.84961	2.62108	1.91533	2.71434				
0.441348	2.75883	1.78382	2.51479	0.439535	2.7624	1.83239	2.58179	1.88776	2.66699	2.07387	2.92924			1.78173	2.51464	1.85519	2.62042	1.91927	2.71105				
0.436547	2.76875	1.78993	2.51523	0.434786	2.77277	1.83853	2.58205	1.89374	2.66674	2.07626	2.92309			1.78784	2.51508	1.86074	2.61972	1.92327	2.70787				
0.431891	2.7799	1.79606	2.51568	0.430189	2.78442	1.84468	2.58231	1.89972	2.6665	2.07867	2.91701			1.79397	2.51553	1.86625	2.61897	1.92732	2.70478				
0.427396	2.79244	1.80219	2.51614	0.425757	2.79752	1.85083	2.58258	1.9057	2.66626	2.08111	2.91101			1.80009	2.51598	1.87173	2.61819	1.93143	2.7018				
0.423074	2.80651	1.80832	2.5166	0.421504	2.8122	1.85699	2.58286	1.91168	2.66603	2.08358	2.90509			1.80623	2.51644	1.87718	2.61736	1.93559	2.69892				
0.418938	2.82227	1.81447	2.51706	0.41744	2.82864	1.86315	2.58314	1.91767	2.6658	2.08608	2.89924			1.81237	2.5169	1.88258	2.61648	1.93983	2.69615				
0.414999	2.83988	1.82061	2.51753	0.413577	2.84698	1.86932	2.58342	1.92365	2.66557	2.0886	2.89347			1.81851	2.51737	1.88795	2.61555	1.94412	2.69348				
0.411265	2.85948	1.82676	2.518	0.409923	2.86736	1.87548	2.58371	1.92964	2.66534	2.09116	2.88778			1.82466	2.51784	1.89328	2.61457	1.94848	2.69092				
0.407744	2.88123	1.83291	2.51847	0.406482	2.88994	1.88165	2.584	1.93563	2.66512	2.09374	2.88216			1.83081	2.51831	1.89856	2.61354	1.95291	2.68846				
0.40444	2.90525	1.83907	2.51894	0.403259	2.91485	1.88783	2.58428	1.94161	2.6649	2.09635	2.87661			1.83697	2.51878	1.9038	2.61245	1.9574	2.68611				
0.401354	2.93167	1.84523	2.51942	0.400255	2.9422	1.894	2.58457	1.9476	2.66467	2.09899	2.87114			1.84313	2.51926	1.909	2.61132	1.96195	2.68387				
0.398487	2.96062	1.8514	2.5199	0.397469	2.97213	1.90017	2.58486	1.95359	2.66445	2.10165	2.86574			1.84929	2.51974	1.91415	2.61013	1.96658	2.68173				
0.395836	2.99223	1.85757	2.52038	0.394899	3.00476	1.90635	2.58514	1.95958	2.66423	2.10434	2.86041			1.85546	2.52022	1.91926	2.60888	1.97127	2.6797				
0.3934	3.0266	1.86374	2.52087	0.392543	3.0402	1.91253	2.58543	1.96556	2.66401	2.10707	2.85516			1.86163	2.5207	1.92432	2.60759	1.97603	2.67777				
0.391174	3.06387	1.86992	2.52135	0.390395	3.07859	1.9187	2.58572	1.97155	2.6638	2.10982	2.84998			1.86781	2.52119	1.92934	2.60624	1.98086	2.67594				
0.389155	3.10416	1.8761	2.52184	0.388452	3.12004	1.92488	2.586	1.97753	2.66358	2.11259	2.84486			1.87399	2.52167	1.93432	2.60485	1.98575	2.67421				
0.387338	3.14759	1.88228	2.52233	0.386709	3.16469	1.93106	2.58628	1.98351	2.66335	2.1154	2.83982			1.88017	2.52216	1.93926	2.60341	1.9907	2.67257				
0.385719	3.19433	1.88847	2.52281	0.385163	3.2127	1.93724	2.58656	1.98949	2.66313	2.11824	2.83485			1.88635	2.52265	1.94416	2.60192	1.99571	2.67103				
0.384293	3.24452	1.89465	2.5233	0.383809	3.26423	1.94341	2.58684	1.99547	2.66291	2.1211	2.82994			1.89254	2.52314	1.94902	2.6004	2.00079	2.66958				
0.383057	3.29834	1.90085	2.52379	0.382642	3.31945	1.94959	2.58712	2.00144	2.66268	2.124	2.82511			1.89873	2.52363	1.95384	2.59883	2.00592	2.66822				
0.382006	3.35596	1.90704	2.52428	0.381659	3.37855	1.95577	2.58739	2.00742	2.66246	2.12692	2.82034			1.90492	2.52412	1.95863	2.59723	2.01111	2.66693				
0.381136	3.4176	1.91324	2.52477	0.380856	3.44174	1.96194	2.58766	2.01338	2.66223	2.12988	2.81564			1.91112	2.52461	1.96339	2.5956	2.01635	2.66572				
0.380444	3.48347	1.91944	2.52527	0.38023	3.50925	1.96812	2.58793	2.01935	2.66199	2.13286	2.81101			1.91732	2.5251	1.96812	2.59394	2.02164	2.66459				
0.379926	3.55381	1.92564	2.52576	0.379776	3.58133	1.97429	2.58819	2.02531	2.66176	2.13587	2.80645			1.92352	2.52559	1.97282	2.59226	2.02698	2.66353				
0.379578	3.62888	1.93184	2.52625	0.379491	3.65825	1.98046	2.58845	2.03127	2.66152	2.13892	2.80196			1.92972	2.52608	1.9775	2.59056	2.03236	2.66253				
0.379398	3.70897	1.93804	2.52674	0.379372	3.7403	1.98663	2.58871	2.03722	2.66127	2.14199	2.79753			1.93592	2.52657	1.98216	2.58884	2.03779	2.66159				
0.379381	3.7944	1.94425	2.52723	0.379416	3.8278	1.9928	2.58896	2.04317	2.66102	2.1451	2.79317			1.94213	2.52706	1.98681	2.5871	2.04326	2.66071				
0.379524	3.8855	1.95046	2.52772	0.379618	3.92112	1.99896	2.58921	2.04912	2.66076	2.14824	2.78888			1.94834	2.52755	1.99143	2.58536	2.04876	2.65988				
0.379823	3.98264	1.95667	2.52821	0.379975	4.02064	2.00513	2.58946	2.05505	2.6605	2.15141	2.78465			1.95455	2.52804	1.99604	2.5836	2.05429	2.65911				
0.380276	4.08625	1.96288	2.52869	0.380484	4.12677	2.01129	2.5897	2.06098	2.66023	2.15461	2.78049			1.96076	2.52853	2.00064	2.58185	2.05986	2.65838				
0.380877	4.19677	1.9691	2.52918	0.38114	4.24	2.01745	2.58993	2.06691	2.65996	2.15785	2.7764			1.96697	2.52901	2.00523	2.58009	2.06546	2.65769				
0.381623	4.31469	1.97531	2.52967	0.381939	4.36083	2.02361	2.59016	2.07282	2.65967	2.16112	2.77238			1.97319	2.5295	2.00982	2.57833	2.07109	2.65704				
0.38251	4.44056	1.98153	2.53015	0.382877	4.48983	2.02976	2.59039	2.07873	2.65938	2.16443	2.76843			1.9794	2.52999	2.0144	2.57658	2.07674	2.65643				
0.383534	4.57499	1.98775	2.53063	0.383951	4.62763	2.03591	2.59061	2.08463	2.65907	2.16777	2.76454			1.98562	2.53047	2.01897	2.57483	2.08242	2.65585				
0.384689	4.71864	1.99397	2.53112	0.385154	4.77492	2.04206	2.59083	2.09051	2.65876	2.17114	2.76072			1.99184	2.53095	2.02354	2.57309	2.08812	2.6553				
0.385971	4.87226	2.00019	2.5316	0.386482	4.93249	2.0482	2.59104	2.09639	2.65843	2.17456	2.75697			1.99806	2.53143	2.02812	2.57136	2.09384	2.65479				
0.387374	5.03669	2.00641	2.53208	0.38793	5.10119	2.05434	2.59124	2.10226	2.65809	2.17801	2.7533			2.00428	2.53191	2.03269	2.56964	2.09958	2.6543				
0.388895	5.21285	2.01263	2.53255	0.389493	5.282	2.06048	2.59144	2.10811	2.65774	2.1815	2.74969			2.0105	2.53239	2.03727	2.56794	2.10533	2.65383				
0.390526	5.40178	2.01885	2.53303	0.391164	5.47601	2.06661	2.59163	2.11395	2.65737	2.18503	2.74615			2.01672	2.53286	2.04185	2.56625	2.1111	2.65339				
0.392033	5.57777	2.02507	2.5335	0.392938	5.68446	2.07274	2.59182	2.11977	2.65699	2.1886	2.74269			2.02294	2.53334	2.04643	2.56457	2.11689	2.65297				
0.393378	5.7368	2.03129	2.53396	0.394808	5.90875	2.07886	2.59199	2.12558	2.65658	2.19222	2.7393			2.02916	2.5338	2.05102	2.56292	2.12269	2.65257				
0.394529	5.87503	2.03751	2.53443	0.396767	6.15047	2.08498	2.59216	2.13137	2.65616	2.19588	2.73599			2.03539	2.53427	2.05563	2.56128	2.12851	2.65219				
0.395464	5.9889	2.04373	2.53489	0.398809	6.41144	2.09109	2.59233	2.13714	2.65572	2.19959	2.73275			2.04161	2.53473	2.06023	2.55966	2.13433	2.65182				
0.396165	6.07533	2.04995	2.53535	0.400925	6.69377	2.0972	2.59248	2.14289	2.65525	2.20334	2.72959			2.04782	2.53519	2.06485	2.55807	2.14017	2.65147				
0.396819	6.15694	2.05616	2.5358	0.403109	6.99989	2.1033	2.59263	2.14862	2.65476					2.05404	2.53564	2.06948	2.5565	2.14601	2.65114				
0.397279	6.21494	2.06238	2.53624	0.405351	7.33262	2.10939	2.59276	2.15433	2.65424					2.06025	2.53609	2.07413	2.55495	2.15187	2.65082				
0.398006	6.30763	2.06858	2.53667	0.407642	7.69528	2.11548	2.59289	2.16001	2.65369					2.06646	2.53653	2.07879	2.55344	2.15773	2.65051				
0.399011	6.43791	2.07478	2.5371	0.409673	8.03873	2.12155	2.593	2.16566	2.65312					2.07266	2.53695	2.08347	2.55195	2.1636	2.65021				
0.400307	6.60998	2.08097	2.5375	0.411423	8.35406	2.12762	2.59311	2.17128	2.65251					2.07885	2.53736	2.08816	2.55049	2.16948	2.64992				
0.401909	6.82974	2.08713	2.53788	0.412881	8.6321	2.13368	2.5932	2.17688	2.65186					2.08503	2.53776	2.09289	2.54908	2.17537	2.64964				
0.403833	7.10521	2.09327	2.53823	0.414039	8.864	2.13973	2.59328	2.18243	2.65118					2.09118	2.53811	2.09765	2.54772	2.18126	2.64937				
0.406092	7.4473	2.09936	2.53851	0.414892	9.04178	2.14577	2.59334	2.18796	2.65046					2.09729	2.53842	2.10245	2.54642	2.18715	2.6491				
0.408398	7.82051	2.10537	2.53869	0.415678	9.2111	2.15179	2.5934	2.19345	2.64971					2.10333	2.53864	2.10734	2.54522	2.19305	2.64885				
0.410742	8.22898	2.11122	2.53868	0.416225	9.33229	2.15781	2.59343	2.1989	2.6489					2.10924	2.53871	2.11234	2.54418	2.19896	2.6486				
0.413112	8.67763	2.11684	2.53839	0.41708	9.5275	2.16381	2.59345	2.20431	2.64806					2.11495	2.53853	2.11755	2.54338	2.20487	2.64835				
0.4155	9.17235	2.12218	2.53778	0.418243	9.80508	2.16979	2.59345							2.12039	2.53802	2.12303	2.54291						
0.417894	9.72032	2.12731	2.53691	0.41971	10.1777	2.17576	2.59344							2.12558	2.53723	2.12878	2.54278						
0.420283	10.3303	2.13231	2.5359	0.421478	10.6638	2.18172	2.5934							2.13062	2.53626	2.13473	2.54287						
0.422653	11.0132	2.13725	2.53481	0.423533	11.2901	2.18765	2.59334							2.13557	2.53519	2.14079	2.5431						
0.424994	11.7826	2.14215	2.53369	0.425859	12.0962	2.19356	2.59325							2.14048	2.53408	2.14692	2.54341						
0.42729	12.6559	2.14704	2.53257	0.428136	13.0138	2.19945	2.59314							2.14537	2.53295	2.15308	2.54375						
0.42953	13.6554	2.15193	2.53144	0.430351	14.0677	2.20531	2.593							2.15026	2.53182	2.15926	2.54413						
0.431698	14.8108	2.15682	2.53032	0.432488	15.2909									2.15515	2.5307	2.16547	2.54452						
0.43378	16.1617	2.16172	2.52922	0.434535	16.728									2.16004	2.5296	2.17168	2.54492						
0.435762	17.7625	2.16662	2.52814	0.436475	18.4406									2.16494	2.52851	2.1779	2.54532						
0.437628	19.6906	2.17154	2.52707	0.438294	20.5177									2.16986	2.52743	2.18412	2.54573						
0.439364	22.0588	2.17647	2.52602	0.439977	23.0906									2.17478	2.52638	2.19035	2.54615						
0.440954	25.0393	2.18141	2.525	0.441509	26.3635									2.17972	2.52535	2.19659	2.54656						
0.442386	28.9083	2.18636	2.52399	0.442878	30.6711									2.18467	2.52433	2.20282	2.54698						
0.443646	34.1379	2.19133	2.52301	0.44407	36.6027									2.18963	2.52334								
0.444721	41.6082	2.19632	2.52205	0.445074	45.3011									2.19461	2.52237								
0.445601	53.1687	2.20131	2.5211	0.445878	59.3129									2.1996	2.52142								
0.446277	73.4794			0.446476	85.696									2.20461	2.5205								
0.446741	118.622			0.44686	153.952																		
0.44699	306.428			0.447026	751.046																		
