Sym0		Asym0		Sym1		Sym2		Sym3		Sym4		Sym5		Asym1		Asym2		Asym3		Asym4		Asym5	
395  Points		394  Points		394  Points		388  Points		371  Points		361  Points		159  Points		395  Points		381  Points		376  Points		360  Points		172  Points	
Freq (MHz)	Vph (m/ms)	Freq (MHz)	Vph (m/ms)	Freq (MHz)	Vph (m/ms)	Freq (MHz)	Vph (m/ms)	Freq (MHz)	Vph (m/ms)	Freq (MHz)	Vph (m/ms)	Freq (MHz)	Vph (m/ms)	Freq (MHz)	Vph (m/ms)	Freq (MHz)	Vph (m/ms)	Freq (MHz)	Vph (m/ms)	Freq (MHz)	Vph (m/ms)	Freq (MHz)	Vph (m/ms)
2.20474	2.45821	0.346273	173.923	2.20123	2.45871	0.692249	606.012	1.1123	3891.75	1.38451	644.949	1.85383	3469.03	0.346137	426.191	0.741506	449.715	1.03838	586.45	1.48302	698.896	1.73055	3965.68
2.19972	2.45893	0.34687	80.6984	2.19621	2.45945	0.692491	200.74	1.11224	428.904	1.38476	310.896	1.85373	652.312	0.34651	111.077	0.741378	187.395	1.03862	254.688	1.48286	334.781	1.73067	630.762
2.19471	2.45968	0.347899	52.6662	2.19122	2.46021	0.692975	120.369	1.11207	226.925	1.38518	204.863	1.85351	359.962	0.34732	63.999	0.741146	118.325	1.03905	162.723	1.48259	220.075	1.73096	342.685
2.18972	2.46045	0.349352	39.1952	2.18624	2.461	0.693698	86.0189	1.1118	154.246	1.38577	152.805	1.85316	248.526	0.348558	45.0662	0.740813	86.4322	1.03967	119.601	1.48221	163.886	1.73142	235.293
2.18475	2.46124	0.351218	31.3014	2.18128	2.46181	0.694656	66.9749	1.11144	116.804	1.38652	121.878	1.85268	189.746	0.350214	34.8758	0.740382	68.0597	1.04047	94.5861	1.48172	130.531	1.73205	179.191
2.17979	2.46206	0.353481	26.1297	2.17634	2.46265	0.695843	54.8804	1.11098	93.9695	1.38744	101.394	1.85208	153.427	0.352276	28.5264	0.739859	56.1102	1.04144	78.2593	1.48114	108.438	1.73285	144.725
2.17486	2.46291	0.356124	22.4892	2.17142	2.46352	0.697253	46.5249	1.11043	78.586	1.38851	86.8306	1.85137	128.757	0.354727	24.2027	0.739249	47.7144	1.04259	66.7688	1.48046	92.7239	1.7338	121.408
2.16995	2.46378	0.359127	19.7946	2.16652	2.46441	0.698876	40.4113	1.1098	67.5163	1.38974	75.9485	1.85054	110.903	0.357549	21.077	0.73856	41.4907	1.04391	58.2462	1.47969	80.9736	1.73491	104.587
2.16505	2.46468	0.36247	17.7246	2.16164	2.46532	0.700705	35.7476	1.1091	59.1676	1.39111	67.5106	1.84962	97.3812	0.360722	18.718	0.7378	36.6919	1.04539	51.6757	1.47884	71.854	1.73617	91.8825
2.16017	2.4656	0.366131	16.0884	2.15677	2.46627	0.70273	32.0751	1.10832	52.6457	1.39263	60.7782	1.84859	86.7846	0.364223	16.8788	0.736978	32.8782	1.04702	46.4575	1.47791	64.5698	1.73757	81.9496
2.15532	2.46656	0.370086	14.7651	2.15193	2.46724	0.704938	29.1101	1.10748	47.4095	1.39427	55.2829	1.84748	78.2555	0.36803	15.4077	0.736104	29.7743	1.0488	42.2143	1.47691	58.617	1.73911	73.9722
2.15048	2.46753	0.374311	13.6748	2.1471	2.46823	0.70732	26.6675	1.10658	43.1127	1.39604	50.7134	1.8463	71.2422	0.37212	14.2066	0.735188	27.1988	1.05071	38.6974	1.47585	53.6609	1.74078	67.4258
2.14566	2.46854	0.378782	12.7623	2.1423	2.46926	0.709863	24.6215	1.10564	39.523	1.39793	46.8545	1.84504	65.3731	0.376469	13.209	0.734243	25.0274	1.05275	35.7357	1.47474	49.4703	1.74257	61.9578
2.14085	2.46957	0.383476	11.9885	2.13751	2.47031	0.712554	22.8834	1.10466	36.4792	1.39992	43.5531	1.84371	60.3892	0.381052	12.3685	0.733279	23.1721	1.05491	33.208	1.47359	45.8804	1.74448	57.3227
2.13607	2.47063	0.388368	11.3245	2.13273	2.47138	0.715382	21.3893	1.10366	33.8656	1.40202	40.6968	1.84234	56.104	0.385845	11.6514	0.732311	21.5688	1.05718	31.0258	1.47241	42.7709	1.74649	53.3442
2.1313	2.47171	0.393433	10.749	2.12798	2.47248	0.718331	20.0914	1.10264	31.5972	1.4042	38.2016	1.84092	52.3803	0.390825	11.0331	0.731351	20.1698	1.05954	29.1231	1.4712	40.0513	1.74859	49.8924
2.12655	2.47282	0.398649	10.2456	2.12324	2.47361	0.72139	18.9537	1.10161	29.6099	1.40647	36.0033	1.83947	49.1145	0.395967	10.4946	0.730414	18.9388	1.062	27.4497	1.46998	37.6529	1.75079	46.8693
2.12182	2.47395	0.403991	9.80164	2.11852	2.47476	0.724544	17.9485	1.10059	27.855	1.40881	34.052	1.83799	46.2271	0.401248	10.0217	0.729515	17.8477	1.06453	25.9666	1.46875	35.522	1.75307	44.2
2.1171	2.47511	0.409436	9.40713	2.11381	2.47593	0.72778	17.0538	1.09959	26.294	1.41122	32.3083	1.8365	43.6561	0.406643	9.60303	0.72867	16.8744	1.06714	24.6431	1.46753	33.6165	1.75542	41.826
2.1124	2.47629	0.414961	9.05407	2.10911	2.47713	0.731084	16.2525	1.09861	24.897	1.41368	30.7408	1.83501	41.3524	0.41213	9.22969	0.727894	16.0014	1.0698	23.4548	1.46633	31.9027	1.75783	39.7008
2.1077	2.47749	0.420543	8.73603	2.10442	2.47833	0.734442	15.5305	1.09767	23.6396	1.41619	29.324	1.83351	39.2764	0.417686	8.89448	0.727205	15.2145	1.07251	22.3819	1.46514	30.3532	1.7603	37.7873
2.10301	2.4787	0.426157	8.44775	2.09973	2.47954	0.73784	14.8765	1.09679	22.5023	1.41874	28.0372	1.83203	37.3963	0.423286	8.5916	0.726619	14.5022	1.07525	21.4083	1.464	28.9457	1.76281	36.0554
2.09831	2.4799	0.431782	8.18488	2.09502	2.48074	0.741265	14.2812	1.09596	21.469	1.42132	26.8633	1.83057	35.6857	0.428186	8.35025	0.726155	13.8549	1.07803	20.5208	1.46289	27.6619	1.76536	34.4804
2.09359	2.48109	0.437395	7.94381	2.09024	2.48187	0.744703	13.7368	1.09521	20.5265	1.42392	25.7878	1.82914	34.1229	0.432364	8.159	0.725831	13.2647	1.08082	19.7083	1.46184	26.4865	1.76795	33.0418
2.08879	2.48218	0.442971	7.72151	2.08532	2.48283	0.748139	13.2368	1.09454	19.6636	1.42653	24.7988	1.82775	32.6898	0.435813	8.00984	0.725666	12.7251	1.08361	18.9615	1.46085	25.4064	1.77056	31.7225
2.08379	2.48305	0.448489	7.51542	2.08008	2.48341	0.751561	12.7757	1.09397	18.8711	1.42915	23.8862	1.82641	31.3711	0.438533	7.89716	0.72568	12.2305	1.08641	18.2726	1.45994	24.4109	1.77318	30.5083
2.07842	2.48348	0.453925	7.32335	2.07442	2.48349	0.754956	12.3491	1.09351	18.1411	1.43176	23.0412	1.82512	30.1539	0.440526	7.81706	0.725893	11.7761	1.08919	17.635	1.4591	23.4906	1.77581	29.3869
2.07266	2.48344	0.459257	7.14346	2.06847	2.48323	0.75831	11.9528	1.09317	17.4668	1.43436	22.2566	1.82389	29.0271	0.441799	7.76696	0.726324	11.358	1.09195	17.043	1.45835	22.6376	1.77844	28.348
2.06665	2.48311	0.464464	6.97413	2.06238	2.48279	0.76161	11.5835	1.09296	16.8425	1.43694	21.526	1.82273	27.9811	0.443624	7.69646	0.726993	10.9725	1.09468	16.4917	1.4577	21.8451	1.78107	27.3827
2.06053	2.48264	0.469522	6.81401	2.05622	2.48228	0.764844	11.2383	1.09289	16.2631	1.43949	20.8437	1.82165	27.0079	0.4456	7.62177	0.72792	10.6168	1.09737	15.9768	1.45716	21.1071	1.78368	26.4834
2.05436	2.48211	0.474413	6.6619	2.05004	2.48172	0.768001	10.9147	1.09297	15.7244	1.44201	20.2051	1.82066	26.1003	0.448273	7.52327	0.729124	10.2881	1.10001	15.4947	1.45673	20.4185	1.78627	25.6433
2.04817	2.48155	0.479116	6.51679	2.04383	2.48114	0.771067	10.6103	1.09321	15.2226	1.44449	19.606	1.81976	25.2521	0.451625	7.40342	0.730621	9.98415	1.10259	15.0421	1.45643	19.7747	1.78883	24.8567
2.04196	2.48096	0.483615	6.37782	2.03762	2.48055	0.774033	10.3233	1.09363	14.7544	1.44692	19.0426	1.81895	24.4578	0.455632	7.26497	0.732429	9.70291	1.1051	14.6164	1.45625	19.1716	1.79136	24.1185
2.03575	2.48037	0.487893	6.24423	2.0314	2.47995	0.776889	10.0521	1.09423	14.3168	1.4493	18.5117	1.81826	23.7128	0.460252	7.11067	0.734561	9.44253	1.10755	14.2149	1.45621	18.6059	1.79385	23.4243
2.02953	2.47976	0.491937	6.1154	2.02518	2.47934	0.779624	9.79504	1.09502	13.9072	1.45161	18.0105	1.81767	23.0126	0.465432	6.94318	0.737031	9.20136	1.10991	13.8355	1.45631	18.0743	1.79629	22.7702
2.02331	2.47915	0.495738	5.99081	2.01897	2.47873	0.78223	9.5509	1.096	13.5234	1.45386	17.5363	1.8172	22.3536	0.470461	6.78466	0.739848	8.9779	1.11219	13.4763	1.45656	17.5741	1.79868	22.1526
2.0171	2.47854	0.499287	5.87002	2.01275	2.47811	0.784699	9.31852	1.09719	13.1633	1.45604	17.0871	1.81685	21.7325	0.475317	6.63395	0.743019	8.7708	1.11438	13.1355	1.45696	17.1028	1.80102	21.5684
2.01088	2.47793	0.50258	5.75268	2.00653	2.4775	0.787025	9.09687	1.09858	12.825	1.45814	16.6606	1.81663	21.1462	0.479983	6.49006	0.746546	8.57878	1.11647	12.8117	1.45752	16.6582	1.8033	21.015
2.00466	2.47731	0.505616	5.63851	2.00032	2.47688	0.789201	8.88507	1.10019	12.5069	1.46017	16.2552	1.81654	20.5921	0.484441	6.35216	0.749913	8.42285	1.11845	12.5035	1.45824	16.2382	1.80551	20.4898
1.99845	2.47669	0.508397	5.52729	1.9941	2.47626	0.791224	8.6823	1.10202	12.2075	1.46211	15.8692	1.81658	20.0677	0.488676	6.21952	0.752996	8.29773	1.12034	12.2096	1.45913	15.8411	1.80766	19.9907
1.99224	2.47608	0.510927	5.41886	1.98789	2.47564	0.792859	8.51242	1.10406	11.9253	1.46397	15.5011	1.81676	19.5708	0.492675	6.09153	0.755693	8.19937	1.12212	11.929	1.46018	15.4651	1.80973	19.5156
1.98603	2.47546	0.513214	5.3131	1.98169	2.47503	0.794157	8.37228	1.10633	11.6592	1.46573	15.1497	1.81708	19.0995	0.496429	5.96768	0.757918	8.12472	1.12378	11.6607	1.4614	15.1088	1.81173	19.0629
1.97982	2.47484	0.515269	5.20992	1.97549	2.47441	0.795164	8.25948	1.10881	11.408	1.46741	14.8138	1.81754	18.652	0.49993	5.84757	0.759606	8.07151	1.12534	11.4038	1.46279	14.7707	1.81365	18.6307
1.97362	2.47423	0.517104	5.10927	1.96929	2.4738	0.795917	8.17217	1.11151	11.1706	1.469	14.4923	1.81815	18.2266	0.503174	5.73085	0.760709	8.03819	1.12679	11.1576	1.46434	14.4498	1.81549	18.2178
1.96742	2.47361	0.518731	5.0111	1.96309	2.47319	0.796447	8.109	1.11443	10.946	1.4705	14.1842	1.8189	17.8219	0.506161	5.61725	0.762326	7.99125	1.12813	10.9213	1.46607	14.1448	1.81725	17.8228
1.96123	2.473	0.520167	4.91541	1.9569	2.47258	0.796775	8.06901	1.11756	10.7335	1.47191	13.8887	1.81979	17.4364	0.508894	5.50657	0.764124	7.9415	1.12936	10.6943	1.46796	13.8546	1.81892	17.4445
1.95504	2.47239	0.521426	4.82217	1.95072	2.47197	0.797233	8.01213	1.12089	10.5321	1.47324	13.6049	1.82083	17.069	0.511378	5.39866	0.766637	7.87588	1.13049	10.4761	1.47001	13.5782	1.82052	17.0818
1.94886	2.47178	0.522526	4.73137	1.94454	2.47136	0.79771	7.95108	1.12442	10.341	1.47447	13.3323	1.82201	16.7184	0.51362	5.29339	0.769925	7.79613	1.13151	10.2661	1.47222	13.3149	1.82204	16.7337
1.94268	2.47118	0.523481	4.64301	1.93836	2.47076	0.798328	7.86932	1.12814	10.1597	1.47562	13.07	1.82333	16.3837	0.515633	5.19069	0.774059	7.70428	1.13244	10.0639	1.47459	13.0637	1.82347	16.3994
1.93651	2.47058	0.524307	4.55708	1.93219	2.47016	0.799055	7.76796	1.13204	9.98728	1.4767	12.8176	1.82479	16.0637	0.517427	5.09051	0.779122	7.60252	1.13328	9.86897	1.47711	12.8238	1.82483	16.0779
1.93034	2.46998	0.525022	4.47357	1.92603	2.46956	0.799855	7.64829	1.13612	9.82329	1.4777	12.5744	1.82638	15.7577	0.519017	4.99282	0.785202	7.49314	1.13404	9.68103	1.47977	12.5947	1.82611	15.7686
1.92417	2.46938	0.525639	4.39247	1.91987	2.46897	0.800686	7.51181	1.14036	9.66709	1.47863	12.34	1.82811	15.4647	0.520418	4.89759	0.791554	7.39102	1.13472	9.49973	1.48257	12.3754	1.82731	15.4708
1.91801	2.46879	0.526173	4.31376	1.91371	2.46838	0.801498	7.3601	1.14475	9.51817	1.47949	12.1139	1.82996	15.184	0.521646	4.80481	0.798161	7.29552	1.13534	9.32475	1.4855	12.1656	1.82845	15.1838
1.91186	2.4682	0.526639	4.23742	1.90756	2.46779	0.802165	7.21339	1.14929	9.37602	1.4803	11.8958	1.83193	14.9148	0.522717	4.71447	0.805002	7.20607	1.13589	9.15581	1.48855	11.9645	1.82952	14.9071
1.90572	2.46761	0.527047	4.16341	1.90142	2.46721	0.802692	7.0714	1.15396	9.24016	1.48106	11.6852	1.83402	14.6565	0.523646	4.62657	0.812059	7.12214	1.1364	8.99268	1.49172	11.7717	1.83053	14.64
1.89958	2.46703	0.527412	4.09171	1.89528	2.46663	0.803084	6.9339	1.15874	9.11016	1.48178	11.4819	1.83622	14.4084	0.524451	4.5411	0.819313	7.04322	1.13688	8.83513	1.495	11.5865	1.83148	14.3822
1.89344	2.46646	0.527703	4.03108	1.88916	2.46606	0.803348	6.8007	1.16364	8.98562	1.48246	11.2854	1.83853	14.1699	0.525146	4.45805	0.826743	6.96887	1.13728	8.70224	1.49837	11.4087	1.83238	14.1333
1.88731	2.46589	0.527937	3.98075	1.88303	2.46549	0.803491	6.6716	1.16862	8.86614	1.48312	11.0955	1.84093	13.9405	0.525746	4.37741	0.834332	6.89866	1.13761	8.5921	1.50183	11.2376	1.83324	13.8926
1.88119	2.46533	0.528123	3.94004	1.87692	2.46493	0.803521	6.54642	1.17369	8.75136	1.48377	10.912	1.84342	13.7197	0.526266	4.29914	0.842059	6.8322	1.13789	8.50316	1.50537	11.0729	1.83407	13.66
1.87508	2.46477	0.528267	3.90844	1.87081	2.46438	0.803444	6.42501	1.17815	8.65491	1.48441	10.7346	1.846	13.5069	0.52672	4.22324	0.849906	6.76914	1.13811	8.43419	1.50898	10.9142	1.83486	13.4351
1.86897	2.46422	0.528373	3.88553	1.86471	2.46383	0.803268	6.30722	1.182	8.57516	1.48506	10.563	1.84865	13.3017	0.527119	4.14967	0.857854	6.70914	1.13828	8.38422	1.51265	10.7611	1.83563	13.2174
1.86288	2.46367	0.52844	3.87101	1.85862	2.46329	0.803	6.19292	1.18519	8.51082	1.48574	10.3972	1.85137	13.1037	0.527477	4.07841	0.865882	6.65189	1.13839	8.35257	1.51636	10.6134	1.8364	13.0068
1.85679	2.46313	0.528537	3.85034	1.85253	2.46276	0.802649	6.08198	1.18773	8.46093	1.48644	10.2368	1.85414	12.9125	0.527804	4.00941	0.873971	6.5971	1.13854	8.30752	1.52012	10.4705	1.83715	12.8029
1.8507	2.4626	0.528642	3.82812	1.84646	2.46224	0.802221	5.97429	1.18959	8.42478	1.4872	10.0818	1.85697	12.7277	0.528111	3.94263	0.882102	6.54449	1.13872	8.25914	1.52389	10.3323	1.83791	12.6055
1.84463	2.46208	0.528786	3.79834	1.84039	2.46172	0.801725	5.86972	1.19079	8.40188	1.48801	9.93198	1.85984	12.5489	0.528407	3.87804	0.890254	6.4938	1.13897	8.19435	1.52769	10.1985	1.83869	12.4144
1.83857	2.46156	0.528972	3.76138	1.83433	2.46121	0.801166	5.76819	1.19251	8.36927	1.4889	9.78717	1.86274	12.3758	0.528702	3.81559	0.898404	6.44478	1.13931	8.11401	1.53148	10.0688	1.83949	12.2293
1.83251	2.46106	0.529203	3.71771	1.82828	2.46071	0.800552	5.66958	1.19439	8.33422	1.48987	9.64726	1.86567	12.2081	0.529003	3.75523	0.906531	6.39718	1.13974	8.01924	1.53528	9.94284	1.84032	12.05
1.82646	2.46056	0.529488	3.6679	1.82224	2.46022	0.79989	5.57381	1.19694	8.28721	1.49095	9.51213	1.86861	12.0454	0.529319	3.69692	0.914609	6.35079	1.14032	7.91136	1.53905	9.82052	1.8412	11.8763
1.82043	2.46008	0.529839	3.61259	1.81621	2.45974	0.799186	5.48078	1.20017	8.22879	1.49215	9.38167	1.87155	11.8876	0.529656	3.6406	0.922615	6.30535	1.14108	7.79188	1.54279	9.70156	1.84214	11.708
1.8144	2.4596	0.53022	3.55919	1.81019	2.45928	0.798447	5.39042	1.20406	8.15962	1.49348	9.25577	1.8745	11.7343	0.530021	3.58623	0.93052	6.26065	1.14197	7.67699	1.54649	9.58575	1.84313	11.5451
1.80838	2.45914	0.530637	3.50766	1.80418	2.45882	0.797678	5.30262	1.20862	8.08039	1.49497	9.13433	1.87743	11.5853	0.530419	3.53376	0.938296	6.21646	1.14301	7.56667	1.55014	9.47289	1.84421	11.3872
1.80238	2.45869	0.531097	3.45796	1.79818	2.45838	0.796886	5.21733	1.21382	7.99185	1.49661	9.01727	1.88034	11.4404	0.530856	3.48313	0.945911	6.17255	1.14425	7.4609	1.55373	9.36279	1.84537	11.2343
1.79638	2.45825	0.531602	3.41002	1.7922	2.45795	0.796075	5.13446	1.21896	7.90564	1.49819	8.91874	1.88323	11.2993	0.531338	3.43429	0.953333	6.12871	1.14571	7.3597	1.55724	9.25528	1.84663	11.0863
1.7904	2.45782	0.532159	3.3638	1.78622	2.45753	0.795252	5.05393	1.22405	7.82155	1.49965	8.83726	1.88607	11.1619	0.531868	3.3872	0.960527	6.0847	1.14743	7.26307	1.56067	9.15019	1.84799	10.9429
1.78443	2.45741	0.53277	3.31925	1.78026	2.45713	0.794421	4.97569	1.22905	7.7394	1.50095	8.77162	1.88887	11.0279	0.532451	3.3418	0.967458	6.04031	1.14944	7.17105	1.56401	9.04736	1.84947	10.804
1.77847	2.45701	0.533439	3.27632	1.77431	2.45674	0.793586	4.89966	1.23395	7.65898	1.50202	8.7208	1.89162	10.8971	0.53309	3.29805	0.97409	5.99535	1.15177	7.08366	1.56684	8.9595	1.85107	10.6695
1.77252	2.45662	0.53417	3.23497	1.76837	2.45637	0.792754	4.82577	1.23874	7.58014	1.50285	8.68404	1.89431	10.7695	0.533789	3.2559	0.980388	5.94962	1.15447	7.00091	1.56918	8.8858	1.85281	10.5394
1.76659	2.45626	0.534966	3.19514	1.76245	2.45601	0.791927	4.75396	1.2434	7.50272	1.50339	8.66078	1.89693	10.6447	0.534551	3.2153	0.986319	5.90295	1.15757	6.92282	1.57107	8.82566	1.85469	10.4134
1.76067	2.45591	0.535828	3.15678	1.75654	2.45567	0.79111	4.68418	1.24791	7.42655	1.50419	8.62771	1.89948	10.5228	0.535379	3.1762	0.991855	5.85523	1.16109	6.84936	1.57253	8.77861	1.85672	10.2915
1.75476	2.45557	0.53676	3.11986	1.75064	2.45535	0.790307	4.61635	1.25226	7.3515	1.50509	8.59225	1.90195	10.4035	0.536275	3.13855	0.996971	5.80634	1.16506	6.78048	1.57359	8.74428	1.85891	10.1735
1.74887	2.45526	0.537764	3.08433	1.74476	2.45505	0.789522	4.55043	1.25644	7.27745	1.50636	8.54482	1.90433	10.2867	0.537242	3.10231	1.00165	5.75624	1.1695	6.71611	1.57425	8.72242	1.86126	10.0593
1.743	2.45496	0.538842	3.05015	1.7389	2.45476	0.788758	4.48637	1.26043	7.20428	1.50804	8.48614	1.90662	10.1722	0.538282	3.06745	1.00589	5.70493	1.17441	6.6561	1.5752	8.69116	1.86378	9.94889
1.73714	2.45468	0.539995	3.01727	1.73305	2.4545	0.788018	4.4241	1.26422	7.13189	1.5102	8.41709	1.90881	10.0601	0.539396	3.0339	1.00968	5.65246	1.17979	6.6003	1.57622	8.6574	1.86647	9.84204
1.7313	2.45443	0.541225	2.98565	1.72722	2.45426	0.787306	4.36357	1.2678	7.0602	1.5129	8.33871	1.91091	9.95015	0.540587	3.00164	1.01303	5.5989	1.18564	6.54849	1.57757	8.61181	1.86934	9.73866
1.72547	2.4542	0.542533	2.95525	1.7214	2.45405	0.786625	4.30475	1.27117	6.98912	1.51624	8.25216	1.9129	9.84229	0.541855	2.97063	1.01596	5.54439	1.19194	6.50045	1.57923	8.55471	1.87238	9.63866
1.71966	2.45399	0.543921	2.92603	1.71561	2.45385	0.785977	4.24757	1.27431	6.91861	1.51984	8.16914	1.9148	9.73643	0.543202	2.94081	1.01849	5.48908	1.19867	6.45591	1.58118	8.48644	1.8756	9.5419
1.71387	2.4538	0.545389	2.89796	1.70983	2.45369	0.785366	4.19199	1.27722	6.84862	1.52369	8.08952	1.91658	9.6325	0.544629	2.91216	1.02065	5.43314	1.2058	6.41461	1.58336	8.40741	1.879	9.44828
1.70809	2.45364	0.546939	2.871	1.70407	2.45354	0.784793	4.13797	1.27989	6.7791	1.5278	8.01319	1.91826	9.53043	0.546137	2.88463	1.02246	5.37673	1.21331	6.37627	1.58572	8.31806	1.88258	9.35769
1.70234	2.45351	0.548572	2.84511	1.69833	2.45343	0.784262	4.08547	1.28234	6.71005	1.53217	7.94001	1.91984	9.43016	0.547728	2.8582	1.02395	5.32004	1.22116	6.34063	1.58794	8.2301	1.88633	9.27
1.6966	2.4534	0.550288	2.82026	1.6926	2.45334	0.783775	4.03443	1.28455	6.64144	1.53679	7.86985	1.92131	9.33163	0.549401	2.83282	1.02516	5.26324	1.22932	6.30744	1.59002	8.14345	1.88973	9.19586
1.69089	2.45332	0.552089	2.79642	1.6869	2.45328	0.783333	3.98483	1.28654	6.57329	1.54166	7.80259	1.92251	9.24716	0.551159	2.80847	1.02612	5.20647	1.23776	6.27645	1.59194	8.05808	1.89273	9.13429
1.68519	2.45327	0.553974	2.77355	1.68122	2.45326	0.78294	3.93662	1.2883	6.5056	1.54677	7.73807	1.92348	9.17614	0.553	2.78511	1.02685	5.14989	1.24646	6.24745	1.59372	7.97395	1.89528	9.08445
1.67952	2.45325	0.555945	2.75163	1.67557	2.45326	0.782596	3.88977	1.28985	6.43838	1.55211	7.67617	1.92424	9.1181	0.554928	2.76271	1.02738	5.09361	1.25538	6.22022	1.59535	7.89102	1.89734	9.04573
1.67387	2.45327	0.558003	2.73063	1.66993	2.4533	0.782305	3.84423	1.29118	6.37167	1.55767	7.61675	1.92481	9.07263	0.556941	2.74125	1.02774	5.03775	1.2645	6.19459	1.59684	7.80927	1.89888	9.01763
1.66824	2.45332	0.560149	2.71053	1.66432	2.45337	0.782067	3.79998	1.29232	6.30547	1.56344	7.55967	1.92522	9.03944	0.559042	2.72069	1.02794	4.98239	1.27379	6.17038	1.5982	7.72868	1.89987	8.99981
1.66264	2.4534	0.562521	2.69195	1.65873	2.45348	0.781885	3.75697	1.29326	6.23983	1.5694	7.50479	1.92547	9.01831	0.561232	2.70101	1.02801	4.92763	1.28324	6.14744	1.59942	7.64925	1.90132	8.97442
1.65706	2.45352	0.564712	2.67292	1.65317	2.45363	0.78176	3.71518	1.29402	6.17476	1.57556	7.45199	1.92583	8.98807	0.563512	2.6822	1.02797	4.87352	1.29283	6.12564	1.60052	7.57097	1.90291	8.94711
1.6515	2.45368	0.567134	2.65538	1.64763	2.45381	0.781694	3.67457	1.29462	6.11031	1.58188	7.40113	1.92621	8.95539	0.565885	2.66424	1.02783	4.82012	1.30252	6.10485	1.60151	7.49383	1.90509	8.91044
1.64597	2.45387	0.569655	2.63868	1.64212	2.45403	0.781688	3.63512	1.29505	6.0465	1.58836	7.35209	1.92671	8.91127	0.568355	2.64711	1.0276	4.76748	1.31232	6.08495	1.60238	7.41783	1.90791	8.86485
1.64047	2.45411	0.572282	2.62281	1.63663	2.4543	0.781745	3.59679	1.29533	5.98336	1.59499	7.30475	1.92731	8.856	0.570926	2.63081	1.02731	4.71563	1.32219	6.06585	1.60316	7.343	1.91138	8.81082
1.63499	2.45438	0.575024	2.6078	1.63117	2.4546	0.781865	3.55955	1.29547	5.92091	1.60175	7.25899	1.928	8.78993	0.573608	2.61536	1.02695	4.6646	1.33214	6.04744	1.60385	7.26934	1.91555	8.74895
1.62954	2.4547	0.577898	2.5937	1.62574	2.45495	0.782049	3.52338	1.29549	5.85919	1.60862	7.21471	1.92875	8.7135	0.576412	2.60079	1.02655	4.61441	1.34212	6.02962	1.60447	7.19686	1.92045	8.67986
1.62411	2.45507	0.58093	2.58058	1.62034	2.45535	0.7823	3.48825	1.29538	5.79821	1.6156	7.17178	1.92956	8.6272	0.579359	2.58715	1.02611	4.56508	1.35215	6.01233	1.60502	7.12559	1.92547	8.61271
1.61872	2.45547	0.584163	2.56862	1.61496	2.45579	0.782619	3.45413	1.29517	5.73799	1.62267	7.13012	1.9303	8.54241	0.582483	2.57457	1.02564	4.51661	1.36219	5.99545	1.60553	7.05556	1.93059	8.54741
1.61335	2.45593	0.587668	2.55807	1.60961	2.45627	0.783006	3.421	1.29486	5.67856	1.62981	7.08961	1.931	8.45912	0.585838	2.56326	1.02514	4.46901	1.37223	5.97892	1.606	6.9868	1.93581	8.48385
1.60801	2.45643	0.591549	2.54936	1.6043	2.45681	0.783464	3.38884	1.29445	5.61992	1.63701	7.05017	1.93166	8.37731	0.589512	2.55355	1.02463	4.42229	1.38225	5.96265	1.60646	6.91935	1.94112	8.42193
1.6027	2.45698	0.595917	2.5429	1.59901	2.4574	0.783993	3.35762	1.29397	5.56208	1.64425	7.0117	1.93228	8.29701	0.593619	2.5459	1.02411	4.37645	1.39224	5.94654	1.60693	6.85324	1.9465	8.36157
1.59743	2.45758	0.600819	2.53882	1.59375	2.45803	0.784595	3.32731	1.2934	5.50507	1.65153	6.97409	1.93289	8.2182	0.59825	2.54062	1.02358	4.33148	1.40217	5.93051	1.60742	6.78855	1.95194	8.30266
1.59218	2.45824	0.606186	2.53676	1.58853	2.45872	0.785272	3.29791	1.29278	5.44888	1.65882	6.93728	1.9335	8.1409	0.603394	2.5376	1.02305	4.28738	1.41202	5.91445	1.60797	6.72533	1.95744	8.24513
1.58696	2.45894	0.611883	2.53611	1.58333	2.45947	0.786024	3.26939	1.29209	5.39352	1.6661	6.90116	1.93411	8.06512	0.608939	2.53631	1.02252	4.24414	1.42176	5.89826	1.6086	6.66365	1.96298	8.18887
1.58177	2.4597	0.617791	2.53635	1.57817	2.46026	0.786853	3.24172	1.29134	5.33899	1.67337	6.86565	1.93474	7.99087	0.614752	2.53614	1.02201	4.20176	1.43137	5.88181	1.60934	6.60362	1.96855	8.13381
1.57662	2.46051	0.623831	2.53711	1.57303	2.46111	0.78776	3.2149	1.29055	5.2853	1.68061	6.83066	1.93541	7.91817	0.620733	2.53667	1.0215	4.16022	1.4408	5.86497	1.61024	6.54533	1.97414	8.07986
1.5715	2.46138	0.629955	2.53819	1.56793	2.46202	0.788748	3.1889	1.28972	5.23245	1.68779	6.79611	1.93613	7.84704	0.626818	2.53761	1.02101	4.11952	1.45002	5.84758	1.61134	6.48892	1.97973	8.02695
1.56641	2.46231	0.636132	2.53947	1.56287	2.46299	0.789817	3.16371	1.28885	5.18043	1.69489	6.76191	1.93692	7.77751	0.632971	2.5388	1.02055	4.07965	1.45899	5.82948	1.61268	6.43453	1.98531	7.97498
1.56135	2.46329	0.642344	2.54087	1.55783	2.46401	0.790969	3.13931	1.28795	5.12924	1.70191	6.72796	1.9378	7.7096	0.639167	2.54015	1.0201	4.04059	1.46764	5.81047	1.61432	6.38233	1.99088	7.92389
1.55632	2.46433	0.648581	2.54234	1.55283	2.46509	0.792206	3.11569	1.28702	5.07888	1.70881	6.69419	1.93878	7.64336	0.645392	2.54158	1.01967	4.00233	1.47591	5.79035	1.61633	6.33249	1.99641	7.87359
1.55133	2.46543	0.654834	2.54384	1.54785	2.46623	0.793531	3.09283	1.28607	5.02933	1.71558	6.6605	1.9399	7.57881	0.651638	2.54307	1.01928	3.96486	1.48376	5.7689	1.61876	6.28522	2.00189	7.82402
1.54636	2.46659	0.661099	2.54536	1.54291	2.46743	0.794944	3.07072	1.28511	4.98061	1.72219	6.6268	1.94116	7.51599	0.657897	2.54458	1.01891	3.92817	1.4911	5.7459	1.6217	6.24071	2.00731	7.77509
1.54143	2.46781	0.667371	2.54688	1.53801	2.4687	0.796449	3.04936	1.28412	4.93269	1.72862	6.59301	1.94259	7.45495	0.664166	2.54611	1.01857	3.89225	1.49788	5.72115	1.62519	6.19912	2.01266	7.72675
1.53654	2.46909	0.673649	2.5484	1.53313	2.47002	0.798048	3.02873	1.28313	4.88558	1.73485	6.55903	1.94423	7.39572	0.670442	2.54763	1.01827	3.85708	1.50404	5.6945	1.62931	6.16059	2.01792	7.67891
1.53167	2.47043	0.67993	2.5499	1.52829	2.4714	0.799744	3.00881	1.28213	4.83925	1.74085	6.5248	1.94608	7.33835	0.676721	2.54914	1.018	3.82265	1.50954	5.66582	1.63408	6.1252	2.02307	7.63151
1.52684	2.47183	0.686213	2.55139	1.52347	2.47285	0.80154	2.98962	1.28113	4.79372	1.7466	6.49021	1.94817	7.28287	0.683003	2.55063	1.01777	3.78895	1.51436	5.63511	1.63953	6.09292	2.02811	7.58449
1.52203	2.47329	0.692496	2.55285	1.51869	2.47435	0.803439	2.97113	1.28012	4.74895	1.75207	6.45521	1.95053	7.22933	0.689286	2.55211	1.01757	3.75596	1.5185	5.60242	1.64565	6.06367	2.03301	7.53779
1.51726	2.47482	0.69878	2.55429	1.51394	2.47592	0.805445	2.95335	1.27912	4.70496	1.75725	6.41973	1.95317	7.17775	0.69557	2.55356	1.01742	3.72367	1.52199	5.56788	1.65242	6.03727	2.03777	7.49134
1.51252	2.4764	0.705063	2.5557	1.50922	2.47755	0.807561	2.93627	1.27812	4.66171	1.76212	6.38371	1.95613	7.12817	0.701853	2.55498	1.0173	3.69207	1.52486	5.5317	1.65979	6.0135	2.04237	7.44509
1.50781	2.47805	0.711344	2.55708	1.50453	2.47924	0.809793	2.91988	1.27713	4.61922	1.76667	6.3471	1.95941	7.08058	0.708135	2.55638	1.01723	3.66115	1.52718	5.49412	1.6677	5.9921	2.0468	7.399
1.50313	2.47976	0.717624	2.55843	1.49987	2.48099	0.812145	2.9042	1.27614	4.57746	1.77087	6.30989	1.96303	7.035	0.714416	2.55774	1.0172	3.63089	1.529	5.45538	1.67611	5.97279	2.05104	7.353
1.49847	2.48153	0.723901	2.55975	1.49524	2.4828	0.814621	2.88922	1.27517	4.53642	1.77472	6.27206	1.967	6.99142	0.720694	2.55908	1.01721	3.60128	1.53038	5.41573	1.68495	5.95531	2.05509	7.30707
1.49385	2.48336	0.730176	2.56105	1.49063	2.48467	0.817228	2.87493	1.27421	4.4961	1.77823	6.23362	1.97132	6.9498	0.726971	2.56039	1.01727	3.57232	1.53139	5.37541	1.69415	5.93941	2.05893	7.26116
1.48925	2.48525	0.736448	2.56231	1.48605	2.4866	0.81997	2.86135	1.27327	4.45649	1.78138	6.19457	1.97601	6.91011	0.733244	2.56167	1.01738	3.54397	1.53207	5.3346	1.70368	5.92488	2.06256	7.21526
1.48468	2.48719	0.742717	2.56354	1.48149	2.48859	0.822853	2.84848	1.27234	4.41757	1.78419	6.15496	1.98105	6.87229	0.739515	2.56292	1.01754	3.51625	1.53248	5.2935	1.71348	5.91152	2.06597	7.16933
1.48013	2.48919	0.748983	2.56474	1.47696	2.49063	0.825882	2.83631	1.27143	4.37933	1.78667	6.11483	1.98644	6.83627	0.745783	2.56413	1.01774	3.48912	1.53266	5.25225	1.72351	5.89916	2.06917	7.12336
1.4756	2.49125	0.755246	2.56591	1.47245	2.49272	0.829062	2.82485	1.27054	4.34176	1.78882	6.07422	1.99217	6.80198	0.752047	2.56532	1.01799	3.46259	1.53264	5.21096	1.73374	5.88767	2.07213	7.07735
1.4711	2.49336	0.761505	2.56705	1.46796	2.49486	0.832398	2.81409	1.26967	4.30485	1.79067	6.03322	1.99823	6.76932	0.758308	2.56648	1.01829	3.43664	1.53245	5.16976	1.74413	5.87692	2.07487	7.0313
1.46661	2.49552	0.76776	2.56816	1.46348	2.49705	0.835893	2.80403	1.26883	4.2686	1.79222	5.99188	2.00459	6.73821	0.764565	2.5676	1.01864	3.41126	1.53211	5.12872	1.75467	5.86681	2.07739	6.98521
1.46214	2.49772	0.774011	2.56924	1.45903	2.49928	0.839549	2.79466	1.26801	4.23298	1.7935	5.95026	2.01124	6.70854	0.770818	2.5687	1.01904	3.38644	1.53166	5.08791	1.76532	5.85725	2.07969	6.9391
1.45769	2.49996	0.780257	2.57029	1.45458	2.50155	0.843367	2.78597	1.26722	4.198	1.79453	5.90844	2.01817	6.68022	0.777067	2.56976	1.01949	3.36216	1.53111	5.04738	1.77608	5.84818	2.08177	6.89298
1.45324	2.50224	0.7865	2.57131	1.45014	2.50386	0.847346	2.77794	1.26645	4.16363	1.79533	5.86649	2.02534	6.65316	0.783311	2.57079	1.02	3.33843	1.53047	5.00719	1.78693	5.83951	2.08364	6.84688
1.44881	2.50455	0.792738	2.5723	1.44571	2.50618	0.851482	2.77055	1.26571	4.12988	1.79591	5.82447	2.03275	6.62725	0.789552	2.5718	1.02056	3.31522	1.52976	4.96736	1.79784	5.8312	2.08532	6.80082
1.44437	2.50689	0.798971	2.57326	1.44127	2.50853	0.855773	2.76376	1.26501	4.09672	1.79629	5.78244	2.04036	6.6024	0.795787	2.57277	1.02117	3.29252	1.52899	4.92794	1.8088	5.82319	2.08681	6.75484
1.43993	2.50923	0.805199	2.57419	1.43682	2.51087	0.860211	2.75754	1.26433	4.06416	1.79649	5.74045	2.04817	6.57854	0.802018	2.57372	1.02183	3.27034	1.52817	4.88893	1.81982	5.81544	2.08812	6.70898
1.43549	2.51158	0.811423	2.57509	1.43236	2.51321	0.864789	2.75186	1.26368	4.03217	1.79653	5.69856	2.05614	6.55557	0.808244	2.57463	1.02255	3.24866	1.5273	4.85036	1.83086	5.8079	2.08927	6.66327
1.43102	2.51391	0.817641	2.57596	1.42788	2.51553	0.869499	2.74668	1.26307	4.00075	1.79642	5.65681	2.06427	6.53342	0.814465	2.57552	1.02333	3.22746	1.52641	4.81225	1.84192	5.80054	2.09027	6.61776
1.42653	2.51622	0.823853	2.5768	1.42336	2.5178	0.874331	2.74196	1.26248	3.9699	1.79618	5.61525	2.07253	6.51201	0.82068	2.57638	1.02416	3.20674	1.52548	4.7746	1.85299	5.7933	2.09113	6.57248
1.42199	2.51848	0.83006	2.57761	1.41879	2.52001	0.879277	2.73766	1.26194	3.93959	1.79581	5.5739	2.08091	6.49127	0.82689	2.5772	1.02505	3.18649	1.52454	4.73743	1.86406	5.78616	2.09188	6.52748
1.41741	2.52066	0.836261	2.57839	1.41417	2.52213	0.884327	2.73375	1.26142	3.90983	1.79534	5.53281	2.08939	6.47115	0.833094	2.578	1.02599	3.16671	1.52357	4.70074	1.8751	5.77907	2.09252	6.48282
1.41276	2.52275	0.842456	2.57914	1.40947	2.52413	0.889471	2.73017	1.26095	3.8806	1.79477	5.492	2.09795	6.45157	0.839292	2.57876	1.02699	3.14738	1.5226	4.66452	1.88612	5.77198	2.09308	6.43853
1.40804	2.52471	0.848644	2.57986	1.40467	2.52599	0.894701	2.72691	1.26051	3.85189	1.79411	5.4515	2.10659	6.43248	0.845483	2.5795	1.02804	3.12849	1.52162	4.6288	1.89709	5.76484	2.09358	6.39468
1.40321	2.52651	0.854825	2.58055	1.39978	2.52767	0.900009	2.72393	1.2601	3.82369	1.79338	5.41132	2.11528	6.41382	0.851668	2.58021	1.02916	3.11005	1.52063	4.59355	1.908	5.75761	2.09404	6.35133
1.39828	2.52813	0.860999	2.58121	1.39476	2.52915	0.905385	2.7212	1.25974	3.79601	1.79257	5.37149	2.124	6.39553	0.857846	2.58088	1.03033	3.09203	1.51964	4.5588	1.91882	5.75022	2.09449	6.30853
1.39323	2.52955	0.867166	2.58184	1.38962	2.53042	0.910825	2.7187	1.25941	3.76882	1.7917	5.33202	2.13275	6.37757	0.864017	2.58153	1.03156	3.07443	1.51866	4.52452	1.92952	5.74259	2.09495	6.26637
1.38805	2.53076	0.873325	2.58244	1.38435	2.53146	0.916321	2.71639	1.25912	3.74211	1.79078	5.29293	2.14151	6.35989	0.870179	2.58214	1.03285	3.05725	1.51768	4.49073	1.94008	5.73463	2.09546	6.22493
1.38275	2.53173	0.879475	2.583	1.37896	2.53229	0.921866	2.71427	1.25887	3.71589	1.78981	5.25422	2.15026	6.34241	0.876334	2.58272	1.0342	3.04048	1.51671	4.45742	1.95045	5.72624	2.09606	6.18432
1.37732	2.53249	0.885617	2.58353	1.37345	2.5329	0.927457	2.7123	1.25866	3.69014	1.78879	5.21591	2.15899	6.3251	0.882481	2.58326	1.03561	3.02411	1.51574	4.42459	1.96059	5.71727	2.09679	6.14465
1.37177	2.53304	0.89175	2.58403	1.36783	2.53331	0.933088	2.71048	1.2585	3.66486	1.78774	5.17801	2.16767	6.3079	0.888618	2.58378	1.03708	3.00813	1.51479	4.39223	1.97043	5.70757	2.09772	6.10608
1.36612	2.5334	0.897872	2.58449	1.36211	2.53354	0.938755	2.70879	1.25837	3.64003	1.78665	5.14051	2.1763	6.29075	0.894746	2.58426	1.03861	2.99254	1.51385	4.36033	1.97991	5.69694	2.0989	6.06877
1.36037	2.53358	0.903985	2.58492	1.35631	2.53362	0.944455	2.70721	1.25828	3.61565	1.78554	5.10342	2.18484	6.2736	0.900863	2.5847	1.0402	2.97734	1.51293	4.32891	1.98892	5.68514	2.10043	6.03294
1.35455	2.53362	0.910086	2.5853	1.35043	2.53356	0.950184	2.70573	1.25824	3.59171	1.7844	5.06675	2.19327	6.25637	0.90697	2.58511	1.04186	2.96251	1.51202	4.29794	1.99738	5.6719	2.1024	5.99884
1.34865	2.53352	0.916175	2.58565	1.34449	2.53339	0.955939	2.70435	1.25824	3.5682	1.78324	5.03051	2.20158	6.239	0.913066	2.58548	1.04358	2.94805	1.51114	4.26742	2.00517	5.65694	2.10492	5.96674
1.34269	2.53331	0.922252	2.58596	1.3385	2.53311	0.961717	2.70305	1.25828	3.54513	1.78207	4.99468			0.919149	2.58581	1.04536	2.93396	1.51027	4.23736	2.01218	5.64	2.1081	5.93693
1.33668	2.53301	0.928316	2.58623	1.33246	2.53274	0.967516	2.70183	1.25837	3.52247	1.78088	4.95928			0.92522	2.5861	1.0472	2.92023	1.50942	4.20774	2.01832	5.62087	2.11206	5.90967
1.33063	2.53262	0.934364	2.58646	1.32638	2.5323	0.973334	2.70068	1.25849	3.50022	1.77968	4.92429			0.931276	2.58635	1.04911	2.90686	1.50859	4.17856	2.02354	5.59944	2.11687	5.88513
1.32455	2.53215	0.940398	2.58664	1.32027	2.53179	0.97917	2.69959	1.25867	3.47838	1.77847	4.88973			0.937317	2.58655	1.05109	2.89383	1.50779	4.14981	2.02785	5.57576	2.12257	5.86338
1.31843	2.53162	0.946414	2.58677	1.31414	2.53122	0.985021	2.69855	1.25889	3.45694	1.77726	4.85559			0.943343	2.58671	1.05314	2.88116	1.50701	4.12149	2.03129	5.54999	2.12917	5.84434
1.31229	2.53104	0.952412	2.58685	1.30798	2.5306	0.990885	2.69756	1.25915	3.43589	1.77604	4.82187			0.94935	2.58682	1.05525	2.86884	1.50626	4.0936	2.03393	5.5224	2.13659	5.8278
1.30612	2.53041	0.958391	2.58688	1.30179	2.52994	0.996762	2.69662	1.25945	3.41522	1.77482	4.78857			0.955339	2.58687	1.05744	2.85686	1.50553	4.06612	2.03589	5.49332	2.14475	5.81349
1.29993	2.52973	0.964349	2.58685	1.2956	2.52923	1.00265	2.69572	1.25981	3.39494	1.77361	4.75568			0.961308	2.58687	1.05969	2.84521	1.50483	4.03905	2.03728	5.46304	2.15356	5.80107
1.29373	2.52901	0.970283	2.58675	1.28938	2.52849	1.00855	2.69486	1.26021	3.37502	1.77239	4.7232			0.967255	2.58681	1.06202	2.83391	1.50415	4.01239	2.03818	5.43185	2.1629	5.79024
1.28751	2.52826	0.976193	2.5866	1.28315	2.52772	1.01445	2.69404	1.26065	3.35548	1.77119	4.69114			0.973177	2.58669	1.06443	2.82294	1.50351	3.98613	2.0387	5.40001	2.17268	5.78072
1.28128	2.52748	0.982076	2.58637	1.27691	2.52691	1.02037	2.69324	1.26114	3.3363	1.76998	4.65948			0.979074	2.5865	1.06691	2.81231	1.50289	3.96027	2.03889	5.36771	2.18283	5.77227
1.27504	2.52666	0.987928	2.58607	1.27067	2.52608	1.02629	2.69247	1.26168	3.31747	1.76879	4.62822			0.984942	2.58623	1.06947	2.80202	1.5023	3.9348	2.03882	5.33512	2.19326	5.76469
1.26878	2.52582	0.993749	2.58569	1.26441	2.52522	1.03222	2.69173	1.26226	3.29899	1.7676	4.59736			0.99078	2.5859	1.07211	2.79207	1.50174	3.90971	2.03853	5.30236	2.20394	5.75783
1.26252	2.52496	0.999534	2.58522	1.25814	2.52434	1.03815	2.69101	1.2629	3.28086	1.76643	4.5669			0.996583	2.58547	1.07484	2.78245	1.50122	3.88501	2.03807	5.26954		
1.25626	2.52407	1.00528	2.58466	1.25187	2.52343	1.04409	2.69031	1.26357	3.26306	1.76526	4.53683			1.00235	2.58496	1.07765	2.77317	1.50072	3.86067	2.03747	5.23673		
1.24998	2.52316	1.01099	2.584	1.24559	2.52251	1.05003	2.68963	1.2643	3.2456	1.76412	4.50714			1.00808	2.58435	1.08056	2.76423	1.50026	3.83671	2.03674	5.204		
1.2437	2.52223	1.01665	2.58323	1.2393	2.52156	1.05597	2.68896	1.26508	3.22846	1.76298	4.47784			1.01376	2.58364	1.08356	2.75564	1.49983	3.81311	2.03591	5.1714		
1.23741	2.52127	1.02226	2.58235	1.23301	2.5206	1.06192	2.68831	1.2659	3.21165	1.76186	4.44893			1.0194	2.58281	1.08665	2.7474	1.49943	3.78987	2.03501	5.13897		
1.23112	2.52031	1.02781	2.58134	1.22672	2.51962	1.06787	2.68767	1.26677	3.19516	1.76076	4.42038			1.02498	2.58187	1.08985	2.7395	1.49907	3.76698	2.03403	5.10675		
1.22483	2.51932	1.03331	2.5802	1.22042	2.51862	1.07382	2.68704	1.26769	3.17898	1.75967	4.39221			1.03051	2.5808	1.09316	2.73197	1.49874	3.74444	2.03299	5.07475		
1.21853	2.51831	1.03875	2.57891	1.21412	2.5176	1.07977	2.68642	1.26866	3.16311	1.7586	4.36441			1.03598	2.57959	1.09658	2.72479	1.49844	3.72224	2.03191	5.04299		
1.21222	2.51729	1.04412	2.57748	1.20782	2.51657	1.08573	2.68581	1.26968	3.14755	1.75755	4.33697			1.04138	2.57823	1.10011	2.71798	1.49818	3.70038	2.03078	5.0115		
1.20592	2.51626	1.04942	2.57589	1.20151	2.51553	1.09168	2.68521	1.27075	3.13228	1.75652	4.30989			1.04672	2.57672	1.10376	2.71154	1.49796	3.67886	2.02962	4.98029		
1.19961	2.51521	1.05465	2.57414	1.1952	2.51446	1.09763	2.68461	1.27187	3.11731	1.75551	4.28316			1.05198	2.57506	1.10753	2.70547	1.49777	3.65766	2.02844	4.94936		
1.1933	2.51414	1.05979	2.57222	1.18889	2.51339	1.10358	2.68401	1.27304	3.10263	1.75452	4.25679			1.05717	2.57322	1.11142	2.69977	1.49761	3.63679	2.02723	4.91872		
1.18699	2.51306	1.06486	2.57014	1.18258	2.5123	1.10952	2.68342	1.27426	3.08824	1.75356	4.23076			1.06228	2.57122	1.11544	2.69444	1.49749	3.61624	2.026	4.88837		
1.18068	2.51197	1.06986	2.56788	1.17627	2.5112	1.11547	2.68282	1.27553	3.07413	1.75261	4.20507			1.06732	2.56905	1.11959	2.68947	1.49741	3.596	2.02476	4.85834		
1.17437	2.51087	1.07477	2.56546	1.16995	2.51009	1.12141	2.68223	1.27686	3.0603	1.75169	4.17973			1.07227	2.56672	1.12387	2.68487	1.49737	3.57608	2.02352	4.8286		
1.16806	2.50975	1.0796	2.56287	1.16364	2.50896	1.12735	2.68163	1.27823	3.04675	1.7508	4.15471			1.07714	2.56421	1.12828	2.68062	1.49736	3.55646	2.02226	4.79918		
1.16174	2.50862	1.08435	2.56014	1.15733	2.50783	1.13328	2.68102	1.27966	3.03347	1.74993	4.13003			1.08193	2.56155	1.13281	2.67671	1.49738	3.53714	2.021	4.77007		
1.15543	2.50748	1.08903	2.55726	1.15101	2.50668	1.13921	2.68041	1.28114	3.02046	1.74908	4.10567			1.08665	2.55875	1.13746	2.67312	1.49745	3.51812	2.01973	4.74126		
1.14912	2.50633	1.09365	2.55426	1.1447	2.50552	1.14513	2.6798	1.28267	3.00771	1.74826	4.08164			1.0913	2.55581	1.14223	2.66985	1.49755	3.49939	2.01847	4.71277		
1.1428	2.50517	1.0982	2.55114	1.13839	2.50436	1.15104	2.67917	1.28426	2.99523	1.74746	4.05792			1.09588	2.55275	1.14711	2.66687	1.4977	3.48096	2.01721	4.68459		
1.13649	2.504	1.1027	2.54793	1.13208	2.50318	1.15695	2.67853	1.28591	2.98302	1.74669	4.03452			1.10041	2.54958	1.15209	2.66416	1.49787	3.4628	2.01595	4.65672		
1.13018	2.50283	1.10714	2.54464	1.12577	2.502	1.16284	2.67788	1.28761	2.97106	1.74595	4.01142			1.10488	2.54633	1.15717	2.66171	1.49809	3.44493	2.0147	4.62915		
1.12387	2.50164	1.11155	2.54129	1.11946	2.5008	1.16873	2.67721	1.28936	2.95935	1.74524	3.98863			1.1093	2.54301	1.16234	2.65949	1.49835	3.42733	2.01346	4.6019		
1.11757	2.50044	1.11592	2.5379	1.11316	2.4996	1.17461	2.67653	1.29118	2.9479	1.74455	3.96615			1.11369	2.53963	1.1676	2.65749	1.49864	3.41001	2.01222	4.57495		
1.11126	2.49924	1.12027	2.53448	1.10686	2.4984	1.18047	2.67582	1.29305	2.93671	1.74389	3.94396			1.11805	2.53623	1.17293	2.65567	1.49898	3.39296	2.011	4.5483		
1.10496	2.49803	1.12459	2.53105	1.10056	2.49719	1.18632	2.67509	1.29498	2.92576	1.74326	3.92207			1.12238	2.5328	1.17833	2.65404	1.49935	3.37617	2.00978	4.52195		
1.09867	2.49682	1.1289	2.52762	1.09426	2.49597	1.19216	2.67434	1.29697	2.91507	1.74266	3.90046			1.1267	2.52937	1.18379	2.65256	1.49976	3.35964	2.00858	4.49591		
1.09237	2.49561	1.13321	2.52422	1.08797	2.49475	1.19798	2.67355	1.29903	2.90462	1.74208	3.87915			1.13101	2.52595	1.18932	2.65122	1.50022	3.34337	2.00739	4.47016		
1.08608	2.49439	1.13751	2.52084	1.08169	2.49353	1.20378	2.67274	1.30115	2.89443	1.74154	3.85811			1.13531	2.52256	1.19489	2.65001	1.50071	3.32736	2.00621	4.4447		
1.0798	2.49317	1.14181	2.51751	1.07541	2.49231	1.20956	2.67189	1.30333	2.88448	1.74103	3.83736			1.13961	2.5192	1.20051	2.64892	1.50124	3.3116	2.00505	4.41954		
1.07352	2.49194	1.14612	2.51422	1.06913	2.49109	1.21532	2.67099	1.30558	2.87478	1.74054	3.81688			1.14392	2.51589	1.20617	2.64793	1.50181	3.29608	2.00391	4.39467		
1.06725	2.49073	1.15045	2.511	1.06287	2.48988	1.22105	2.67006	1.30791	2.86534	1.74009	3.79668			1.14824	2.51264	1.21186	2.64703	1.50242	3.28081	2.00278	4.37008		
1.06098	2.48951	1.15479	2.50785	1.05661	2.48866	1.22676	2.66907	1.3103	2.85614	1.73967	3.77674			1.15257	2.50945	1.2176	2.64621	1.50307	3.26577	2.00167	4.34578		
1.05473	2.4883	1.15916	2.50478	1.05035	2.48746	1.23244	2.66803	1.31277	2.8472	1.73927	3.75707			1.15692	2.50634	1.22336	2.64546	1.50376	3.25098	2.00058	4.32176		
1.04848	2.4871	1.16354	2.50179	1.04411	2.48626	1.23808	2.66692	1.31531	2.83852	1.73891	3.73766			1.1613	2.5033	1.22914	2.64478	1.5045	3.23642	1.99951	4.29802		
1.04224	2.48591	1.16796	2.49888	1.03788	2.48508	1.24369	2.66575	1.31794	2.83009	1.73858	3.71851			1.1657	2.50035	1.23495	2.64416	1.50527	3.22209	1.99845	4.27455		
1.03601	2.48473	1.1724	2.49607	1.03166	2.48391	1.24926	2.66451	1.32065	2.82193	1.73829	3.69962			1.17013	2.49749	1.24079	2.64358	1.50608	3.20798	1.99742	4.25136		
1.0298	2.48357	1.17688	2.49336	1.02546	2.48277	1.25478	2.66318	1.32345	2.81403	1.73802	3.68098			1.17459	2.49473	1.24664	2.64306	1.50694	3.1941	1.99641	4.22843		
1.0236	2.48243	1.1814	2.49074	1.01927	2.48165	1.26026	2.66177	1.32634	2.80641	1.73779	3.66258			1.17909	2.49206	1.25251	2.64257	1.50783	3.18045	1.99541	4.20578		
1.01741	2.48131	1.18595	2.48823	1.0131	2.48055	1.26568	2.66025	1.32932	2.79906	1.73759	3.64443			1.18362	2.4895	1.25839	2.64212	1.50877	3.16701	1.99444	4.18338		
1.01125	2.48023	1.19054	2.48583	1.00694	2.4795	1.27104	2.65863	1.33241	2.792	1.73742	3.62653			1.18819	2.48704	1.26429	2.64171	1.50975	3.15379	1.99349	4.16125		
1.0051	2.47919	1.19517	2.48353	1.00081	2.47848	1.27634	2.6569	1.33561	2.78523	1.73728	3.60886			1.1928	2.48469	1.2702	2.64132	1.51077	3.14077	1.99257	4.13938		
0.998974	2.47818	1.19984	2.48135	0.994706	2.47751	1.28158	2.65504	1.33891	2.77875	1.73718	3.59143			1.19745	2.48245	1.27611	2.64095	1.51183	3.12797	1.99166	4.11776		
0.992875	2.47723	1.20456	2.47928	0.988627	2.47661	1.28674	2.65305	1.34233	2.77257	1.73711	3.57424			1.20215	2.48032	1.28204	2.64061	1.51293	3.11538	1.99078	4.0964		
0.986805	2.47635	1.20933	2.47732	0.982579	2.47577	1.29183	2.65093	1.34587	2.7667	1.73707	3.55727			1.20689	2.47831	1.28798	2.64029	1.51407	3.10299	1.98992	4.07529		
0.980768	2.47553	1.21414	2.47547	0.976567	2.47501	1.29683	2.64866	1.34954	2.76114	1.73707	3.54054			1.21167	2.4764	1.29392	2.63998	1.51526	3.09081	1.98909	4.05442		
0.974767	2.4748	1.219	2.47374	0.970594	2.47434	1.30175	2.64625	1.35333	2.75589	1.7371	3.52402			1.21651	2.47461	1.29987	2.63969	1.51648	3.07882	1.98828	4.0338		
0.968807	2.47416	1.2239	2.47212	0.964667	2.47378	1.30659	2.64368	1.35725	2.75095	1.73716	3.50773			1.22139	2.47294	1.30582	2.63942	1.51775	3.06703	1.9875	4.01342		
0.962894	2.47363	1.22886	2.47062	0.95879	2.47334	1.31135	2.64097	1.36131	2.74633	1.73726	3.49166			1.22632	2.47137	1.31178	2.63915	1.51906	3.05543	1.98674	3.99328		
0.957034	2.47324	1.23386	2.46923	0.95297	2.47305	1.31602	2.63811	1.3655	2.74201	1.73739	3.4758			1.2313	2.46992	1.31774	2.63889	1.52042	3.04403	1.986	3.97338		
0.951232	2.47299	1.23892	2.46794	0.947214	2.47292	1.3206	2.63512	1.36981	2.73799	1.73755	3.46016			1.23633	2.46858	1.3237	2.63863	1.52182	3.03282	1.9853	3.95371		
0.945497	2.47292	1.24402	2.46677	0.941529	2.47298	1.32511	2.632	1.37426	2.73427	1.73775	3.44473			1.24141	2.46736	1.32966	2.63839	1.52326	3.02179	1.98461	3.93427		
0.939835	2.47303	1.24917	2.4657	0.935922	2.47324	1.32955	2.62876	1.37883	2.73082	1.73798	3.4295			1.24653	2.46623	1.33563	2.63814	1.52474	3.01095	1.98396	3.91507		
0.934253	2.47336	1.25437	2.46474	0.930401	2.47373	1.33391	2.62542	1.38352	2.72765	1.73825	3.41449			1.25171	2.46522	1.34159	2.6379	1.52626	3.00029	1.98333	3.89608		
0.928758	2.47393	1.25962	2.46388	0.924972	2.47448	1.33822	2.62199	1.38832	2.72472	1.73855	3.39967			1.25693	2.46431	1.34756	2.63766	1.52783	2.98982	1.98272	3.87732		
0.923358	2.47475	1.26491	2.46312	0.919641	2.4755	1.34248	2.61849	1.39323	2.72203	1.73889	3.38506			1.2622	2.4635	1.35352	2.63742	1.52945	2.97952	1.98215	3.85878		
0.918058	2.47586	1.27026	2.46246	0.914414	2.47681	1.34669	2.61495	1.39824	2.71956	1.73926	3.37064			1.26752	2.46279	1.35948	2.63718	1.5311	2.9694	1.9816	3.84046		
0.912863	2.47727	1.27564	2.46189	0.909294	2.47843	1.35088	2.61137	1.40334	2.71728	1.73967	3.35642			1.27288	2.46217	1.36544	2.63693	1.53281	2.95946	1.98108	3.82236		
0.907775	2.47898	1.28107	2.46141	0.904282	2.48037	1.35504	2.60778	1.40853	2.71519	1.74011	3.34239			1.27829	2.46164	1.37139	2.63668	1.53455	2.94969	1.98058	3.80447		
0.902796	2.48102	1.28655	2.46102	0.899378	2.48263	1.35918	2.60419	1.41379	2.71327	1.74059	3.32855			1.28374	2.46121	1.37734	2.63642	1.53634	2.94009	1.98011	3.78679		
0.897925	2.48338	1.29206	2.4607	0.894581	2.48522	1.36333	2.60064	1.41913	2.7115	1.7411	3.31491			1.28924	2.46085	1.38329	2.63616	1.53818	2.93066	1.97968	3.76931		
0.893159	2.48606	1.29761	2.46047	0.889886	2.48813	1.36749	2.59714	1.42452	2.70987	1.74165	3.30144			1.29477	2.46058	1.38923	2.63589	1.54006	2.92141	1.97927	3.75205		
0.888494	2.48906	1.30321	2.46031	0.885289	2.49135	1.37166	2.5937	1.42998	2.70837	1.74223	3.28816			1.30035	2.46038	1.39516	2.63561	1.54199	2.91232	1.97888	3.73499		
0.883925	2.49237	1.30884	2.46022	0.880784	2.49487	1.37587	2.59036	1.43549	2.70697	1.74284	3.27507			1.30596	2.46026	1.40108	2.63531	1.54397	2.9034	1.97853	3.71813		
0.879446	2.49598	1.3145	2.4602	0.876362	2.49867	1.38013	2.58713	1.44105	2.70568	1.7435	3.26215			1.3116	2.4602	1.407	2.63501	1.54599	2.89464	1.9782	3.70146		
0.875049	2.49987	1.3202	2.46025	0.872019	2.50276	1.38444	2.58405	1.44665	2.70448	1.74418	3.24941			1.31729	2.46022	1.41291	2.63469	1.54806	2.88605	1.97791	3.685		
0.870727	2.50403	1.32594	2.46035	0.867745	2.50709	1.38884	2.58113	1.45229	2.70336	1.74491	3.23684			1.323	2.46029	1.41881	2.63436	1.55018	2.87762	1.97764	3.66873		
0.866472	2.50844	1.3317	2.46051	0.863532	2.51167	1.39332	2.5784	1.45796	2.70231	1.74567	3.22445			1.32875	2.46042	1.4247	2.634	1.55235	2.86935	1.9774	3.65265		
0.862277	2.51308	1.33749	2.46072	0.859374	2.51646	1.39791	2.57589	1.46367	2.70133	1.74646	3.21223			1.33453	2.4606	1.43058	2.63363	1.55456	2.86125	1.97719	3.63676		
0.858134	2.51794	1.34331	2.46098	0.855262	2.52146	1.40261	2.57362	1.4694	2.70041	1.74729	3.20017			1.34033	2.46084	1.43644	2.63324	1.55683	2.85331	1.97701	3.62107		
0.854034	2.52299	1.34916	2.46129	0.851188	2.52663	1.40745	2.57162	1.47516	2.69955	1.74816	3.18829			1.34617	2.46113	1.44229	2.63283	1.55915	2.84553	1.97686	3.60555		
0.84997	2.52822	1.35503	2.46164	0.847144	2.53197	1.41243	2.56988	1.48094	2.69873	1.74906	3.17657			1.35203	2.46146	1.44812	2.63239	1.56153	2.83791	1.97674	3.59022		
0.845932	2.5336	1.36093	2.46203	0.843121	2.53744	1.41756	2.56842	1.48674	2.69796	1.75	3.16501			1.35791	2.46183	1.45394	2.63193	1.56396	2.83045	1.97665	3.57507		
0.841914	2.53911	1.36685	2.46246	0.83911	2.54303	1.42282	2.56723	1.49256	2.69723	1.75098	3.15361			1.36382	2.46224	1.45974	2.63144	1.56644	2.82316	1.97659	3.56011		
0.837906	2.54473	1.37279	2.46293	0.835103	2.54871	1.42822	2.56629	1.4984	2.69654	1.75199	3.14237			1.36975	2.46268	1.46552	2.63091	1.56898	2.81602	1.97656	3.54532		
0.833898	2.55043	1.37875	2.46342	0.83109	2.55445	1.43374	2.56557	1.50426	2.69588	1.75303	3.13129			1.3757	2.46317	1.47128	2.63036	1.57158	2.80905	1.97655	3.5307		
0.829881	2.55619	1.38473	2.46395	0.827062	2.56023	1.43937	2.56505	1.51012	2.69525	1.75412	3.12037			1.38167	2.46368	1.47702	2.62976	1.57423	2.80225	1.97658	3.51626		
0.825846	2.56197	1.39073	2.46451	0.823008	2.56601	1.4451	2.56471	1.516	2.69464	1.75524	3.10959			1.38766	2.46422	1.48273	2.62913	1.57695	2.7956	1.97664	3.50199		
0.821782	2.56774	1.39675	2.46509	0.818918	2.57176	1.45091	2.56452	1.52189	2.69407	1.75639	3.09897			1.39367	2.46479	1.48841	2.62845	1.57973	2.78913	1.97673	3.48789		
0.817679	2.57347	1.40278	2.4657	0.814782	2.57744	1.45678	2.56444	1.52779	2.69351	1.75759	3.08851			1.39969	2.46538	1.49406	2.62773	1.58258	2.78282	1.97685	3.47396		
0.813528	2.57914	1.40883	2.46632	0.81059	2.58304	1.46272	2.56447	1.5337	2.69297	1.75882	3.07819			1.40574	2.466	1.49968	2.62695	1.5855	2.77668	1.977	3.46019		
0.809317	2.5847	1.41489	2.46697	0.806332	2.5885	1.4687	2.56459	1.53962	2.69246	1.76008	3.06801			1.41179	2.46664	1.50527	2.62612	1.58848	2.77071	1.97718	3.44659		
0.805038	2.59012	1.42097	2.46764	0.802	2.59381	1.47472	2.56478	1.54555	2.69196	1.76139	3.05799			1.41786	2.4673	1.51082	2.62524	1.59154	2.76492	1.97739	3.43315		
0.800683	2.59537	1.42706	2.46833	0.797588	2.59893	1.48078	2.56502	1.55148	2.69147	1.76273	3.0481			1.42394	2.46797	1.51633	2.62429	1.59467	2.7593	1.97764	3.41987		
0.796244	2.60043	1.43316	2.46903	0.793087	2.60385	1.48687	2.56531	1.55742	2.691	1.76411	3.03836			1.43004	2.46867	1.52179	2.62327	1.59789	2.75386	1.97791	3.40675		
0.791717	2.60528	1.43927	2.46975	0.788495	2.60853	1.49298	2.56564	1.56336	2.69054	1.76552	3.02876			1.43615	2.46938	1.52721	2.62219	1.60118	2.7486	1.97821	3.39378		
0.787097	2.60989	1.4454	2.47048	0.78381	2.61298	1.49911	2.566	1.56931	2.69009	1.76697	3.0193			1.44227	2.4701	1.53259	2.62102	1.60455	2.74353	1.97855	3.38097		
0.782382	2.61426	1.45154	2.47122	0.779029	2.61717	1.50526	2.56639	1.57526	2.68965	1.76846	3.00998			1.4484	2.47084	1.5379	2.61978	1.60802	2.73865	1.97891	3.36832		
0.777573	2.61838	1.45768	2.47197	0.774155	2.62111	1.51142	2.5668	1.58121	2.68922	1.76999	3.00079			1.45454	2.47158	1.54317	2.61845	1.61157	2.73395	1.97931	3.35581		
0.772672	2.62225	1.46384	2.47274	0.76919	2.62481	1.5176	2.56723	1.58716	2.6888	1.77156	2.99175			1.46069	2.47234	1.54837	2.61704	1.61521	2.72945	1.97974	3.34346		
0.76768	2.62587	1.47	2.47351	0.764137	2.62826	1.52378	2.56767	1.59312	2.68839	1.77316	2.98283			1.46685	2.47311	1.55351	2.61553	1.61895	2.72515	1.9802	3.33125		
0.762602	2.62925	1.47618	2.47429	0.759001	2.63148	1.52998	2.56812	1.59908	2.68798	1.7748	2.97405			1.47302	2.47389	1.55859	2.61393	1.62279	2.72104	1.98069	3.31919		
0.757442	2.63241	1.48236	2.47508	0.753788	2.63448	1.53618	2.56858	1.60504	2.68757	1.77648	2.9654			1.4792	2.47468	1.56361	2.61223	1.62672	2.71712	1.98121	3.30728		
0.752206	2.63534	1.48855	2.47588	0.748503	2.63728	1.54239	2.56905	1.611	2.68717	1.7782	2.95688			1.48539	2.47547	1.56855	2.61043	1.63076	2.71341	1.98176	3.29551		
0.7469	2.63808	1.49475	2.47668	0.74315	2.63988	1.5486	2.56952	1.61696	2.68677	1.77996	2.94849			1.49158	2.47627	1.57343	2.60853	1.6349	2.70989	1.98235	3.28388		
0.741529	2.64063	1.50095	2.47749	0.737737	2.64231	1.55481	2.56999	1.62292	2.68637	1.78176	2.94023			1.49778	2.47707	1.57824	2.60653	1.63914	2.70656	1.98296	3.27239		
0.736098	2.64301	1.50716	2.4783	0.732268	2.64458	1.56103	2.57047	1.62888	2.68597	1.78359	2.9321			1.50399	2.47788	1.58298	2.60443	1.64348	2.70343	1.98361	3.26104		
0.730613	2.64523	1.51338	2.47912	0.726747	2.64669	1.56726	2.57095	1.63483	2.68558	1.78547	2.9241			1.5102	2.4787	1.58765	2.60224	1.64792	2.70048	1.98429	3.24983		
0.725079	2.64731	1.5196	2.47994	0.721181	2.64868	1.57348	2.57142	1.64079	2.68518	1.78739	2.91622			1.51642	2.47952	1.59226	2.59996	1.65246	2.69772	1.985	3.23875		
0.719499	2.64925	1.52583	2.48076	0.715573	2.65055	1.5797	2.5719	1.64674	2.68478	1.78935	2.90847			1.52265	2.48034	1.5968	2.59759	1.65709	2.69513	1.98574	3.22781		
0.71388	2.65109	1.53206	2.48158	0.709928	2.6523	1.58593	2.57237	1.65268	2.68437	1.79135	2.90084			1.52888	2.48116	1.60128	2.59513	1.66182	2.69272	1.98651	3.217		
0.708224	2.65281	1.5383	2.48241	0.704248	2.65396	1.59216	2.57284	1.65863	2.68397	1.79339	2.89333			1.53512	2.48199	1.6057	2.59261	1.66663	2.69046	1.98732	3.20632		
0.702534	2.65444	1.54455	2.48324	0.698538	2.65553	1.59838	2.57331	1.66456	2.68355	1.79548	2.88596			1.54136	2.48282	1.61007	2.59001	1.67153	2.68836	1.98815	3.19578		
0.696815	2.65599	1.5508	2.48407	0.692799	2.65703	1.60461	2.57377	1.6705	2.68314	1.79761	2.8787			1.5476	2.48365	1.61439	2.58736	1.67652	2.6864	1.98902	3.18536		
0.691069	2.65746	1.55705	2.4849	0.687036	2.65845	1.61083	2.57423	1.67642	2.68271	1.79978	2.87157			1.55385	2.48448	1.61867	2.58465	1.68157	2.68458	1.98992	3.17507		
0.685299	2.65886	1.5633	2.48574	0.681251	2.65981	1.61706	2.57468	1.68234	2.68228	1.802	2.86456			1.56011	2.48531	1.6229	2.5819	1.6867	2.68288	1.99085	3.1649		
0.679507	2.66021	1.56957	2.48657	0.675444	2.66111	1.62328	2.57512	1.68825	2.68184	1.80426	2.85768			1.56637	2.48614	1.6271	2.57911	1.6919	2.68131	1.99182	3.15486		
0.673695	2.6615	1.57583	2.4874	0.66962	2.66237	1.6295	2.57556	1.69415	2.68138	1.80657	2.85092			1.57263	2.48697	1.63126	2.57629	1.69716	2.67984	1.99281	3.14495		
0.667865	2.66274	1.5821	2.48823	0.663778	2.66358	1.63571	2.57599	1.70004	2.68092	1.80893	2.84428			1.57889	2.4878	1.6354	2.57345	1.70247	2.67847	1.99384	3.13515		
0.662019	2.66394	1.58837	2.48906	0.657922	2.66475	1.64193	2.57641	1.70592	2.68044	1.81134	2.83777			1.58516	2.48863	1.63952	2.57059	1.70784	2.6772	1.9949	3.12548		
0.656159	2.6651	1.59464	2.48989	0.652053	2.66589	1.64814	2.57683	1.71179	2.67994	1.81379	2.83139			1.59144	2.48946	1.64361	2.56772	1.71326	2.67602	1.99599	3.11592		
0.650286	2.66623	1.60092	2.49071	0.646171	2.66701	1.65434	2.57724	1.71765	2.67943	1.8163	2.82513			1.59771	2.49029	1.64769	2.56485	1.71872	2.67491	1.99712	3.10649		
0.6444	2.66734	1.60719	2.49153	0.640278	2.6681	1.66055	2.57763	1.72349	2.67889	1.81887	2.81899			1.60399	2.49111	1.65176	2.56198	1.72422	2.67387	1.99827	3.09717		
0.638505	2.66842	1.61347	2.49236	0.634376	2.66916	1.66674	2.57802	1.72931	2.67834	1.82148	2.81299			1.61027	2.49194	1.65582	2.55912	1.72977	2.6729	1.99946	3.08797		
0.6326	2.66948	1.61976	2.49317	0.628465	2.67022	1.67294	2.5784	1.73511	2.67776	1.82416	2.80712			1.61655	2.49276	1.65988	2.55627	1.73534	2.67199	2.00068	3.07888		
0.626686	2.67053	1.62604	2.49399	0.622546	2.67126	1.67912	2.57876	1.7409	2.67716	1.82689	2.80138			1.62283	2.49357	1.66393	2.55344	1.74095	2.67114	2.00193	3.06991		
0.620766	2.67157	1.63232	2.4948	0.616621	2.67229	1.6853	2.57911	1.74666	2.67652	1.82969	2.79577			1.62911	2.49438	1.66799	2.55063	1.74659	2.67034	2.00322	3.06104		
0.614838	2.6726	1.63861	2.4956	0.610689	2.67332	1.69148	2.57946	1.7524	2.67586	1.83255	2.79031			1.6354	2.49519	1.67204	2.54785	1.75225	2.66958	2.00453	3.05229		
0.608905	2.67362	1.6449	2.4964	0.604752	2.67434	1.69765	2.57978	1.75811	2.67515	1.83547	2.78498			1.64168	2.49599	1.67611	2.54509	1.75794	2.66886	2.00588	3.04366		
0.602967	2.67465	1.65118	2.4972	0.598811	2.67537	1.70381	2.5801	1.7638	2.67441	1.83847	2.7798			1.64797	2.49679	1.68018	2.54237	1.76365	2.66819	2.00726	3.03513		
0.597024	2.67568	1.65746	2.49798	0.592866	2.6764	1.70996	2.5804	1.76945	2.67363	1.84154	2.77476			1.65425	2.49758	1.68426	2.53968	1.76938	2.66754	2.00868	3.0267		
0.591078	2.67671	1.66375	2.49876	0.586919	2.67743	1.7161	2.58068	1.77507	2.6728	1.84469	2.76987			1.66054	2.49836	1.68836	2.53703	1.77513	2.66693	2.01013	3.01839		
0.58513	2.67775	1.67002	2.49953	0.580968	2.67848	1.72223	2.58095	1.78065	2.67191	1.84792	2.76514			1.66682	2.49914	1.69247	2.53442	1.7809	2.66635	2.01161	3.01018		
0.579179	2.6788	1.6763	2.50028	0.575016	2.67955	1.72836	2.5812	1.78618	2.67097	1.85124	2.76058			1.67309	2.4999	1.6966	2.53185	1.78667	2.66579	2.01312	3.00208		
0.573227	2.67987	1.68256	2.50102	0.569063	2.68063	1.73447	2.58143	1.79167	2.66997	1.85465	2.75617			1.67936	2.50065	1.70075	2.52934	1.79247	2.66526	2.01466	2.99408		
0.567273	2.68096	1.68882	2.50174	0.56311	2.68173	1.74056	2.58164	1.79712	2.66891	1.85815	2.75194			1.68563	2.50137	1.70493	2.52688	1.79827	2.66474	2.01624	2.98619		
0.56132	2.68207	1.69506	2.50243	0.557157	2.68286	1.74665	2.58182	1.80251	2.66778	1.86174	2.74788			1.69187	2.50208	1.70914	2.52449	1.80408	2.66425	2.01785	2.97839		
0.555367	2.68321	1.70128	2.50308	0.551204	2.68402	1.75272	2.58199	1.80785	2.66657	1.86545	2.74399			1.6981	2.50275	1.71339	2.52217	1.80991	2.66377	2.0195	2.9707		
0.549415	2.68438	1.70745	2.50367	0.545253	2.68522	1.75877	2.58212	1.81313	2.66529	1.86925	2.7403			1.7043	2.50338	1.71769	2.51994	1.81574	2.66331	2.02117	2.96311		
0.543465	2.68558	1.71357	2.50417	0.539305	2.68645	1.7648	2.58223	1.81835	2.66392	1.87317	2.73678			1.71046	2.50393	1.72207	2.51784	1.82158	2.66287	2.02289	2.95563		
0.537517	2.68683	1.71959	2.50452	0.533359	2.68772	1.77081	2.58231	1.8235	2.66248	1.8772	2.73346			1.71654	2.50437	1.72656	2.51592	1.82743	2.66243	2.02463	2.94824		
0.531572	2.68812	1.72545	2.50463	0.527417	2.68905	1.7768	2.58236	1.8286	2.66095	1.88135	2.73032			1.72248	2.50462	1.73122	2.51426	1.83328	2.66201	2.02641	2.94094		
0.525632	2.68946	1.73103	2.50435	0.52148	2.69043	1.78277	2.58237	1.83362	2.65933	1.88561	2.72738			1.72822	2.50455	1.73616	2.51301	1.83913	2.66159	2.02822	2.93375		
0.519696	2.69085	1.73628	2.50359	0.515548	2.69187	1.78871	2.58235	1.83859	2.65764	1.88999	2.72462			1.73364	2.50404	1.74145	2.51228	1.84499	2.66118	2.03007	2.92665		
0.513765	2.69231	1.74122	2.50238	0.509622	2.69337	1.79462	2.58228	1.8435	2.65588	1.89449	2.72204			1.73873	2.50304	1.74709	2.51205	1.85085	2.66078	2.03195	2.91965		
0.507842	2.69384	1.74593	2.50086	0.503703	2.69496	1.8005	2.58217	1.84835	2.65405	1.89909	2.71964			1.74354	2.50166	1.75298	2.51219	1.85672	2.66039	2.03387	2.91275		
0.501926	2.69545	1.75053	2.49919	0.497793	2.69663	1.80635	2.582	1.85315	2.65215	1.90381	2.71742			1.74819	2.50006	1.75903	2.51255	1.86258	2.66	2.03582	2.90594		
0.496018	2.69715	1.75506	2.49743	0.491892	2.69839	1.81215	2.58179	1.85791	2.65021	1.90863	2.71535			1.75275	2.49833	1.76517	2.51303	1.86844	2.65961	2.0378	2.89923		
0.49012	2.69894	1.75957	2.49565	0.486002	2.70026	1.81791	2.58151	1.86263	2.64823	1.91355	2.71345			1.75727	2.49656	1.77136	2.5136	1.87431	2.65922	2.03982	2.8926		
0.484234	2.70084	1.76406	2.49386	0.480125	2.70225	1.82363	2.58117	1.86733	2.64622	1.91857	2.71169			1.76176	2.49477	1.7776	2.51421	1.88017	2.65883	2.04188	2.88608		
0.47836	2.70287	1.76855	2.49208	0.474261	2.70436	1.82929	2.58076	1.872	2.64421	1.92367	2.71006			1.76626	2.49299	1.78385	2.51486	1.88603	2.65845	2.04397	2.87964		
0.472501	2.70503	1.77305	2.49033	0.468413	2.70663	1.8349	2.58027	1.87668	2.6422	1.92885	2.70856			1.77075	2.49122	1.79013	2.51552	1.89189	2.65806	2.0461	2.8733		
0.466658	2.70734	1.77757	2.4886	0.462583	2.70906	1.84045	2.57971	1.88135	2.6402	1.93412	2.70718			1.77526	2.48948	1.79641	2.51619	1.89775	2.65767	2.04827	2.86706		
0.460834	2.70983	1.7821	2.48691	0.456773	2.71168	1.84594	2.57905	1.88604	2.63824	1.93945	2.7059			1.77978	2.48777	1.80271	2.51687	1.9036	2.65728	2.05047	2.8609		
0.45503	2.7125	1.78665	2.48526	0.450985	2.7145	1.85136	2.57831	1.89076	2.63633	1.94484	2.70472			1.78432	2.4861	1.80901	2.51756	1.90944	2.65688	2.05271	2.85484		
0.44925	2.7154	1.79122	2.48364	0.445224	2.71756	1.8567	2.57747	1.89551	2.63448	1.95029	2.70362			1.78888	2.48446	1.81532	2.51825	1.91528	2.65647	2.05499	2.84887		
0.443497	2.71854	1.7958	2.48206	0.439491	2.7209	1.86197	2.57653	1.90031	2.6327	1.9558	2.70261			1.79346	2.48286	1.82163	2.51894	1.92111	2.65606	2.05731	2.84299		
0.437774	2.72196	1.80041	2.48052	0.433792	2.72453	1.86715	2.57548	1.90516	2.63101	1.96135	2.70167			1.79806	2.4813	1.82794	2.51963	1.92694	2.65564	2.05967	2.8372		
0.432086	2.72569	1.80504	2.47902	0.42813	2.72852	1.87226	2.57433	1.91006	2.62941	1.96694	2.70079			1.80268	2.47978	1.83426	2.52032	1.93275	2.65521	2.06207	2.8315		
0.426436	2.72979	1.8097	2.47756	0.422512	2.7329	1.87728	2.57308	1.91504	2.62791	1.97258	2.69997			1.80732	2.4783	1.84058	2.52101	1.93856	2.65477	2.06451	2.8259		
0.420832	2.7343	1.81438	2.47614	0.416942	2.73773	1.88222	2.57172	1.92008	2.62651	1.97825	2.69921			1.81198	2.47686	1.8469	2.5217	1.94435	2.65432	2.06699	2.82039		
0.415278	2.73928	1.81908	2.47476	0.411429	2.74309	1.88709	2.57025	1.92519	2.62522	1.98395	2.69849			1.81667	2.47546	1.85322	2.52238	1.95013	2.65386	2.06951	2.81497		
0.409783	2.74481	1.8238	2.47343	0.40598	2.74905	1.89187	2.5687	1.93037	2.62403	1.98968	2.69782			1.82139	2.47411	1.85954	2.52307	1.9559	2.65338	2.07208	2.80965		
0.404355	2.75097	1.82855	2.47213	0.400604	2.75571	1.89658	2.56705	1.93563	2.62295	1.99544	2.69719			1.82612	2.47279	1.86586	2.52374	1.96166	2.65288	2.0747	2.80441		
0.399004	2.75786	1.83332	2.47088	0.395313	2.76317	1.90122	2.56532	1.94096	2.62197	2.00122	2.6966			1.83088	2.47151	1.87219	2.52442	1.9674	2.65237	2.07735	2.79928		
0.393741	2.76558	1.83812	2.46966	0.390119	2.77156	1.90579	2.56351	1.94635	2.62109	2.00702	2.69603			1.83567	2.47028	1.87851	2.52509	1.97312	2.65183	2.08006	2.79424		
0.388578	2.77429	1.84294	2.46848	0.385035	2.78103	1.91031	2.56163	1.95181	2.6203	2.01284	2.6955			1.84047	2.46908	1.88483	2.52576	1.97883	2.65128	2.08282	2.78929		
0.38353	2.78411	1.84778	2.46735	0.380077	2.79175	1.91477	2.55969	1.95733	2.61959	2.01868	2.69499			1.84531	2.46792	1.89116	2.52642	1.98451	2.6507	2.08562	2.78444		
0.378614	2.79524	1.85265	2.46625	0.375263	2.80391	1.91918	2.5577	1.96291	2.61897	2.02454	2.69451			1.85016	2.46681	1.89748	2.52708	1.99017	2.65009	2.08848	2.77969		
0.373846	2.80787	1.85755	2.4652	0.37061	2.81772	1.92355	2.55566	1.96854	2.61841	2.03041	2.69405			1.85505	2.46573	1.90381	2.52773	1.99581	2.64946	2.09139	2.77504		
0.369246	2.82223	1.86247	2.46418	0.366138	2.83343	1.92788	2.55359	1.97421	2.61793	2.03629	2.6936			1.85995	2.46469	1.91013	2.52838	2.00142	2.64879	2.09435	2.7705		
0.364832	2.83856	1.86741	2.4632	0.361867	2.85129	1.93218	2.55149	1.97993	2.61751	2.04219	2.69318			1.86488	2.46369	1.91645	2.52903	2.007	2.6481	2.09737	2.76605		
0.360625	2.85712	1.87238	2.46225	0.357815	2.87157	1.93645	2.54936	1.98569	2.61714	2.04809	2.69278			1.86984	2.46273	1.92277	2.52967	2.01256	2.64737	2.10045	2.76171		
0.356642	2.87818	1.87737	2.46135	0.353999	2.89455	1.9407	2.54722	1.99149	2.61682	2.05401	2.69238			1.87481	2.46181	1.92909	2.5303	2.01808	2.6466	2.10359	2.75747		
0.352901	2.90203	1.88238	2.46048	0.350435	2.9205	1.94494	2.54507	1.99732	2.61654	2.05993	2.69201			1.87982	2.46092	1.93541	2.53093	2.02357	2.64579	2.1068	2.75335		
0.349414	2.92893	1.88742	2.45965	0.347133	2.9497	1.94915	2.54291	2.00317	2.61631	2.06586	2.69164			1.88485	2.46007	1.94173	2.53156	2.02902	2.64493	2.11007	2.74933		
0.346192	2.95916	1.89249	2.45886	0.3441	2.98241	1.95336	2.54075	2.00906	2.61611	2.0718	2.69129			1.8899	2.45926	1.94805	2.53218	2.03443	2.64403	2.11341	2.74543		
0.343242	2.99297	1.89757	2.4581	0.34134	3.01887	1.95756	2.53859	2.01497	2.61594	2.07774	2.69094			1.89497	2.45848	1.95437	2.53279	2.03979	2.64308	2.11682	2.74165		
0.340564	3.03059	1.90269	2.45737	0.338853	3.0593	1.96175	2.53644	2.0209	2.61581	2.08369	2.69061			1.90007	2.45774	1.96068	2.5334	2.04512	2.64208	2.12031	2.73798		
0.338159	3.07227	1.90782	2.45668	0.336635	3.10394	1.96594	2.53429	2.02684	2.61569	2.08965	2.69028			1.90519	2.45703	1.967	2.534	2.05039	2.64102	2.12387	2.73443		
0.33602	3.11821	1.91298	2.45603	0.334681	3.15299	1.97013	2.53216	2.03281	2.6156	2.09561	2.68996			1.91034	2.45636	1.97331	2.5346	2.05562	2.63991	2.12751	2.731		
0.334143	3.16864	1.91816	2.45541	0.332981	3.20669	1.97432	2.53004	2.03879	2.61553	2.10157	2.68965			1.91551	2.45572	1.97962	2.53519	2.06079	2.63873	2.13123	2.7277		
0.332519	3.22377	1.92336	2.45482	0.331528	3.26525	1.97851	2.52794	2.04478	2.61548	2.10754	2.68934			1.9207	2.45511	1.98592	2.53577	2.06591	2.63749	2.13503	2.72452		
0.331138	3.28385	1.92859	2.45426	0.330312	3.32892	1.98271	2.52586	2.05079	2.61544	2.1135	2.68904			1.92592	2.45454	1.99223	2.53635	2.07097	2.63618	2.13892	2.72147		
0.329991	3.34911	1.93384	2.45374	0.329323	3.39798	1.98692	2.5238	2.0568	2.61541	2.11947	2.68874			1.93115	2.454	1.99853	2.53692	2.07597	2.63481	2.1429	2.71855		
0.329069	3.41983	1.93911	2.45324	0.328552	3.4727	1.99113	2.52176	2.06283	2.6154	2.12545	2.68845			1.93642	2.45349	2.00483	2.53748	2.08091	2.63337	2.14697	2.71576		
0.328361	3.49632	1.94441	2.45278	0.327988	3.55341	1.99536	2.51975	2.06886	2.6154	2.13142	2.68816			1.9417	2.45301	2.01112	2.53803	2.08579	2.63186	2.15112	2.71309		
0.327858	3.5789	1.94972	2.45235	0.327624	3.64047	1.99959	2.51776	2.0749	2.61541	2.13739	2.68787			1.947	2.45256	2.01741	2.53858	2.09061	2.63029	2.15536	2.71056		
0.327552	3.66794	1.95506	2.45194	0.32745	3.73427	2.00384	2.5158	2.08095	2.61542	2.14336	2.68758			1.95233	2.45215	2.0237	2.53912	2.09537	2.62864	2.1597	2.70815		
0.327433	3.76386	1.96042	2.45157	0.327457	3.83527	2.00809	2.51386	2.087	2.61544	2.14934	2.6873			1.95768	2.45176	2.02998	2.53965	2.10007	2.62693	2.16412	2.70587		
0.327493	3.86712	1.9658	2.45122	0.327637	3.94396	2.01236	2.51195	2.09305	2.61546	2.15531	2.68701			1.96304	2.4514	2.03626	2.54017	2.10471	2.62516	2.16863	2.70371		
0.327723	3.97822	1.97119	2.4509	0.32798	4.06089	2.01665	2.51007	2.09911	2.61549	2.16128	2.68672			1.96843	2.45106	2.04253	2.54069	2.10929	2.62332	2.17323	2.70167		
0.328115	4.09775	1.97662	2.45061	0.32848	4.18669	2.02095	2.50822	2.10517	2.61553	2.16724	2.68644			1.97384	2.45076	2.0488	2.54119	2.11381	2.62143	2.17791	2.69974		
0.32866	4.22635	1.98206	2.45035	0.329127	4.32205	2.02527	2.5064	2.11123	2.61556	2.17321	2.68615			1.97927	2.45048	2.05506	2.54168	2.11829	2.61948	2.18267	2.69793		
0.32935	4.36473	1.98752	2.45011	0.329914	4.46775	2.0296	2.50461	2.1173	2.6156	2.17917	2.68586			1.98472	2.45023	2.06132	2.54216	2.12271	2.61749	2.18751	2.69622		
0.330176	4.5137	1.99299	2.44989	0.330831	4.62468	2.03395	2.50285	2.12336	2.61564	2.18513	2.68557			1.99019	2.45	2.06756	2.54263	2.1271	2.61545	2.19243	2.69462		
0.331131	4.6742	1.99849	2.44971	0.33187	4.79383	2.03832	2.50112	2.12943	2.61567	2.19109	2.68527			1.99568	2.4498	2.0738	2.54308	2.13144	2.61337	2.19742	2.69311		
0.332205	4.84724	2.00401	2.44954	0.333023	4.97635	2.0427	2.49943	2.13549	2.61571	2.19703	2.68497			2.00119	2.44962	2.08003	2.54352	2.13574	2.61126	2.20247	2.6917		
0.333232	5.00919	2.00955	2.4494	0.334281	5.17352	2.04711	2.49777	2.14156	2.61574	2.20298	2.68466			2.00671	2.44947	2.08625	2.54395	2.14002	2.60913				
0.33417	5.15614	2.0151	2.44928	0.335634	5.38683	2.05154	2.49615	2.14762	2.61577					2.01226	2.44934	2.09245	2.54436	2.14427	2.60698				
0.334986	5.28429	2.02067	2.44918	0.337074	5.61799	2.056	2.49457	2.15368	2.6158					2.01782	2.44923	2.09864	2.54474	2.14849	2.60481				
0.335655	5.39015	2.02626	2.44911	0.33859	5.86897	2.06049	2.49304	2.15974	2.61583					2.0234	2.44914	2.10482	2.54511	2.15271	2.60263				
0.33616	5.47065	2.03186	2.44905	0.340175	6.14209	2.06502	2.49156	2.16579	2.61585					2.029	2.44908	2.11098	2.54546	2.15691	2.60046				
0.336634	5.54681	2.03749	2.44902	0.341816	6.44003	2.0696	2.49016	2.17184	2.61586					2.03461	2.44903	2.11712	2.54578	2.16111	2.59829				
0.336969	5.601	2.04313	2.449	0.343285	6.72238	2.07428	2.48888	2.17788	2.61587					2.04024	2.44901	2.12323	2.54607	2.16531	2.59614				
0.337501	5.68774	2.04878	2.44901	0.344561	6.9817	2.07915	2.48783	2.18392	2.61588					2.04589	2.449	2.12932	2.54632	2.16951	2.59401				
0.338238	5.80991	2.05445	2.44903	0.345629	7.21042	2.08436	2.4872	2.18995	2.61587					2.05155	2.44902	2.13538	2.54654	2.17373	2.59191				
0.339195	5.97173	2.06014	2.44907	0.34648	7.40122	2.09001	2.4871	2.19597	2.61586					2.05723	2.44905	2.14141	2.54672	2.17798	2.58984				
0.340384	6.17912	2.06584	2.44913	0.347108	7.5475	2.09597	2.48735	2.20199	2.61583					2.06292	2.4491	2.14739	2.54685	2.18225	2.58782				
0.341817	6.44023	2.07155	2.44921	0.347688	7.68683	2.10207	2.48779							2.06863	2.44917	2.15333	2.54693	2.18656	2.58586				
0.343506	6.7662	2.07728	2.4493	0.348092	7.78655	2.10825	2.4883							2.07435	2.44925	2.15922	2.54694	2.19092	2.58396				
0.345232	7.12397	2.08303	2.44941	0.348724	7.94719	2.11446	2.48885							2.08009	2.44935	2.16505	2.54688	2.19534	2.58214				
0.346983	7.51809	2.08878	2.44953	0.349585	8.17561	2.12069	2.48943							2.08584	2.44947	2.17081	2.54675	2.19982	2.58041				
0.348751	7.95404	2.09456	2.44967	0.350673	8.48223	2.12694	2.49001							2.09161	2.4496	2.17649	2.54652	2.20438	2.57878				
0.350522	8.43852	2.10034	2.44983	0.351984	8.88222	2.13319	2.49061							2.09738	2.44975	2.18208	2.54619						
0.352287	8.97982	2.10614	2.44999	0.353511	9.39758	2.13946	2.49121							2.10317	2.44991	2.18758	2.54575						
0.354034	9.58829	2.11195	2.45018	0.355239	10.0606	2.14573	2.49182							2.10898	2.45008	2.19298	2.54519						
0.355751	10.277	2.11777	2.45037	0.356928	10.8152	2.152	2.49243							2.11479	2.45027	2.19826	2.54451						
0.357427	11.0628	2.1236	2.45058	0.358569	11.6816	2.15828	2.49304							2.12062	2.45047	2.20343	2.5437						
0.359051	11.9678	2.12945	2.4508	0.360149	12.6868	2.16456	2.49365							2.12646	2.45068								
0.36061	13.0213	2.1353	2.45103	0.361657	13.8671	2.17085	2.49426							2.13231	2.45091								
0.362095	14.2632	2.14117	2.45127	0.363083	15.273	2.17714	2.49487							2.13817	2.45115								
0.363493	15.7498	2.14705	2.45153	0.364415	16.9768	2.18343	2.49548							2.14405	2.45139								
0.364796	17.5621	2.15294	2.45179	0.365643	19.0856	2.18972	2.49609							2.14993	2.45165								
0.365991	19.8214	2.15884	2.45206	0.366759	21.7652	2.19601	2.4967							2.15582	2.45192								
0.367071	22.719	2.16475	2.45235	0.367752	25.2867	2.20231	2.4973							2.16173	2.4522								
0.368025	26.573	2.17067	2.45264	0.368615	30.1256									2.16764	2.45249								
0.368847	31.9564	2.17659	2.45295	0.36934	37.1999									2.17356	2.45279								
0.36953	40.0149	2.18253	2.45326	0.369921	48.5389									2.1795	2.4531								
0.370067	53.4207	2.18848	2.45358	0.370354	69.6976									2.18544	2.45341								
0.370454	80.1846	2.19443	2.45391	0.370634	123.285									2.19139	2.45374								
0.370688	160.289	2.20039	2.45424	0.37076	530.463									2.19735	2.45407								
0.370767	70882.8													2.20331	2.45441								
