Sym0		Asym0		Sym1		Sym2		Sym3		Sym4		Sym5		Asym1		Asym2		Asym3		Asym4		Asym5	
388  Points		388  Points		388  Points		376  Points		369  Points		360  Points		150  Points		388  Points		380  Points		366  Points		178  Points		138  Points	
Freq (MHz)	Vph (m/ms)	Freq (MHz)	Vph (m/ms)	Freq (MHz)	Vph (m/ms)	Freq (MHz)	Vph (m/ms)	Freq (MHz)	Vph (m/ms)	Freq (MHz)	Vph (m/ms)	Freq (MHz)	Vph (m/ms)	Freq (MHz)	Vph (m/ms)	Freq (MHz)	Vph (m/ms)	Freq (MHz)	Vph (m/ms)	Freq (MHz)	Vph (m/ms)	Freq (MHz)	Vph (m/ms)
2.20478	2.50136	0.346237	200.088	2.20464	2.50135	0.692229	1169.12	1.28762	1068.69	1.38454	949.442	2.0766	2155.31	0.346146	371.743	0.858395	511.796	1.03836	971.915	1.71626	1169.58	1.7312	1194.11
2.19869	2.50099	0.346804	85.8889	2.19854	2.50098	0.69246	238.821	1.28716	366.478	1.38514	367.833	2.07601	634.694	0.346556	107.01	0.858105	215.354	1.03868	307.688	1.71332	453.882	1.7342	461.569
2.1926	2.50063	0.347819	54.816	2.19245	2.50062	0.692995	133.092	1.28627	221.022	1.38624	228.26	2.0748	371.943	0.347417	62.6435	0.857583	136.297	1.03933	182.878	1.70936	281.043	1.73828	286.628
2.18651	2.50027	0.349275	40.3665	2.18637	2.50026	0.693831	92.335	1.28497	158.11	1.38782	165.602	2.07304	262.887	0.348722	44.4043	0.856836	99.639	1.04029	130.19	1.70505	203.234	1.74278	208.168
2.18043	2.49991	0.351161	32.0402	2.18029	2.49991	0.694962	70.758	1.2833	122.987	1.38984	130.039	2.07082	203.16	0.35046	34.4916	0.855876	78.4718	1.04157	101.143	1.70061	158.981	1.74748	163.631
2.17436	2.49956	0.353462	26.6414	2.17422	2.49956	0.696381	57.4142	1.28131	100.559	1.39225	107.135	2.06821	165.451	0.352619	28.2816	0.854714	64.6815	1.04314	82.7539	1.69613	130.427	1.75228	134.928
2.16829	2.49922	0.356162	22.8679	2.16815	2.49921	0.698078	48.3552	1.27904	84.9902	1.39501	91.1617	2.06529	139.472	0.355183	24.0386	0.853366	54.9793	1.045	70.0744	1.69163	110.479	1.75716	114.891
2.16223	2.49888	0.359243	20.0894	2.16209	2.49887	0.700043	41.8089	1.27653	73.5472	1.39808	79.3913	2.06212	120.484	0.358134	20.9645	0.851848	47.7788	1.04713	60.8086	1.68715	95.7563	1.76208	100.11
2.15617	2.49854	0.362685	17.964	2.15603	2.49853	0.702265	36.8619	1.27383	64.7799	1.40142	70.3615	2.05876	105.998	0.361454	18.6409	0.850178	42.221	1.04952	53.7454	1.68269	84.4446	1.76705	88.7564
2.15012	2.49821	0.366467	16.2896	2.14998	2.4982	0.704731	32.9951	1.27098	57.847	1.40498	63.2169	2.05527	94.5817	0.36512	16.8276	0.848375	37.8	1.05214	48.1859	1.67827	75.4823	1.77204	79.7628
2.14408	2.49788	0.370567	14.9396	2.14394	2.49787	0.707428	29.8921	1.26801	52.2268	1.40875	57.4243	2.05166	85.3526	0.369113	15.3764	0.846456	34.1986	1.05498	43.6982	1.67389	68.207	1.77705	72.4624
2.13804	2.49756	0.374963	13.8303	2.1379	2.49755	0.710343	27.3488	1.26494	47.5787	1.41268	52.634	2.04797	77.7371	0.373409	14.1913	0.84444	31.2078	1.05802	40.001	1.66956	62.1838	1.78208	66.4184
2.13201	2.49725	0.379633	12.9043	2.13187	2.49724	0.713461	25.2277	1.2618	43.6707	1.41675	48.6071	2.04423	71.3463	0.377986	13.2071	0.842346	28.6844	1.06124	36.9036	1.66528	57.1158	1.78712	61.332
2.12599	2.49694	0.384555	12.1209	2.12584	2.49693	0.716768	23.4328	1.25862	40.3392	1.42095	45.1749	2.04045	65.9069	0.382823	12.3782	0.840192	26.5268	1.06464	34.2718	1.66105	52.7928	1.79218	56.9924
2.11997	2.49664	0.389705	11.4505	2.11983	2.49663	0.720249	21.895	1.25542	37.4658	1.42525	42.215	2.03666	61.2215	0.387897	11.6714	0.837995	24.6609	1.06818	32.0084	1.65688	49.0623	1.79724	53.2463
2.11396	2.49634	0.395065	10.8709	2.11382	2.49634	0.723891	20.5633	1.25221	34.9624	1.42965	39.6362	2.03285	57.1437	0.393186	11.0626	0.835773	23.0316	1.07187	30.0417	1.65277	45.8106	1.8023	49.9797
2.10795	2.49605	0.400611	10.3654	2.10781	2.49605	0.72768	19.3994	1.249	32.7622	1.43411	37.3694	2.02906	53.5628	0.39867	10.533	0.833542	21.5968	1.07567	28.3171	1.64873	42.9516	1.80737	47.1061
2.10196	2.49577	0.406325	9.92097	2.10182	2.49577	0.731601	18.3737	1.24582	30.8137	1.43864	35.3614	2.02527	50.3935	0.404328	10.0687	0.831319	20.3242	1.07959	26.7927	1.64475	40.4184	1.81244	44.5584
2.09597	2.4955	0.412185	9.5273	2.09583	2.4955	0.735642	17.4632	1.24266	29.0764	1.44322	33.57	2.02151	47.5688	0.409384	9.70851	0.829119	19.188	1.0836	25.4358	1.64085	38.1588	1.8175	42.2842
2.08999	2.49524	0.418172	9.17629	2.08985	2.49523	0.739789	16.6497	1.23956	27.518	1.44785	31.9621	2.01779	45.0358	0.413777	9.42939	0.826958	18.1678	1.0877	24.2201	1.63702	36.131	1.82255	40.2416
2.08402	2.49498	0.424268	8.86137	2.08388	2.49498	0.744029	15.9185	1.23651	26.1127	1.4525	30.5108	2.01409	42.7517	0.417461	9.21566	0.82485	17.2472	1.09187	23.1248	1.63327	34.3013	1.8276	38.3968
2.07806	2.49474	0.430453	8.57719	2.07792	2.49473	0.748349	15.2577	1.23352	24.8392	1.45718	29.1941	2.01045	40.6818	0.420403	9.05655	0.822811	16.4127	1.0961	22.1329	1.6296	32.6424	1.83264	36.7224
2.0721	2.4945	0.436709	8.31935	2.07196	2.49449	0.752737	14.6576	1.23061	23.6803	1.46188	27.9942	2.00685	38.7975	0.422582	8.94469	0.820856	15.6533	1.10038	21.2302	1.62602	31.1318	1.83766	35.1957
2.06616	2.49427	0.443017	8.08418	2.06602	2.49426	0.757181	14.1101	1.22778	22.6214	1.46659	26.896	2.0033	37.0751	0.423983	8.87527	0.818999	14.9596	1.10471	20.4053	1.62252	29.7505	1.84266	33.7979
2.06022	2.49405	0.449361	7.86862	2.06008	2.49405	0.761669	13.6086	1.22504	21.6505	1.47131	25.887	1.99982	35.4949	0.426005	8.77828	0.817255	14.3241	1.10907	19.6483	1.61912	28.4831	1.84764	32.5133
2.0543	2.49384	0.455721	7.6701	2.05416	2.49384	0.76619	13.1474	1.2224	20.7574	1.47602	24.9568	1.9964	34.0401	0.428213	8.67644	0.815638	13.7401	1.11345	18.9513	1.61581	27.3161	1.8526	31.3285
2.04838	2.49365	0.46208	7.48639	2.04824	2.49364	0.770732	12.7216	1.21986	19.9333	1.48073	24.0962	1.99305	32.6966	0.431231	8.54359	0.814165	13.2021	1.11784	18.3071	1.6126	26.2384	1.85753	30.2323
2.04248	2.49346	0.468421	7.31563	2.04234	2.49346	0.775283	12.3273	1.21744	19.171	1.48542	23.2978	1.98977	31.4523	0.435072	8.38424	0.812849	12.7054	1.12224	17.7099	1.6095	25.2403	1.86244	29.215
2.03658	2.49329	0.474724	7.1562	2.03644	2.49328	0.779834	11.9608	1.21515	18.464	1.49009	22.5548	1.98657	30.2967	0.439745	8.20333	0.811707	12.2458	1.12664	17.1547	1.60651	24.3136	1.86731	28.2682
2.0307	2.49313	0.480973	7.00668	2.03056	2.49312	0.784373	11.6192	1.21298	17.8067	1.49474	21.8617	1.98346	29.2209	0.445257	8.00586	0.810753	11.82	1.13103	16.6371	1.60363	23.4511	1.87215	27.3849
2.02482	2.49298	0.487149	6.86586	2.02468	2.49297	0.788889	11.2999	1.21096	17.1946	1.49937	21.2134	1.98043	28.2171	0.451609	7.7966	0.810004	11.4247	1.13541	16.1531	1.60086	22.6465	1.87695	26.5587
2.01896	2.49284	0.493234	6.73268	2.01882	2.49284	0.793372	11.0005	1.20907	16.6232	1.50395	20.6056	1.97749	27.2784	0.457971	7.60355	0.809475	11.0574	1.13975	15.6996	1.59822	21.8944	1.88171	25.7842
2.01311	2.49272	0.49921	6.60619	2.01297	2.49272	0.797811	10.7191	1.20735	16.089	1.5085	20.0346	1.97465	26.399	0.464325	7.42462	0.809182	10.7157	1.14407	15.2736	1.5957	21.1901	1.88642	25.0565
2.00727	2.49261	0.50506	6.48557	2.00713	2.49261	0.802196	10.454	1.20578	15.5888	1.51301	19.4969	1.97191	25.5734	0.470655	7.25804	0.809141	10.3974	1.14835	14.8725	1.59332	20.5294	1.89108	24.3716
2.00145	2.49252	0.510766	6.37009	2.00131	2.49252	0.806517	10.2035	1.20438	15.1197	1.51746	18.9897	1.96927	24.7972	0.476941	7.10226	0.809368	10.1009	1.15258	14.4942	1.59107	19.9085	1.89569	23.7255
1.99563	2.49244	0.516311	6.25913	1.99549	2.49244	0.810765	9.96626	1.20315	14.6791	1.52186	18.5103	1.96674	24.0661	0.483166	6.95595	0.809795	9.85879	1.15675	14.1365	1.58895	19.3242	1.90025	23.115
1.98983	2.49238	0.521679	6.15212	1.98969	2.49238	0.814399	9.76946	1.20211	14.2648	1.52621	18.0564	1.96433	23.3766	0.489312	6.81795	0.810336	9.66372	1.16087	13.7978	1.58698	18.7734	1.90475	22.5371
1.98404	2.49233	0.526855	6.04857	1.98391	2.49233	0.817442	9.6084	1.20126	13.8748	1.53049	17.6259	1.96203	22.7252	0.495361	6.68723	0.810911	9.50982	1.16492	13.4763	1.58517	18.2536	1.90918	21.9892
1.97827	2.4923	0.531825	5.94806	1.97813	2.4923	0.819917	9.47956	1.2006	13.5072	1.5347	17.2169	1.95986	22.1092	0.501294	6.5629	0.811449	9.39268	1.1689	13.1708	1.5835	17.7625	1.91354	21.4689
1.97251	2.49229	0.536576	5.85022	1.97238	2.49229	0.821847	9.38033	1.20015	13.1605	1.53885	16.8278	1.95781	21.5258	0.507095	6.44418	0.811892	9.30902	1.1728	12.8799	1.58199	17.2979	1.91784	20.9741
1.96677	2.4923	0.541098	5.75475	1.96663	2.4923	0.823249	9.30878	1.1999	12.8331	1.54291	16.457	1.95589	20.9726	0.512746	6.33037	0.812198	9.25654	1.17662	12.6024	1.58065	16.8578	1.92206	20.5029
1.96104	2.49233	0.545382	5.66139	1.9609	2.49233	0.82414	9.2636	1.19987	12.5236	1.5469	16.1032	1.95411	20.4476	0.51823	6.22087	0.812667	9.18255	1.18034	12.3375	1.57947	16.4407	1.9262	20.0535
1.95532	2.49237	0.549422	5.56992	1.95519	2.49237	0.825409	9.19948	1.20005	12.231	1.5508	15.7651	1.95247	19.9488	0.523532	6.11513	0.813217	9.104	1.18398	12.084	1.57846	16.0448	1.93026	19.6243
1.94962	2.49244	0.553215	5.48017	1.94949	2.49244	0.826775	9.13083	1.20046	11.954	1.55461	15.4416	1.95097	19.4744	0.528637	6.0127	0.814034	9.00022	1.18751	11.8412	1.57762	15.6688	1.93423	19.214
1.94394	2.49252	0.556759	5.39203	1.9438	2.49253	0.828607	9.03919	1.20109	11.6917	1.55832	15.1317	1.94962	19.0227	0.53353	5.91318	0.815181	8.87384	1.19094	11.6083	1.57697	15.3114	1.93811	18.8211
1.93827	2.49263	0.560055	5.30539	1.93814	2.49264	0.830884	8.92601	1.20195	11.4431	1.56194	14.8345	1.94842	18.5924	0.538202	5.81621	0.816743	8.72798	1.19426	11.3846	1.57649	14.9714	1.9419	18.4446
1.93262	2.49276	0.563106	5.2202	1.93249	2.49277	0.833572	8.79298	1.20305	11.2073	1.56546	14.5491	1.94737	18.1821	0.54264	5.72151	0.81882	8.56611	1.19747	11.1696	1.5762	14.6476	1.94559	18.0833
1.92699	2.49292	0.565921	5.13642	1.92685	2.49292	0.836633	8.64196	1.20437	10.9835	1.56888	14.2748	1.94649	17.7906	0.546839	5.62884	0.821534	8.39194	1.20057	10.9625	1.57609	14.3392	1.94918	17.7363
1.92137	2.49309	0.568505	5.05403	1.92124	2.4931	0.840015	8.47491	1.20593	10.7711	1.5722	14.0108	1.94576	17.4166	0.550792	5.53799	0.824604	8.22934	1.20355	10.763	1.57617	14.0451	1.95266	17.4027
1.91577	2.49329	0.57087	4.97305	1.91564	2.4933	0.843252	8.31402	1.20772	10.5692	1.5754	13.7565	1.94519	17.0592	0.554496	5.44883	0.828032	8.07754	1.20641	10.5704	1.57644	13.7645	1.95604	17.0815
1.91019	2.49352	0.573027	4.89348	1.91006	2.49352	0.846339	8.15885	1.20974	10.3773	1.5785	13.5113	1.9448	16.7175	0.557952	5.36123	0.831813	7.9358	1.20916	10.3845	1.5769	13.4966	1.95931	16.7721
1.90463	2.49377	0.574989	4.81535	1.9045	2.49377	0.849271	8.00897	1.21198	10.1948	1.58148	13.2747	1.94457	16.3904	0.561161	5.27511	0.835945	7.80344	1.21178	10.2049	1.57755	13.2407	1.96247	16.4738
1.89908	2.49404	0.576769	4.73869	1.89895	2.49405	0.852045	7.86401	1.21412	10.0429	1.58436	13.0461	1.94451	16.0772	0.564128	5.19042	0.840419	7.67979	1.21397	10.0531	1.57839	12.996	1.96551	16.1858
1.89356	2.49435	0.578383	4.66353	1.89343	2.49435	0.854658	7.72364	1.21607	9.91845	1.58712	12.8252	1.94461	15.7771	0.56686	5.10713	0.845227	7.56423	1.21577	9.92707	1.57942	12.762	1.96844	15.9077
1.88806	2.49468	0.579843	4.58992	1.88793	2.49469	0.857107	7.58756	1.21777	9.81884	1.58977	12.6115	1.94489	15.4894	0.569366	5.02524	0.850355	7.45616	1.21721	9.82511	1.58063	12.5381	1.97126	15.6388
1.88257	2.49504	0.581166	4.51787	1.88244	2.49505	0.859392	7.4555	1.21918	9.74213	1.59231	12.4046	1.94534	15.2134	0.571656	4.94475	0.855792	7.35502	1.21832	9.74589	1.58203	12.3236	1.97396	15.3787
1.8771	2.49542	0.582365	4.44742	1.87698	2.49543	0.861513	7.32722	1.22024	9.68684	1.59474	12.2041	1.94596	14.9485	0.573743	4.86568	0.861522	7.26029	1.21912	9.6884	1.58361	12.1181	1.97654	15.1269
1.87166	2.49584	0.583455	4.37859	1.87153	2.49585	0.86347	7.20252	1.22094	9.65194	1.59707	12.0099	1.94675	14.6941	0.575639	4.78807	0.867529	7.17147	1.21962	9.65194	1.58536	11.921	1.97901	14.883
1.86623	2.49629	0.58445	4.31139	1.86611	2.4963	0.865266	7.08121	1.22195	9.60243	1.59929	11.8215	1.9477	14.4496	0.577358	4.71194	0.873797	7.08808	1.22033	9.59999	1.58729	11.732	1.98136	14.6465
1.86083	2.49677	0.585362	4.24585	1.8607	2.49678	0.866902	6.96311	1.22308	9.54947	1.60142	11.6387	1.94882	14.2146	0.578916	4.63733	0.880307	7.00969	1.22109	9.54411	1.58938	11.5504	1.9836	14.4171
1.85545	2.49727	0.586204	4.18197	1.85532	2.49729	0.868383	6.84808	1.22466	9.47884	1.60345	11.4612	1.95009	13.9885	0.580326	4.56426	0.887043	6.93589	1.22211	9.46909	1.59164	11.3761	1.98573	14.1946
1.85009	2.49782	0.586989	4.11975	1.84996	2.49783	0.869712	6.736	1.22672	9.39175	1.60539	11.2889	1.95153	13.7708	0.581603	4.49277	0.893984	6.86628	1.22336	9.37579	1.59405	11.2085	1.98775	13.9785
1.84475	2.49839	0.587726	4.05919	1.84462	2.4984	0.870894	6.62673	1.22931	9.28965	1.60725	11.1215	1.95312	13.5613	0.582762	4.42289	0.901114	6.80053	1.22481	9.26525	1.59661	11.0472	1.98967	13.7685
1.83943	2.499	0.588339	4.00777	1.8393	2.49901	0.871935	6.52017	1.23247	9.17414	1.60902	10.9589	1.95486	13.3593	0.583817	4.35464	0.908414	6.73828	1.22646	9.13867	1.59931	10.892	1.99149	13.5646
1.83413	2.49963	0.588845	3.96492	1.83401	2.49965	0.87284	6.41624	1.23626	9.04698	1.61073	10.8008	1.95674	13.1646	0.584781	4.28803	0.915865	6.67923	1.22826	8.9974	1.60214	10.7425	1.99322	13.3662
1.82886	2.50031	0.589254	3.93016	1.82873	2.50033	0.873617	6.31483	1.24022	8.92522	1.61238	10.6471	1.95876	12.9767	0.585667	4.22307	0.92345	6.6231	1.22998	8.86023	1.6051	10.5984	1.99485	13.1734
1.8236	2.50102	0.589574	3.90312	1.82348	2.50103	0.87427	6.21588	1.24433	8.80853	1.61398	10.4976	1.96091	12.7954	0.586488	4.15978	0.93115	6.56961	1.23162	8.72702	1.60818	10.4593	1.99641	12.9858
1.81837	2.50176	0.589807	3.88348	1.81825	2.50178	0.874808	6.11932	1.24858	8.69659	1.61533	10.3708	1.96319	12.6202	0.587254	4.09815	0.938948	6.5185	1.2332	8.59766	1.61095	10.3421	1.99788	12.8032
1.81316	2.50254	0.589955	3.87101	1.81304	2.50256	0.875238	6.02508	1.25297	8.5891	1.61646	10.2651	1.96559	12.451	0.587978	4.03818	0.946826	6.46956	1.23473	8.47203	1.61337	10.2449	1.99929	12.6256
1.80798	2.50335	0.590168	3.85324	1.80786	2.50337	0.875566	5.9331	1.25747	8.48577	1.61738	10.1793	1.9681	12.2873	0.588669	3.97985	0.954764	6.42254	1.23622	8.35004	1.61542	10.1664	2.00064	12.4526
1.80281	2.5042	0.590399	3.83412	1.80269	2.50422	0.8758	5.84332	1.26209	8.38633	1.6181	10.1125	1.97071	12.1289	0.589337	3.92317	0.962746	6.37725	1.23768	8.23162	1.61706	10.1054	2.00193	12.2842
1.79767	2.50509	0.590713	3.80844	1.79755	2.50511	0.875947	5.75569	1.2668	8.29053	1.61863	10.064	1.97343	11.9755	0.58999	3.8681	0.970753	6.33348	1.23913	8.11669	1.61827	10.0612	2.00318	12.1203
1.79255	2.50601	0.591111	3.7765	1.79243	2.50604	0.876014	5.67016	1.2716	8.19812	1.61897	10.0332	1.97623	11.8269	0.590637	3.81464	0.978764	6.29105	1.24058	8.0052	1.61906	10.0332	2.00439	11.9606
1.78746	2.50698	0.591596	3.73865	1.78734	2.507	0.876008	5.58669	1.27646	8.10888	1.61945	9.98928	1.97912	11.6829	0.591286	3.76275	0.986762	6.24976	1.24205	7.8971	1.6202	9.99331	2.00557	11.8051
1.78238	2.50797	0.592174	3.69535	1.78226	2.508	0.875936	5.50522	1.28139	8.0226	1.61998	9.94199	1.98208	11.5431	0.591943	3.71242	0.994725	6.20945	1.24355	7.79236	1.62144	9.9504	2.00673	11.6537
1.77733	2.50901	0.592852	3.64706	1.77721	2.50903	0.875805	5.42571	1.28637	7.93906	1.62069	9.87842	1.9851	11.4075	0.592614	3.66362	1.00263	6.16994	1.24512	7.69096	1.62314	9.89283	2.00788	11.5062
1.77229	2.51008	0.593553	3.60027	1.77218	2.51011	0.875621	5.34812	1.29138	7.85808	1.62159	9.79926	1.98819	11.2757	0.593307	3.61631	1.01046	6.13107	1.24676	7.59287	1.62533	9.82127	2.00902	11.3625
1.76728	2.51119	0.594282	3.55494	1.76717	2.51122	0.875391	5.27241	1.29641	7.77947	1.62269	9.70536	1.99133	11.1476	0.594026	3.57048	1.01819	6.09268	1.2485	7.4981	1.62799	9.73655	2.01018	11.2226
1.76229	2.51234	0.595044	3.51104	1.76218	2.51237	0.87512	5.19854	1.30145	7.70306	1.62399	9.5977	1.99451	11.023	0.594776	3.52609	1.0258	6.0546	1.25036	7.40665	1.63116	9.63958	2.01135	11.0863
1.75733	2.51352	0.595843	3.46853	1.75721	2.51355	0.874815	5.12646	1.30649	7.62869	1.6255	9.47741	1.99772	10.9018	0.595562	3.4831	1.03326	6.01667	1.25237	7.31853	1.63484	9.53135	2.01254	10.9536
1.75238	2.51474	0.596683	3.42738	1.75226	2.51477	0.874481	5.05613	1.31151	7.5562	1.62706	9.36054	2.00096	10.7837	0.596387	3.44148	1.04054	5.97875	1.25455	7.23374	1.63856	9.42621	2.01377	10.8243
1.74745	2.516	0.597568	3.38757	1.74733	2.51603	0.874123	4.98752	1.3165	7.48544	1.62866	9.24703	2.00381	10.6832	0.597256	3.40121	1.04762	5.94069	1.25694	7.15232	1.6423	9.32399	2.01488	10.7145
1.74254	2.5173	0.598502	3.34905	1.74242	2.51733	0.873747	4.92059	1.32145	7.41627	1.63033	9.13681	2.00624	10.5993	0.598173	3.36225	1.05448	5.90234	1.25954	7.07427	1.64607	9.22452	2.01586	10.6228
1.73765	2.51863	0.599486	3.3118	1.73753	2.51866	0.873357	4.85531	1.32634	7.34857	1.63207	9.02981	2.00825	10.5311	0.599139	3.32457	1.06108	5.86358	1.2624	6.99963	1.64984	9.12763	2.01669	10.5484
1.73278	2.51999	0.600525	3.27578	1.73266	2.52002	0.872958	4.79162	1.33116	7.2822	1.63391	8.926	2.00984	10.4779	0.600159	3.28812	1.06741	5.82428	1.26554	6.9284	1.65361	9.03319	2.01736	10.4905
1.72792	2.52139	0.60162	3.24096	1.72781	2.52142	0.872554	4.72951	1.33591	7.21706	1.63584	8.82531	2.01101	10.4391	0.601234	3.25289	1.07344	5.78435	1.26899	6.86058	1.65738	8.94106	2.01787	10.4483
1.72308	2.52282	0.602773	3.20731	1.72297	2.52286	0.87215	4.66892	1.34056	7.15303	1.63788	8.7277	2.01176	10.4145	0.602367	3.21884	1.07915	5.74368	1.27276	6.79618	1.66112	8.85109	2.01819	10.4216
1.71826	2.52429	0.603987	3.17479	1.71814	2.52432	0.87175	4.60984	1.34511	7.09	1.64005	8.6331	2.01284	10.3793	0.60356	3.18593	1.08452	5.70223	1.27687	6.73516	1.66484	8.76317	2.01867	10.3834
1.71344	2.52578	0.605264	3.14338	1.71333	2.52582	0.871356	4.55222	1.34954	7.02789	1.64236	8.54148	2.01401	10.3414	0.604815	3.15414	1.08953	5.65995	1.28134	6.67749	1.66853	8.67718	2.0192	10.3423
1.70865	2.5273	0.606604	3.11304	1.70853	2.52734	0.870974	4.49602	1.35385	6.96661	1.6448	8.45278	2.0156	10.2904	0.606133	3.12343	1.09419	5.61682	1.28619	6.6231	1.67217	8.593	2.01994	10.287
1.70386	2.52885	0.60801	3.08373	1.70374	2.52889	0.870606	4.44122	1.35802	6.90607	1.64741	8.36695	2.0176	10.2266	0.607516	3.09377	1.09849	5.57286	1.29141	6.57191	1.67576	8.51055	2.0209	10.2181
1.69908	2.53042	0.609483	3.05545	1.69896	2.53046	0.870255	4.38779	1.36204	6.8462	1.65018	8.28393	2.02002	10.1507	0.608965	3.06513	1.10242	5.52809	1.29701	6.52381	1.67929	8.4297	2.0221	10.1363
1.6943	2.53201	0.611023	3.02814	1.69419	2.53205	0.869925	4.33568	1.36591	6.78694	1.65312	8.20367	2.02284	10.0631	0.610481	3.03749	1.10599	5.48258	1.30299	6.47867	1.68276	8.35039	2.02357	10.0425
1.68953	2.53362	0.612631	3.00178	1.68942	2.53365	0.869618	4.28487	1.36962	6.72822	1.65624	8.12611	2.02605	9.96472	0.612066	3.01081	1.10922	5.4364	1.30933	6.43636	1.68615	8.27252	2.02536	9.93756
1.68476	2.53523	0.614309	2.97635	1.68464	2.53527	0.869337	4.23534	1.37316	6.67001	1.65955	8.05119	2.02923	9.86836	0.61372	2.98506	1.11212	5.38965	1.31602	6.3967	1.68947	8.19601	2.02725	9.83547
1.67998	2.53685	0.616056	2.95182	1.67987	2.53689	0.869085	4.18704	1.37653	6.61225	1.66304	7.97884	2.03236	9.77395	0.615443	2.96022	1.1147	5.34242	1.32305	6.35955	1.6927	8.12079	2.02925	9.73618
1.67519	2.53847	0.617874	2.92816	1.67508	2.53851	0.868863	4.13995	1.37971	6.55491	1.66674	7.90901	2.03546	9.6814	0.617237	2.93626	1.11699	5.29482	1.3304	6.32471	1.69585	8.0468	2.03136	9.63962
1.67039	2.54007	0.619763	2.90534	1.67028	2.54011	0.868675	4.09404	1.38272	6.49796	1.67063	7.84161	2.0385	9.59063	0.619101	2.91315	1.119	5.24697	1.33804	6.29204	1.6989	7.97398	2.0336	9.54572
1.66557	2.54166	0.621723	2.88334	1.66545	2.54169	0.868522	4.04929	1.38555	6.44139	1.67472	7.77658	2.0415	9.50156	0.621036	2.89087	1.12075	5.19896	1.34596	6.26135	1.70185	7.90226	2.03596	9.45441
1.66071	2.5432	0.623755	2.86214	1.6606	2.54324	0.868406	4.00566	1.38819	6.38517	1.679	7.71383	2.04443	9.41413	0.623043	2.86939	1.12228	5.1509	1.35414	6.23249	1.70471	7.83161	2.03845	9.36563
1.65582	2.54471	0.625858	2.8417	1.65571	2.54474	0.86833	3.96312	1.39064	6.3293	1.68349	7.6533	2.04731	9.32825	0.625121	2.84869	1.12359	5.10289	1.36255	6.20529	1.70746	7.76198	2.04108	9.27931
1.65089	2.54615	0.628033	2.82201	1.65077	2.54618	0.868295	3.92166	1.39292	6.27377	1.68816	7.5949	2.05012	9.24388	0.627271	2.82875	1.12472	5.05502	1.37117	6.17961	1.71011	7.69333	2.04384	9.1954
1.64589	2.54751	0.630279	2.80304	1.64577	2.54754	0.868302	3.88125	1.39502	6.21859	1.69303	7.53854	2.05286	9.16094	0.629493	2.80953	1.12567	5.00737	1.37998	6.15532	1.71266	7.62563	2.04673	9.11381
1.64083	2.54878	0.632598	2.78477	1.64071	2.54881	0.868354	3.84186	1.39694	6.16376	1.69808	7.48414	2.05554	9.07939	0.631786	2.79102	1.12646	4.96	1.38897	6.13228	1.7151	7.55885	2.04976	9.03448
1.63569	2.54994	0.634988	2.76719	1.63557	2.54997	0.868452	3.80346	1.39869	6.10929	1.70331	7.43161	2.05815	8.99919	0.634152	2.7732	1.12712	4.91299	1.39811	6.11038	1.71744	7.49297	2.05293	8.95734
1.63047	2.55097	0.637449	2.75026	1.63035	2.551	0.868596	3.76604	1.40028	6.05519	1.70871	7.38087	2.06068	8.92028	0.636589	2.75605	1.12766	4.86639	1.40738	6.0895	1.71968	7.42797	2.05623	8.88233
1.62516	2.55188	0.639983	2.73397	1.62503	2.5519	0.86879	3.72956	1.4017	6.00147	1.71428	7.33184	2.06315	8.84263	0.639097	2.73955	1.12809	4.82025	1.41677	6.06954	1.72183	7.36384	2.05967	8.80937
1.61975	2.55264	0.642588	2.71831	1.61963	2.55265	0.869033	3.69402	1.40297	5.94816	1.72	7.28442	2.06554	8.7662	0.641678	2.72367	1.12843	4.77461	1.42626	6.0504	1.72388	7.30057	2.06324	8.7384
1.61426	2.55326	0.645265	2.70325	1.61413	2.55327	0.869328	3.65938	1.4041	5.89526	1.72587	7.23854	2.06787	8.69097	0.64433	2.7084	1.12868	4.72951	1.43585	6.03201	1.72584	7.23816	2.06694	8.66934
1.60867	2.55375	0.648014	2.68877	1.60854	2.55376	0.869675	3.62562	1.40509	5.8428	1.73187	7.1941	2.07013	8.61689	0.647054	2.69372	1.12886	4.68497	1.4455	6.01426	1.72773	7.17661	2.07076	8.60213
1.60301	2.55411	0.650836	2.67487	1.60287	2.55411	0.870075	3.59273	1.40594	5.79078	1.738	7.15102	2.07232	8.54397	0.64985	2.67962	1.12898	4.64103	1.45521	5.99709	1.72954	7.11592	2.07471	8.53669
1.59726	2.55435	0.653731	2.66153	1.59713	2.55435	0.870529	3.56068	1.40667	5.73924	1.74425	7.10923	2.07445	8.47216	0.65272	2.66609	1.12905	4.5977	1.46496	5.98042	1.73128	7.05611	2.07877	8.47296
1.59146	2.55449	0.656701	2.64874	1.59132	2.55449	0.871039	3.52946	1.40728	5.68818	1.7506	7.06864	2.07653	8.40147	0.655663	2.65311	1.12907	4.55499	1.47475	5.96418	1.73297	6.9972	2.08294	8.41087
1.58559	2.55453	0.659747	2.63649	1.58545	2.55453	0.871604	3.49903	1.40778	5.63762	1.75705	7.02917	2.07855	8.33187	0.658683	2.64067	1.12906	4.51292	1.48454	5.94829	1.73462	6.93919	2.08722	8.35034
1.57967	2.55449	0.662872	2.62478	1.57953	2.55449	0.872227	3.4694	1.40817	5.58758	1.76357	6.99076	2.08052	8.26335	0.66178	2.62877	1.12902	4.4715	1.49434	5.93268	1.73623	6.88212	2.0916	8.29131
1.57371	2.55438	0.666083	2.61361	1.57357	2.55438	0.872907	3.44053	1.40847	5.53806	1.77017	6.95332	2.08246	8.19592	0.664961	2.61741	1.12895	4.43074	1.50411	5.91728	1.73783	6.82602	2.09606	8.23371
1.56771	2.55421	0.669386	2.603	1.56757	2.55421	0.873647	3.4124	1.40868	5.48909	1.77683	6.91678	2.08436	8.12957	0.66823	2.60661	1.12886	4.39064	1.51385	5.90203	1.73942	6.77092	2.10062	8.17748
1.56168	2.55399	0.672794	2.59299	1.56154	2.55398	0.874445	3.38502	1.40881	5.44066	1.78353	6.88107	2.08623	8.06429	0.6716	2.59639	1.12876	4.3512	1.52354	5.88684	1.74103	6.71686	2.10525	8.12255
1.55562	2.55371	0.676331	2.58365	1.55548	2.55371	0.875303	3.35834	1.40886	5.3928	1.79027	6.84612	2.08808	8.0001	0.675089	2.5868	1.12865	4.31242	1.53315	5.87164	1.74268	6.6639	2.10995	8.06885
1.54954	2.5534	0.680034	2.57509	1.54939	2.55339	0.876222	3.33237	1.40884	5.34551	1.79703	6.81186	2.08992	7.937	0.678729	2.57795	1.12854	4.27431	1.54267	5.85633	1.74439	6.6121	2.11471	8.01633
1.54343	2.55305	0.683969	2.56756	1.54329	2.55304	0.877203	3.30707	1.40876	5.2988	1.8038	6.77823	2.09177	7.87499	0.682574	2.57004	1.12842	4.23686	1.55207	5.84084	1.74619	6.56152	2.11953	7.96492
1.53731	2.55266	0.688236	2.56139	1.53717	2.55265	0.878245	3.28245	1.40861	5.25268	1.81056	6.74516	2.09362	7.81409	0.686713	2.56335	1.12832	4.20006	1.56132	5.82507	1.7481	6.51223	2.12439	7.91455
1.53117	2.55225	0.692942	2.55695	1.53103	2.55224	0.87935	3.25848	1.40842	5.20714	1.81731	6.71259	2.0955	7.7543	0.691257	2.55828	1.12821	4.16391	1.57039	5.8089	1.75016	6.46433	2.12928	7.86518
1.52502	2.55181	0.698118	2.5543	1.52488	2.5518	0.880518	3.23515	1.40817	5.16219	1.82402	6.68044	2.0974	7.69566	0.696275	2.55503	1.12812	4.12841	1.57924	5.79223	1.75239	6.4179	2.13421	7.81674
1.51886	2.55135	0.70368	2.5531	1.51871	2.55134	0.88175	3.21244	1.40788	5.11784	1.83068	6.64867	2.09936	7.63816	0.701718	2.55338	1.12804	4.09355	1.58785	5.77494	1.75485	6.37305	2.13914	7.76917
1.51268	2.55086	0.709499	2.55284	1.51254	2.55085	0.883046	3.19034	1.40755	5.07409	1.83729	6.6172	2.10137	7.58184	0.707461	2.55285	1.12797	4.05933	1.59618	5.75689	1.75758	6.3299	2.14409	7.72242
1.5065	2.55036	0.715475	2.55314	1.50635	2.55035	0.884408	3.16884	1.40719	5.03094	1.84381	6.58597	2.10346	7.52671	0.713392	2.55299	1.12793	4.02573	1.60417	5.73796	1.76061	6.28855	2.14904	7.67643
1.50031	2.54984	0.721546	2.55378	1.50016	2.54983	0.885835	3.14793	1.4068	4.98838	1.85025	6.55493	2.10564	7.47279	0.719435	2.55353	1.1279	3.99275	1.61179	5.71802	1.76399	6.24913	2.15397	7.63116
1.49411	2.5493	0.727675	2.55461	1.49396	2.54929	0.887328	3.12759	1.40638	4.94643	1.85657	6.52401	2.10791	7.42011	0.725547	2.55431	1.1279	3.96038	1.61899	5.69694	1.76776	6.21173	2.15888	7.58655
1.4879	2.54875	0.733842	2.55556	1.48776	2.54873	0.888888	3.10782	1.40594	4.90506	1.86278	6.49315	2.11031	7.36869	0.731703	2.55522	1.12791	3.92862	1.62574	5.67461	1.77198	6.17646	2.16377	7.54255
1.48169	2.54818	0.740034	2.55658	1.48155	2.54816	0.890515	3.08859	1.40548	4.8643	1.86884	6.46231	2.11283	7.31855	0.737887	2.55622	1.12796	3.89745	1.632	5.65095	1.77666	6.14337	2.16861	7.49911
1.47548	2.5476	0.746242	2.55764	1.47533	2.54758	0.892211	3.0699	1.405	4.82412	1.87475	6.43142	2.11551	7.26972	0.74409	2.55727	1.12803	3.86687	1.63774	5.62589	1.78184	6.11251	2.1734	7.45619
1.46926	2.547	0.752462	2.55872	1.46911	2.54699	0.893976	3.05175	1.40451	4.78453	1.88048	6.40044	2.11835	7.22221	0.750306	2.55834	1.12813	3.83687	1.64296	5.59943	1.78753	6.08387	2.17813	7.41373
1.46303	2.5464	0.75869	2.55981	1.46288	2.54638	0.895811	3.03411	1.40401	4.74552	1.88603	6.36931	2.12137	7.17605	0.756532	2.55943	1.12827	3.80744	1.64764	5.57158	1.79373	6.05741	2.18279	7.37171
1.4568	2.54578	0.764923	2.56091	1.45665	2.54576	0.897717	3.01699	1.4035	4.7071	1.89139	6.338	2.12458	7.13125	0.762763	2.56053	1.12843	3.77857	1.6518	5.54241	1.80044	6.03304	2.18738	7.33008
1.45057	2.54515	0.771159	2.56199	1.45042	2.54514	0.899694	3.00037	1.40299	4.66925	1.89652	6.30645	2.128	7.08783	0.768998	2.56162	1.12863	3.75025	1.65546	5.51201	1.80762	6.01065	2.19188	7.28879
1.44433	2.54451	0.777398	2.56307	1.44419	2.5445	0.901744	2.98424	1.40247	4.63197	1.90144	6.27465	2.13163	7.04579	0.775236	2.5627	1.12886	3.72248	1.65865	5.48051	1.81527	5.99011	2.19628	7.24782
1.4381	2.54386	0.783638	2.56414	1.43795	2.54385	0.903868	2.9686	1.40196	4.59525	1.90612	6.24255	2.1355	7.00514	0.781476	2.56377	1.12912	3.69524	1.66139	5.44805	1.82333	5.97125	2.20058	7.20712
1.43186	2.5432	0.789878	2.56519	1.43171	2.54319	0.906067	2.95344	1.40145	4.55909	1.91055	6.21015	2.1396	6.96588	0.787716	2.56483	1.12942	3.66853	1.66374	5.41476	1.83178	5.95392		
1.42561	2.54254	0.796119	2.56623	1.42547	2.54252	0.908343	2.93876	1.40094	4.52349	1.91473	6.17741	2.14395	6.92799	0.793957	2.56587	1.12976	3.64233	1.66572	5.3808	1.84057	5.93796		
1.41937	2.54186	0.802358	2.56725	1.41922	2.54184	0.910697	2.92454	1.40044	4.48843	1.91866	6.14435	2.14855	6.89147	0.800197	2.5669	1.13014	3.61664	1.66738	5.34631	1.84967	5.92323		
1.41312	2.54117	0.808598	2.56825	1.41297	2.54116	0.913131	2.91079	1.39995	4.45392	1.92233	6.11095	2.15341	6.8563	0.806436	2.5679	1.13056	3.59146	1.66875	5.31141	1.85904	5.90957		
1.40687	2.54048	0.814836	2.56923	1.40673	2.54047	0.915647	2.8975	1.39947	4.41994	1.92575	6.07722	2.15851	6.82244	0.812675	2.56889	1.13101	3.56676	1.66986	5.27621	1.86865	5.89688		
1.40063	2.53978	0.821072	2.5702	1.40048	2.53976	0.918247	2.88466	1.399	4.38649	1.9289	6.04318	2.16387	6.78986	0.818912	2.56987	1.13151	3.54255	1.67076	5.24083	1.87847	5.88502		
1.39438	2.53907	0.827307	2.57114	1.39423	2.53905	0.920932	2.87228	1.39854	4.35356	1.93181	6.00884	2.16948	6.75852	0.825147	2.57082	1.13205	3.51881	1.67146	5.20534	1.88848	5.87391		
1.38813	2.53835	0.83354	2.57207	1.38798	2.53834	0.923706	2.86035	1.3981	4.32115	1.93446	5.97423	2.17533	6.72839	0.831381	2.57175	1.13263	3.49554	1.67198	5.16982	1.89865	5.86345		
1.38187	2.53763	0.839771	2.57298	1.38173	2.53761	0.926572	2.84886	1.39767	4.28924	1.93688	5.93937	2.18142	6.6994	0.837613	2.57267	1.13325	3.47273	1.67236	5.13436	1.90895	5.85356		
1.37562	2.5369	0.846	2.57387	1.37548	2.53688	0.929532	2.83783	1.39727	4.25784	1.93907	5.9043	2.18773	6.67151	0.843843	2.57356	1.13391	3.45037	1.6726	5.09898	1.91938	5.84418		
1.36937	2.53616	0.852227	2.57474	1.36922	2.53615	0.932588	2.82725	1.39688	4.22694	1.94103	5.86905	2.19426	6.64467	0.85007	2.57444	1.13462	3.42845	1.67273	5.06376	1.92991	5.83524		
1.36312	2.53542	0.858451	2.57559	1.36297	2.5354	0.935746	2.81711	1.39651	4.19652	1.94279	5.83365	2.201	6.61882	0.856296	2.5753	1.13537	3.40696	1.67276	5.02873	1.94052	5.82669		
1.35687	2.53467	0.864674	2.57642	1.35672	2.53465	0.939007	2.80743	1.39616	4.16659	1.94434	5.79814			0.862519	2.57613	1.13617	3.38591	1.6727	4.99392	1.95121	5.81847		
1.35062	2.53391	0.870893	2.57723	1.35047	2.53389	0.942375	2.7982	1.39584	4.13713	1.9457	5.76255			0.868739	2.57695	1.13701	3.36527	1.67257	4.95935	1.96196	5.81054		
1.34437	2.53315	0.877111	2.57803	1.34422	2.53313	0.945854	2.78941	1.39553	4.10814	1.94689	5.72693			0.874957	2.57776	1.13789	3.34504	1.67237	4.92507	1.97276	5.80287		
1.33811	2.53238	0.883325	2.5788	1.33797	2.53237	0.949447	2.78109	1.39526	4.07961	1.94791	5.69129			0.881173	2.57854	1.13882	3.32522	1.67212	4.89108	1.98359	5.7954		
1.33187	2.53161	0.889537	2.57956	1.33172	2.53159	0.953156	2.77321	1.39501	4.05154	1.94877	5.65568			0.887385	2.5793	1.1398	3.3058	1.67181	4.85741	1.99445	5.78812		
1.32562	2.53083	0.895746	2.5803	1.32547	2.53082	0.956985	2.76578	1.39478	4.02392	1.94948	5.62013			0.893595	2.58005	1.14082	3.28676	1.67147	4.82406	2.00533	5.78097		
1.31937	2.53005	0.901952	2.58103	1.31922	2.53003	0.960935	2.7588	1.39458	3.99674	1.95007	5.58466			0.899803	2.58078	1.14188	3.26811	1.67108	4.79104	2.01621	5.77392		
1.31312	2.52927	0.908155	2.58173	1.31298	2.52925	0.965006	2.75225	1.39441	3.97	1.95052	5.5493			0.906007	2.58149	1.143	3.24984	1.67067	4.75838	2.02708	5.76695		
1.30688	2.52848	0.914356	2.58242	1.30673	2.52846	0.9692	2.74614	1.39427	3.94368	1.95087	5.51407			0.912208	2.58218	1.14416	3.23193	1.67023	4.72607	2.03793	5.76001		
1.30064	2.52768	0.920553	2.58309	1.30049	2.52766	0.973516	2.74045	1.39415	3.91779	1.9511	5.479			0.918406	2.58286	1.14537	3.21439	1.66977	4.69412	2.04875	5.75306		
1.2944	2.52689	0.926747	2.58374	1.29425	2.52687	0.977951	2.73517	1.39407	3.89232	1.95124	5.44411			0.924601	2.58351	1.14662	3.19721	1.66929	4.66253	2.05951	5.74606		
1.28816	2.52609	0.932937	2.58437	1.28801	2.52607	0.982503	2.73028	1.39402	3.86726	1.95128	5.40942			0.930793	2.58415	1.14792	3.18038	1.6688	4.63131	2.07021	5.73897		
1.28192	2.52529	0.939125	2.58499	1.28178	2.52527	0.987167	2.72577	1.394	3.8426	1.95125	5.37494			0.936982	2.58478	1.14927	3.16389	1.6683	4.60046	2.08083	5.73174		
1.27569	2.52449	0.945309	2.58559	1.27555	2.52447	0.99194	2.72161	1.39401	3.81834	1.95114	5.34068			0.943167	2.58538	1.15067	3.14774	1.66779	4.56998	2.09134	5.7243		
1.26946	2.52368	0.951489	2.58617	1.26932	2.52367	0.996815	2.71778	1.39405	3.79448	1.95095	5.30667			0.949349	2.58597	1.15211	3.13192	1.66728	4.53987	2.10171	5.71659		
1.26324	2.52288	0.957666	2.58674	1.26309	2.52286	1.00179	2.71426	1.39412	3.771	1.95071	5.27291			0.955527	2.58654	1.1536	3.11643	1.66676	4.51013	2.11192	5.70852		
1.25702	2.52208	0.963839	2.58729	1.25687	2.52206	1.00685	2.71102	1.39423	3.7479	1.95041	5.23942			0.961701	2.5871	1.15514	3.10126	1.66625	4.48077	2.12192	5.70001		
1.2508	2.52128	0.970008	2.58782	1.25066	2.52126	1.01199	2.70805	1.39437	3.72518	1.95005	5.20619			0.967872	2.58764	1.15673	3.08641	1.66574	4.45177	2.13168	5.69095		
1.24459	2.52048	0.976173	2.58833	1.24444	2.52047	1.01722	2.70532	1.39455	3.70282	1.94965	5.17325			0.974038	2.58816	1.15837	3.07186	1.66523	4.42314	2.14114	5.68121		
1.23838	2.51969	0.982334	2.58883	1.23824	2.51967	1.02251	2.70282	1.39476	3.68083	1.94921	5.1406			0.9802	2.58866	1.16005	3.05762	1.66473	4.39488	2.15024	5.67065		
1.23219	2.5189	0.988491	2.58931	1.23204	2.51888	1.02787	2.70051	1.39501	3.6592	1.94872	5.10824			0.986359	2.58915	1.16179	3.04368	1.66424	4.36698	2.15893	5.65912		
1.22599	2.51812	0.994643	2.58977	1.22585	2.5181	1.03329	2.69839	1.39529	3.63792	1.94821	5.07618			0.992512	2.58961	1.16357	3.03003	1.66376	4.33944	2.16712	5.64645		
1.21981	2.51734	1.00079	2.59022	1.21966	2.51733	1.03876	2.69643	1.3956	3.61698	1.94766	5.04443			0.998662	2.59007	1.1654	3.01667	1.66329	4.31226	2.17476	5.63248		
1.21363	2.51658	1.00693	2.59065	1.21348	2.51656	1.04428	2.69462	1.39596	3.59639	1.94708	5.01298			1.00481	2.5905	1.16728	3.0036	1.66283	4.28544	2.18177	5.61707		
1.20746	2.51582	1.01307	2.59105	1.20731	2.51581	1.04984	2.69294	1.39635	3.57614	1.94648	4.98184			1.01095	2.59091	1.16921	2.99081	1.66239	4.25897	2.1881	5.60011		
1.2013	2.51508	1.0192	2.59145	1.20115	2.51506	1.05545	2.69139	1.39677	3.55621	1.94586	4.95101			1.01708	2.59131	1.17119	2.97829	1.66196	4.23285	2.19373	5.58155		
1.19515	2.51435	1.02533	2.59182	1.19501	2.51434	1.06109	2.68995	1.39724	3.53662	1.94522	4.9205			1.02321	2.59169	1.17322	2.96604	1.66154	4.20707	2.19864	5.56141		
1.18901	2.51364	1.03145	2.59217	1.18887	2.51363	1.06676	2.6886	1.39774	3.51734	1.94457	4.8903			1.02933	2.59205	1.17529	2.95406	1.66115	4.18164	2.20287	5.53975		
1.18289	2.51295	1.03757	2.59251	1.18274	2.51294	1.07247	2.68735	1.39827	3.49838	1.9439	4.86042			1.03545	2.5924	1.17742	2.94234	1.66077	4.15655				
1.17678	2.51229	1.04368	2.59283	1.17663	2.51227	1.0782	2.68618	1.39885	3.47973	1.94322	4.83085			1.04156	2.59272	1.17959	2.93087	1.66041	4.13179				
1.17068	2.51165	1.04978	2.59312	1.17054	2.51164	1.08395	2.68508	1.39946	3.46139	1.94254	4.8016			1.04767	2.59302	1.18182	2.91967	1.66008	4.10737				
1.16461	2.51104	1.05588	2.5934	1.16446	2.51103	1.08973	2.68405	1.40012	3.44335	1.94184	4.77267			1.05376	2.5933	1.1841	2.90871	1.65976	4.08327				
1.15855	2.51047	1.06196	2.59365	1.15841	2.51046	1.09553	2.68308	1.40081	3.42561	1.94115	4.74405			1.05986	2.59357	1.18642	2.898	1.65946	4.0595				
1.15251	2.50994	1.06804	2.59389	1.15237	2.50992	1.10134	2.68216	1.40154	3.40816	1.94044	4.71574			1.06594	2.59381	1.1888	2.88753	1.65919	4.03605				
1.1465	2.50945	1.07412	2.5941	1.14636	2.50944	1.10717	2.6813	1.4023	3.391	1.93974	4.68775			1.07201	2.59403	1.19123	2.8773	1.65894	4.01292				
1.14051	2.50901	1.08018	2.59428	1.14037	2.509	1.11302	2.68048	1.40311	3.37413	1.93904	4.66006			1.07808	2.59422	1.19371	2.86731	1.65872	3.9901				
1.13455	2.50863	1.08623	2.59445	1.13441	2.50862	1.11888	2.67971	1.40395	3.35753	1.93834	4.63269			1.08414	2.59439	1.19624	2.85755	1.65851	3.96759				
1.12862	2.50832	1.09228	2.59458	1.12848	2.50831	1.12475	2.67897	1.40484	3.34121	1.93764	4.60563			1.09019	2.59454	1.19882	2.84802	1.65834	3.94539				
1.12272	2.50808	1.09831	2.5947	1.12258	2.50808	1.13064	2.67827	1.40576	3.32516	1.93695	4.57887			1.09622	2.59466	1.20146	2.83872	1.65818	3.92349				
1.11687	2.50792	1.10434	2.59478	1.11673	2.50792	1.13653	2.67759	1.40673	3.30938	1.93626	4.55241			1.10225	2.59475	1.20414	2.82965	1.65806	3.90189				
1.11105	2.50786	1.11035	2.59484	1.11091	2.50785	1.14244	2.67695	1.40773	3.29386	1.93558	4.52626			1.10827	2.59482	1.20689	2.8208	1.65796	3.88059				
1.10528	2.50789	1.11634	2.59486	1.10514	2.50789	1.14835	2.67634	1.40877	3.27859	1.93491	4.50041			1.11427	2.59486	1.20968	2.81217	1.65789	3.85958				
1.09956	2.50804	1.12233	2.59485	1.09942	2.50804	1.15427	2.67575	1.40986	3.26359	1.93425	4.47486			1.12026	2.59486	1.21253	2.80376	1.65784	3.83885				
1.09389	2.5083	1.1283	2.59481	1.09375	2.50831	1.1602	2.67518	1.41098	3.24883	1.9336	4.4496			1.12623	2.59483	1.21544	2.79556	1.65783	3.81841				
1.08827	2.50871	1.13425	2.59474	1.08814	2.50872	1.16613	2.67464	1.41214	3.23433	1.93296	4.42463			1.13219	2.59477	1.21841	2.78759	1.65784	3.79825				
1.08272	2.50925	1.14019	2.59462	1.08259	2.50927	1.17208	2.67411	1.41334	3.22007	1.93233	4.39995			1.13813	2.59466	1.22143	2.77983	1.65788	3.77836				
1.07723	2.50995	1.14611	2.59446	1.0771	2.50997	1.17802	2.6736	1.41459	3.20604	1.93172	4.37556			1.14406	2.59452	1.22451	2.77228	1.65794	3.75875				
1.07181	2.51082	1.152	2.59426	1.07168	2.51084	1.18397	2.67311	1.41587	3.19226	1.93112	4.35146			1.14996	2.59434	1.22765	2.76495	1.65804	3.73941				
1.06645	2.51185	1.15788	2.59402	1.06633	2.51188	1.18993	2.67263	1.41719	3.1787	1.93053	4.32764			1.15585	2.59411	1.23086	2.75783	1.65817	3.72034				
1.06117	2.51307	1.16373	2.59372	1.06105	2.5131	1.19589	2.67216	1.41856	3.16538	1.92996	4.30409			1.16171	2.59383	1.23412	2.75093	1.65833	3.70153				
1.05596	2.51447	1.16956	2.59338	1.05584	2.51451	1.20185	2.67171	1.41996	3.15228	1.9294	4.28083			1.16755	2.5935	1.23745	2.74424	1.65851	3.68298				
1.05082	2.51606	1.17536	2.59297	1.0507	2.5161	1.20781	2.67127	1.42141	3.13941	1.92887	4.25784			1.17336	2.59312	1.24085	2.73777	1.65873	3.66468				
1.04576	2.51784	1.18113	2.59251	1.04564	2.51788	1.21378	2.67084	1.42289	3.12676	1.92834	4.23511			1.17914	2.59268	1.24432	2.73152	1.65898	3.64664				
1.04076	2.5198	1.18687	2.59198	1.04064	2.51985	1.21975	2.67041	1.42442	3.11432	1.92784	4.21266			1.18489	2.59217	1.24786	2.72548	1.65926	3.62885				
1.03583	2.52196	1.19258	2.59138	1.03571	2.52201	1.22572	2.67	1.42599	3.1021	1.92736	4.19047			1.19061	2.5916	1.25147	2.71966	1.65957	3.61131				
1.03096	2.52429	1.19825	2.59071	1.03085	2.52435	1.2317	2.6696	1.42759	3.09008	1.92689	4.16855			1.19629	2.59095	1.25516	2.71407	1.65991	3.594				
1.02616	2.52681	1.20388	2.58996	1.02605	2.52687	1.23767	2.6692	1.42924	3.07828	1.92645	4.14689			1.20193	2.59023	1.25892	2.70869	1.66028	3.57694				
1.02141	2.52949	1.20946	2.58912	1.0213	2.52956	1.24364	2.6688	1.43093	3.06667	1.92602	4.12548			1.20753	2.58942	1.26277	2.70355	1.66069	3.56012				
1.01672	2.53234	1.215	2.5882	1.01661	2.53241	1.24962	2.66841	1.43266	3.05527	1.92562	4.10433			1.21309	2.58853	1.2667	2.69863	1.66112	3.54352				
1.01208	2.53535	1.2205	2.58719	1.01197	2.53542	1.2556	2.66803	1.43443	3.04407	1.92523	4.08343			1.2186	2.58755	1.27072	2.69394	1.66159	3.52716				
1.00748	2.5385	1.22594	2.58608	1.00737	2.53858	1.26157	2.66765	1.43625	3.03307	1.92487	4.06278			1.22406	2.58647	1.27482	2.68949	1.66209	3.51103				
1.00292	2.54179	1.23133	2.58487	1.00281	2.54187	1.26755	2.66727	1.4381	3.02226	1.92453	4.04237			1.22947	2.5853	1.27901	2.68526	1.66263	3.49512				
0.998394	2.5452	1.23667	2.58356	0.998288	2.54529	1.27352	2.66689	1.43999	3.01164	1.92421	4.02221			1.23483	2.58402	1.2833	2.68128	1.66319	3.47943				
0.993898	2.54873	1.24195	2.58215	0.993793	2.54882	1.2795	2.66652	1.44193	3.0012	1.92392	4.00229			1.24013	2.58265	1.28768	2.67752	1.66379	3.46397				
0.989426	2.55237	1.24718	2.58063	0.989321	2.55246	1.28547	2.66615	1.44391	2.99096	1.92365	3.98261			1.24537	2.58116	1.29216	2.67399	1.66443	3.44872				
0.984972	2.55609	1.25234	2.57901	0.984867	2.55618	1.29144	2.66577	1.44593	2.98089	1.9234	3.96316			1.25056	2.57958	1.29672	2.6707	1.66509	3.43368				
0.980529	2.55989	1.25745	2.57729	0.980425	2.55998	1.29741	2.6654	1.44799	2.97101	1.92317	3.94395			1.25569	2.57789	1.30139	2.66762	1.66579	3.41885				
0.976093	2.56375	1.26251	2.57547	0.975988	2.56385	1.30338	2.66502	1.45009	2.96131	1.92297	3.92496			1.26076	2.57611	1.30614	2.66477	1.66652	3.40423				
0.971656	2.56766	1.26751	2.57356	0.971551	2.56775	1.30934	2.66464	1.45224	2.95178	1.9228	3.90621			1.26579	2.57423	1.31099	2.66212	1.66728	3.38981				
0.967212	2.5716	1.27246	2.57157	0.967107	2.57169	1.3153	2.66426	1.45443	2.94243	1.92264	3.88767			1.27075	2.57226	1.31592	2.65968	1.66808	3.3756				
0.962754	2.57555	1.27737	2.56949	0.962649	2.57564	1.32126	2.66388	1.45666	2.93325	1.92252	3.86937			1.27567	2.57022	1.32094	2.65743	1.66891	3.36158				
0.958275	2.57949	1.28223	2.56736	0.95817	2.57958	1.32721	2.66349	1.45893	2.92424	1.92242	3.85128			1.28055	2.5681	1.32604	2.65536	1.66978	3.34777				
0.953769	2.5834	1.28705	2.56516	0.953662	2.58349	1.33316	2.6631	1.46125	2.9154	1.92234	3.8334			1.28538	2.56593	1.33121	2.65346	1.67068	3.33414				
0.949227	2.58727	1.29184	2.56291	0.94912	2.58736	1.3391	2.6627	1.46361	2.90673	1.92229	3.81575			1.29018	2.56369	1.33646	2.65173	1.67161	3.32071				
0.944645	2.59108	1.29659	2.56063	0.944536	2.59116	1.34504	2.66229	1.46601	2.89822	1.92227	3.7983			1.29495	2.56142	1.34178	2.65014	1.67257	3.30747				
0.940014	2.5948	1.30132	2.55831	0.939904	2.59488	1.35097	2.66187	1.46846	2.88988	1.92227	3.78107			1.29969	2.55911	1.34715	2.64869	1.67357	3.29442				
0.93533	2.59842	1.30603	2.55597	0.935219	2.5985	1.3569	2.66145	1.47096	2.8817	1.9223	3.76404			1.3044	2.55679	1.35259	2.64736	1.67461	3.28155				
0.930588	2.60192	1.31073	2.55363	0.930475	2.602	1.36282	2.66101	1.47349	2.87368	1.92235	3.74722			1.3091	2.55444	1.35808	2.64615	1.67567	3.26886				
0.925783	2.6053	1.31541	2.55128	0.925669	2.60537	1.36873	2.66057	1.47608	2.86583	1.92244	3.7306			1.31379	2.55209	1.36361	2.64505	1.67678	3.25635				
0.920913	2.60853	1.32008	2.54894	0.920797	2.6086	1.37463	2.66011	1.47871	2.85813	1.92254	3.71418			1.31846	2.54975	1.3692	2.64405	1.67791	3.24402				
0.915976	2.61161	1.32475	2.54661	0.915858	2.61168	1.38052	2.65964	1.48138	2.85059	1.92268	3.69796			1.32313	2.54742	1.37482	2.64313	1.67908	3.23186				
0.91097	2.61454	1.32942	2.5443	0.910851	2.61461	1.3864	2.65915	1.48411	2.84321	1.92284	3.68194			1.3278	2.5451	1.38048	2.64229	1.68028	3.21988				
0.905897	2.61731	1.3341	2.54202	0.905776	2.61738	1.39227	2.65864	1.48688	2.83598	1.92304	3.6661			1.33248	2.54281	1.38617	2.64152	1.68152	3.20806				
0.900757	2.61993	1.33878	2.53977	0.900635	2.61999	1.39813	2.65811	1.4897	2.82891	1.92326	3.65046			1.33715	2.54055	1.3919	2.64082	1.68279	3.19642				
0.895553	2.62239	1.34347	2.53756	0.895429	2.62245	1.40398	2.65757	1.49258	2.822	1.9235	3.63501			1.34184	2.53833	1.39765	2.64017	1.6841	3.18494				
0.890286	2.6247	1.34817	2.5354	0.890161	2.62476	1.4098	2.657	1.4955	2.81525	1.92378	3.61975			1.34654	2.53614	1.40343	2.63958	1.68544	3.17362				
0.88496	2.62687	1.35289	2.53327	0.884834	2.62692	1.41562	2.6564	1.49848	2.80865	1.92408	3.60467			1.35125	2.534	1.40923	2.63904	1.68681	3.16247				
0.879579	2.62891	1.35762	2.5312	0.879452	2.62895	1.42141	2.65578	1.50151	2.80221	1.92441	3.58977			1.35598	2.53191	1.41505	2.63854	1.68822	3.15148				
0.874146	2.63081	1.36237	2.52918	0.874018	2.63085	1.42719	2.65512	1.50459	2.79594	1.92477	3.57505			1.36072	2.52988	1.42089	2.63808	1.68966	3.14064				
0.868665	2.6326	1.36715	2.52722	0.868535	2.63264	1.43295	2.65444	1.50774	2.78982	1.92516	3.56051			1.36549	2.52789	1.42675	2.63765	1.69114	3.12996				
0.863139	2.63427	1.37194	2.52532	0.863008	2.63431	1.43868	2.65371	1.51094	2.78386	1.92557	3.54615			1.37028	2.52597	1.43262	2.63726	1.69265	3.11944				
0.857571	2.63584	1.37677	2.52347	0.85744	2.63587	1.44439	2.65295	1.5142	2.77806	1.92602	3.53196			1.37509	2.5241	1.43851	2.6369	1.6942	3.10906				
0.851966	2.63731	1.38161	2.52169	0.851834	2.63735	1.45007	2.65214	1.51753	2.77243	1.92649	3.51795			1.37993	2.5223	1.44441	2.63656	1.69577	3.09884				
0.846326	2.6387	1.38649	2.51997	0.846193	2.63873	1.45572	2.65129	1.52093	2.76697	1.927	3.5041			1.38479	2.52056	1.45032	2.63625	1.69739	3.08876				
0.840654	2.64001	1.39139	2.51832	0.84052	2.64004	1.46133	2.65038	1.52439	2.76167	1.92753	3.49042			1.38969	2.51889	1.45624	2.63595	1.69904	3.07883				
0.834953	2.64125	1.39632	2.51673	0.834819	2.64128	1.46692	2.64942	1.52792	2.75655	1.92809	3.47691			1.39461	2.51728	1.46217	2.63568	1.70072	3.06905				
0.829226	2.64242	1.40128	2.51521	0.829091	2.64244	1.47246	2.64839	1.53153	2.7516	1.92868	3.46356			1.39956	2.51573	1.46811	2.63542	1.70243	3.05941				
0.823474	2.64352	1.40627	2.51376	0.823338	2.64355	1.47796	2.64731	1.53521	2.74683	1.9293	3.45038			1.40454	2.51426	1.47405	2.63518	1.70418	3.0499				
0.8177	2.64458	1.41129	2.51238	0.817564	2.6446	1.48342	2.64615	1.53898	2.74225	1.92995	3.43735			1.40955	2.51285	1.48001	2.63495	1.70597	3.04054				
0.811906	2.64558	1.41635	2.51106	0.81177	2.64561	1.48883	2.64492	1.54282	2.73785	1.93062	3.42448			1.41459	2.51151	1.48596	2.63474	1.70779	3.03132				
0.806094	2.64654	1.42143	2.50982	0.805957	2.64656	1.4942	2.6436	1.54676	2.73363	1.93133	3.41177			1.41967	2.51024	1.49193	2.63453	1.70964	3.02223				
0.800265	2.64746	1.42656	2.50864	0.800127	2.64748	1.4995	2.64221	1.55078	2.72961	1.93207	3.39922			1.42478	2.50904	1.4979	2.63434	1.71152	3.01327				
0.79442	2.64834	1.43171	2.50752	0.794282	2.64836	1.50476	2.64073	1.55489	2.72578	1.93283	3.38682			1.42992	2.5079	1.50387	2.63415	1.71345	3.00445				
0.788561	2.64919	1.4369	2.50648	0.788423	2.64921	1.50995	2.63916	1.5591	2.72215	1.93363	3.37457			1.4351	2.50683	1.50985	2.63398	1.7154	2.99576				
0.78269	2.65	1.44212	2.5055	0.782551	2.65002	1.51509	2.6375	1.5634	2.71871	1.93445	3.36247			1.4403	2.50583	1.51582	2.6338	1.71739	2.98719				
0.776807	2.65079	1.44737	2.50459	0.776668	2.65081	1.52016	2.63575	1.5678	2.71546	1.93531	3.35051			1.44555	2.5049	1.52181	2.63364	1.71941	2.97876				
0.770913	2.65156	1.45266	2.50374	0.770774	2.65158	1.52518	2.6339	1.5723	2.7124	1.93619	3.33871			1.45082	2.50403	1.52779	2.63348	1.72147	2.97045				
0.76501	2.6523	1.45798	2.50296	0.76487	2.65232	1.53013	2.63197	1.57689	2.70954	1.93711	3.32705			1.45613	2.50322	1.53377	2.63332	1.72356	2.96227				
0.759097	2.65303	1.46333	2.50224	0.758958	2.65305	1.53503	2.62995	1.58157	2.70686	1.93805	3.31553			1.46147	2.50248	1.53976	2.63317	1.72569	2.95421				
0.753177	2.65374	1.46872	2.50158	0.753037	2.65375	1.53986	2.62785	1.58635	2.70436	1.93902	3.30415			1.46685	2.5018	1.54575	2.63301	1.72785	2.94627				
0.747249	2.65443	1.47414	2.50098	0.747109	2.65445	1.54465	2.62568	1.59122	2.70203	1.94002	3.29291			1.47226	2.50118	1.55173	2.63286	1.73005	2.93845				
0.741314	2.65511	1.47959	2.50044	0.741174	2.65513	1.54938	2.62344	1.59618	2.69986	1.94106	3.28181			1.4777	2.50062	1.55772	2.63271	1.73228	2.93075				
0.735374	2.65578	1.48507	2.49995	0.735234	2.6558	1.55408	2.62114	1.60121	2.69785	1.94212	3.27085			1.48317	2.50011	1.56371	2.63257	1.73454	2.92317				
0.729427	2.65645	1.49058	2.49952	0.729287	2.65646	1.55873	2.61879	1.60633	2.69599	1.94321	3.26002			1.48867	2.49966	1.56969	2.63242	1.73684	2.91571				
0.723476	2.6571	1.49612	2.49914	0.723336	2.65712	1.56334	2.61641	1.61152	2.69427	1.94433	3.24932			1.4942	2.49927	1.57568	2.63227	1.73918	2.90836				
0.717521	2.65775	1.50169	2.49881	0.71738	2.65776	1.56793	2.61399	1.61677	2.69267	1.94549	3.23876			1.49976	2.49892	1.58166	2.63212	1.74154	2.90113				
0.711561	2.6584	1.50729	2.49854	0.71142	2.65841	1.5725	2.61156	1.62209	2.69119	1.94667	3.22832			1.50534	2.49863	1.58764	2.63196	1.74395	2.89401				
0.705598	2.65904	1.51291	2.4983	0.705457	2.65905	1.57705	2.60912	1.62747	2.68981	1.94788	3.21802			1.51096	2.49838	1.59362	2.63181	1.74639	2.887				
0.699632	2.65968	1.51856	2.49812	0.699491	2.6597	1.58159	2.60668	1.63291	2.68854	1.94912	3.20784			1.5166	2.49818	1.59959	2.63165	1.74886	2.8801				
0.693662	2.66033	1.52424	2.49798	0.693522	2.66034	1.58613	2.60426	1.63839	2.68736	1.95039	3.19779			1.52227	2.49802	1.60557	2.63148	1.75137	2.87331				
0.687691	2.66097	1.52995	2.49788	0.68755	2.66099	1.59068	2.60187	1.64392	2.68626	1.95169	3.18786			1.52797	2.49791	1.61154	2.63131	1.75391	2.86664				
0.681718	2.66162	1.53567	2.49782	0.681577	2.66164	1.59524	2.59952	1.64949	2.68524	1.95302	3.17806			1.53369	2.49783	1.6175	2.63114	1.75649	2.86007				
0.675743	2.66228	1.54142	2.4978	0.675602	2.66229	1.59982	2.59722	1.6551	2.68429	1.95438	3.16838			1.53943	2.4978	1.62346	2.63096	1.75911	2.8536				
0.669767	2.66294	1.54719	2.49781	0.669626	2.66296	1.60444	2.59499	1.66074	2.6834	1.95577	3.15881			1.54519	2.4978	1.62942	2.63078	1.76176	2.84725				
0.66379	2.66361	1.55299	2.49786	0.663649	2.66363	1.60909	2.59284	1.66642	2.68257	1.95719	3.14937			1.55098	2.49784	1.63537	2.63058	1.76445	2.841				
0.657813	2.6643	1.5588	2.49794	0.657672	2.66431	1.61379	2.59078	1.67212	2.68179	1.95864	3.14004			1.55679	2.49791	1.64131	2.63038	1.76717	2.83485				
0.651835	2.66499	1.56464	2.49805	0.651694	2.66501	1.61855	2.58883	1.67785	2.68106	1.96012	3.13084			1.56261	2.49801	1.64725	2.63017	1.76993	2.82881				
0.645858	2.6657	1.57049	2.4982	0.645717	2.66572	1.62338	2.58701	1.68361	2.68037	1.96163	3.12174			1.56846	2.49814	1.65318	2.62996	1.77273	2.82287				
0.639881	2.66643	1.57636	2.49836	0.63974	2.66644	1.62829	2.58532	1.68938	2.67972	1.96317	3.11276			1.57433	2.4983	1.65911	2.62973	1.77557	2.81704				
0.633905	2.66717	1.58225	2.49856	0.633764	2.66719	1.63328	2.58379	1.69518	2.67911	1.96474	3.10389			1.58021	2.49849	1.66502	2.62949	1.77844	2.81131				
0.62793	2.66793	1.58816	2.49878	0.62779	2.66795	1.63838	2.58242	1.70099	2.67853	1.96634	3.09514			1.58611	2.4987	1.67093	2.62924	1.78135	2.80567				
0.621958	2.66872	1.59408	2.49903	0.621817	2.66874	1.64357	2.58123	1.70682	2.67799	1.96797	3.08649			1.59202	2.49894	1.67683	2.62897	1.7843	2.80015				
0.615987	2.66953	1.60001	2.49929	0.615846	2.66955	1.64887	2.5802	1.71267	2.67746	1.96963	3.07795			1.59796	2.4992	1.68271	2.62869	1.78729	2.79472				
0.610019	2.67037	1.60596	2.49958	0.609878	2.67039	1.65427	2.57934	1.71853	2.67697	1.97132	3.06952			1.6039	2.49948	1.68859	2.6284	1.79032	2.78939				
0.604053	2.67124	1.61193	2.49989	0.603913	2.67126	1.65978	2.57864	1.7244	2.6765	1.97303	3.0612			1.60986	2.49978	1.69446	2.62809	1.79339	2.78417				
0.598092	2.67214	1.61791	2.50021	0.597951	2.67216	1.66537	2.57809	1.73029	2.67605	1.97478	3.05298			1.61584	2.5001	1.70031	2.62776	1.7965	2.77904				
0.592134	2.67308	1.6239	2.50055	0.591994	2.6731	1.67104	2.57767	1.73618	2.67561	1.97656	3.04487			1.62182	2.50043	1.70615	2.62742	1.79966	2.77402				
0.586181	2.67406	1.6299	2.50091	0.58604	2.67408	1.67679	2.57736	1.74209	2.6752	1.97836	3.03686			1.62782	2.50079	1.71197	2.62705	1.80286	2.7691				
0.580232	2.67508	1.63592	2.50129	0.580092	2.6751	1.68261	2.57716	1.748	2.6748	1.9802	3.02895			1.63383	2.50115	1.71778	2.62666	1.8061	2.76428				
0.57429	2.67615	1.64194	2.50167	0.57415	2.67618	1.68848	2.57704	1.75392	2.67442	1.98207	3.02114			1.63986	2.50154	1.72357	2.62625	1.80938	2.75957				
0.568354	2.67728	1.64798	2.50208	0.568214	2.6773	1.6944	2.577	1.75985	2.67405	1.98396	3.01343			1.64589	2.50193	1.72935	2.62582	1.81271	2.75495				
0.562425	2.67846	1.65403	2.50249	0.562285	2.67849	1.70036	2.57702	1.76578	2.6737	1.98589	3.00582			1.65193	2.50234	1.7351	2.62536	1.81609	2.75044				
0.556504	2.67971	1.66009	2.50292	0.556365	2.67974	1.70635	2.57709	1.77172	2.67335	1.98784	2.99831			1.65799	2.50277	1.74083	2.62487	1.81952	2.74603				
0.550592	2.68103	1.66615	2.50335	0.550453	2.68106	1.71237	2.5772	1.77767	2.67302	1.98983	2.99089			1.66405	2.5032	1.74654	2.62435	1.82299	2.74173				
0.54469	2.68243	1.67223	2.5038	0.544551	2.68246	1.71842	2.57736	1.78362	2.6727	1.99184	2.98357			1.67012	2.50364	1.75223	2.6238	1.82652	2.73754				
0.538799	2.68392	1.67831	2.50426	0.538661	2.68395	1.72449	2.57754	1.78958	2.67238	1.99389	2.97635			1.6762	2.5041	1.75789	2.62321	1.8301	2.73345				
0.532921	2.6855	1.6844	2.50472	0.532782	2.68554	1.73057	2.57775	1.79554	2.67208	1.99596	2.96922			1.68229	2.50456	1.76352	2.62259	1.83373	2.72947				
0.527056	2.68719	1.6905	2.5052	0.526918	2.68723	1.73668	2.57798	1.80151	2.67178	1.99807	2.96218			1.68839	2.50503	1.76913	2.62192	1.83742	2.7256				
0.521207	2.689	1.69661	2.50568	0.521069	2.68905	1.74279	2.57822	1.80747	2.67149	2.0002	2.95523			1.69449	2.50551	1.7747	2.62122	1.84117	2.72184				
0.515374	2.69095	1.70272	2.50617	0.515237	2.69099	1.74892	2.57849	1.81344	2.6712	2.00236	2.94838			1.7006	2.506	1.78024	2.62047	1.84498	2.71819				
0.509561	2.69304	1.70884	2.50666	0.509424	2.69309	1.75506	2.57876	1.81942	2.67092	2.00455	2.94161			1.70672	2.50649	1.78575	2.61968	1.84884	2.71466				
0.50377	2.6953	1.71497	2.50716	0.503633	2.69535	1.7612	2.57905	1.82539	2.67065	2.00678	2.93494			1.71284	2.50699	1.79121	2.61883	1.85277	2.71125				
0.498002	2.69775	1.7211	2.50767	0.497867	2.69781	1.76736	2.57934	1.83137	2.67038	2.00903	2.92835			1.71897	2.50749	1.79664	2.61794	1.85677	2.70795				
0.492262	2.7004	1.72724	2.50818	0.492127	2.70047	1.77352	2.57965	1.83735	2.67011	2.01131	2.92185			1.72511	2.508	1.80203	2.61699	1.86083	2.70477				
0.486552	2.7033	1.73338	2.5087	0.486418	2.70337	1.77968	2.57995	1.84333	2.66985	2.01362	2.91543			1.73125	2.50852	1.80737	2.61598	1.86496	2.70171				
0.480876	2.70646	1.73953	2.50922	0.480743	2.70654	1.78585	2.58026	1.84931	2.66959	2.01597	2.90911			1.7374	2.50904	1.81267	2.61492	1.86915	2.69877				
0.47524	2.70993	1.74569	2.50974	0.475108	2.71002	1.79202	2.58058	1.85529	2.66934	2.01834	2.90286			1.74356	2.50956	1.81793	2.6138	1.87342	2.69595				
0.469648	2.71375	1.75185	2.51027	0.469516	2.71384	1.7982	2.5809	1.86127	2.66908	2.02074	2.89671			1.74971	2.51009	1.82313	2.61262	1.87777	2.69326				
0.464105	2.71796	1.75801	2.51081	0.463975	2.71806	1.80438	2.58122	1.86726	2.66883	2.02317	2.89063			1.75588	2.51062	1.82829	2.61138	1.88218	2.69068				
0.458619	2.72262	1.76418	2.51134	0.458491	2.72274	1.81056	2.58154	1.87324	2.66858	2.02564	2.88464			1.76205	2.51115	1.8334	2.61008	1.88667	2.68823				
0.453198	2.7278	1.77036	2.51188	0.453071	2.72793	1.81674	2.58186	1.87922	2.66833	2.02813	2.87873			1.76822	2.51169	1.83846	2.60871	1.89123	2.6859				
0.447849	2.73358	1.77653	2.51242	0.447724	2.73372	1.82292	2.58218	1.8852	2.66808	2.03065	2.87291			1.77439	2.51223	1.84348	2.60729	1.89587	2.68369				
0.442584	2.74003	1.78272	2.51296	0.442461	2.74019	1.82911	2.5825	1.89118	2.66783	2.03321	2.86716			1.78057	2.51277	1.84844	2.6058	1.90057	2.6816				
0.437413	2.74726	1.7889	2.51351	0.437292	2.74744	1.8353	2.58282	1.89716	2.66758	2.03579	2.8615			1.78676	2.51332	1.85336	2.60427	1.90535	2.67962				
0.432348	2.75538	1.79509	2.51405	0.43223	2.75558	1.84148	2.58314	1.90313	2.66733	2.03841	2.85591			1.79295	2.51386	1.85823	2.60267	1.91021	2.67775				
0.427403	2.76452	1.80128	2.5146	0.427288	2.76475	1.84767	2.58346	1.90911	2.66708	2.04106	2.85041			1.79914	2.51441	1.86306	2.60103	1.91512	2.67599				
0.422592	2.77481	1.80748	2.51515	0.422481	2.77507	1.85386	2.58377	1.91508	2.66683	2.04374	2.84498			1.80533	2.51496	1.86784	2.59933	1.92011	2.67434				
0.417931	2.78642	1.81368	2.5157	0.417823	2.78671	1.86004	2.58409	1.92105	2.66657	2.04645	2.83964			1.81153	2.51551	1.87259	2.59759	1.92516	2.67278				
0.413433	2.7995	1.81988	2.51625	0.413329	2.79983	1.86623	2.5844	1.92702	2.66631	2.04919	2.83437			1.81773	2.51605	1.87729	2.59582	1.93027	2.67132				
0.409115	2.81423	1.82609	2.5168	0.409016	2.8146	1.87242	2.5847	1.93298	2.66605	2.05197	2.82918			1.82394	2.51661	1.88197	2.594	1.93545	2.66996				
0.40499	2.83079	1.8323	2.51735	0.404895	2.8312	1.8786	2.58501	1.93894	2.66579	2.05478	2.82406			1.83014	2.51716	1.88661	2.59215	1.94067	2.66867				
0.40107	2.84934	1.83851	2.5179	0.40098	2.8498	1.88479	2.58531	1.94489	2.66552	2.05762	2.81903			1.83635	2.51771	1.89122	2.59028	1.94595	2.66747				
0.397365	2.87007	1.84472	2.51845	0.39728	2.87058	1.89097	2.58561	1.95084	2.66524	2.06049	2.81407			1.84257	2.51826	1.89581	2.58838	1.95128	2.66634				
0.393883	2.89314	1.85094	2.519	0.393804	2.89371	1.89715	2.5859	1.95679	2.66496	2.0634	2.80919			1.84878	2.51881	1.90037	2.58646	1.95666	2.66529				
0.39063	2.91871	1.85715	2.51955	0.390556	2.91934	1.90333	2.58619	1.96273	2.66468	2.06634	2.80438			1.855	2.51936	1.90491	2.58453	1.96208	2.6643				
0.387607	2.94693	1.86337	2.5201	0.387539	2.94762	1.90951	2.58647	1.96866	2.66438	2.06932	2.79966			1.86122	2.51991	1.90944	2.58258	1.96755	2.66337				
0.384815	2.97794	1.86959	2.52065	0.384752	2.9787	1.91568	2.58675	1.97458	2.66408	2.07233	2.79501			1.86744	2.52046	1.91395	2.58063	1.97305	2.6625				
0.382251	3.01188	1.87582	2.5212	0.382193	3.01272	1.92185	2.58703	1.9805	2.66378	2.07538	2.79043			1.87366	2.52101	1.91845	2.57867	1.97858	2.66169				
0.379913	3.04889	1.88204	2.52174	0.37986	3.0498	1.92803	2.5873	1.98641	2.66346	2.07846	2.78594			1.87989	2.52155	1.92293	2.57671	1.98415	2.66092				
0.377796	3.0891	1.88827	2.52229	0.377749	3.09009	1.93419	2.58756	1.99231	2.66313	2.08158	2.78152			1.88611	2.5221	1.92741	2.57476	1.98975	2.6602				
0.375895	3.13266	1.8945	2.52283	0.375853	3.13373	1.94036	2.58782	1.9982	2.66279	2.08474	2.77718			1.89234	2.52264	1.93189	2.57281	1.99538	2.65952				
0.374206	3.17973	1.90073	2.52338	0.374168	3.18088	1.94652	2.58808	2.00408	2.66244	2.08794	2.77292			1.89857	2.52319	1.93636	2.57086	2.00104	2.65888				
0.372722	3.23046	1.90696	2.52392	0.372689	3.2317	1.95268	2.58832	2.00995	2.66208	2.09118	2.76874			1.9048	2.52373	1.94083	2.56893	2.00671	2.65827				
0.371438	3.28503	1.91319	2.52445	0.371411	3.28636	1.95883	2.58856	2.01581	2.6617	2.09447	2.76464			1.91103	2.52427	1.9453	2.567	2.01242	2.6577				
0.37035	3.34364	1.91943	2.52499	0.370327	3.34507	1.96498	2.5888	2.02165	2.6613	2.09779	2.76062			1.91727	2.52481	1.94977	2.56509	2.01814	2.65716				
0.369452	3.40649	1.92566	2.52553	0.369433	3.40803	1.97113	2.58903	2.02747	2.66089	2.10116	2.75668			1.9235	2.52534	1.95425	2.5632	2.02388	2.65665				
0.36874	3.47383	1.93189	2.52606	0.368725	3.47548	1.97727	2.58925	2.03328	2.66046	2.10457	2.75282			1.92973	2.52587	1.95873	2.56133	2.02964	2.65616				
0.368209	3.54591	1.93813	2.52659	0.368198	3.54766	1.98341	2.58946	2.03908	2.66001	2.10803	2.74905			1.93597	2.5264	1.96322	2.55947	2.03541	2.6557				
0.367853	3.62299	1.94436	2.52711	0.367847	3.62487	1.98954	2.58966	2.04485	2.65953	2.11154	2.74537			1.9422	2.52693	1.96771	2.55764	2.0412	2.65526				
0.36767	3.70539	1.95059	2.52763	0.367668	3.7074	1.99567	2.58986	2.0506	2.65903	2.1151	2.74177			1.94843	2.52745	1.97222	2.55583	2.047	2.65484				
0.367654	3.79345	1.95683	2.52815	0.367656	3.79559	2.00179	2.59004	2.05633	2.65851	2.11871	2.73826			1.95467	2.52797	1.97673	2.55404	2.05282	2.65444				
0.367802	3.88752	1.96305	2.52866	0.367807	3.88981	2.0079	2.59022	2.06204	2.65796	2.12238	2.73485			1.9609	2.52848	1.98126	2.55228	2.05864	2.65405				
0.368107	3.98801	1.96928	2.52916	0.368117	3.99046	2.01401	2.59039	2.06771	2.65737	2.12611	2.73153			1.96712	2.52899	1.9858	2.55055	2.06448	2.65368				
0.368568	4.09537	1.9755	2.52965	0.36858	4.09799	2.02011	2.59054	2.07336	2.65675	2.12989	2.7283			1.97335	2.52948	1.99036	2.54885	2.07033	2.65333				
0.369177	4.21008	1.98172	2.53013	0.369193	4.21288	2.0262	2.59069	2.07898	2.6561	2.13374	2.72518			1.97956	2.52997	1.99494	2.54719	2.07618	2.65299				
0.369931	4.33269	1.98792	2.5306	0.36995	4.33568	2.03228	2.59082	2.08457	2.65541	2.13765	2.72215			1.98577	2.53044	1.99954	2.54556	2.08205	2.65266				
0.370825	4.46379	1.99411	2.53105	0.370847	4.46699	2.03835	2.59094	2.09012	2.65468	2.14163	2.71923			1.99197	2.53089	2.00417	2.54398	2.08792	2.65234				
0.371853	4.60404	2.00028	2.53146	0.371879	4.60747	2.04441	2.59105	2.09563	2.6539	2.14568	2.71642			1.99814	2.53132	2.00883	2.54246	2.09379	2.65203				
0.37301	4.75419	2.0064	2.53182	0.373039	4.75786	2.05046	2.59114	2.10111	2.65308	2.14981	2.71371			2.00429	2.5317	2.01355	2.54101	2.09968	2.65173				
0.374291	4.91506	2.01247	2.5321	0.374322	4.91899	2.0565	2.59121	2.10654	2.65221	2.15401	2.71111			2.01038	2.53201	2.01834	2.53966	2.10557	2.65144				
0.375689	5.08758	2.01841	2.53223	0.375723	5.09179	2.06253	2.59127	2.11193	2.6513	2.15828	2.70863			2.01637	2.53221	2.02327	2.53849	2.11146	2.65116				
0.377198	5.27278	2.02417	2.53212	0.377235	5.2773	2.06854	2.59131	2.11728	2.65034	2.16264	2.70626			2.0222	2.53219	2.0284	2.53758	2.11736	2.65089				
0.3786	5.44542	2.02965	2.53167	0.378852	5.47671	2.07453	2.59133	2.12258	2.64932	2.16708	2.70401			2.02779	2.53187	2.03382	2.53703	2.12326	2.65062				
0.379854	5.60156	2.03485	2.53088	0.380567	5.69134	2.08051	2.59134	2.12784	2.64826	2.1716	2.70188			2.03308	2.53118	2.03953	2.53686	2.12916	2.65035				
0.38093	5.73735	2.03986	2.52985	0.382373	5.92272	2.08648	2.59131	2.13306	2.64715	2.17621	2.69986			2.03815	2.53022	2.04545	2.53695	2.13507	2.65009				
0.381805	5.84927	2.04476	2.52869	0.384262	6.17259	2.09242	2.59127	2.13823	2.64599	2.1809	2.69795			2.04308	2.5291	2.05151	2.53719	2.14097	2.64984				
0.382462	5.93424	2.04961	2.52747	0.386227	6.44296	2.09834	2.59119	2.14336	2.64479	2.18567	2.69616			2.04794	2.52789	2.05763	2.53753	2.14688	2.64958				
0.383075	6.0145	2.05443	2.52622	0.388259	6.73615	2.10423	2.59109	2.14846	2.64356	2.19053	2.69448			2.05276	2.52666	2.0638	2.53791	2.15279	2.64933				
0.383506	6.07156	2.05924	2.52497	0.39035	7.05485	2.1101	2.59096	2.15353	2.64229	2.19546	2.6929			2.05757	2.52541	2.06999	2.53832	2.15871	2.64909				
0.384189	6.16277	2.06405	2.52373	0.392491	7.40223	2.11595	2.59079	2.15856	2.64099	2.20047	2.69143			2.06238	2.52416	2.0762	2.53876	2.16462	2.64884				
0.385133	6.29101	2.06886	2.5225	0.39439	7.73122	2.12176	2.59059	2.16358	2.63967					2.06719	2.52292	2.08243	2.5392	2.17053	2.6486				
0.386351	6.46049	2.07369	2.52129	0.396028	8.03326	2.12754	2.59035	2.16857	2.63834					2.07201	2.5217	2.08866	2.53966	2.17644	2.64835				
0.387858	6.67706	2.07852	2.52009	0.397393	8.29956	2.13328	2.59006	2.17356	2.63701					2.07684	2.5205	2.0949	2.54012	2.18235	2.64811				
0.389668	6.94875	2.08337	2.51892	0.398477	8.52166	2.13899	2.58974	2.17854	2.63567					2.08169	2.51933	2.10114	2.54058	2.18826	2.64787				
0.391794	7.28647	2.08823	2.51778	0.399276	8.69193	2.14465	2.58936	2.18353	2.63435					2.08654	2.51817	2.10739	2.54104	2.19417	2.64762				
0.393963	7.65532	2.0931	2.51665	0.400012	8.85409	2.15027	2.58893	2.18852	2.63305					2.09141	2.51704	2.11364	2.54151	2.20007	2.64738				
0.396166	8.05949	2.09799	2.51555	0.400525	8.97014	2.15584	2.58845	2.19353	2.63177					2.09629	2.51593	2.11989	2.54197						
0.398393	8.50397	2.10289	2.51448	0.401326	9.15708	2.16137	2.58791	2.19857	2.63052					2.10119	2.51485	2.12615	2.54244						
0.400632	8.99479	2.10782	2.51343	0.402414	9.42289	2.16684	2.58732	2.20363	2.62932					2.10611	2.51379	2.1324	2.5429						
0.402873	9.53929	2.11275	2.5124	0.403789	9.77965	2.17225	2.58666							2.11104	2.51275	2.13866	2.54337						
0.405105	10.1465	2.11771	2.5114	0.405443	10.245	2.17761	2.58594							2.11599	2.51174	2.14492	2.54383						
0.407315	10.8276	2.12268	2.51042	0.407367	10.8446	2.18292	2.58515							2.12095	2.51076	2.15118	2.54429						
0.409491	11.5967	2.12766	2.50947	0.409541	11.6161	2.18816	2.5843							2.12593	2.5098	2.15744	2.54475						
0.411619	12.472	2.13267	2.50855	0.411669	12.4941	2.19335	2.58339							2.13093	2.50887	2.1637	2.5452						
0.413688	13.4769	2.13769	2.50765	0.413736	13.5024	2.19848	2.58241							2.13595	2.50796	2.16996	2.54566						
0.415683	14.6426	2.14273	2.50677	0.415729	14.6723	2.20355	2.58137							2.14098	2.50707	2.17622	2.54611						
0.417591	16.0111	2.14778	2.50592	0.417634	16.0463									2.14603	2.50622	2.18248	2.54656						
0.419398	17.6411	2.15285	2.5051	0.419439	17.6833									2.15109	2.50538	2.18874	2.54701						
0.42109	19.6162	2.15794	2.50429	0.421128	19.6678									2.15618	2.50457	2.195	2.54746						
0.422655	22.0603	2.16305	2.50352	0.42269	22.1249									2.16128	2.50378	2.20126	2.5479						
0.424079	25.1653	2.16817	2.50276	0.42411	25.2487									2.1664	2.50302								
0.42535	29.2451	2.17331	2.50203	0.425378	29.3568									2.17153	2.50228								
0.426456	34.85	2.17847	2.50133	0.42648	35.0076									2.17668	2.50157								
0.427389	43.0423	2.18364	2.50064	0.427408	43.2814									2.18185	2.50088								
0.428138	56.1704	2.18884	2.49998	0.428153	56.5763									2.18704	2.50021								
0.428696	80.662	2.19404	2.49934	0.428706	81.4982									2.19224	2.49956								
0.429058	142.671	2.19927	2.49873	0.429064	145.301									2.19746	2.49894								
0.429219	613.233	2.20451	2.49813	0.429221	664.915									2.20269	2.49834								
