Sym0		Asym0		Sym1		Sym2		Sym3		Sym4		Sym5		Asym1		Asym2		Asym3		Asym4		Asym5	
386  Points		381  Points		386  Points		374  Points		366  Points		342  Points		132  Points		381  Points		379  Points		366  Points		173  Points		126  Points	
Freq (MHz)	Vph (m/ms)	Freq (MHz)	Vph (m/ms)	Freq (MHz)	Vph (m/ms)	Freq (MHz)	Vph (m/ms)	Freq (MHz)	Vph (m/ms)	Freq (MHz)	Vph (m/ms)	Freq (MHz)	Vph (m/ms)	Freq (MHz)	Vph (m/ms)	Freq (MHz)	Vph (m/ms)	Freq (MHz)	Vph (m/ms)	Freq (MHz)	Vph (m/ms)	Freq (MHz)	Vph (m/ms)
2.20092	2.51207	0.346114	1092.83	2.20212	2.51209	0.69223	1211.02	1.38429	1534.07	1.40932	1722.33	2.07661	1134.82	0.34612	704.329	2.20059	2.55623	1.03837	1157.58	1.7304	753.285	1.879	1254.2
2.19508	2.51202	0.346407	132.01	2.19627	2.51203	0.692495	240.533	1.38268	430.774	1.41093	451.404	2.07642	501.878	0.346448	123.784	2.19578	2.5575	1.03888	324.204	1.72996	375.708	1.8794	493.857
2.18925	2.51198	0.347159	70.3962	2.19044	2.51199	0.693114	133.641	1.37978	250.089	1.41393	260.247	2.07607	322.137	0.347235	68.0024	2.19099	2.5588	1.03996	188.678	1.72924	250.182	1.88015	307.569
2.18343	2.51195	0.348364	48.1238	2.18461	2.51196	0.694081	92.6207	1.37615	175.876	1.41775	183.162	2.07558	237.153	0.348473	47.0045	2.18622	2.56012	1.04156	133.205	1.72824	187.458	1.88124	223.416
2.17762	2.51194	0.350012	36.6647	2.1788	2.51194	0.695387	70.9493	1.37214	135.427	1.42204	141.527	2.07495	187.617	0.350154	36.0204	2.18146	2.56147	1.04365	103.06	1.72698	149.824	1.88266	175.494
2.17182	2.51193	0.352091	29.7031	2.173	2.51193	0.697023	57.5644	1.36793	109.968	1.42661	115.466	2.07418	155.173	0.352266	29.2862	2.17671	2.56284	1.04618	84.1384	1.72548	124.726	1.88438	144.562
2.16603	2.51194	0.354587	25.0395	2.16721	2.51194	0.698976	48.4862	1.36361	92.4688	1.43135	97.6191	2.07327	132.272	0.354793	24.7487	2.17197	2.56423	1.0491	71.1667	1.72376	106.79	1.8864	122.952
2.16025	2.51196	0.357483	21.7071	2.16143	2.51196	0.701231	41.9312	1.35925	79.7022	1.43622	84.6328	2.07223	115.241	0.357718	21.4933	2.16724	2.56563	1.05236	61.7261	1.72183	93.3294	1.88868	107.008
2.15449	2.512	0.360759	19.214	2.15566	2.51199	0.703774	36.9808	1.35488	69.9778	1.44118	74.7599	2.07107	102.078	0.361022	19.0507	2.16252	2.56706	1.05591	54.5517	1.71971	82.8526	1.89121	94.7628
2.14874	2.51205	0.364396	17.2837	2.14991	2.51204	0.706587	33.1137	1.35051	62.3248	1.4462	67.001	2.06978	91.5977	0.364686	17.1552	2.15781	2.5685	1.05972	48.9173	1.71744	74.4649	1.89398	85.0662
2.143	2.51211	0.368373	15.7487	2.14416	2.5121	0.709653	30.0121	1.34617	56.1458	1.45128	60.7429	2.06839	83.055	0.368688	15.6453	2.1531	2.56996	1.06375	44.3768	1.71502	67.5973	1.89695	77.1992
2.13727	2.51219	0.372669	14.5018	2.13843	2.51218	0.712957	27.4711	1.34186	51.053	1.4564	55.5887	2.06689	75.9571	0.373007	14.417	2.1484	2.57143	1.06797	40.6408	1.71247	61.8702	1.90011	70.69
2.13155	2.51229	0.377261	13.471	2.13271	2.51227	0.716479	25.3528	1.3376	46.7837	1.46156	51.2701	2.06529	69.9655	0.377621	13.4002	2.14371	2.57291	1.07236	37.5137	1.70983	57.021	1.90345	65.2158
2.12585	2.5124	0.382129	12.6062	2.12701	2.51238	0.720204	23.5609	1.33338	43.1536	1.46674	47.5991	2.0636	64.8399	0.382508	12.5464	2.13901	2.57441	1.07688	34.8581	1.70709	52.862	1.90694	60.5487
2.12016	2.51253	0.387251	11.8715	2.12132	2.5125	0.724115	22.0262	1.32922	40.0297	1.47194	44.4403	2.06182	60.4047	0.387648	11.8204	2.13432	2.57592	1.08152	32.5753	1.70427	49.2555	1.91057	56.5229
2.11448	2.51267	0.392606	11.2405	2.11564	2.51264	0.728195	20.6976	1.32512	37.3135	1.47717	41.6935	2.05997	56.5292	0.39302	11.1964	2.12963	2.57743	1.08626	30.592	1.7014	46.0984	1.91433	53.0151
2.10882	2.51283	0.398173	10.6935	2.10997	2.5128	0.732431	19.5367	1.32109	34.9304	1.4824	39.2829	2.05805	53.1134	0.397874	10.7206	2.12494	2.57896	1.09109	28.8531	1.69848	43.3116	1.91819	49.9315
2.10317	2.51301	0.403934	10.2152	2.10432	2.51297	0.736806	18.5139	1.31713	32.8231	1.48765	37.1504	2.05607	50.0801	0.402129	10.3569	2.12025	2.58049	1.09599	27.316	1.69553	40.8337	1.92216	47.1998
2.09754	2.51321	0.409869	9.79381	2.09869	2.51317	0.741306	17.6062	1.31324	30.9467	1.4929	35.2504	2.05403	47.3683	0.405723	10.0814	2.11555	2.58203	1.10096	25.9476	1.69256	38.6162	1.92622	44.7631
2.09192	2.51343	0.41596	9.41998	2.09306	2.51338	0.745919	16.7954	1.30943	29.2656	1.49816	33.5468	2.05195	44.9296	0.408609	9.87808	2.11085	2.58357	1.10598	24.7215	1.68957	36.6203	1.93035	42.5762
2.08632	2.51366	0.422188	9.08623	2.08746	2.51361	0.750631	16.0668	1.3057	27.7512	1.50342	32.0107	2.04983	42.7246	0.410756	9.73602	2.10615	2.58511	1.11104	23.6166	1.68659	34.8145	1.93455	40.6024
2.08073	2.51392	0.428537	8.78653	2.08186	2.51386	0.755431	15.4085	1.30206	26.38	1.50868	30.6184	2.04768	40.7213	0.41214	9.64821	2.10143	2.58664	1.11614	22.6157	1.68361	33.173	1.9388	38.8122
2.07515	2.51419	0.434989	8.51594	2.07629	2.51413	0.760305	14.8109	1.2985	25.1331	1.51393	29.3505	2.0455	38.8934	0.414144	9.52604	2.09671	2.58818	1.12126	21.7047	1.68065	31.6745	1.94311	37.181
2.06959	2.51448	0.441528	8.27036	2.07072	2.51442	0.765243	14.2658	1.29505	23.9946	1.51917	28.1911	2.04331	37.2187	0.416339	9.39839	2.09197	2.58971	1.1264	20.872	1.67771	30.3014	1.94746	35.6885
2.06405	2.5148	0.448138	8.04641	2.06518	2.51473	0.770234	13.7667	1.29169	22.9512	1.5244	27.1266	2.0411	35.679	0.419352	9.23281	2.08722	2.59123	1.13156	20.1078	1.6748	29.0387	1.95184	34.3177
2.05852	2.51514	0.454804	7.84123	2.05965	2.51507	0.775268	13.3078	1.28843	21.9917	1.52962	26.146	2.03889	34.2586	0.423205	9.03569	2.08245	2.59273	1.13672	19.404	1.67193	27.8739	1.95625	33.0543
2.05301	2.5155	0.461509	7.65241	2.05413	2.51542	0.780334	12.8845	1.28528	21.1067	1.53482	25.2394	2.03669	32.9443	0.427924	8.81389	2.07766	2.59423	1.14188	18.7534	1.66911	26.796	1.96069	31.886
2.04752	2.51588	0.468238	7.47789	2.04863	2.5158	0.785422	12.4925	1.28225	20.2881	1.54	24.3988	2.03449	31.7247	0.433534	8.57432	2.07286	2.59571	1.14704	18.1504	1.66634	25.796	1.96513	30.8025
2.04204	2.51628	0.474976	7.31591	2.04315	2.51619	0.790523	12.1286	1.27933	19.5289	1.54516	23.6172	2.03231	30.59	0.440055	8.32345	2.06803	2.59716	1.15219	17.5896	1.66363	24.8658	1.96959	29.7948
2.03658	2.5167	0.481708	7.16495	2.03769	2.51662	0.795628	11.7895	1.27653	18.8232	1.55029	22.8884	2.03015	29.5319	0.446651	8.09491	2.06318	2.5986	1.15732	17.0668	1.66098	23.9986	1.97405	28.8551
2.03113	2.51715	0.488418	7.0237	2.03224	2.51706	0.800726	11.4728	1.27386	18.1658	1.55539	22.2072	2.02802	28.5429	0.453305	7.88575	2.0583	2.60001	1.16243	16.578	1.6584	23.1883	1.97851	27.9766
2.02571	2.51763	0.49509	6.891	2.02681	2.51753	0.80581	11.1761	1.27132	17.5521	1.56046	21.569	2.02592	27.6165	0.460002	7.69344	2.05339	2.60139	1.16752	16.1201	1.6559	22.4297	1.98296	27.1536
2.02029	2.51812	0.50171	6.76584	2.0214	2.51802	0.81087	10.8976	1.26892	16.9781	1.56549	20.9697	2.02387	26.7472	0.466728	7.51588	2.04845	2.60274	1.17257	15.69	1.65349	21.7182	1.98739	26.3808
2.0149	2.51864	0.508261	6.64735	2.016	2.51854	0.815252	10.6682	1.26666	16.4403	1.57048	20.4059	2.02186	25.9299	0.473465	7.35123	2.04348	2.60406	1.17758	15.2851	1.65116	21.0497	1.99181	25.6537
2.00953	2.51919	0.514729	6.53473	2.01062	2.51908	0.818964	10.4817	1.26455	15.9357	1.57543	19.8743	2.0199	25.1603	0.4802	7.19792	2.03847	2.60534	1.18256	14.9033	1.64893	20.4205	1.9962	24.9682
2.00417	2.51976	0.521096	6.42729	2.00526	2.51964	0.822015	10.3332	1.2626	15.4614	1.58033	19.3723	2.01801	24.4344	0.486916	7.05459	2.03343	2.60658	1.18748	14.5425	1.6468	19.8276	2.00056	24.3209
1.99883	2.52036	0.527349	6.32442	1.99991	2.52023	0.824413	10.2194	1.2608	15.0152	1.58518	18.8972	2.01617	23.7487	0.493598	6.92007	2.02835	2.60778	1.19236	14.2009	1.64477	19.2679	2.00489	23.7084
1.9935	2.52098	0.53347	6.22556	1.99458	2.52085	0.826167	10.1376	1.25917	14.5947	1.58998	18.447	2.01441	23.1001	0.500231	6.7933	2.02323	2.60894	1.19717	13.8769	1.64285	18.7389	2.00918	23.1281
1.9882	2.52163	0.539445	6.13022	1.98928	2.52149	0.827287	10.0861	1.25771	14.198	1.59472	18.0195	2.01273	22.4858	0.506799	6.67339	2.01807	2.61006	1.20193	13.5691	1.64105	18.2383	2.01342	22.5772
1.98291	2.5223	0.54526	6.03797	1.98398	2.52216	0.82889	10.0131	1.25642	13.8234	1.59939	17.6131	2.01112	21.9033	0.513286	6.55951	2.01288	2.61113	1.20661	13.2762	1.63937	17.7641	2.01761	22.0536
1.97764	2.523	0.550899	5.94843	1.97871	2.52286	0.830624	9.93512	1.25532	13.4694	1.604	17.2262	2.00961	21.3503	0.519678	6.45097	2.00764	2.61216	1.21123	12.997	1.63782	17.3144	2.02175	21.5552
1.97238	2.52373	0.55635	5.86125	1.97345	2.52358	0.83297	9.83138	1.25441	13.1344	1.60854	16.8572	2.00819	20.8247	0.525957	6.34712	2.00237	2.61314	1.21577	12.7305	1.6364	16.8875	2.02582	21.08
1.96715	2.52448	0.5616	5.77615	1.96821	2.52433	0.835912	9.70377	1.25369	12.8172	1.613	16.5048	2.00686	20.3246	0.532109	6.24741	1.99706	2.61408	1.22022	12.4757	1.63512	16.4818	2.02983	20.6265
1.96193	2.52527	0.566637	5.69286	1.96299	2.5251	0.839431	9.55451	1.25317	12.5166	1.61738	16.168	2.00565	19.8485	0.538119	6.15132	1.99171	2.61497	1.22459	12.2318	1.63398	16.0959	2.03377	20.1931
1.95673	2.52607	0.571453	5.61117	1.95779	2.52591	0.843501	9.38602	1.25285	12.2315	1.62169	15.8455	2.00454	19.3946	0.54397	6.05841	1.98632	2.61583	1.22887	11.998	1.63299	15.7286	2.03763	19.7783
1.95155	2.52691	0.576039	5.53089	1.9526	2.52674	0.848088	9.20083	1.25274	11.961	1.6259	15.5364	2.00355	18.9617	0.54965	5.9683	1.98089	2.61663	1.23305	11.7736	1.63215	15.3788	2.04141	19.3809
1.94638	2.52777	0.580391	5.45188	1.94743	2.5276	0.852578	9.02365	1.25284	11.7041	1.63003	15.2398	2.00268	18.5484	0.555144	5.88062	1.97544	2.6174	1.23714	11.558	1.63146	15.0452	2.04511	18.9998
1.94123	2.52866	0.584502	5.37403	1.94228	2.52848	0.856963	8.85384	1.25315	11.46	1.63406	14.9549	2.00193	18.1536	0.56044	5.79507	1.96994	2.61813	1.24112	11.3505	1.63094	14.727	2.04871	18.6339
1.9361	2.52958	0.588373	5.29724	1.93714	2.52939	0.861235	8.6908	1.25369	11.228	1.63799	14.6809	2.00132	17.7761	0.565526	5.71139	1.96442	2.61882	1.24499	11.1506	1.63057	14.4232	2.05222	18.2821
1.93098	2.53053	0.592003	5.22145	1.93203	2.53033	0.865388	8.534	1.25434	11.0351	1.64183	14.4171	2.00084	17.4149	0.570393	5.62936	1.95886	2.61947	1.24828	10.9823	1.63038	14.133	2.05563	17.9436
1.92589	2.5315	0.595396	5.14663	1.92692	2.5313	0.869415	8.38296	1.25502	10.8771	1.64556	14.1629	2.0005	17.0692	0.575031	5.54878	1.95328	2.62008	1.25101	10.8428	1.63036	13.8557	2.05894	17.6176
1.9208	2.5325	0.598556	5.07277	1.92184	2.53229	0.873309	8.23724	1.25568	10.7508	1.64918	13.9176	2.0003	16.738	0.579435	5.4695	1.94767	2.62067	1.25323	10.7302	1.63051	13.5905	2.06214	17.3034
1.91573	2.53352	0.60149	4.99986	1.91676	2.53331	0.877064	8.09645	1.25627	10.6535	1.65269	13.6809	2.00026	16.4205	0.583601	5.39139	1.94203	2.62122	1.25495	10.6428	1.63083	13.3367	2.06522	17.0001
1.91068	2.53457	0.604206	4.92792	1.91171	2.53436	0.880676	7.96024	1.25673	10.5835	1.65609	13.4521	2.00036	16.1161	0.587526	5.31437	1.93636	2.62174	1.25619	10.5794	1.63133	13.0937	2.0682	16.7073
1.90564	2.53565	0.606715	4.85698	1.90667	2.53543	0.88414	7.82828	1.25704	10.5393	1.65938	13.2308	2.00061	15.824	0.59121	5.23836	1.93068	2.62223	1.25698	10.5393	1.63202	12.861	2.07105	16.4242
1.90062	2.53675	0.609028	4.78707	1.90164	2.53653	0.88745	7.70028	1.25751	10.4766	1.66255	13.0167	2.00103	15.5436	0.594656	5.16333	1.92497	2.62269	1.25811	10.4821	1.63288	12.638	2.07379	16.1504
1.89561	2.53788	0.611156	4.71823	1.89662	2.53765	0.890605	7.57597	1.25804	10.4096	1.66561	12.8092	2.0016	15.2742	0.597867	5.08925	1.91924	2.62313	1.25932	10.4206	1.63391	12.4241	2.0764	15.8853
1.89061	2.53903	0.613114	4.6505	1.89162	2.5388	0.893602	7.45513	1.25882	10.3203	1.66855	12.6081	2.00232	15.0154	0.600851	5.01613	1.91348	2.62355	1.26094	10.3381	1.63513	12.219	2.0789	15.6285
1.88562	2.5402	0.614914	4.58392	1.88663	2.53996	0.896438	7.33754	1.25987	10.2103	1.67138	12.413	2.00321	14.7666	0.603615	4.94397	1.90772	2.62394	1.26295	10.2357	1.63653	12.0221	2.08127	15.3795
1.88064	2.5414	0.616569	4.51854	1.88165	2.54115	0.899112	7.22302	1.26126	10.0815	1.67409	12.2237	2.00426	14.5272	0.60617	4.8728	1.90193	2.62431	1.26531	10.1144	1.6381	11.8331	2.08352	15.138
1.87567	2.54261	0.618094	4.4544	1.87668	2.54236	0.901625	7.11139	1.26304	9.93604	1.67669	12.0398	2.00547	14.2969	0.608525	4.80266	1.89613	2.62466	1.26801	9.97557	1.63984	11.6515	2.08564	14.9036
1.87071	2.54384	0.619501	4.39151	1.87172	2.54359	0.903977	7.0025	1.26529	9.77628	1.67917	11.8611	2.00684	14.0751	0.610694	4.73357	1.89031	2.62499	1.27099	9.82077	1.64175	11.4769	2.08765	14.676
1.86576	2.54509	0.620805	4.32993	1.86676	2.54484	0.906169	6.89621	1.26775	9.62374	1.68155	11.6874	2.00836	13.8615	0.612689	4.66559	1.88448	2.62531	1.27386	9.6705	1.64355	11.3302	2.08954	14.4548
1.8608	2.54635	0.622017	4.26967	1.86181	2.54609	0.908203	6.79242	1.27043	9.47802	1.68382	11.5185	2.01005	13.6556	0.614523	4.59875	1.87864	2.62561	1.27661	9.52455	1.64519	11.2091	2.09132	14.2398
1.85586	2.54762	0.623149	4.21075	1.85686	2.54736	0.910083	6.69101	1.2733	9.33874	1.68572	11.375	2.01188	13.4571	0.61621	4.5331	1.87278	2.62589	1.27925	9.38272	1.6466	11.1114	2.09298	14.0307
1.8509	2.5489	0.624214	4.15319	1.85191	2.54864	0.911811	6.59189	1.27638	9.20552	1.68728	11.2554	2.01386	13.2656	0.617763	4.46867	1.86691	2.62616	1.28178	9.24483	1.64777	11.0358	2.09453	13.8272
1.84595	2.55018	0.625221	4.097	1.84696	2.54992	0.913393	6.49498	1.27965	9.07803	1.68853	11.1582	2.01599	13.0808	0.619195	4.40551	1.86103	2.62641	1.28421	9.11071	1.64865	10.9811	2.09599	13.6292
1.84099	2.55146	0.626183	4.04218	1.842	2.5512	0.914832	6.4002	1.2831	8.95593	1.6895	11.0825	2.01826	12.9024	0.620521	4.34363	1.85514	2.62666	1.28654	8.98023	1.64922	10.9464	2.09734	13.4364
1.83601	2.55272	0.62699	3.99553	1.83703	2.55247	0.916134	6.30749	1.28673	8.83891	1.69019	11.0275	2.02067	12.73	0.621752	4.28307	1.84925	2.62689	1.28877	8.85324	1.65005	10.8971	2.0986	13.2487
1.83102	2.55398	0.627661	3.95659	1.83204	2.55372	0.917304	6.21679	1.29053	8.72667	1.69063	10.9925	2.02321	12.5634	0.622901	4.22385	1.84334	2.62711	1.29092	8.72964	1.65098	10.8442	2.09978	13.0658
1.826	2.5552	0.628206	3.92495	1.82703	2.55496	0.918349	6.12804	1.29449	8.61894	1.69126	10.9426	2.02588	12.4023	0.62398	4.16598	1.83742	2.62731	1.293	8.60933	1.65227	10.7734	2.10088	12.8876
1.82096	2.5564	0.628632	3.90031	1.82199	2.55616	0.919275	6.0412	1.29859	8.51544	1.69193	10.8889	2.02867	12.2463	0.625	4.10948	1.8315	2.62751	1.295	8.49221	1.65395	10.6856	2.1019	12.7139
1.81588	2.55755	0.628944	3.88239	1.81691	2.55732	0.920088	5.95623	1.30283	8.41593	1.69282	10.8166	2.03157	12.0954	0.625971	4.05435	1.82557	2.6277	1.29695	8.3782	1.65605	10.582	2.10286	12.5446
1.81075	2.55864	0.629142	3.87101	1.8118	2.55843	0.920795	5.87308	1.30721	8.32016	1.69393	10.7266	2.03458	11.9491	0.626903	4.0006	1.81963	2.62789	1.29885	8.26723	1.65861	10.4639	2.10376	12.3796
1.80557	2.55967	0.629427	3.85478	1.80663	2.55947	0.921402	5.79172	1.3117	8.2279	1.69523	10.6195	2.03769	11.8074	0.627805	3.94822	1.81369	2.62806	1.30071	8.15925	1.66167	10.3328	2.10461	12.2187
1.80033	2.56063	0.629735	3.8373	1.80141	2.56044	0.921918	5.71211	1.31629	8.13894	1.69671	10.4966	2.04047	11.6874	0.628686	3.89721	1.80774	2.62823	1.30255	8.05421	1.66485	10.2061	2.10542	12.0618
1.79503	2.56149	0.630154	3.81381	1.79612	2.56132	0.922347	5.63422	1.32099	8.05308	1.69835	10.3589	2.0429	11.5875	0.629554	3.84756	1.80179	2.62839	1.30438	7.95206	1.66814	10.0837	2.1062	11.9088
1.78966	2.56226	0.630684	3.78455	1.79076	2.56211	0.922697	5.55802	1.32577	7.9701	1.69995	10.2247	2.04495	11.5066	0.630417	3.79925	1.79583	2.62854	1.30621	7.85278	1.67154	9.96522	2.10685	11.7786
1.78421	2.56292	0.631326	3.74983	1.78532	2.5628	0.922974	5.48347	1.33062	7.88985	1.7015	10.094	2.04658	11.4437	0.63128	3.75228	1.78986	2.62869	1.30807	7.75634	1.67504	9.85056	2.1074	11.6698
1.77869	2.56349	0.632085	3.71003	1.77982	2.56338	0.923186	5.41056	1.33554	7.81212	1.70303	9.9666	2.0478	11.3979	0.632151	3.70662	1.78389	2.62883	1.30996	7.66272	1.67862	9.73949	2.10784	11.5814
1.77309	2.56395	0.632968	3.66557	1.77423	2.56386	0.923337	5.33925	1.34051	7.73677	1.70453	9.84247	2.04858	11.3689	0.633035	3.66226	1.77792	2.62897	1.3119	7.57191	1.68229	9.63182	2.10819	11.5124
1.76742	2.56431	0.633869	3.62239	1.76858	2.56424	0.923435	5.2695	1.34552	7.66363	1.70601	9.72153	2.04971	11.3275	0.633938	3.61917	1.77195	2.62911	1.31393	7.4839	1.68603	9.52738	2.10845	11.4622
1.76169	2.56458	0.634794	3.58046	1.76286	2.56453	0.923485	5.2013	1.35056	7.59255	1.7075	9.60371	2.05095	11.283	0.634865	3.57734	1.76597	2.62924	1.31604	7.39871	1.68984	9.42599	2.10861	11.4304
1.7559	2.56476	0.635746	3.53976	1.75708	2.56473	0.923494	5.13462	1.35562	7.52339	1.70899	9.48896	2.05265	11.2231	0.63582	3.53673	1.75998	2.62936	1.31827	7.31633	1.6937	9.32748	2.10885	11.3849
1.75005	2.56487	0.636731	3.50028	1.75125	2.56485	0.923465	5.06943	1.36068	7.45602	1.7105	9.3772	2.05482	11.1486	0.636807	3.49733	1.754	2.62948	1.32063	7.23677	1.69761	9.23172	2.10911	11.3358
1.74416	2.56491	0.637751	3.46197	1.74537	2.56491	0.923406	5.00569	1.36574	7.3903	1.71204	9.26839	2.05747	11.0601	0.63783	3.45912	1.74801	2.6296	1.32315	7.16006	1.70156	9.13854	2.10946	11.2698
1.73823	2.56489	0.63881	3.42482	1.73944	2.5649	0.92332	4.9434	1.37078	7.32612	1.71361	9.16248	2.06062	10.9586	0.638892	3.42206	1.74202	2.62972	1.32585	7.08619	1.70555	9.04781	2.10991	11.1875
1.73226	2.56481	0.639912	3.38881	1.73348	2.56483	0.923213	4.88251	1.3758	7.26336	1.71524	9.05941	2.06428	10.845	0.639997	3.38613	1.73603	2.62984	1.32876	7.01519	1.70956	8.9594	2.11046	11.0896
1.72626	2.56469	0.641059	3.3539	1.72749	2.56472	0.923089	4.823	1.38078	7.20191	1.71693	8.95913	2.06797	10.7343	0.641148	3.3513	1.73004	2.62995	1.33188	6.94707	1.71358	8.87318	2.11112	10.9771
1.72024	2.56453	0.642254	3.32007	1.72147	2.56457	0.922953	4.76484	1.38571	7.14167	1.71869	8.86161	2.0717	10.6264	0.642346	3.31755	1.72404	2.63006	1.33526	6.88184	1.71761	8.78904	2.11191	10.851
1.71419	2.56434	0.643499	3.2873	1.71542	2.56438	0.922809	4.70802	1.39058	7.08254	1.72053	8.7668	2.07546	10.5211	0.643595	3.28486	1.71805	2.63018	1.3389	6.8195	1.72164	8.70686	2.11273	10.7281
1.70812	2.56411	0.644796	3.25555	1.70936	2.56416	0.922661	4.65249	1.39538	7.02443	1.72246	8.67465	2.07924	10.4184	0.644897	3.25319	1.71205	2.63029	1.34282	6.76004	1.72566	8.62653	2.11359	10.6082
1.70203	2.56385	0.646148	3.22481	1.70328	2.56391	0.922513	4.59824	1.40009	6.96725	1.72449	8.58513	2.08303	10.3181	0.646252	3.22252	1.70605	2.6304	1.34704	6.70344	1.72967	8.54796	2.11451	10.4913
1.69593	2.56357	0.647555	3.19504	1.69718	2.56363	0.922368	4.54525	1.40472	6.91092	1.72664	8.49819	2.08682	10.2201	0.647664	3.19282	1.70006	2.63051	1.35158	6.64967	1.73365	8.47105	2.11549	10.3773
1.68982	2.56327	0.64902	3.16622	1.69106	2.56333	0.922229	4.49347	1.40925	6.85537	1.7289	8.41379	2.09062	10.1243	0.649133	3.16407	1.69406	2.63062	1.35645	6.59868	1.7376	8.3957	2.11653	10.2663
1.68369	2.56294	0.650543	3.13832	1.68494	2.56301	0.922101	4.44289	1.41366	6.80052	1.7313	8.3319	2.09441	10.0305	0.650661	3.13625	1.68806	2.63074	1.36164	6.55042	1.74152	8.32184	2.11765	10.158
1.67755	2.5626	0.652127	3.11133	1.6788	2.56267	0.921985	4.39349	1.41796	6.74632	1.73383	8.25246	2.09819	9.9388	0.652249	3.10932	1.68207	2.63085	1.36716	6.5048	1.74539	8.24939	2.11885	10.0525
1.67141	2.56224	0.653771	3.08521	1.67266	2.56232	0.921885	4.34524	1.42214	6.6927	1.73651	8.17543	2.10195	9.84897	0.653898	3.08327	1.67607	2.63097	1.37302	6.46174	1.74921	8.17827	2.12013	9.94962
1.66525	2.56187	0.655478	3.05994	1.6665	2.56195	0.921804	4.29811	1.42617	6.63961	1.73935	8.10077	2.10569	9.76096	0.655609	3.05806	1.67007	2.63109	1.37921	6.42112	1.75298	8.1084	2.1215	9.84942
1.65909	2.56148	0.657246	3.0355	1.66034	2.56156	0.921744	4.25209	1.43007	6.587	1.74234	8.02843	2.1094	9.67468	0.657383	3.03369	1.66408	2.63121	1.38571	6.38284	1.75668	8.03974	2.12297	9.75179
1.65292	2.56108	0.659078	3.01187	1.65418	2.56116	0.921708	4.20714	1.43383	6.53483	1.7455	7.95837	2.11307	9.59005	0.65922	3.01011	1.65809	2.63134	1.39253	6.34676	1.76032	7.9722	2.12455	9.65667
1.64674	2.56067	0.660974	2.98901	1.648	2.56075	0.921697	4.16324	1.43743	6.48307	1.74882	7.89053	2.11671	9.50701	0.66112	2.98731	1.6521	2.63147	1.39963	6.31277	1.76389	7.90575	2.12623	9.56402
1.64056	2.56025	0.662934	2.96692	1.64182	2.56033	0.921714	4.12037	1.44087	6.43168	1.75232	7.82486	2.12031	9.42548	0.663085	2.96528	1.64611	2.6316	1.40702	6.28073	1.76738	7.84032	2.12803	9.47377
1.63438	2.55981	0.664958	2.94556	1.63564	2.5599	0.921762	4.07852	1.44416	6.38063	1.756	7.7613	2.12386	9.34541	0.665114	2.94397	1.64013	2.63174	1.41467	6.2505	1.7708	7.77588	2.12994	9.38588
1.62819	2.55937	0.667047	2.92492	1.62945	2.55946	0.921841	4.03765	1.44729	6.32991	1.75985	7.6998	2.12736	9.26672	0.667208	2.92339	1.63415	2.63189	1.42257	6.22195	1.77413	7.71237	2.13198	9.30027
1.622	2.55891	0.669201	2.90497	1.62326	2.55901	0.921955	3.99774	1.45025	6.2795	1.76388	7.6403	2.13081	9.18937	0.669367	2.90349	1.62817	2.63204	1.43069	6.19497	1.77738	7.64976	2.13413	9.21691
1.6158	2.55845	0.67142	2.8857	1.61706	2.55855	0.922103	3.95878	1.45305	6.22939	1.76809	7.58273	2.1342	9.11331	0.671591	2.88427	1.62219	2.6322	1.43903	6.16941	1.78054	7.58802	2.13642	9.13573
1.6096	2.55798	0.673704	2.86708	1.61087	2.55808	0.922289	3.92074	1.45569	6.17956	1.77247	7.52704	2.13753	9.03847	0.67388	2.8657	1.61622	2.63237	1.44755	6.14517	1.78362	7.52711	2.13883	9.05667
1.6034	2.5575	0.676053	2.8491	1.60466	2.5576	0.922514	3.8836	1.45816	6.13003	1.77702	7.47315	2.1408	8.96483	0.676233	2.84777	1.61026	2.63255	1.45625	6.12213	1.78661	7.46701	2.14137	8.97969
1.5972	2.55702	0.678466	2.83174	1.59846	2.55712	0.922778	3.84734	1.46048	6.08078	1.78175	7.42101	2.144	8.89234	0.678652	2.83045	1.6043	2.63274	1.46511	6.10019	1.78951	7.40769	2.14404	8.90473
1.59099	2.55653	0.680945	2.81497	1.59225	2.55663	0.923084	3.81194	1.46264	6.03183	1.78664	7.37054	2.14715	8.82095	0.681135	2.81373	1.59835	2.63294	1.47411	6.07925	1.79232	7.34915	2.14684	8.83172
1.58478	2.55603	0.683487	2.79879	1.58605	2.55613	0.923433	3.77739	1.46464	5.98317	1.79169	7.32168	2.15022	8.75065	0.683683	2.79758	1.5924	2.63315	1.48323	6.05922	1.79505	7.29137	2.14977	8.76062
1.57857	2.55552	0.686094	2.78317	1.57984	2.55562	0.923825	3.74366	1.4665	5.93481	1.79689	7.27435	2.15324	8.68139	0.686294	2.782	1.58646	2.63338	1.49246	6.04001	1.79771	7.23434	2.15283	8.69136
1.57236	2.55501	0.688765	2.76809	1.57362	2.55511	0.924262	3.71073	1.46821	5.88677	1.80224	7.22849	2.15618	8.61314	0.68897	2.76697	1.58053	2.63362	1.50179	6.02153	1.80028	7.17804	2.15601	8.62389
1.56614	2.55449	0.6915	2.75355	1.56741	2.55459	0.924746	3.6786	1.46979	5.83906	1.80773	7.18403	2.15907	8.5459	0.691709	2.75247	1.57461	2.63388	1.5112	6.00371	1.80278	7.12249	2.15932	8.55815
1.55993	2.55396	0.694298	2.73952	1.56119	2.55407	0.925276	3.64723	1.47122	5.79168	1.81336	7.14089	2.16189	8.47963	0.694512	2.73848	1.5687	2.63416	1.52067	5.98648	1.80522	7.06768	2.16276	8.49409
1.55371	2.55343	0.697159	2.72599	1.55498	2.55354	0.925854	3.61661	1.47253	5.74465	1.8191	7.09902	2.16465	8.41431	0.697378	2.72498	1.5628	2.63446	1.5302	5.96976	1.80759	7.01362	2.16631	8.43164
1.5475	2.55289	0.700083	2.71294	1.54876	2.553	0.926481	3.58673	1.47372	5.69798	1.82496	7.05834	2.16736	8.34993	0.700307	2.71198	1.55691	2.63478	1.53977	5.95349	1.80991	6.96032	2.16999	8.37075
1.54128	2.55235	0.703069	2.70037	1.54254	2.55246	0.927157	3.55757	1.47479	5.6517	1.83093	7.01879	2.17001	8.28648	0.703298	2.69944	1.55103	2.63513	1.54936	5.93761	1.8122	6.9078	2.17377	8.31136
1.53506	2.5518	0.706119	2.68826	1.53632	2.55191	0.927884	3.52911	1.47574	5.6058	1.837	6.98029	2.17261	8.22395	0.706352	2.68736	1.54517	2.6355	1.55896	5.92204	1.81444	6.85607	2.17766	8.25342
1.52884	2.55125	0.70923	2.67659	1.53011	2.55136	0.928661	3.50134	1.4766	5.5603	1.84315	6.94279	2.17516	8.16233	0.709468	2.67573	1.53932	2.6359	1.56856	5.90672	1.81667	6.80516	2.18165	8.19687
1.52262	2.55069	0.712404	2.66536	1.52389	2.5508	0.92949	3.47425	1.47735	5.51522	1.84938	6.90623	2.17768	8.10162	0.712647	2.66453	1.5335	2.63634	1.57814	5.8916	1.81889	6.75509	2.18574	8.14165
1.5164	2.55013	0.715641	2.65456	1.51766	2.55024	0.930372	3.4478	1.47801	5.47056	1.85567	6.87053	2.18016	8.04181	0.715889	2.65376	1.52769	2.63681	1.58768	5.8766	1.82112	6.70591	2.18992	8.08771
1.51018	2.54956	0.718942	2.64417	1.51144	2.54968	0.931306	3.42201	1.47858	5.42634	1.86202	6.83565	2.18261	7.9829	0.719195	2.6434	1.5219	2.63732	1.59717	5.86167	1.82338	6.65764	2.19418	8.03499
1.50396	2.54899	0.722307	2.63419	1.50522	2.5491	0.932294	3.39684	1.47908	5.38256	1.86842	6.80151	2.18504	7.92491	0.722565	2.63345	1.51613	2.63787	1.60659	5.84672	1.82567	6.61033	2.19853	7.98344
1.49774	2.54841	0.725739	2.62462	1.499	2.54853	0.933335	3.37228	1.47949	5.33924	1.87485	6.76807	2.18745	7.86782	0.726002	2.62391	1.51039	2.63847	1.61592	5.8317	1.82804	6.56404	2.20294	7.93301
1.49152	2.54783	0.729241	2.61546	1.49278	2.54795	0.934431	3.34832	1.47984	5.29638	1.8813	6.73526	2.18986	7.81166	0.729509	2.61478	1.50467	2.63913	1.62513	5.81652	1.83048	6.51882		
1.4853	2.54724	0.732818	2.60672	1.48656	2.54736	0.935582	3.32496	1.48012	5.254	1.88776	6.70302	2.19227	7.75641	0.733092	2.60607	1.49899	2.63984	1.63421	5.8011	1.83304	6.47473		
1.47908	2.54665	0.736479	2.59841	1.48034	2.54677	0.936788	3.30216	1.48034	5.21209	1.89422	6.67131	2.19469	7.70211	0.73676	2.5978	1.49333	2.64061	1.64313	5.78536	1.83574	6.43183		
1.47286	2.54606	0.740238	2.59059	1.47412	2.54618	0.938049	3.27993	1.4805	5.17066	1.90067	6.64007	2.19714	7.64875	0.740527	2.59002	1.48771	2.64145	1.65185	5.76921	1.83861	6.39022		
1.46664	2.54546	0.744121	2.58331	1.4679	2.54559	0.939366	3.25825	1.48062	5.12972	1.9071	6.60924	2.19961	7.59635	0.744421	2.58279	1.48213	2.64237	1.66036	5.75256	1.84168	6.34996		
1.46042	2.54486	0.748173	2.57674	1.46169	2.54499	0.94074	3.23711	1.48068	5.08927	1.91349	6.57878	2.20213	7.54492	0.748488	2.57628	1.47659	2.64337	1.66861	5.73532	1.84498	6.31114		
1.4542	2.54426	0.752469	2.57111	1.45547	2.54438	0.94217	3.21649	1.48071	5.04932	1.91983	6.54863			0.752808	2.57073	1.4711	2.64446	1.67659	5.71737	1.84855	6.27384		
1.44799	2.54365	0.757116	2.56675	1.44925	2.54378	0.943658	3.19639	1.4807	5.00986	1.92611	6.51874			0.757484	2.56648	1.46565	2.64564	1.68424	5.69864	1.85243	6.23814		
1.44177	2.54305	0.76219	2.56389	1.44304	2.54317	0.945202	3.17679	1.48065	4.9709	1.93232	6.48907			0.762592	2.56374	1.46026	2.64693	1.69155	5.67903	1.85664	6.20411		
1.43556	2.54244	0.767665	2.56242	1.43683	2.54256	0.946804	3.15769	1.48058	4.93243	1.93843	6.45956			0.768093	2.56235	1.45492	2.64833	1.69847	5.65845	1.86121	6.17183		
1.42935	2.54182	0.773425	2.56191	1.43061	2.54195	0.948464	3.13907	1.48047	4.89447	1.94445	6.43018			0.773869	2.5619	1.44964	2.64985	1.70499	5.63684	1.86619	6.14132		
1.42314	2.54121	0.779361	2.56199	1.4244	2.54133	0.950183	3.12092	1.48035	4.857	1.95036	6.40087			0.779815	2.56202	1.44443	2.6515	1.71109	5.61415	1.87157	6.11262		
1.41693	2.54059	0.7854	2.56241	1.4182	2.54072	0.951959	3.10324	1.4802	4.82003	1.95614	6.3716			0.78586	2.56245	1.43928	2.65328	1.71673	5.59035	1.87738	6.08572		
1.41073	2.53997	0.791502	2.56303	1.41199	2.5401	0.953795	3.08601	1.48004	4.78356	1.96179	6.34233			0.791966	2.56308	1.43419	2.65521	1.72193	5.56545	1.88361	6.06061		
1.40453	2.53935	0.797644	2.56376	1.40579	2.53948	0.95569	3.06923	1.47986	4.74758	1.96729	6.31301			0.79811	2.56382	1.42918	2.65728	1.72667	5.53947	1.89027	6.03722		
1.39832	2.53874	0.80381	2.56456	1.39959	2.53886	0.957644	3.05288	1.47967	4.71209	1.97263	6.28361			0.804278	2.56462	1.42425	2.65951	1.73097	5.51245	1.89735	6.01549		
1.39213	2.53812	0.809993	2.5654	1.39339	2.53824	0.959657	3.03696	1.47947	4.67709	1.97779	6.2541			0.810462	2.56547	1.41938	2.6619	1.73484	5.48447	1.90482	5.99533		
1.38593	2.5375	0.816188	2.56627	1.38719	2.53762	0.961731	3.02146	1.47927	4.64257	1.98278	6.22446			0.816657	2.56633	1.4146	2.66446	1.7383	5.45562	1.91267	5.97663		
1.37974	2.53688	0.822391	2.56714	1.381	2.53701	0.963866	3.00638	1.47906	4.60854	1.98758	6.19466			0.822861	2.56721	1.40989	2.66718	1.74138	5.42598	1.92087	5.95928		
1.37356	2.53627	0.828599	2.56803	1.37482	2.53639	0.966062	2.99169	1.47884	4.57498	1.99218	6.16467			0.829069	2.56809	1.40526	2.67007	1.7441	5.39567	1.92939	5.94316		
1.36737	2.53565	0.83481	2.56891	1.36863	2.53578	0.968319	2.97741	1.47863	4.54191	1.99658	6.13449			0.835281	2.56897	1.4007	2.67314	1.74649	5.36479	1.9382	5.92817		
1.3612	2.53504	0.841024	2.56978	1.36245	2.53517	0.970638	2.96351	1.47842	4.5093	2.00078	6.1041			0.841495	2.56985	1.39622	2.67637	1.74859	5.33343	1.94728	5.9142		
1.35502	2.53444	0.84724	2.57065	1.35628	2.53456	0.97302	2.95	1.47821	4.47716	2.00476	6.07349			0.84771	2.57071	1.39182	2.67979	1.75042	5.3017	1.9566	5.90114		
1.34885	2.53384	0.853456	2.57151	1.35011	2.53396	0.975465	2.93687	1.47801	4.44548	2.00853	6.04267			0.853927	2.57157	1.38749	2.68337	1.75201	5.26968	1.96612	5.88889		
1.34269	2.53324	0.859673	2.57235	1.34395	2.53336	0.977974	2.92411	1.47782	4.41426	2.01208	6.01163			0.860143	2.57242	1.38323	2.68713	1.75338	5.23745	1.97584	5.87738		
1.33654	2.53265	0.865889	2.57319	1.33779	2.53277	0.980547	2.91172	1.47763	4.38349	2.01542	5.98038			0.86636	2.57325	1.37905	2.69106	1.75455	5.20508	1.98573	5.86652		
1.33039	2.53207	0.872105	2.57401	1.33164	2.53219	0.983187	2.89969	1.47745	4.35317	2.01855	5.94894			0.872576	2.57407	1.37493	2.69516	1.75556	5.17265	1.99576	5.85624		
1.32425	2.5315	0.87832	2.57482	1.3255	2.53162	0.985893	2.88801	1.47729	4.32329	2.02147	5.91731			0.87879	2.57488	1.37088	2.69942	1.7564	5.1402	2.00592	5.84647		
1.31811	2.53094	0.884534	2.57561	1.31936	2.53105	0.988666	2.8767	1.47714	4.29385	2.02419	5.88551			0.885004	2.57567	1.36689	2.70386	1.75711	5.10779	2.0162	5.83717		
1.31199	2.53039	0.890747	2.5764	1.31324	2.5305	0.991509	2.86573	1.477	4.26484	2.02671	5.85356			0.891217	2.57645	1.36296	2.70845	1.7577	5.07546	2.02657	5.82826		
1.30587	2.52986	0.896958	2.57716	1.30712	2.52997	0.994422	2.8551	1.47688	4.23627	2.02903	5.82148			0.897429	2.57722	1.3591	2.71322	1.75818	5.04325	2.03703	5.81971		
1.29977	2.52934	0.903169	2.57791	1.30101	2.52944	0.997406	2.84483	1.47677	4.20811	2.03117	5.78929			0.903639	2.57797	1.3553	2.71814	1.75857	5.01118	2.04755	5.81148		
1.29368	2.52884	0.909377	2.57865	1.29492	2.52894	1.00046	2.83489	1.47668	4.18037	2.03313	5.75702			0.909847	2.57871	1.35155	2.72323	1.75887	4.9793	2.05814	5.80351		
1.2876	2.52836	0.915584	2.57938	1.28883	2.52845	1.0036	2.8253	1.47661	4.15305	2.03492	5.72468			0.916054	2.57943	1.34786	2.72848	1.75909	4.94762	2.06877	5.79579		
1.28153	2.5279	0.921789	2.58009	1.28276	2.52799	1.00681	2.81604	1.47656	4.12613	2.03655	5.69231			0.922259	2.58014	1.34422	2.73389	1.75925	4.91616	2.07944	5.78826		
1.27548	2.52746	0.927993	2.58078	1.27671	2.52755	1.0101	2.80713	1.47653	4.09962	2.03803	5.65993			0.928462	2.58083	1.34064	2.73947	1.75935	4.88494	2.09013	5.78089		
1.26944	2.52706	0.934195	2.58146	1.27067	2.52714	1.01347	2.79855	1.47653	4.0735	2.03935	5.62756			0.934664	2.58151	1.33711	2.7452	1.7594	4.85398	2.10084	5.77366		
1.26343	2.52668	0.940394	2.58213	1.26465	2.52676	1.01692	2.79031	1.47654	4.04777	2.04054	5.59521			0.940864	2.58218	1.33364	2.75109	1.7594	4.82328	2.11155	5.76652		
1.25743	2.52635	0.946592	2.58279	1.25865	2.52641	1.02046	2.78241	1.47658	4.02243	2.0416	5.56292			0.947061	2.58284	1.33021	2.75714	1.75937	4.79286	2.12225	5.75946		
1.25145	2.52605	0.952788	2.58343	1.25267	2.5261	1.02409	2.77485	1.47664	3.99747	2.04254	5.53071			0.953257	2.58347	1.32683	2.76336	1.7593	4.76273	2.13293	5.75242		
1.2455	2.52579	0.958982	2.58405	1.24671	2.52584	1.02781	2.76762	1.47672	3.97288	2.04337	5.49859			0.95945	2.5841	1.3235	2.76973	1.75919	4.73289	2.14358	5.74538		
1.23957	2.52559	0.965173	2.58467	1.24077	2.52563	1.03163	2.76074	1.47683	3.94867	2.04408	5.46658			0.965642	2.58471	1.32022	2.77627	1.75907	4.70336	2.15417	5.7383		
1.23367	2.52544	0.971363	2.58527	1.23487	2.52546	1.03554	2.75419	1.47697	3.92482	2.0447	5.43469			0.971831	2.58531	1.31698	2.78297	1.75892	4.67412	2.16471	5.73113		
1.22779	2.52535	0.97755	2.58586	1.22899	2.52536	1.03954	2.74799	1.47713	3.90133	2.04523	5.40295			0.978018	2.5859	1.3138	2.78984	1.75876	4.6452	2.17516	5.72384		
1.22196	2.52532	0.983735	2.58643	1.22314	2.52532	1.04365	2.74212	1.47733	3.8782	2.04567	5.37137			0.984203	2.58647	1.31065	2.79687	1.75857	4.61659	2.18551	5.71636		
1.21615	2.52537	0.989918	2.58699	1.21733	2.52535	1.04786	2.73659	1.47754	3.85542	2.04603	5.33996			0.990386	2.58703	1.30756	2.80407	1.75838	4.58829	2.19573	5.70865		
1.21038	2.52549	0.996098	2.58754	1.21156	2.52546	1.05217	2.73138	1.47779	3.83299	2.04631	5.30873			0.996566	2.58758	1.30451	2.81144	1.75818	4.56031	2.20581	5.70064		
1.20466	2.5257	1.00228	2.58808	1.20582	2.52565	1.05658	2.7265	1.47807	3.81089	2.04653	5.2777			1.00274	2.58812	1.3015	2.81898	1.75797	4.53265				
1.19897	2.52601	1.00845	2.5886	1.20013	2.52594	1.06109	2.72193	1.47837	3.78914	2.04668	5.24688			1.00892	2.58864	1.29854	2.82669	1.75776	4.5053				
1.19334	2.52641	1.01463	2.58911	1.19448	2.52632	1.0657	2.71767	1.4787	3.76771	2.04677	5.21626			1.01509	2.58915	1.29562	2.83458	1.75755	4.47826				
1.18775	2.52692	1.0208	2.58961	1.18888	2.52681	1.07041	2.71371	1.47907	3.74661	2.04681	5.18587			1.02126	2.58965	1.29275	2.84264	1.75733	4.45155				
1.18221	2.52754	1.02696	2.5901	1.18333	2.5274	1.07521	2.71003	1.47946	3.72583	2.04681	5.15571			1.02743	2.59013	1.28992	2.85089	1.75712	4.42515				
1.17672	2.52828	1.03313	2.59057	1.17783	2.52812	1.0801	2.70662	1.47989	3.70537	2.04675	5.12578			1.0336	2.59061	1.28714	2.85931	1.75691	4.39906				
1.17128	2.52914	1.03929	2.59103	1.17239	2.52896	1.08508	2.70347	1.48034	3.68523	2.04666	5.0961			1.03976	2.59107	1.28439	2.86792	1.75671	4.37328				
1.16591	2.53014	1.04545	2.59148	1.167	2.52992	1.09014	2.70055	1.48083	3.66539	2.04652	5.06666			1.04592	2.59151	1.2817	2.87672	1.75651	4.34782				
1.16058	2.53126	1.05161	2.59192	1.16166	2.53102	1.09528	2.69786	1.48135	3.64585	2.04636	5.03747			1.05208	2.59195	1.27904	2.88571	1.75633	4.32266				
1.15532	2.53252	1.05776	2.59234	1.15638	2.53225	1.10049	2.69537	1.4819	3.62661	2.04616	5.00853			1.05823	2.59238	1.27643	2.89488	1.75615	4.29781				
1.1501	2.53391	1.06391	2.59276	1.15116	2.53362	1.10577	2.69308	1.48249	3.60767	2.04593	4.97985			1.06438	2.59279	1.27386	2.90426	1.75598	4.27327				
1.14495	2.53544	1.07006	2.59316	1.14599	2.53512	1.1111	2.69096	1.48311	3.58902	2.04568	4.95143			1.07053	2.59319	1.27133	2.91383	1.75582	4.24903				
1.13985	2.5371	1.07621	2.59355	1.14088	2.53675	1.1165	2.689	1.48376	3.57066	2.04541	4.92328			1.07667	2.59358	1.26885	2.9236	1.75568	4.22509				
1.1348	2.5389	1.08235	2.59393	1.13582	2.53853	1.12195	2.68719	1.48444	3.55258	2.04512	4.89538			1.08281	2.59395	1.26641	2.93357	1.75555	4.20145				
1.1298	2.54083	1.08849	2.59429	1.13081	2.54043	1.12745	2.68551	1.48516	3.53478	2.04481	4.86775			1.08895	2.59432	1.26402	2.94376	1.75543	4.1781				
1.12484	2.54289	1.09462	2.59464	1.12585	2.54246	1.13299	2.68396	1.48591	3.51725	2.04448	4.84039			1.09509	2.59467	1.26166	2.95415	1.75533	4.15504				
1.11993	2.54507	1.10075	2.59498	1.12093	2.54461	1.13857	2.68252	1.48669	3.49999	2.04414	4.8133			1.10122	2.59501	1.25935	2.96476	1.75525	4.13227				
1.11507	2.54736	1.10688	2.59531	1.11605	2.54689	1.14419	2.68118	1.48751	3.483	2.04379	4.78647			1.10735	2.59534	1.25708	2.97558	1.75518	4.10979				
1.11024	2.54977	1.11301	2.59563	1.11122	2.54927	1.14984	2.67993	1.48837	3.46627	2.04344	4.75991			1.11347	2.59565	1.25486	2.98663	1.75513	4.0876				
1.10544	2.55229	1.11912	2.59593	1.10642	2.55177	1.15552	2.67877	1.48925	3.4498	2.04307	4.73361			1.11959	2.59595	1.25268	2.9979	1.7551	4.06568				
1.10068	2.5549	1.12524	2.59622	1.10165	2.55436	1.16123	2.67768	1.49018	3.43358	2.0427	4.70758			1.1257	2.59624	1.25054	3.0094	1.75509	4.04404				
1.09595	2.55761	1.13135	2.5965	1.09691	2.55705	1.16696	2.67666	1.49113	3.41762	2.04232	4.68182			1.13181	2.59652	1.24844	3.02113	1.7551	4.02268				
1.09123	2.5604	1.13746	2.59676	1.09219	2.55983	1.17272	2.67571	1.49212	3.4019	2.04194	4.65633			1.13792	2.59678	1.24639	3.0331	1.75514	4.00159				
1.08654	2.56327	1.14356	2.59701	1.0875	2.56268	1.1785	2.67481	1.49315	3.38643	2.04157	4.63109			1.14402	2.59703	1.24438	3.0453	1.75519	3.98076				
1.08186	2.5662	1.14966	2.59725	1.08281	2.5656	1.1843	2.67397	1.49421	3.37119	2.04119	4.60613			1.15012	2.59726	1.24241	3.05776	1.75526	3.96021				
1.0772	2.56919	1.15575	2.59747	1.07814	2.56858	1.19011	2.67317	1.49531	3.3562	2.04081	4.58142			1.15621	2.59748	1.24049	3.07046	1.75536	3.93991				
1.07253	2.57222	1.16183	2.59767	1.07348	2.5716	1.19595	2.67242	1.49644	3.34143	2.04043	4.55697			1.16229	2.59769	1.23861	3.08341	1.75548	3.91988				
1.06787	2.57529	1.16791	2.59787	1.06882	2.57467	1.20179	2.67171	1.49761	3.3269	2.04006	4.53279			1.16837	2.59788	1.23677	3.09662	1.75562	3.9001				
1.0632	2.57839	1.17399	2.59804	1.06415	2.57776	1.20765	2.67103	1.49882	3.31259	2.0397	4.50886			1.17445	2.59806	1.23497	3.11009	1.75579	3.88058				
1.05853	2.58149	1.18006	2.59821	1.05948	2.58086	1.21352	2.67039	1.50005	3.29851	2.03934	4.48519			1.18052	2.59822	1.23322	3.12383	1.75598	3.86131				
1.05383	2.58459	1.18612	2.59835	1.05479	2.58396	1.21941	2.66978	1.50133	3.28465	2.03899	4.46177			1.18658	2.59836	1.23151	3.13783	1.75619	3.84229				
1.04912	2.58768	1.19217	2.59848	1.05008	2.58705	1.2253	2.6692	1.50264	3.271	2.03864	4.4386			1.19263	2.59849	1.22984	3.15212	1.75643	3.82351				
1.04438	2.59073	1.19822	2.59859	1.04535	2.59011	1.2312	2.66865	1.50398	3.25757	2.0383	4.41569			1.19868	2.5986	1.22822	3.16668	1.75669	3.80497				
1.03961	2.59374	1.20426	2.59868	1.04059	2.59314	1.23711	2.66812	1.50537	3.24435	2.03798	4.39302			1.20471	2.59869	1.22663	3.18153	1.75698	3.78668				
1.03481	2.5967	1.21029	2.59875	1.03579	2.5961	1.24303	2.66761	1.50678	3.23133	2.03766	4.3706			1.21074	2.59876	1.22509	3.19667	1.7573	3.76862				
1.02996	2.59959	1.21631	2.59881	1.03095	2.59901	1.24896	2.66712	1.50824	3.21852	2.03736	4.34843			1.21676	2.59881	1.2236	3.2121	1.75764	3.75079				
1.02507	2.6024	1.22232	2.59884	1.02607	2.60183	1.25489	2.66665	1.50973	3.20592	2.03707	4.3265			1.22278	2.59884	1.22214	3.22783	1.75801	3.73319				
1.02012	2.60511	1.22832	2.59885	1.02113	2.60457	1.26083	2.6662	1.51125	3.19351	2.03679	4.30481			1.22878	2.59885	1.22073	3.24387	1.75841	3.71583				
1.01513	2.60773	1.23431	2.59884	1.01615	2.6072	1.26678	2.66577	1.51281	3.1813	2.03652	4.28336			1.23477	2.59884	1.21936	3.26021	1.75883	3.69869				
1.01009	2.61024	1.24029	2.5988	1.01112	2.60974	1.27273	2.66535	1.51441	3.16927	2.03627	4.26214			1.24074	2.5988	1.21803	3.27688	1.75928	3.68177				
1.00499	2.61264	1.24626	2.59874	1.00603	2.61216	1.27869	2.66494	1.51604	3.15745	2.03603	4.24116			1.24671	2.59873	1.21674	3.29386	1.75976	3.66507				
0.99983	2.61492	1.25221	2.59865	1.00088	2.61446	1.28464	2.66455	1.51771	3.1458	2.03581	4.22041			1.25266	2.59864	1.2155	3.31118	1.76026	3.64859				
0.99462	2.61709	1.25815	2.59853	0.995685	2.61665	1.29061	2.66417	1.51942	3.13435	2.0356	4.19989			1.2586	2.59852	1.21429	3.32882	1.76079	3.63232				
0.989356	2.61914	1.26407	2.59838	0.990432	2.61873	1.29658	2.6638	1.52116	3.12307	2.03541	4.1796			1.26452	2.59837	1.21313	3.3468	1.76136	3.61626				
0.98404	2.62108	1.26998	2.5982	0.985127	2.62069	1.30255	2.66344	1.52293	3.11198	2.03524	4.15954			1.27043	2.59818	1.21201	3.36513	1.76194	3.60041				
0.978674	2.6229	1.27587	2.59798	0.979771	2.62254	1.30852	2.66308	1.52475	3.10106	2.03508	4.13969			1.27631	2.59796	1.21093	3.38381	1.76256	3.58477				
0.97326	2.62462	1.28174	2.59773	0.974366	2.62428	1.31449	2.66274	1.52659	3.09032	2.03494	4.12007			1.28218	2.59771	1.20989	3.40284	1.76321	3.56934				
0.967801	2.62624	1.28759	2.59744	0.968916	2.62592	1.32047	2.66241	1.52848	3.07974	2.03482	4.10067			1.28803	2.59741	1.20889	3.42224	1.76388	3.5541				
0.962298	2.62776	1.29341	2.5971	0.963422	2.62746	1.32645	2.66208	1.5304	3.06934	2.03472	4.08149			1.29385	2.59708	1.20793	3.442	1.76459	3.53907				
0.956756	2.6292	1.29922	2.59673	0.957888	2.62891	1.33243	2.66176	1.53235	3.05911	2.03463	4.06252			1.29966	2.5967	1.20701	3.46214	1.76532	3.52423				
0.951177	2.63054	1.305	2.5963	0.952316	2.63028	1.33842	2.66144	1.53435	3.04904	2.03457	4.04376			1.30543	2.59627	1.20612	3.48266	1.76608	3.50959				
0.945563	2.63181	1.31075	2.59582	0.946709	2.63156	1.3444	2.66114	1.53637	3.03914	2.03453	4.02521			1.31118	2.59579	1.20528	3.50357	1.76687	3.49513				
0.939917	2.63301	1.31647	2.5953	0.941069	2.63277	1.35039	2.66083	1.53844	3.02939	2.0345	4.00687			1.3169	2.59525	1.20448	3.52487	1.7677	3.48087				
0.934241	2.63414	1.32216	2.59471	0.935399	2.63391	1.35638	2.66053	1.54054	3.0198	2.0345	3.98874			1.32259	2.59466	1.20371	3.54657	1.76855	3.46679				
0.928539	2.6352	1.32781	2.59406	0.929702	2.63499	1.36236	2.66024	1.54267	3.01037	2.03452	3.97081			1.32824	2.59401	1.20298	3.56868	1.76943	3.4529				
0.922811	2.63621	1.33343	2.59335	0.923979	2.63601	1.36835	2.65994	1.54484	3.0011	2.03455	3.95308			1.33386	2.5933	1.20228	3.59121	1.77034	3.43919				
0.917061	2.63716	1.33902	2.59258	0.918233	2.63697	1.37434	2.65965	1.54705	2.99197	2.03461	3.93556			1.33944	2.59252	1.20163	3.61415	1.77128	3.42566				
0.911289	2.63807	1.34456	2.59173	0.912466	2.63789	1.38033	2.65937	1.54929	2.983	2.0347	3.91823			1.34498	2.59167	1.20101	3.63753	1.77225	3.41231				
0.905498	2.63893	1.35006	2.59082	0.906678	2.63876	1.38631	2.65908	1.55157	2.97417	2.0348	3.90109			1.35048	2.59075	1.20042	3.66134	1.77325	3.39913				
0.899689	2.63975	1.35552	2.58983	0.900873	2.63959	1.3923	2.6588	1.55389	2.96549	2.03492	3.88415			1.35594	2.58975	1.19987	3.68559	1.77428	3.38613				
0.893863	2.64054	1.36094	2.58876	0.895051	2.64038	1.39829	2.65851	1.55624	2.95696	2.03507	3.8674			1.36135	2.58868	1.19935	3.71029	1.77534	3.3733				
0.888023	2.64129	1.36631	2.58762	0.889213	2.64114	1.40427	2.65823	1.55862	2.94857	2.03524	3.85084			1.36672	2.58753	1.19886	3.73544	1.77643	3.36063				
0.882168	2.64201	1.37164	2.5864	0.883362	2.64186	1.41026	2.65795	1.56105	2.94031	2.03544	3.83446			1.37204	2.58631	1.1984	3.76106	1.77755	3.34814				
0.876302	2.6427	1.37692	2.58511	0.877497	2.64256	1.41624	2.65767	1.5635	2.9322	2.03565	3.81827			1.37731	2.58501	1.19798	3.78715	1.7787	3.33581				
0.870423	2.64337	1.38215	2.58375	0.871621	2.64323	1.42222	2.65739	1.566	2.92423	2.03589	3.80227			1.38255	2.58364	1.19758	3.81372	1.77988	3.32364				
0.864534	2.64401	1.38734	2.58231	0.865733	2.64388	1.4282	2.6571	1.56853	2.91639	2.03616	3.78644			1.38773	2.5822	1.19721	3.84077	1.78109	3.31163				
0.858634	2.64463	1.39249	2.58081	0.859836	2.6445	1.43418	2.65682	1.5711	2.90868	2.03644	3.7708			1.39288	2.58069	1.19687	3.86831	1.78233	3.29978				
0.852726	2.64523	1.3976	2.57924	0.85393	2.64511	1.44015	2.65653	1.5737	2.9011	2.03675	3.75533			1.39798	2.57912	1.19656	3.89635	1.7836	3.28809				
0.846809	2.64581	1.40266	2.57762	0.848015	2.6457	1.44612	2.65624	1.57634	2.89366	2.03709	3.74003			1.40305	2.5775	1.19627	3.9249	1.7849	3.27655				
0.840885	2.64638	1.4077	2.57595	0.842092	2.64627	1.45209	2.65595	1.57901	2.88635	2.03745	3.72491			1.40808	2.57582	1.196	3.95395	1.78624	3.26517				
0.834954	2.64694	1.4127	2.57423	0.836162	2.64682	1.45806	2.65565	1.58173	2.87916	2.03783	3.70996			1.41307	2.5741	1.19575	3.98353	1.7876	3.25394				
0.829016	2.64748	1.41767	2.57247	0.830225	2.64737	1.46402	2.65535	1.58448	2.8721	2.03824	3.69519			1.41804	2.57234	1.19553	4.01362	1.78899	3.24285				
0.823072	2.64801	1.42262	2.57068	0.824283	2.6479	1.46998	2.65505	1.58726	2.86517	2.03867	3.68057			1.42299	2.57055	1.19532	4.04425	1.79042	3.23192				
0.817123	2.64853	1.42754	2.56887	0.818335	2.64842	1.47593	2.65474	1.59009	2.85836	2.03913	3.66613			1.42791	2.56873	1.19513	4.07542	1.79187	3.22112				
0.811169	2.64904	1.43244	2.56704	0.812381	2.64894	1.48188	2.65442	1.59295	2.85168	2.03961	3.65185			1.43282	2.5669	1.19495	4.10712	1.79335	3.21048				
0.80521	2.64955	1.43734	2.5652	0.806423	2.64945	1.48782	2.6541	1.59584	2.84511	2.04012	3.63773			1.4377	2.56506	1.19478	4.13937	1.79487	3.19997				
0.799247	2.65005	1.44221	2.56335	0.800461	2.64995	1.49376	2.65377	1.59878	2.83867	2.04065	3.62377			1.44258	2.56321	1.19462	4.17218	1.79642	3.18961				
0.79328	2.65054	1.44709	2.5615	0.794495	2.65044	1.49969	2.65343	1.60176	2.83235	2.04121	3.60997			1.44745	2.56136	1.19447	4.20553	1.79799	3.17938				
0.78731	2.65103	1.45195	2.55966	0.788526	2.65093	1.50562	2.65308	1.60477	2.82615	2.0418	3.59633			1.45232	2.55952	1.19432	4.23945	1.7996	3.16929				
0.781336	2.65152	1.45681	2.55783	0.782553	2.65142	1.51154	2.65272	1.60782	2.82006	2.04241	3.58284			1.45718	2.55769	1.19417	4.27393	1.80124	3.15933				
0.77536	2.652	1.46168	2.55601	0.776577	2.65191	1.51745	2.65235	1.61091	2.8141	2.04304	3.5695			1.46205	2.55588	1.19402	4.30897	1.8029	3.14951				
0.769382	2.65249	1.46655	2.55422	0.770599	2.65239	1.52335	2.65197	1.61405	2.80825	2.0437	3.55632			1.46692	2.55409	1.19386	4.34457	1.8046	3.13982				
0.763401	2.65297	1.47142	2.55245	0.764619	2.65288	1.52924	2.65158	1.61722	2.80252	2.04439	3.54329			1.47179	2.55232	1.19369	4.38073	1.80633	3.13026				
0.757418	2.65346	1.4763	2.55071	0.758636	2.65336	1.53512	2.65117	1.62043	2.7969	2.0451	3.5304			1.47667	2.55058	1.1935	4.41746	1.80809	3.12083				
0.751433	2.65395	1.48119	2.549	0.752652	2.65385	1.54099	2.65075	1.62369	2.79141	2.04584	3.51767			1.48156	2.54887	1.1933	4.45475	1.80988	3.11152				
0.745448	2.65444	1.4861	2.54732	0.746667	2.65434	1.54685	2.65031	1.62699	2.78603	2.0466	3.50508			1.48647	2.54719	1.19307	4.49259	1.81169	3.10234				
0.739461	2.65493	1.49101	2.54568	0.74068	2.65483	1.5527	2.64985	1.63033	2.78076	2.04739	3.49263			1.49138	2.54556	1.19281	4.53097	1.81354	3.09329				
0.733473	2.65543	1.49594	2.54408	0.734692	2.65533	1.55853	2.64937	1.63372	2.77562	2.04821	3.48032			1.49632	2.54396	1.19251	4.56989	1.81542	3.08435				
0.727484	2.65594	1.50089	2.54251	0.728704	2.65584	1.56435	2.64887	1.63715	2.77059	2.04905	3.46815			1.50127	2.5424	1.19217	4.60934	1.81733	3.07554				
0.721495	2.65645	1.50586	2.54099	0.722715	2.65635	1.57015	2.64834	1.64063	2.76568	2.04992	3.45613			1.50623	2.54088	1.19178	4.64931	1.81927	3.06685				
0.715506	2.65697	1.51084	2.53952	0.716726	2.65687	1.57593	2.64779	1.64416	2.76089	2.05082	3.44424			1.51122	2.53941	1.19133	4.68977	1.82124	3.05827				
0.709517	2.65751	1.51585	2.53808	0.710737	2.6574	1.58169	2.64721	1.64774	2.75622	2.05174	3.43249			1.51623	2.53798	1.19081	4.7307	1.82324	3.04981				
0.703529	2.65805	1.52087	2.5367	0.704748	2.65794	1.58744	2.6466	1.65137	2.75167	2.05269	3.42087			1.52125	2.5366	1.19022	4.77209	1.82527	3.04147				
0.697541	2.6586	1.52592	2.53536	0.69876	2.65849	1.59315	2.64595	1.65505	2.74724	2.05366	3.40938			1.5263	2.53526	1.18954	4.81389	1.82733	3.03324				
0.691553	2.65917	1.53099	2.53407	0.692772	2.65905	1.59885	2.64527	1.65879	2.74294	2.05466	3.39803			1.53137	2.53398	1.18876	4.85609	1.82942	3.02512				
0.685567	2.65975	1.53608	2.53283	0.686786	2.65963	1.60452	2.64456	1.66258	2.73876	2.05569	3.3868			1.53647	2.53274	1.18787	4.89865	1.83154	3.01712				
0.679583	2.66034	1.5412	2.53164	0.680801	2.66022	1.61016	2.6438	1.66643	2.73472	2.05674	3.3757			1.54159	2.53155	1.18686	4.94151	1.83369	3.00922				
0.6736	2.66096	1.54634	2.53049	0.674818	2.66083	1.61576	2.64299	1.67035	2.7308	2.05782	3.36474			1.54673	2.53041	1.18572	4.98463	1.83587	3.00143				
0.667618	2.66159	1.55151	2.5294	0.668836	2.66146	1.62134	2.64214	1.67432	2.72701	2.05893	3.35389			1.5519	2.52932	1.18442	5.02796	1.83808	2.99375				
0.66164	2.66224	1.55671	2.52835	0.662857	2.66211	1.62688	2.64123	1.67836	2.72336	2.06007	3.34317			1.5571	2.52828	1.18296	5.07143	1.84032	2.98617				
0.655664	2.66292	1.56192	2.52736	0.65688	2.66278	1.63238	2.64028	1.68247	2.71984	2.06123	3.33258			1.56232	2.52729	1.18132	5.11499	1.84258	2.9787				
0.64969	2.66362	1.56717	2.52641	0.650906	2.66348	1.63784	2.63926	1.68665	2.71646	2.06241	3.3221			1.56757	2.52634	1.17948	5.15855	1.84488	2.97133				
0.64372	2.66435	1.57244	2.52552	0.644936	2.6642	1.64326	2.63818	1.6909	2.71323	2.06363	3.31175			1.57284	2.52545	1.17742	5.20205	1.84721	2.96407				
0.637754	2.66511	1.57774	2.52467	0.638969	2.66495	1.64864	2.63704	1.69523	2.71013	2.06487	3.30152			1.57814	2.52461	1.17513	5.2454	1.84957	2.9569				
0.631792	2.6659	1.58306	2.52387	0.633006	2.66574	1.65396	2.63584	1.69963	2.70718	2.06613	3.2914			1.58347	2.52381	1.17259	5.28852	1.85196	2.94984				
0.625835	2.66673	1.58841	2.52312	0.627048	2.66656	1.65925	2.63457	1.7041	2.70437	2.06743	3.2814			1.58882	2.52306	1.16978	5.33133	1.85437	2.94287				
0.619883	2.66759	1.59379	2.52241	0.621095	2.66741	1.66448	2.63323	1.70866	2.7017	2.06875	3.27151			1.5942	2.52236	1.16669	5.37375	1.85682	2.936				
0.613937	2.6685	1.59919	2.52175	0.615147	2.66831	1.66966	2.63183	1.71329	2.69918	2.0701	3.26174			1.5996	2.52171	1.1633	5.41571	1.8593	2.92923				
0.607996	2.66946	1.60462	2.52114	0.609205	2.66926	1.6748	2.63035	1.718	2.6968	2.07147	3.25208			1.60503	2.5211	1.15961	5.45713	1.8618	2.92255				
0.602063	2.67046	1.61007	2.52057	0.603271	2.67025	1.67989	2.62882	1.72279	2.69456	2.07287	3.24253			1.61049	2.52053	1.15559	5.49795	1.86434	2.91597				
0.596138	2.67152	1.61555	2.52005	0.597344	2.6713	1.68493	2.62722	1.72766	2.69245	2.0743	3.2331			1.61597	2.52001	1.15126	5.53814	1.8669	2.90948				
0.590221	2.67264	1.62106	2.51957	0.591425	2.6724	1.68992	2.62556	1.7326	2.69048	2.07575	3.22377			1.62148	2.51953	1.14661	5.57766	1.86949	2.90308				
0.584313	2.67382	1.62659	2.51913	0.585515	2.67358	1.69488	2.62385	1.73761	2.68864	2.07723	3.21455			1.62701	2.5191	1.14163	5.6165	1.87212	2.89678				
0.578416	2.67508	1.63214	2.51873	0.579616	2.67482	1.69979	2.62209	1.7427	2.68691	2.07874	3.20543			1.63256	2.5187	1.13634	5.65466	1.87477	2.89056				
0.57253	2.67642	1.63772	2.51837	0.573728	2.67614	1.70467	2.62029	1.74785	2.6853	2.08027	3.19642			1.63814	2.51834	1.13075	5.69217	1.87745	2.88444				
0.566657	2.67785	1.64332	2.51805	0.567852	2.67755	1.70952	2.61845	1.75307	2.6838	2.08183	3.18752			1.64375	2.51803	1.12485	5.72906	1.88016	2.8784				
0.560798	2.67938	1.64895	2.51776	0.56199	2.67906	1.71433	2.61658	1.75835	2.68241	2.08342	3.17872			1.64937	2.51774	1.11869	5.76539	1.88291	2.87245				
0.554955	2.68102	1.65459	2.51752	0.556143	2.68068	1.71913	2.61469	1.76368	2.68111	2.08503	3.17002			1.65502	2.5175	1.11225	5.80124	1.88568	2.86659				
0.549129	2.68278	1.66026	2.5173	0.550314	2.68241	1.7239	2.61279	1.76907	2.6799	2.08667	3.16142			1.66069	2.51729	1.10558	5.83668	1.88848	2.86081				
0.543322	2.68468	1.66595	2.51712	0.544503	2.68428	1.72866	2.61087	1.77451	2.67877	2.08833	3.15292			1.66638	2.51711	1.09869	5.87182	1.89131	2.85512				
0.537537	2.68672	1.67166	2.51697	0.538714	2.68629	1.73342	2.60896	1.77999	2.67773	2.09003	3.14453			1.67209	2.51696	1.0916	5.90675	1.89417	2.84951				
0.531777	2.68894	1.67739	2.51686	0.532948	2.68847	1.73817	2.60706	1.78552	2.67675	2.09175	3.13622			1.67782	2.51685	1.08433	5.94159	1.89706	2.84398				
0.526043	2.69135	1.68314	2.51677	0.527208	2.69084	1.74292	2.60517	1.79108	2.67584	2.09349	3.12802			1.68357	2.51676	1.0769	5.97645	1.89997	2.83854				
0.520339	2.69397	1.6889	2.51671	0.521498	2.69342	1.74768	2.60331	1.79669	2.67499	2.09526	3.11991			1.68934	2.5167	1.06934	6.01147	1.90292	2.83318				
0.51467	2.69684	1.69469	2.51668	0.515821	2.69623	1.75246	2.60148	1.80232	2.67419	2.09706	3.1119			1.69513	2.51668	1.06166	6.04675	1.9059	2.8279				
0.509039	2.69997	1.70049	2.51667	0.510182	2.69931	1.75725	2.59969	1.80799	2.67344	2.09889	3.10397			1.70093	2.51667	1.05389	6.08244	1.90891	2.8227				
0.503451	2.70342	1.70631	2.51669	0.504585	2.70269	1.76207	2.59796	1.81368	2.67275	2.10074	3.09615			1.70675	2.51669	1.04605	6.11867	1.91195	2.81758				
0.497912	2.70722	1.71215	2.51673	0.499036	2.70642	1.76693	2.59629	1.8194	2.67209	2.10261	3.08841			1.71259	2.51674	1.03816	6.15557	1.91502	2.81254				
0.492428	2.71142	1.718	2.5168	0.49354	2.71053	1.77183	2.59469	1.82515	2.67147	2.10452	3.08076			1.71844	2.5168	1.03023	6.19329	1.91812	2.80758				
0.487006	2.71607	1.72387	2.51689	0.488105	2.71509	1.77678	2.59317	1.83091	2.67089	2.10645	3.07321			1.72431	2.51689	1.02228	6.23197	1.92125	2.8027				
0.481655	2.72125	1.72975	2.51699	0.482738	2.72015	1.78178	2.59174	1.8367	2.67034	2.1084	3.06574			1.7302	2.517	1.01434	6.27177	1.92441	2.79789				
0.476382	2.72701	1.73564	2.51712	0.477449	2.72578	1.78685	2.59042	1.8425	2.66982	2.11038	3.05836			1.73609	2.51713	1.00642	6.31284	1.92761	2.79316				
0.471198	2.73344	1.74155	2.51727	0.472246	2.73207	1.79199	2.58922	1.84832	2.66933	2.11239	3.05107			1.742	2.51728	0.998528	6.35534	1.93083	2.78851				
0.466115	2.74063	1.74748	2.51743	0.467141	2.7391	1.79721	2.58813	1.85416	2.66887	2.11442	3.04386			1.74792	2.51744	0.990693	6.39946	1.93409	2.78394				
0.461143	2.74869	1.75341	2.51761	0.462145	2.74697	1.80251	2.58717	1.86001	2.66843	2.11648	3.03674			1.75386	2.51763	0.98293	6.44538	1.93737	2.77944				
0.456294	2.75772	1.75936	2.51781	0.457271	2.75579	1.8079	2.58633	1.86587	2.66801	2.11857	3.0297			1.75981	2.51782	0.975254	6.49329	1.94069	2.77501				
0.451582	2.76784	1.76532	2.51802	0.45253	2.76568	1.81337	2.58562	1.87175	2.66761	2.12068	3.02275			1.76577	2.51804	0.967682	6.5434	1.94405	2.77067				
0.447019	2.77917	1.77128	2.51825	0.447936	2.77676	1.81892	2.58503	1.87763	2.66722	2.12282	3.01587			1.77174	2.51826	0.960231	6.59593	1.94743	2.76639				
0.442617	2.79186	1.77726	2.51849	0.4435	2.78916	1.82455	2.58456	1.88353	2.66686	2.12498	3.00908			1.77772	2.5185	0.952919	6.65113	1.95085	2.7622				
0.438388	2.80602	1.78325	2.51874	0.439235	2.80301	1.83024	2.58418	1.88943	2.66651	2.12717	3.00237			1.78371	2.51876	0.945763	6.70923	1.9543	2.75807				
0.434341	2.82179	1.78925	2.519	0.43515	2.81844	1.83601	2.5839	1.89535	2.66617	2.12938	2.99574			1.78971	2.51902	0.93878	6.77051	1.95779	2.75403				
0.430485	2.8393	1.79526	2.51928	0.431254	2.83559	1.84182	2.58369	1.90127	2.66585	2.13163	2.98919			1.79572	2.5193	0.931987	6.83527	1.96131	2.75005				
0.426826	2.85867	1.80128	2.51957	0.427555	2.85457	1.84769	2.58356	1.9072	2.66554	2.13389	2.98272			1.80174	2.51959	0.925401	6.9038	1.96487	2.74616				
0.423368	2.88002	1.80731	2.51986	0.424056	2.87551	1.8536	2.58348	1.91313	2.66524	2.13618	2.97632			1.80776	2.51989	0.919041	6.97644	1.96846	2.74234				
0.420113	2.90346	1.81334	2.52017	0.420759	2.89851	1.85954	2.58346	1.91908	2.66495	2.1385	2.97			1.8138	2.52019	0.912922	7.05354	1.97209	2.73859				
0.417063	2.92908	1.81938	2.52048	0.417668	2.92368	1.86552	2.58348	1.92502	2.66467	2.14085	2.96376			1.81984	2.52051	0.907062	7.13547	1.97576	2.73492				
0.414216	2.95701	1.82544	2.52081	0.414779	2.95113	1.87152	2.58354	1.93098	2.6644	2.14321	2.95759			1.82589	2.52083	0.901476	7.22263	1.97947	2.73133				
0.41157	2.98733	1.83149	2.52114	0.412093	2.98096	1.87755	2.58363	1.93693	2.66414	2.14561	2.9515			1.83195	2.52117	0.896178	7.31543	1.98321	2.72781				
0.409124	3.02015	1.83756	2.52148	0.409606	3.01326	1.88359	2.58374	1.9429	2.66388	2.14803	2.94548			1.83802	2.52151	0.891184	7.41431	1.987	2.72437				
0.406873	3.05558	1.84363	2.52183	0.407315	3.04815	1.88966	2.58388	1.94886	2.66364	2.15047	2.93953			1.84409	2.52185	0.886506	7.51974	1.99083	2.72101				
0.404814	3.09373	1.84971	2.52218	0.405218	3.08573	1.89573	2.58404	1.95483	2.6634	2.15294	2.93366			1.85017	2.52221	0.882153	7.6322	1.9947	2.71773				
0.402945	3.13472	1.85579	2.52254	0.40331	3.12614	1.90183	2.58422	1.9608	2.66316	2.15544	2.92785			1.85625	2.52257	0.878136	7.75219	1.99861	2.71453				
0.401261	3.17868	1.86188	2.52291	0.401589	3.16948	1.90793	2.58441	1.96678	2.66293	2.15796	2.92212			1.86234	2.52293	0.87446	7.88027	2.00257	2.71141				
0.399759	3.22575	1.86798	2.52328	0.40005	3.2159	1.91404	2.58461	1.97276	2.66271	2.16051	2.91646			1.86844	2.52331	0.871132	8.01697	2.00657	2.70837				
0.398437	3.27607	1.87408	2.52365	0.398692	3.26555	1.92016	2.58482	1.97874	2.66249	2.16308	2.91086			1.87454	2.52368	0.868153	8.1629	2.01062	2.70541				
0.397291	3.32983	1.88019	2.52403	0.397511	3.3186	1.92629	2.58504	1.98472	2.66227	2.16568	2.90534			1.88065	2.52406	0.865524	8.31865	2.01472	2.70254				
0.39632	3.38719	1.8863	2.52442	0.396503	3.37521	1.93242	2.58526	1.99071	2.66206	2.16831	2.89988			1.88676	2.52445	0.863243	8.4849	2.01887	2.69975				
0.395519	3.44834	1.89242	2.52481	0.395668	3.43557	1.93856	2.58549	1.99669	2.66186	2.17095	2.89449			1.89288	2.52484	0.861305	8.66231	2.02307	2.69704				
0.394886	3.51351	1.89854	2.5252	0.395001	3.49991	1.9447	2.58573	2.00268	2.66165	2.17363	2.88917			1.899	2.52523	0.859706	8.85164	2.02733	2.69442				
0.394419	3.58292	1.90466	2.5256	0.394501	3.56843	1.95085	2.58597	2.00867	2.66145	2.17633	2.88391			1.90513	2.52563	0.858437	9.05366	2.03163	2.69189				
0.394116	3.65681	1.91079	2.526	0.394165	3.64139	1.957	2.58621	2.01466	2.66125	2.17905	2.87872			1.91126	2.52603	0.85749	9.26924	2.036	2.68945				
0.393974	3.73546	1.91693	2.5264	0.39399	3.71905	1.96315	2.58646	2.02065	2.66106	2.1818	2.8736			1.91739	2.52643	0.856919	9.46888	2.04041	2.6871				
0.39399	3.81917	1.92307	2.52681	0.393974	3.8017	1.96931	2.58671	2.02665	2.66086	2.18458	2.86853			1.92353	2.52684	0.856613	9.64824	2.04489	2.68483				
0.394162	3.90825	1.92921	2.52722	0.394115	3.88966	1.97547	2.58695	2.03264	2.66067	2.18738	2.86354			1.92967	2.52725	0.856482	9.80327	2.04942	2.68266				
0.394487	4.00306	1.93536	2.52763	0.394409	3.98328	1.98163	2.5872	2.03863	2.66048	2.19021	2.8586			1.93582	2.52766	0.856455	9.93035	2.05402	2.68057				
0.394962	4.10397	1.9415	2.52804	0.394853	4.08291	1.98779	2.58745	2.04463	2.66029	2.19306	2.85373			1.94197	2.52807	0.856477	10.0264	2.05867	2.67858				
0.395585	4.21141	1.94766	2.52846	0.395446	4.18899	1.99396	2.58771	2.05062	2.6601	2.19594	2.84892			1.94812	2.52849	0.856529	10.1168	2.06338	2.67668				
0.396351	4.32584	1.95381	2.52888	0.396184	4.30195	2.00012	2.58796	2.05661	2.65991	2.19884	2.84417			1.95428	2.52891	0.856582	10.1808	2.06815	2.67486				
0.397258	4.44775	1.95997	2.52929	0.397062	4.42229	2.00629	2.58821	2.0626	2.65972	2.20177	2.83949			1.96044	2.52933	0.856693	10.2829	2.07299	2.67313				
0.398303	4.5777	1.96614	2.52971	0.398079	4.55056	2.01245	2.58846	2.06859	2.65954					1.9666	2.52975	0.856898	10.4256	2.07788	2.67149				
0.399481	4.71631	1.9723	2.53014	0.39923	4.68735	2.01862	2.5887	2.07458	2.65935					1.97277	2.53017	0.857243	10.6128	2.08283	2.66993				
0.400788	4.86425	1.97847	2.53056	0.400512	4.83334	2.02478	2.58895	2.08057	2.65916					1.97894	2.53059	0.857786	10.8498	2.08783	2.66846				
0.402221	5.02228	1.98464	2.53098	0.401919	4.98925	2.03095	2.5892	2.08656	2.65897					1.98511	2.53101	0.858591	11.1434	2.09289	2.66706				
0.403774	5.19125	1.99081	2.53141	0.403448	5.15591	2.03712	2.58944	2.09254	2.65878					1.99128	2.53144	0.859728	11.5026	2.09801	2.66574				
0.405443	5.37207	1.99699	2.53183	0.405094	5.33424	2.04328	2.58969	2.09853	2.65859					1.99746	2.53186	0.861082	11.8877	2.10318	2.6645				
0.407223	5.56582	2.00317	2.53226	0.406852	5.52527	2.04945	2.58993	2.10451	2.65839					2.00364	2.53229	0.862639	12.301	2.10833	2.66323				
0.408861	5.74612	2.00935	2.53268	0.408717	5.73015	2.05562	2.59016	2.11049	2.6582					2.00982	2.53271	0.864388	12.7453	2.11366	2.66222				
0.410317	5.90893	2.01553	2.53311	0.410683	5.9502	2.06178	2.5904	2.11647	2.658					2.016	2.53314	0.866317	13.2237	2.11898	2.66118				
0.411562	6.05036	2.02172	2.53353	0.412744	6.18689	2.06794	2.59063	2.12244	2.6578					2.02219	2.53357	0.868415	13.7396	2.12434	2.6602				
0.412571	6.16679	2.02791	2.53396	0.414893	6.44192	2.07411	2.59087	2.12841	2.6576					2.02837	2.53399	0.870671	14.2972	2.12974	2.65928				
0.413326	6.25513	2.03409	2.53439	0.417125	6.71723	2.08027	2.59109	2.13438	2.65739					2.03456	2.53442	0.873073	14.9013	2.13518	2.65841				
0.414031	6.33852	2.04029	2.53481	0.419432	7.01504	2.08643	2.59132	2.14034	2.65718					2.04075	2.53485	0.875612	15.5573	2.14065	2.65759				
0.414527	6.39776	2.04648	2.53524	0.421807	7.33793	2.09259	2.59154	2.1463	2.65697					2.04695	2.53527	0.878276	16.2717	2.14616	2.65682				
0.41531	6.49243	2.05267	2.53566	0.424241	7.68891	2.09874	2.59176	2.15225	2.65675					2.05314	2.5357	0.881056	17.0522	2.15171	2.6561				
0.416391	6.62541	2.05887	2.53609	0.426726	8.07149	2.1049	2.59198	2.1582	2.65653					2.05934	2.53612	0.88394	17.9077	2.15728	2.65542				
0.417785	6.80097	2.06506	2.53651	0.428926	8.43387	2.11105	2.59219	2.16414	2.6563					2.06553	2.53655	0.886919	18.8492	2.16289	2.65478				
0.419508	7.02503	2.07126	2.53694	0.430822	8.76661	2.11721	2.5924	2.17008	2.65606					2.07173	2.53697	0.889981	19.8896	2.16852	2.65417				
0.421575	7.30564	2.07746	2.53736	0.432401	9.06006	2.12336	2.5926	2.17601	2.65582					2.07793	2.53739	0.893115	21.0448	2.17417	2.6536				
0.424004	7.65377	2.08366	2.53778	0.433654	9.30483	2.1295	2.59281	2.18193	2.65557					2.08413	2.53781	0.896309	22.3344	2.17985	2.65306				
0.426484	8.03313	2.08987	2.5382	0.434579	9.4925	2.13565	2.593	2.18785	2.65532					2.09034	2.53824	0.899551	23.7826	2.18555	2.65255				
0.429008	8.44782	2.09607	2.53862	0.43543	9.67126	2.14179	2.5932	2.19376	2.65505					2.09654	2.53866	0.902826	25.4199	2.19127	2.65206				
0.431564	8.90266	2.10228	2.53904	0.436023	9.79922	2.14793	2.59338	2.19966	2.65478					2.10274	2.53907	0.906121	27.2853	2.19701	2.6516				
0.434144	9.40348	2.10848	2.53946	0.43695	10.0053	2.15407	2.59357	2.20555	2.65449					2.10895	2.53949	0.909418	29.4294	2.20277	2.65117				
0.436737	9.95727	2.11469	2.53988	0.43821	10.2985	2.1602	2.59375							2.11516	2.53991	0.912698	31.9189						
0.43933	10.5726	2.12089	2.54029	0.439802	10.6921	2.16633	2.59392							2.12136	2.54032	0.915941	34.844						
0.441912	11.26	2.1271	2.5407	0.441719	11.2056	2.17246	2.59409							2.12757	2.54073	0.919121	38.3294						
0.444471	12.0326	2.13331	2.54111	0.443953	11.8676	2.17858	2.59425							2.13378	2.54114	0.922211	42.5529						
0.446992	12.9071	2.13951	2.54152	0.446482	12.7198	2.1847	2.59441							2.13998	2.54155	0.92518	47.7765						
0.44946	13.9048	2.14572	2.54193	0.448963	13.6904	2.19081	2.59456							2.14619	2.54196	0.927991	54.4042						
0.451862	15.0537	2.15193	2.54233	0.45138	14.8059	2.19692	2.59471							2.1524	2.54236	0.930601	63.0918						
0.454182	16.391	2.15813	2.54273	0.453717	16.1012	2.20303	2.59485							2.1586	2.54276	0.932967	74.982						
0.456402	17.9673	2.16433	2.54312	0.455959	17.6238									2.1648	2.54315	0.935038	92.2569						
0.458508	19.8535	2.17054	2.54351	0.458089	19.4399									2.171	2.54354	0.936764	119.672						
0.46048	22.1522	2.17673	2.5439	0.46009	21.6442									2.1772	2.54393	0.938096	169.934						
0.462304	25.0168	2.18292	2.54427	0.461945	24.3777									2.18339	2.5443	0.938993	292.251						
0.463961	28.6886	2.18911	2.54464	0.463638	27.8593									2.18958	2.54467	0.939423	1037.38						
0.465436	33.5693	2.19528	2.54499	0.465151	32.4492									2.19575	2.54501								
0.466714	40.3818	2.20144	2.54532	0.46647	38.7841									2.2019	2.54534								
0.467781	50.5701			0.467581	48.1053																		
0.468624	67.4984			0.468471	63.1997																		
0.469235	101.23			0.46913	91.8932																		
0.469605	201.724			0.469549	167.83																		
0.46973	22849.7			0.469725	957.897																		
