Sym0		Asym0		Sym1		Sym2		Sym3		Sym4		Sym5		Asym1		Asym2		Asym3		Asym4		Asym5	
387  Points		391  Points		388  Points		381  Points		371  Points		362  Points		154  Points		391  Points		380  Points		366  Points		330  Points		149  Points	
Freq (MHz)	Vph (m/ms)	Freq (MHz)	Vph (m/ms)	Freq (MHz)	Vph (m/ms)	Freq (MHz)	Vph (m/ms)	Freq (MHz)	Vph (m/ms)	Freq (MHz)	Vph (m/ms)	Freq (MHz)	Vph (m/ms)	Freq (MHz)	Vph (m/ms)	Freq (MHz)	Vph (m/ms)	Freq (MHz)	Vph (m/ms)	Freq (MHz)	Vph (m/ms)	Freq (MHz)	Vph (m/ms)
2.20002	2.49841	0.3462	236.093	2.20227	2.49858	0.692278	466.907	1.23197	1947.65	1.38445	2759.27	2.05324	3907.78	0.346179	270.27	0.821296	746.609	1.03843	513.2	1.64263	17358.7	1.73068	1074.27
2.19385	2.49796	0.346711	91.8739	2.1961	2.49812	0.692604	182.741	1.23176	418.976	1.38469	492.922	2.05193	724.341	0.346653	96.6077	0.821118	240.979	1.03881	239.863	1.64237	683.746	1.73132	441.841
2.18769	2.4975	0.347667	57.1711	2.18994	2.49767	0.693213	113.689	1.2313	234.653	1.38526	270.742	2.04925	398.67	0.347574	58.9542	0.820759	143.619	1.03946	156.587	1.64164	348.587	1.73249	278.274
2.18153	2.49704	0.349061	41.6115	2.18378	2.49721	0.694102	82.5833	1.23059	162.89	1.38617	186.716	2.04579	274.691	0.348933	42.5369	0.820225	102.244	1.04037	116.3	1.64047	233.791	1.73413	203.221
2.17537	2.49659	0.350881	32.8051	2.17762	2.49676	0.695265	64.9036	1.22964	124.683	1.38739	142.569	2.04192	209.321	0.35072	33.3687	0.81952	79.3369	1.04155	92.5572	1.6389	175.768	1.73621	160.158
2.16922	2.49614	0.353115	27.1557	2.17147	2.4963	0.696695	53.511	1.22846	100.946	1.38891	115.37	2.03784	168.941	0.352921	27.5336	0.818654	64.7823	1.04297	76.9131	1.63696	140.734	1.73867	132.239
2.16307	2.49569	0.355746	23.235	2.16532	2.49585	0.698383	45.5653	1.22707	84.7606	1.39072	96.9403	2.03363	141.521	0.35552	23.5051	0.817636	54.7119	1.04464	65.834	1.63472	117.277	1.74148	112.678
2.15692	2.49524	0.358755	20.3628	2.15917	2.49541	0.70032	39.7131	1.22549	73.0142	1.39279	83.6337	2.02937	121.686	0.3585	20.5649	0.816478	47.3271	1.04654	57.5807	1.63223	100.467	1.74457	98.2149
2.15078	2.4948	0.362123	18.1738	2.15303	2.49496	0.702495	35.2272	1.22374	64.0981	1.39512	73.5789	2.02509	106.67	0.361839	18.3302	0.815191	41.6781	1.04866	51.1975	1.62952	87.8266	1.74791	87.09
2.14465	2.49436	0.365828	16.4543	2.14689	2.49452	0.704896	31.6818	1.22184	57.0978	1.39768	65.7166	2.0208	94.909	0.365518	16.5787	0.813789	37.2161	1.05098	46.116	1.62663	77.9742	1.75147	78.2688
2.13851	2.49392	0.369848	15.071	2.14075	2.49408	0.707512	28.8114	1.21981	51.4545	1.40045	59.4023	2.01653	85.4483	0.369514	15.1721	0.812286	33.6016	1.0535	41.9766	1.62362	70.0785	1.7552	71.1039
2.13238	2.49348	0.374162	13.9364	2.13462	2.49364	0.710328	26.4416	1.21766	46.8081	1.40341	54.2212	2.01227	77.6736	0.373805	14.02	0.810697	30.6138	1.0562	38.5408	1.6205	63.6089	1.75908	65.1696
2.12626	2.49304	0.378745	12.9907	2.1285	2.4932	0.713333	24.4531	1.21542	42.9155	1.40655	49.8945	2.00805	71.1717	0.378367	13.0608	0.809036	28.1025	1.05907	35.6443	1.6173	58.2111	1.7631	60.1743
2.12014	2.49261	0.383576	12.1915	2.12238	2.49277	0.716513	22.7617	1.21311	39.607	1.40984	46.2275	2.00387	65.6541	0.383179	12.2512	0.807319	25.962	1.06209	33.1701	1.61405	53.6392	1.76721	55.9118
2.11403	2.49218	0.388633	11.5083	2.11626	2.49234	0.719853	21.3061	1.21074	36.7603	1.41328	43.0807	1.99973	60.9134	0.388218	11.5595	0.805562	24.116	1.06526	31.0327	1.61076	49.7176	1.77142	52.2319
2.10792	2.49176	0.393892	10.918	2.11015	2.49192	0.723342	20.0407	1.20833	34.2852	1.41683	40.3511	1.99563	56.7968	0.393462	10.9625	0.803779	22.5079	1.06855	29.168	1.60745	46.3168	1.77571	49.023
2.10181	2.49134	0.399333	10.4034	2.10404	2.49149	0.726964	18.9308	1.20589	32.1136	1.4205	37.961	1.99159	53.1888	0.398889	10.4423	0.801986	21.0947	1.07196	27.5272	1.60414	43.34	1.78006	46.2
2.09572	2.49092	0.404933	9.95115	2.09794	2.49108	0.730706	17.9498	1.20345	30.1931	1.42427	35.851	1.9876	50.0011	0.404477	9.98547	0.800199	19.8434	1.07547	26.0726	1.60084	40.7128	1.78445	43.6973
2.08962	2.49051	0.410673	9.55064	2.09185	2.49066	0.734555	17.0764	1.201	28.483	1.42812	33.9746	1.98368	47.1646	0.410207	9.58114	0.798433	18.728	1.07908	24.7741	1.59756	38.3774	1.78889	41.4632
2.08354	2.49011	0.416531	9.19355	2.08576	2.49025	0.738499	16.2941	1.19858	26.9507	1.43204	32.2952	1.97981	44.6246	0.415298	9.26494	0.796704	17.728	1.08276	23.6081	1.59432	36.288	1.79336	39.4566
2.07745	2.4897	0.422488	8.87314	2.07968	2.48985	0.742523	15.5892	1.19619	25.5702	1.43602	30.7832	1.97602	42.3371	0.419701	9.0183	0.795027	16.8267	1.08652	22.5553	1.59111	34.408	1.79786	37.6445
2.07138	2.48931	0.428524	8.58392	2.0736	2.48945	0.746615	14.9508	1.19383	24.3203	1.44006	29.4148	1.97229	40.2666	0.423378	8.82843	0.793418	16.0107	1.09033	21.5998	1.58796	32.7078	1.80237	35.9997
2.06531	2.48891	0.434618	8.32138	2.06753	2.48906	0.750763	14.3699	1.19153	23.1838	1.44414	28.1703	1.96864	38.3839	0.426306	8.68649	0.791892	15.269	1.09419	20.7288	1.58486	31.163	1.80689	34.5
2.05925	2.48853	0.440752	8.08179	2.06146	2.48867	0.754953	13.8389	1.1893	22.146	1.44825	27.0337	1.96506	36.6646	0.428469	8.58639	0.790466	14.5923	1.0981	19.9315	1.58183	29.7535	1.81142	33.127
2.05319	2.48815	0.446907	7.862	2.0554	2.48829	0.759174	13.3516	1.18714	21.1952	1.45238	25.9914	1.96157	35.0888	0.429858	8.52412	0.789156	13.9729	1.10203	19.1987	1.57888	28.4626	1.81594	31.8651
2.04714	2.48777	0.453062	7.65938	2.04935	2.48791	0.763414	12.9026	1.18507	20.321	1.45653	25.032	1.95816	33.6393	0.431859	8.43696	0.787977	13.4044	1.10598	18.523	1.576	27.2761	1.82046	30.7012
2.0411	2.48741	0.459199	7.47167	2.04331	2.48754	0.767661	12.4874	1.18309	19.515	1.46069	24.146	1.95483	32.3018	0.434039	8.3452	0.786947	12.8813	1.10993	17.8976	1.57321	26.1823	1.82496	29.6244
2.03507	2.48705	0.465298	7.29695	2.03727	2.48718	0.771902	12.1021	1.18123	18.7698	1.46485	23.325	1.9516	31.0641	0.437013	8.22515	0.786082	12.3988	1.11389	17.3172	1.57052	25.1708	1.82944	28.625
2.02904	2.48669	0.47134	7.13358	2.03124	2.48682	0.776126	11.7435	1.17947	18.0791	1.469	22.5622	1.94847	29.9155	0.440785	8.08057	0.7854	11.953	1.11785	16.7768	1.56792	24.2331	1.8339	27.6949
2.02302	2.48635	0.477306	6.98011	2.02522	2.48647	0.780322	11.4087	1.17784	17.4374	1.47314	21.8514	1.94543	28.8469	0.445356	7.91564	0.784916	11.5404	1.12178	16.2724	1.56543	23.3615	1.83834	26.8271
2.01701	2.48601	0.483176	6.83531	2.0192	2.48613	0.784479	11.0952	1.17635	16.8401	1.47725	21.1873	1.9425	27.8506	0.450722	7.73458	0.78465	11.158	1.1257	15.8003	1.56305	22.5495	1.84274	26.0153
2.01101	2.48568	0.488931	6.69809	2.0132	2.4858	0.788584	10.8008	1.175	16.2829	1.48135	20.5654	1.93968	26.9195	0.456868	7.54145	0.784618	10.803	1.12958	15.3574	1.56079	21.7915	1.8471	25.2542
2.00501	2.48536	0.494552	6.5675	2.0072	2.48548	0.792629	10.5236	1.17381	15.7623	1.48541	19.9817	1.93696	26.0477	0.462984	7.362	0.784837	10.4733	1.13342	14.9409	1.55865	21.0825	1.85142	24.5391
1.99903	2.48505	0.500022	6.44272	2.00121	2.48516	0.796601	10.2619	1.17278	15.2752	1.48943	19.4326	1.93436	25.2299	0.46905	7.19448	0.785324	10.1668	1.13721	14.5483	1.55665	20.4181	1.85569	23.8659
1.99305	2.48475	0.505322	6.32302	1.99523	2.48486	0.80049	10.0144	1.17191	14.8186	1.4934	18.915	1.93189	24.4614	0.475047	7.0374	0.786095	9.88159	1.14094	14.1776	1.55478	19.7944	1.85991	23.2308
1.98709	2.48445	0.510436	6.20778	1.98926	2.48456	0.804286	9.77957	1.17123	14.3901	1.49733	18.4262	1.92953	23.7381	0.480955	6.88944	0.787166	9.61614	1.14462	13.8268	1.55304	19.2081	1.86408	22.6306
1.98113	2.48417	0.515348	6.09644	1.9833	2.48427	0.807981	9.55637	1.17073	13.9875	1.50119	17.9637	1.9273	23.0562	0.486756	6.74945	0.788355	9.39977	1.14822	13.4942	1.55146	18.6561	1.86819	22.0624
1.97518	2.4839	0.520044	5.98853	1.97735	2.484	0.811109	9.37052	1.17043	13.6087	1.505	17.5254	1.92521	22.4124	0.492431	6.61645	0.789563	9.22563	1.15175	13.1783	1.55003	18.1357	1.87223	21.5237
1.96924	2.48364	0.524513	5.88366	1.97141	2.48374	0.813705	9.21798	1.17033	13.252	1.50874	17.1092	1.92325	21.8039	0.497961	6.48955	0.790701	9.08841	1.15519	12.8778	1.54875	17.6444	1.8762	21.012
1.96332	2.4834	0.528744	5.78148	1.96548	2.48348	0.8158	9.09566	1.17044	12.9158	1.51241	16.7135	1.92143	21.228	0.503327	6.368	0.791692	8.98406	1.15855	12.5913	1.54764	17.1801	1.8801	20.5252
1.9574	2.48316	0.53273	5.68172	1.95956	2.48324	0.817421	9.00126	1.17076	12.5985	1.516	16.3366	1.91975	20.6822	0.508514	6.25113	0.792472	8.9096	1.16181	12.3179	1.54669	16.7408	1.88392	20.0616
1.9515	2.48294	0.536467	5.58415	1.95365	2.48302	0.818593	8.9331	1.1713	12.2989	1.51951	15.9771	1.91822	20.1645	0.513504	6.13836	0.792994	8.86292	1.16498	12.0565	1.54591	16.3246	1.88767	19.6194
1.94561	2.48273	0.539951	5.48859	1.94776	2.4828	0.819334	8.89002	1.17206	12.0158	1.52293	15.6338	1.91685	19.6729	0.518284	6.0292	0.793777	8.79713	1.16804	11.8062	1.54531	15.9301	1.89132	19.197
1.93972	2.48253	0.543183	5.39491	1.94187	2.4826	0.820387	8.82881	1.17305	11.748	1.52626	15.3055	1.91562	19.2055	0.522841	5.92322	0.794672	8.72733	1.17099	11.5663	1.54488	15.5557	1.89489	18.7931
1.93386	2.48235	0.546168	5.30302	1.936	2.48242	0.821513	8.76323	1.17426	11.4946	1.5295	14.9911	1.91456	18.7608	0.527163	5.82005	0.79596	8.6352	1.17384	11.3361	1.54464	15.2001	1.89837	18.4064
1.928	2.48219	0.548909	5.21286	1.93014	2.48225	0.823017	8.67555	1.17571	11.2546	1.53264	14.6897	1.91365	18.3373	0.531243	5.7194	0.79771	8.52312	1.17656	11.1147	1.54458	14.8621	1.90175	18.0357
1.92216	2.48204	0.551417	5.12438	1.92429	2.48209	0.824869	8.56707	1.17739	11.0271	1.53568	14.4004	1.91291	17.9337	0.535075	5.62102	0.800005	8.39392	1.17918	10.9018	1.5447	14.5405	1.90503	17.6799
1.91633	2.48191	0.5537	5.03757	1.91846	2.48195	0.827033	8.43931	1.1793	10.8113	1.53862	14.1224	1.91234	17.5487	0.538655	5.52471	0.802951	8.25076	1.18167	10.6967	1.54502	14.2343	1.90822	17.3382
1.91051	2.48179	0.555769	4.95244	1.91263	2.48183	0.829465	8.29395	1.18144	10.6065	1.54146	13.855	1.91193	17.1812	0.541983	5.43033	0.806665	8.09695	1.18405	10.4989	1.54552	13.9425	1.9113	17.0095
1.90471	2.4817	0.55764	4.86899	1.90683	2.48173	0.832108	8.13274	1.1838	10.4121	1.54419	13.5975	1.91169	16.8301	0.545061	5.33777	0.810733	7.95357	1.18631	10.3081	1.54621	13.6643	1.91427	16.6932
1.89892	2.48162	0.559324	4.78725	1.90104	2.48164	0.834592	7.97711	1.18638	10.2272	1.54681	13.3494	1.91162	16.4944	0.547895	5.24696	0.815149	7.81988	1.18846	10.1237	1.54709	13.3989	1.91713	16.3885
1.89315	2.48156	0.560838	4.70725	1.89526	2.48158	0.836913	7.82669	1.18918	10.0514	1.54933	13.11	1.91172	16.1732	0.55049	5.15784	0.819903	7.69515	1.19049	9.94555	1.54816	13.1454	1.91989	16.0946
1.8874	2.48152	0.562196	4.629	1.8895	2.48153	0.83907	7.68111	1.1922	9.88413	1.55174	12.8789	1.91199	15.8658	0.552857	5.0704	0.824986	7.57873	1.19241	9.77321	1.54941	12.9032	1.92254	15.8109
1.88166	2.4815	0.563414	4.55253	1.88375	2.4815	0.841062	7.54008	1.19541	9.72476	1.55404	12.6557	1.91243	15.5713	0.555006	4.98463	0.830383	7.46998	1.194	9.62754	1.55084	12.6717	1.92508	15.537
1.87593	2.4815	0.564505	4.47787	1.87802	2.4815	0.84289	7.40333	1.19838	9.59197	1.55624	12.4399	1.91304	15.2891	0.556951	4.90054	0.836081	7.36829	1.19529	9.50656	1.55246	12.4501	1.92751	15.2722
1.87022	2.48152	0.565486	4.40502	1.87231	2.48151	0.844556	7.27061	1.20102	9.483	1.55834	12.2311	1.91381	15.0183	0.558705	4.81815	0.842063	7.27311	1.19631	9.40866	1.55425	12.238	1.92984	15.0161
1.86453	2.48157	0.56637	4.33401	1.86661	2.48155	0.846062	7.14171	1.20327	9.39569	1.56034	12.0289	1.91475	14.7584	0.560282	4.73748	0.848312	7.18391	1.1971	9.33258	1.55621	12.0348	1.93205	14.7682
1.85886	2.48164	0.567171	4.26483	1.86093	2.48161	0.847411	7.01644	1.20511	9.32837	1.56225	11.8331	1.91586	14.5089	0.561697	4.65856	0.854811	7.10021	1.19766	9.27738	1.55833	11.84	1.93417	14.5281
1.85321	2.48174	0.567902	4.1975	1.85527	2.4817	0.848607	6.89462	1.20648	9.27981	1.56406	11.6434	1.91711	14.2691	0.562966	4.58141	0.861541	7.02153	1.19802	9.24237	1.56062	11.6531	1.93618	14.2955
1.84757	2.48186	0.568575	4.132	1.84963	2.48181	0.849655	6.77611	1.20737	9.24915	1.5658	11.4594	1.91853	14.0385	0.564104	4.50606	0.868483	6.94746	1.19852	9.19248	1.56306	11.4736	1.93809	14.0699
1.84195	2.482	0.569201	4.06833	1.844	2.48195	0.850561	6.66076	1.20867	9.20561	1.56745	11.2811	1.92009	13.8167	0.565125	4.43252	0.875619	6.8776	1.19906	9.13883	1.56564	11.3011	1.93991	13.8511
1.83635	2.48218	0.569718	4.01433	1.8384	2.48211	0.85133	6.54846	1.2101	9.159	1.56903	11.108	1.9218	13.6031	0.566044	4.3608	0.882931	6.81158	1.19977	9.06682	1.56836	11.1353	1.94164	13.6388
1.83077	2.48238	0.570141	3.96938	1.83281	2.4823	0.851969	6.43909	1.21207	9.09679	1.57055	10.94	1.92364	13.3973	0.566875	4.29093	0.890399	6.74906	1.20065	8.97727	1.57122	10.9758	1.94329	13.4326
1.82522	2.48261	0.570484	3.93295	1.82724	2.48252	0.852484	6.33255	1.21462	9.01997	1.57202	10.777	1.92562	13.199	0.567631	4.2229	0.898005	6.68971	1.20167	8.87123	1.57419	10.8221	1.94486	13.2324
1.81968	2.48287	0.570751	3.90462	1.8217	2.48277	0.852883	6.22875	1.21778	8.92975	1.57343	10.6188	1.92773	13.0077	0.568325	4.1567	0.905731	6.63325	1.20282	8.74988	1.57728	10.6741	1.94636	13.0379
1.81416	2.48316	0.570945	3.88406	1.81617	2.48305	0.853172	6.12761	1.22158	8.82746	1.57481	10.4651	1.92995	12.8231	0.568968	4.09234	0.913558	6.57939	1.2041	8.61457	1.58048	10.5312	1.94779	12.8489
1.80867	2.48348	0.571069	3.87101	1.81067	2.48336	0.85336	6.02904	1.22606	8.71453	1.57617	10.3159	1.93229	12.6447	0.569571	4.0298	0.921468	6.52787	1.20534	8.48336	1.58377	10.3933	1.94916	12.6652
1.80319	2.48383	0.571247	3.85242	1.80519	2.4837	0.853453	5.93298	1.23066	8.60606	1.5775	10.171	1.93473	12.4724	0.570144	3.96906	0.929442	6.47847	1.20654	8.35614	1.58714	10.2601	1.95049	12.4866
1.79774	2.48422	0.57144	3.83242	1.79973	2.48408	0.853459	5.83936	1.23536	8.50176	1.57883	10.0304	1.93727	12.3057	0.570699	3.91011	0.937461	6.43093	1.20773	8.23283	1.59059	10.1313	1.95177	12.3129
1.79231	2.48464	0.571703	3.80558	1.79429	2.48448	0.853385	5.7481	1.24015	8.40133	1.57999	9.91114	1.9399	12.1444	0.571242	3.85292	0.945507	6.38506	1.20893	8.11335	1.59411	10.0067	1.95301	12.144
1.7869	2.48509	0.572037	3.77221	1.78887	2.48492	0.853239	5.65916	1.24502	8.30452	1.58099	9.81191	1.94261	11.9882	0.571783	3.79747	0.953558	6.34063	1.21014	7.99763	1.59722	9.90123	1.95424	11.9797
1.78152	2.48558	0.572445	3.73271	1.78348	2.4854	0.853027	5.57248	1.24996	8.21108	1.58182	9.73149	1.94539	11.8369	0.572329	3.74373	0.961596	6.29746	1.21139	7.88563	1.59991	9.81358	1.95544	11.8199
1.77616	2.48611	0.572933	3.68755	1.77811	2.48591	0.852756	5.48798	1.25495	8.12077	1.58249	9.66894	1.94824	11.6901	0.572887	3.69166	0.969599	6.25534	1.21269	7.77731	1.60214	9.74259	1.95664	11.6645
1.77082	2.48667	0.573512	3.63726	1.77277	2.48646	0.852432	5.40563	1.25998	8.03338	1.58299	9.62353	1.95115	11.5477	0.573464	3.64124	0.977544	6.21409	1.21407	7.67263	1.60392	9.68737	1.95785	11.5133
1.76551	2.48726	0.574115	3.58857	1.76745	2.48704	0.852064	5.32537	1.26504	7.94868	1.58331	9.59472	1.95411	11.4093	0.574066	3.59243	0.985408	6.17353	1.21556	7.57159	1.60523	9.64727	1.95906	11.3662
1.76022	2.4879	0.57475	3.54146	1.76215	2.48766	0.851655	5.24715	1.27011	7.86648	1.58378	9.55365	1.95711	11.2749	0.574697	3.54519	0.993167	6.13348	1.21716	7.47419	1.60607	9.62182	1.9603	11.2231
1.75495	2.48857	0.575419	3.49588	1.75687	2.48832	0.851213	5.17092	1.27517	7.78659	1.58429	9.50947	1.96014	11.1443	0.575364	3.49949	1.0008	6.09376	1.21892	7.38042	1.60728	9.58554	1.96157	11.084
1.74971	2.48929	0.576129	3.4518	1.75162	2.48902	0.850743	5.09662	1.28023	7.70883	1.585	9.45015	1.96319	11.0171	0.57607	3.45529	1.00827	6.05419	1.22086	7.2903	1.6086	9.54648	1.96287	10.9486
1.7445	2.49004	0.576882	3.40919	1.7464	2.48976	0.850251	5.02422	1.28525	7.63304	1.58592	9.37638	1.96626	10.8933	0.57682	3.41256	1.01555	6.01461	1.22301	7.20385	1.61039	9.494	1.96423	10.817
1.73931	2.49084	0.577683	3.36799	1.7412	2.49054	0.849742	4.95367	1.29024	7.55905	1.58706	9.28901	1.96934	10.7726	0.577617	3.37126	1.02263	5.97485	1.22539	7.12109	1.61267	9.42863	1.96565	10.689
1.73414	2.49167	0.578536	3.32819	1.73602	2.49136	0.84922	4.88492	1.29516	7.48671	1.58846	9.18904	1.97242	10.655	0.578465	3.33134	1.02946	5.93475	1.22803	7.04204	1.61542	9.35102	1.96714	10.5645
1.729	2.49255	0.579442	3.28974	1.73087	2.49222	0.848691	4.81793	1.30002	7.41588	1.59014	9.07764	1.9755	10.5402	0.579367	3.29278	1.03602	5.89416	1.23097	6.96672	1.61865	9.26192	1.9687	10.4435
1.72388	2.49347	0.580406	3.2526	1.72575	2.49313	0.848159	4.75266	1.3048	7.34642	1.59193	8.96971	1.97855	10.4282	0.580326	3.25554	1.04228	5.85296	1.23423	6.89513	1.62235	9.16211	1.97035	10.3258
1.71879	2.49443	0.581429	3.21674	1.72065	2.49407	0.847628	4.68906	1.30947	7.27821	1.59384	8.8652	1.98159	10.3187	0.581345	3.21958	1.04822	5.81102	1.23784	6.82728	1.62603	9.06476	1.97186	10.226
1.71372	2.49543	0.582514	3.18212	1.71557	2.49506	0.847103	4.62709	1.31405	7.21113	1.59588	8.76404	1.98422	10.2253	0.582425	3.18486	1.05381	5.76825	1.24182	6.76314	1.62968	8.96973	1.97322	10.1429
1.70868	2.49648	0.583663	3.14871	1.71052	2.49609	0.846586	4.56671	1.31849	7.14507	1.59805	8.66617	1.98643	10.1471	0.583568	3.15135	1.05904	5.72458	1.24618	6.70266	1.63329	8.87688	1.97438	10.0754
1.70367	2.49757	0.584878	3.11647	1.70549	2.49716	0.846082	4.50788	1.32281	7.07993	1.60038	8.57155	1.98825	10.0833	0.584778	3.11902	1.0639	5.67998	1.25094	6.64578	1.63686	8.78607	1.97533	10.0229
1.69867	2.4987	0.58616	3.08537	1.70049	2.49828	0.845595	4.45057	1.32698	7.01561	1.60287	8.48009	1.98967	10.0335	0.586054	3.08783	1.06837	5.63443	1.2561	6.59239	1.64037	8.69719	1.97604	9.98481
1.6937	2.49987	0.58751	3.05537	1.69552	2.49944	0.845127	4.39474	1.331	6.95203	1.60554	8.39176	1.99072	9.99726	0.587399	3.05774	1.07245	5.58796	1.26166	6.54237	1.64381	8.61013	1.9765	9.96062
1.68876	2.50109	0.588931	3.02644	1.69056	2.50064	0.844681	4.34034	1.33485	6.88912	1.60839	8.30648	1.99138	9.97417	0.588814	3.02873	1.07615	5.54063	1.26763	6.49559	1.64719	8.52478	1.97718	9.92612
1.68384	2.50236	0.590422	2.99855	1.68563	2.50189	0.844261	4.28735	1.33853	6.82681	1.61143	8.22418	1.99233	9.94117	0.5903	3.00075	1.07948	5.4925	1.27398	6.45186	1.65049	8.44104	1.97794	9.88898
1.67894	2.50366	0.591986	2.97166	1.68073	2.50318	0.84387	4.23573	1.34202	6.76504	1.61467	8.1448	1.99335	9.90556	0.591857	2.97379	1.08244	5.44368	1.28071	6.41101	1.6537	8.35882	1.97898	9.83909
1.67407	2.50501	0.593622	2.94576	1.67584	2.50452	0.843508	4.18544	1.34534	6.70376	1.61812	8.06827	1.99474	9.85754	0.593488	2.94781	1.08507	5.39429	1.28779	6.37284	1.65682	8.27804	1.98035	9.777
1.66921	2.50641	0.595331	2.9208	1.67098	2.50589	0.843181	4.13646	1.34846	6.64294	1.62177	7.99451	1.99647	9.79747	0.595191	2.92277	1.08737	5.34443	1.2952	6.33717	1.65984	8.19862	1.98207	9.70338
1.66438	2.50784	0.597115	2.89676	1.66614	2.50731	0.842889	4.08874	1.35139	6.58254	1.62563	7.92343	1.99853	9.72579	0.596969	2.89866	1.08937	5.29423	1.30293	6.30379	1.66276	8.12049	1.98418	9.61902
1.65957	2.50932	0.598973	2.8736	1.66133	2.50877	0.842634	4.04226	1.35412	6.52255	1.62971	7.85496	2.00091	9.64301	0.598821	2.87543	1.0911	5.24383	1.31094	6.27252	1.66557	8.0436	1.98673	9.52482
1.65478	2.51084	0.600906	2.85131	1.65653	2.51028	0.84242	3.99699	1.35666	6.46293	1.634	7.78902	2.00358	9.54969	0.600748	2.85307	1.09258	5.19334	1.31921	6.24317	1.66828	7.96787	1.98941	9.43334
1.65001	2.51239	0.602914	2.82986	1.65175	2.51182	0.842247	3.9529	1.359	6.4037	1.6385	7.7255	2.00619	9.45807	0.602749	2.83155	1.09383	5.14287	1.32772	6.21557	1.67087	7.89326	1.99224	9.34451
1.64526	2.51399	0.604997	2.80921	1.64699	2.5134	0.842118	3.90995	1.36115	6.34484	1.64321	7.66431	2.00872	9.36809	0.604826	2.81084	1.09487	5.09253	1.33644	6.18955	1.67335	7.81973	1.99521	9.25823
1.64052	2.51562	0.607155	2.78935	1.64225	2.51502	0.842035	3.86812	1.3631	6.28635	1.64812	7.60537	2.01117	9.27969	0.606979	2.79092	1.09573	5.04241	1.34536	6.16498	1.67571	7.74724	1.99832	9.17445
1.6358	2.51729	0.60939	2.77025	1.63753	2.51668	0.841999	3.82739	1.36488	6.22826	1.65323	7.54858	2.01355	9.19281	0.609207	2.77175	1.09643	4.9926	1.35445	6.1417	1.67796	7.67576	2.00158	9.09308
1.6311	2.51899	0.6117	2.75188	1.63281	2.51837	0.842011	3.78772	1.36647	6.17056	1.65853	7.49383	2.01586	9.10739	0.611511	2.75333	1.09698	4.94316	1.3637	6.11959	1.6801	7.60526	2.00498	9.01403
1.6264	2.52072	0.614086	2.73423	1.62811	2.52009	0.842073	3.74908	1.36789	6.11328	1.66401	7.44103	2.01808	9.02338	0.613891	2.73563	1.0974	4.89418	1.37308	6.09854	1.68212	7.53573	2.00852	8.93725
1.62171	2.52248	0.616548	2.71728	1.62342	2.52184	0.842187	3.71146	1.36915	6.05642	1.66967	7.39008	2.02024	8.94076	0.616348	2.71862	1.09771	4.84569	1.38257	6.07842	1.68404	7.46714	2.0122	8.86263
1.61703	2.52426	0.619088	2.70101	1.61874	2.52361	0.842354	3.67483	1.37024	6.00002	1.6755	7.34088	2.02231	8.85947	0.618881	2.70229	1.09792	4.79775	1.39217	6.05915	1.68586	7.39948	2.01602	8.79011
1.61236	2.52606	0.621704	2.68539	1.61407	2.5254	0.842576	3.63916	1.37118	5.94409	1.68147	7.29335	2.02431	8.77948	0.621491	2.68662	1.09804	4.75039	1.40185	6.04063	1.68758	7.33276	2.01997	8.71961
1.60768	2.52787	0.624399	2.67041	1.60939	2.52721	0.842852	3.60444	1.37198	5.88864	1.6876	7.24737	2.02624	8.70077	0.624179	2.67159	1.09809	4.70366	1.41161	6.02277	1.6892	7.26696	2.02405	8.65105
1.603	2.52968	0.627173	2.65607	1.60471	2.52902	0.843185	3.57063	1.37264	5.8337	1.69386	7.20287	2.02809	8.6233	0.626947	2.6572	1.09808	4.65757	1.42141	6.00549	1.69074	7.2021	2.02825	8.58434
1.5983	2.53149	0.63003	2.64234	1.60002	2.53083	0.843576	3.53772	1.37317	5.7793	1.70024	7.15975	2.02989	8.54707	0.629797	2.64342	1.09801	4.61215	1.43126	5.98871	1.69221	7.13818	2.03257	8.51941
1.59359	2.53329	0.632971	2.62924	1.59531	2.53264	0.844025	3.50568	1.37359	5.72544	1.70673	7.11793	2.03162	8.47205	0.632731	2.63027	1.0979	4.56741	1.44113	5.97235	1.69361	7.07522	2.03699	8.45619
1.58885	2.53506	0.636002	2.61675	1.59059	2.53442	0.844534	3.47449	1.37389	5.67214	1.71332	7.0773	2.03329	8.39824	0.635755	2.61773	1.09775	4.52337	1.45101	5.95634	1.69495	7.01324	2.04153	8.39459
1.58408	2.53679	0.639132	2.6049	1.58583	2.53616	0.845104	3.44414	1.37409	5.61943	1.71999	7.03781	2.03492	8.32561	0.638877	2.60583	1.09757	4.48004	1.46089	5.94061	1.69625	6.95225	2.04615	8.33455
1.57927	2.53846	0.642374	2.59372	1.58103	2.53786	0.845735	3.4146	1.37419	5.5673	1.72674	6.99935	2.03651	8.25417	0.642109	2.59459	1.09737	4.43743	1.47074	5.92508	1.69753	6.89229	2.05087	8.27598
1.5744	2.54005	0.645751	2.58328	1.57619	2.53948	0.846428	3.38586	1.3742	5.51579	1.73356	6.96185	2.03806	8.18392	0.645474	2.58409	1.09715	4.39553	1.48055	5.90967	1.69879	6.83339	2.05567	8.21882
1.56947	2.54155	0.6493	2.57372	1.57128	2.54102	0.847185	3.35789	1.37413	5.4649	1.74042	6.92523	2.03958	8.11484	0.649007	2.57446	1.09692	4.35435	1.4903	5.89429	1.70006	6.7756	2.06054	8.16298
1.56446	2.54294	0.653087	2.56527	1.5663	2.54245	0.848005	3.33068	1.37398	5.41463	1.74732	6.88942	2.04109	8.04696	0.652771	2.5659	1.09668	4.3139	1.49996	5.87887	1.70135	6.71896	2.06547	8.10841
1.55936	2.5442	0.65721	2.55828	1.56123	2.54375	0.84889	3.30422	1.37377	5.365	1.75424	6.85435	2.04258	7.98027	0.656863	2.55878	1.09644	4.27416	1.50952	5.86331	1.70269	6.66354	2.07046	8.05502
1.55417	2.5453	0.66178	2.55314	1.55607	2.54492	0.849841	3.27847	1.37349	5.31602	1.76116	6.81993	2.04409	7.91479	0.661394	2.55348	1.0962	4.23513	1.51895	5.84751	1.7041	6.60938	2.07549	8.00276
1.54887	2.54625	0.666843	2.54997	1.55082	2.54593	0.850859	3.25344	1.37316	5.26768	1.76809	6.7861	2.0456	7.85053	0.666419	2.55016	1.09597	4.19681	1.52821	5.83136	1.70562	6.55659	2.08056	7.95156
1.54347	2.54704	0.672325	2.54845	1.54546	2.54677	0.851943	3.22909	1.37277	5.22	1.77499	6.75279	2.04715	7.78749	0.671872	2.54853	1.09575	4.1592	1.53727	5.81474	1.70727	6.50523	2.08566	7.90135
1.53797	2.54767	0.678095	2.54804	1.53999	2.54746	0.853096	3.20543	1.37234	5.17297	1.78185	6.71992	2.04873	7.72571	0.677624	2.54804	1.09553	4.12229	1.54609	5.79751	1.70909	6.45542	2.09076	7.85207
1.53238	2.54815	0.684044	2.5483	1.53444	2.54799	0.854317	3.18243	1.37187	5.1266	1.78867	6.68743	2.05037	7.6652	0.683561	2.54826	1.09533	4.08606	1.55463	5.77954	1.71113	6.40727	2.09588	7.80365
1.5267	2.54848	0.690102	2.54895	1.52879	2.54837	0.855608	3.16007	1.37136	5.08089	1.79542	6.65524	2.05208	7.60598	0.689612	2.54889	1.09515	4.05052	1.56285	5.76068	1.71342	6.36089	2.10099	7.75604
1.52094	2.54868	0.696227	2.54984	1.52306	2.54862	0.856969	3.13835	1.37082	5.03584	1.80208	6.62329	2.05388	7.54808	0.695733	2.54977	1.09499	4.01566	1.5707	5.74077	1.71602	6.31642	2.10608	7.70917
1.51512	2.54877	0.702395	2.55088	1.51725	2.54875	0.858402	3.11726	1.37025	4.99145	1.80864	6.59152	2.05577	7.49152	0.701898	2.55079	1.09485	3.98146	1.57812	5.71965	1.71897	6.274	2.11115	7.663
1.50923	2.54877	0.708592	2.552	1.51139	2.54878	0.859907	3.09678	1.36966	4.94771	1.81509	6.55985	2.05778	7.43632	0.708093	2.55191	1.09474	3.94791	1.58507	5.69721	1.72233	6.23376	2.11618	7.61745
1.50329	2.54867	0.714808	2.55317	1.50547	2.54871	0.861485	3.07689	1.36905	4.90462	1.8214	6.52821	2.05993	7.38253	0.714308	2.55307	1.09465	3.91502	1.59151	5.6733	1.72614	6.19582	2.12116	7.57249
1.49731	2.54849	0.721037	2.55437	1.4995	2.54857	0.863137	3.0576	1.36843	4.86219	1.82756	6.49655	2.06223	7.33016	0.720536	2.55427	1.09459	3.88276	1.5974	5.64786	1.73045	6.16027	2.12608	7.52805
1.49129	2.54825	0.727275	2.55557	1.49349	2.54835	0.864865	3.03888	1.36779	4.82039	1.83354	6.4648	2.0647	7.27924	0.726773	2.55548	1.09456	3.85113	1.60273	5.62083	1.73529	6.12718	2.13093	7.48409
1.48524	2.54796	0.733519	2.55679	1.48745	2.54807	0.86667	3.02073	1.36714	4.77924	1.83934	6.43291	2.06736	7.2298	0.733017	2.55669	1.09456	3.82012	1.60748	5.59225	1.74069	6.09656	2.13571	7.44056
1.47915	2.54761	0.739767	2.55799	1.48138	2.54774	0.868553	3.00314	1.36648	4.73872	1.84493	6.40081	2.07023	7.18186	0.739265	2.55789	1.09459	3.78972	1.61167	5.56215	1.74664	6.06837	2.14039	7.39741
1.47305	2.54722	0.746018	2.55919	1.47528	2.54736	0.870516	2.9861	1.36582	4.69882	1.8503	6.36846	2.07331	7.13545	0.745516	2.55909	1.09466	3.75991	1.6153	5.53066	1.75315	6.04253	2.14497	7.35459
1.46692	2.54679	0.752271	2.56037	1.46916	2.54695	0.87256	2.96961	1.36515	4.65956	1.85544	6.33581	2.07663	7.09056	0.751768	2.56027	1.09476	3.7307	1.61842	5.49792	1.76018	6.01892	2.14944	7.31207
1.46078	2.54632	0.758524	2.56153	1.46303	2.54649	0.874686	2.95365	1.36449	4.6209	1.86032	6.30283	2.0802	7.04723	0.758021	2.56144	1.0949	3.70207	1.62107	5.46408	1.76772	5.99736	2.15379	7.26981
1.45462	2.54582	0.764777	2.56268	1.45687	2.54601	0.876898	2.93823	1.36383	4.58286	1.86494	6.26948	2.08403	7.00544	0.764274	2.56259	1.09508	3.674	1.62328	5.42931	1.77571	5.97769	2.15801	7.22777
1.44845	2.5453	0.771029	2.56381	1.4507	2.54549	0.879197	2.92333	1.36318	4.54542	1.86929	6.23573	2.08813	6.96519	0.770526	2.56372	1.0953	3.6465	1.62511	5.3938	1.78412	5.95971	2.1621	7.18591
1.44226	2.54475	0.777281	2.56492	1.44452	2.54495	0.881586	2.90896	1.36253	4.50858	1.87337	6.20159	2.0925	6.92648	0.776778	2.56483	1.09555	3.61955	1.6266	5.35769	1.7929	5.94324	2.16604	7.14422
1.43607	2.54417	0.783531	2.56601	1.43833	2.54439	0.884067	2.8951	1.3619	4.47233	1.87716	6.16703	2.09716	6.88927	0.783028	2.56592	1.09585	3.59313	1.62778	5.32115	1.80202	5.92811	2.16983	7.10267
1.42986	2.54358	0.789779	2.56707	1.43213	2.5438	0.886642	2.88176	1.36127	4.43666	1.88067	6.13208	2.1021	6.85355	0.789277	2.56699	1.09619	3.56725	1.6287	5.28429	1.81142	5.91414	2.17346	7.06123
1.42365	2.54297	0.796026	2.56811	1.42592	2.54319	0.889316	2.86893	1.36066	4.40156	1.88389	6.09673	2.10732	6.81927	0.795524	2.56803	1.09657	3.54189	1.62939	5.24725	1.82107	5.90121	2.17694	7.01989
1.41743	2.54234	0.802271	2.56914	1.4197	2.54257	0.892092	2.85662	1.36006	4.36703	1.88684	6.06101	2.11282	6.78638	0.801769	2.56906	1.09699	3.51705	1.62988	5.21011	1.83095	5.88918	2.18024	6.97863
1.4112	2.54169	0.808513	2.57014	1.41348	2.54193	0.894972	2.84483	1.35948	4.33306	1.88951	6.02494	2.11858	6.75485	0.808011	2.57006	1.09746	3.49271	1.63019	5.17297	1.84102	5.87793	2.18339	6.93745
1.40497	2.54102	0.814753	2.57111	1.40725	2.54127	0.897962	2.83355	1.35892	4.29964	1.89192	5.98857	2.12461	6.7246	0.814252	2.57104	1.09797	3.46886	1.63036	5.13589	1.85125	5.86737	2.18636	6.89634
1.39874	2.54034	0.820991	2.57207	1.40101	2.54059	0.901064	2.82278	1.35837	4.26676	1.89408	5.95192	2.1309	6.69559	0.82049	2.57199	1.09852	3.44549	1.6304	5.09895	1.86162	5.8574	2.18917	6.8553
1.39249	2.53965	0.827226	2.573	1.39477	2.53991	0.904282	2.81254	1.35785	4.23443	1.89599	5.91503	2.13742	6.66774	0.826725	2.57293	1.09912	3.42261	1.63032	5.06219	1.87211	5.84797	2.19181	6.81434
1.38625	2.53894	0.833459	2.57392	1.38853	2.5392	0.907622	2.80281	1.35734	4.20262	1.89767	5.87796	2.14417	6.64099	0.832958	2.57384	1.09977	3.40019	1.63015	5.02564	1.88271	5.83899	2.19429	6.77346
1.38	2.53823	0.839688	2.57481	1.38228	2.53849	0.911085	2.7936	1.35686	4.17133	1.89913	5.84074	2.15113	6.61528	0.839187	2.57474	1.10046	3.37823	1.6299	4.98936	1.8934	5.83041	2.19661	6.73268
1.37375	2.5375	0.845915	2.57568	1.37603	2.53776	0.914676	2.78491	1.35641	4.14055	1.90038	5.80341	2.15829	6.59054	0.845414	2.57561	1.1012	3.35673	1.62957	4.95337	1.90416	5.82217	2.19878	6.692
1.36749	2.53675	0.852138	2.57652	1.36978	2.53702	0.918397	2.77673	1.35597	4.11028	1.90144	5.76602	2.16564	6.5667	0.851638	2.57646	1.10199	3.33566	1.62918	4.91769	1.91498	5.81424	2.20081	6.65145
1.36123	2.536	0.858359	2.57735	1.36352	2.53628	0.922251	2.76906	1.35557	4.08051	1.90232	5.7286	2.17315	6.5437	0.857859	2.57729	1.10282	3.31504	1.62873	4.88235	1.92585	5.80656		
1.35497	2.53523	0.864576	2.57816	1.35726	2.53551	0.926238	2.7619	1.35519	4.05124	1.90304	5.69121	2.18082	6.52149	0.864076	2.57809	1.1037	3.29484	1.62825	4.84736	1.93675	5.79909		
1.34871	2.53446	0.87079	2.57894	1.351	2.53474	0.930358	2.75523	1.35484	4.02244	1.9036	5.65387	2.18863	6.49999	0.87029	2.57888	1.10464	3.27506	1.62772	4.81273	1.94768	5.79181		
1.34245	2.53368	0.877	2.57971	1.34474	2.53396	0.934611	2.74904	1.35452	3.99412	1.90401	5.61661	2.19657	6.47916	0.876501	2.57965	1.10562	3.25569	1.62716	4.77848	1.95863	5.78466		
1.33618	2.53288	0.883207	2.58045	1.33847	2.53317	0.938993	2.74331	1.35422	3.96627	1.9043	5.57947	2.20462	6.45894	0.882708	2.58039	1.10664	3.23672	1.62657	4.7446	1.96957	5.77762		
1.32992	2.53208	0.88941	2.58117	1.33221	2.53237	0.943501	2.73802	1.35396	3.93888	1.90446	5.54248			0.888912	2.58112	1.10772	3.21816	1.62596	4.71112	1.98051	5.77065		
1.32365	2.53127	0.89561	2.58188	1.32594	2.53156	0.948131	2.73316	1.35373	3.91195	1.90451	5.50567			0.895112	2.58182	1.10885	3.19998	1.62534	4.67804	1.99143	5.76371		
1.31738	2.53044	0.901806	2.58256	1.31967	2.53074	0.952876	2.72868	1.35353	3.88547	1.90447	5.46905			0.901308	2.5825	1.11002	3.18219	1.6247	4.64535	2.00231	5.75675		
1.31111	2.52961	0.907997	2.58322	1.3134	2.52992	0.95773	2.72458	1.35336	3.85942	1.90432	5.43264			0.9075	2.58317	1.11125	3.16477	1.62405	4.61306	2.01314	5.74974		
1.30484	2.52878	0.914185	2.58386	1.30713	2.52908	0.962687	2.72082	1.35323	3.83381	1.9041	5.39648			0.913688	2.58381	1.11253	3.14772	1.6234	4.58117	2.0239	5.74263		
1.29857	2.52793	0.920368	2.58448	1.30086	2.52824	0.967738	2.71738	1.35313	3.80863	1.9038	5.36057			0.919871	2.58443	1.11386	3.13103	1.62274	4.54969	2.03457	5.73535		
1.29231	2.52708	0.926547	2.58508	1.2946	2.52739	0.972877	2.71422	1.35306	3.78386	1.90343	5.32492			0.926051	2.58504	1.11523	3.11471	1.62208	4.51861	2.04512	5.72785		
1.28604	2.52622	0.932722	2.58567	1.28833	2.52653	0.978097	2.71133	1.35303	3.75952	1.90299	5.28956			0.932225	2.58562	1.11666	3.09873	1.62142	4.48793	2.05553	5.72005		
1.27977	2.52535	0.938891	2.58623	1.28206	2.52567	0.983389	2.70868	1.35303	3.73557	1.9025	5.25449			0.938395	2.58618	1.11814	3.08309	1.62077	4.45764	2.06577	5.71185		
1.2735	2.52448	0.945056	2.58677	1.27579	2.5248	0.988749	2.70624	1.35307	3.71203	1.90195	5.21973			0.944561	2.58672	1.11967	3.0678	1.62012	4.42776	2.07578	5.70315		
1.26724	2.5236	0.951216	2.58729	1.26952	2.52392	0.99417	2.704	1.35314	3.68889	1.90136	5.18527			0.950721	2.58725	1.12126	3.05283	1.61948	4.39827	2.08553	5.69383		
1.26097	2.52272	0.95737	2.58779	1.26326	2.52304	0.999645	2.70193	1.35326	3.66613	1.90073	5.15114			0.956876	2.58775	1.12289	3.03819	1.61884	4.36918	2.09494	5.68374		
1.25471	2.52183	0.963519	2.58826	1.25699	2.52215	1.00517	2.70003	1.3534	3.64375	1.90006	5.11733			0.963025	2.58823	1.12457	3.02388	1.61822	4.34048	2.10397	5.6727		
1.24845	2.52093	0.969663	2.58872	1.25073	2.52126	1.01074	2.69827	1.35359	3.62176	1.89936	5.08385			0.969169	2.58868	1.12631	3.00987	1.61762	4.31216	2.11252	5.66054		
1.24219	2.52004	0.9758	2.58915	1.24447	2.52036	1.01635	2.69663	1.35381	3.60013	1.89863	5.0507			0.975306	2.58912	1.1281	2.99618	1.61702	4.28422	2.12052	5.64706		
1.23593	2.51913	0.98193	2.58957	1.23821	2.51946	1.022	2.69512	1.35407	3.57886	1.89788	5.01789			0.981438	2.58954	1.12995	2.9828	1.61644	4.25667	2.12788	5.63208		
1.22967	2.51823	0.988055	2.58996	1.23196	2.51856	1.02768	2.6937	1.35437	3.55796	1.8971	4.98542			0.987562	2.58993	1.13184	2.96971	1.61588	4.22949	2.13455	5.61543		
1.22342	2.51732	0.994172	2.59033	1.2257	2.51765	1.03339	2.69239	1.35471	3.53741	1.8963	4.95329			0.99368	2.5903	1.13379	2.95692	1.61534	4.20269	2.14046	5.59701		
1.21717	2.51641	1.00028	2.59067	1.21945	2.51674	1.03912	2.69115	1.35509	3.5172	1.89549	4.9215			0.99979	2.59064	1.13579	2.94442	1.61481	4.17625	2.1456	5.5768		
1.21093	2.5155	1.00638	2.59099	1.21321	2.51583	1.04488	2.69	1.35551	3.49734	1.89466	4.89006			1.00589	2.59096	1.13784	2.93221	1.61431	4.15018	2.14998	5.55486		
1.20469	2.51459	1.01248	2.59128	1.20697	2.51492	1.05067	2.68891	1.35596	3.47781	1.89383	4.85896			1.01199	2.59126	1.13995	2.92028	1.61383	4.12447	2.15363	5.53132		
1.19845	2.51368	1.01856	2.59155	1.20073	2.51401	1.05647	2.68789	1.35646	3.45862	1.89298	4.82821			1.01807	2.59153	1.14212	2.90863	1.61336	4.09911	2.15662	5.50636		
1.19222	2.51277	1.02464	2.5918	1.1945	2.5131	1.06229	2.68693	1.357	3.43975	1.89213	4.7978			1.02415	2.59178	1.14433	2.89725	1.61292	4.07411	2.15902	5.48021		
1.186	2.51186	1.0307	2.59201	1.18827	2.51219	1.06813	2.68601	1.35758	3.4212	1.89127	4.76773			1.03022	2.592	1.14661	2.88614	1.61251	4.04946	2.16091	5.45307		
1.17978	2.51096	1.03676	2.5922	1.18205	2.51129	1.07398	2.68515	1.35819	3.40297	1.89041	4.738			1.03627	2.59219	1.14893	2.8753	1.61211	4.02515	2.16237	5.42515		
1.17356	2.51007	1.0428	2.59236	1.17583	2.51039	1.07984	2.68433	1.35885	3.38505	1.88955	4.70862			1.04232	2.59235	1.15132	2.86472	1.61175	4.00118	2.16345	5.39663		
1.16736	2.50918	1.04884	2.59248	1.16962	2.5095	1.08572	2.68355	1.35955	3.36744	1.88869	4.67957			1.04835	2.59248	1.15376	2.85441	1.6114	3.97754	2.16422	5.36767		
1.16116	2.5083	1.05486	2.59258	1.16342	2.50862	1.09161	2.6828	1.36029	3.35013	1.88784	4.65086			1.05437	2.59257	1.15626	2.84435	1.61109	3.95424	2.16473	5.33838		
1.15497	2.50743	1.06086	2.59264	1.15723	2.50775	1.09751	2.68209	1.36107	3.33311	1.88698	4.62248			1.06038	2.59263	1.15881	2.83455	1.6108	3.93126	2.16502	5.30889		
1.1488	2.50658	1.06685	2.59266	1.15105	2.50689	1.10342	2.68141	1.3619	3.31639	1.88614	4.59444			1.06637	2.59266	1.16143	2.825	1.61053	3.90861	2.16513	5.27927		
1.14263	2.50574	1.07283	2.59264	1.14488	2.50604	1.10933	2.68075	1.36276	3.29995	1.8853	4.56673			1.07235	2.59265	1.1641	2.8157	1.6103	3.88628	2.16507	5.2496		
1.13648	2.50492	1.07879	2.59259	1.13872	2.50522	1.11526	2.68012	1.36367	3.2838	1.88446	4.53934			1.07831	2.59259	1.16684	2.80665	1.61009	3.86426	2.16488	5.21994		
1.13034	2.50412	1.08473	2.59249	1.13258	2.50441	1.12119	2.67952	1.36462	3.26793	1.88364	4.51228			1.08425	2.5925	1.16963	2.79785	1.60991	3.84255	2.16458	5.19034		
1.12421	2.50335	1.09065	2.59234	1.12645	2.50363	1.12712	2.67893	1.36561	3.25233	1.88283	4.48554			1.09017	2.59235	1.17249	2.7893	1.60976	3.82115	2.16418	5.16083		
1.11811	2.50261	1.09655	2.59215	1.12034	2.50288	1.13307	2.67836	1.36664	3.237	1.88203	4.45912			1.09608	2.59216	1.17542	2.78099	1.60964	3.80005	2.1637	5.13144		
1.11202	2.50191	1.10242	2.5919	1.11424	2.50216	1.13901	2.67782	1.36772	3.22194	1.88124	4.43301			1.10195	2.59192	1.17841	2.77293	1.60955	3.77925	2.16315	5.10221		
1.10595	2.50124	1.10828	2.59159	1.10816	2.50148	1.14496	2.67728	1.36884	3.20714	1.88046	4.40722			1.10781	2.59162	1.18147	2.76512	1.6095	3.75875	2.16253	5.07315		
1.09991	2.50062	1.1141	2.59123	1.10211	2.50084	1.15092	2.67677	1.37	3.1926	1.8797	4.38174			1.11363	2.59126	1.1846	2.75755	1.60947	3.73854	2.16187	5.04428		
1.09389	2.50005	1.11989	2.5908	1.09608	2.50025	1.15688	2.67626	1.3712	3.17831	1.87896	4.35657			1.11943	2.59084	1.1878	2.75023	1.60947	3.71861	2.16115	5.01561		
1.0879	2.49954	1.12565	2.5903	1.09008	2.49972	1.16284	2.67577	1.37244	3.16428	1.87823	4.33171			1.12519	2.59035	1.19107	2.74316	1.6095	3.69897	2.1604	4.98717		
1.08194	2.4991	1.13138	2.58973	1.08411	2.49925	1.1688	2.67529	1.37373	3.15049	1.87751	4.30714			1.13092	2.58978	1.19443	2.73634	1.60957	3.67961	2.15962	4.95894		
1.07602	2.49874	1.13707	2.58908	1.07818	2.49886	1.17477	2.67481	1.37507	3.13694	1.87682	4.28287			1.13661	2.58914	1.19786	2.72977	1.60966	3.66052	2.15881	4.93095		
1.07013	2.49846	1.14272	2.58834	1.07228	2.49855	1.18073	2.67435	1.37644	3.12364	1.87614	4.2589			1.14227	2.58841	1.20137	2.72345	1.60979	3.64171	2.15797	4.90321		
1.06429	2.49829	1.14832	2.58752	1.06642	2.49834	1.1867	2.67389	1.37786	3.11057	1.87548	4.23522			1.14788	2.58759	1.20497	2.7174	1.60996	3.62316	2.15712	4.8757		
1.0585	2.49822	1.15388	2.58659	1.06061	2.49823	1.19267	2.67344	1.37932	3.09773	1.87484	4.21183			1.15344	2.58667	1.20866	2.7116	1.61015	3.60488	2.15625	4.84845		
1.05276	2.49827	1.15939	2.58557	1.05485	2.49824	1.19864	2.673	1.38083	3.08513	1.87422	4.18872			1.15895	2.58565	1.21243	2.70606	1.61038	3.58686	2.15536	4.82144		
1.04708	2.49847	1.16485	2.58444	1.04914	2.49838	1.20461	2.67256	1.38238	3.07275	1.87362	4.1659			1.16441	2.58453	1.2163	2.7008	1.61064	3.5691	2.15447	4.79469		
1.04145	2.49881	1.17025	2.58319	1.0435	2.49866	1.21058	2.67212	1.38397	3.06059	1.87304	4.14336			1.16982	2.5833	1.22027	2.69579	1.61093	3.55159	2.15357	4.7682		
1.0359	2.49931	1.17559	2.58183	1.03792	2.49911	1.21655	2.67169	1.3856	3.04865	1.87248	4.12109			1.17516	2.58195	1.22434	2.69106	1.61126	3.53433	2.15266	4.74197		
1.03041	2.49999	1.18087	2.58036	1.03241	2.49972	1.22252	2.67126	1.38729	3.03693	1.87195	4.0991			1.18045	2.58048	1.2285	2.68659	1.61162	3.51732	2.15175	4.71599		
1.025	2.50086	1.18609	2.57876	1.02697	2.50052	1.22848	2.67083	1.38901	3.02543	1.87144	4.07737			1.18567	2.57889	1.23277	2.6824	1.61202	3.50056	2.15084	4.69027		
1.01966	2.50193	1.19125	2.57704	1.0216	2.50152	1.23445	2.6704	1.39078	3.01413	1.87095	4.05592			1.19083	2.57718	1.23715	2.67847	1.61245	3.48403	2.14992	4.66481		
1.01441	2.50321	1.19634	2.5752	1.01632	2.50272	1.24041	2.66997	1.39259	3.00305	1.87048	4.03472			1.19593	2.57535	1.24163	2.6748	1.61291	3.46774	2.14901	4.63961		
1.00923	2.50471	1.20137	2.57325	1.01111	2.50413	1.24637	2.66954	1.39445	2.99217	1.87004	4.01379			1.20097	2.57341	1.24621	2.67139	1.61341	3.45169	2.14811	4.61466		
1.00414	2.50642	1.20634	2.57118	1.00599	2.50577	1.25232	2.66911	1.39636	2.98149	1.86962	3.99312			1.20594	2.57135	1.25089	2.66823	1.61394	3.43587	2.1472	4.58997		
0.999131	2.50836	1.21125	2.56902	1.00095	2.50763	1.25827	2.66867	1.39831	2.97102	1.86923	3.9727			1.21085	2.56919	1.25567	2.66531	1.61451	3.42028	2.14631	4.56553		
0.994199	2.51052	1.2161	2.56675	0.995991	2.5097	1.26422	2.66823	1.4003	2.96074	1.86886	3.95254			1.21571	2.56694	1.26055	2.66263	1.61511	3.40491	2.14542	4.54135		
0.989343	2.5129	1.22091	2.5644	0.991107	2.512	1.27017	2.66778	1.40234	2.95066	1.86852	3.93262			1.22052	2.56459	1.26552	2.66016	1.61575	3.38976	2.14454	4.51742		
0.98456	2.51549	1.22566	2.56198	0.986298	2.51452	1.2761	2.66732	1.40443	2.94078	1.8682	3.91295			1.22528	2.56217	1.27058	2.6579	1.61642	3.37484	2.14367	4.49374		
0.979846	2.51829	1.23038	2.55949	0.98156	2.51725	1.28204	2.66686	1.40656	2.93108	1.86791	3.89352			1.23	2.55969	1.27572	2.65584	1.61713	3.36013	2.1428	4.47032		
0.975196	2.5213	1.23505	2.55694	0.976887	2.52018	1.28796	2.66639	1.40875	2.92158	1.86764	3.87433			1.23468	2.55715	1.28094	2.65395	1.61787	3.34563	2.14195	4.44714		
0.970606	2.52449	1.2397	2.55436	0.972276	2.5233	1.29388	2.66591	1.41097	2.91227	1.8674	3.85538			1.23933	2.55457	1.28623	2.65224	1.61865	3.33135	2.14112	4.4242		
0.966071	2.52786	1.24432	2.55175	0.967721	2.52661	1.29979	2.66542	1.41325	2.90314	1.86719	3.83667			1.24395	2.55196	1.29159	2.65068	1.61946	3.31727	2.14029	4.40151		
0.961584	2.53141	1.24892	2.54912	0.963217	2.53009	1.3057	2.66492	1.41558	2.8942	1.86701	3.81818			1.24855	2.54933	1.29701	2.64925	1.62031	3.30339	2.13948	4.37906		
0.957141	2.53511	1.25351	2.54648	0.958759	2.53374	1.31159	2.6644	1.41795	2.88544	1.86685	3.79993			1.25314	2.5467	1.30249	2.64796	1.6212	3.28972	2.13868	4.35685		
0.952734	2.53895	1.25808	2.54385	0.954339	2.53753	1.31747	2.66386	1.42038	2.87687	1.86672	3.7819			1.25771	2.54406	1.30802	2.64678	1.62212	3.27625	2.1379	4.33488		
0.948359	2.54293	1.26265	2.54123	0.949954	2.54146	1.32335	2.66331	1.42285	2.86848	1.86662	3.7641			1.26228	2.54144	1.31359	2.64571	1.62307	3.26297	2.13713	4.31314		
0.944009	2.54703	1.26721	2.53863	0.945595	2.54552	1.32921	2.66274	1.42538	2.86027	1.86654	3.74652			1.26684	2.53884	1.31921	2.64474	1.62406	3.24989	2.13638	4.29164		
0.939678	2.55122	1.27178	2.53606	0.941258	2.54968	1.33505	2.66214	1.42796	2.85224	1.86649	3.72915			1.27141	2.53626	1.32487	2.64385	1.62509	3.237	2.13564	4.27037		
0.935358	2.5555	1.27635	2.53352	0.936935	2.55393	1.34088	2.66152	1.43059	2.84439	1.86648	3.712			1.27599	2.53373	1.33056	2.64304	1.62616	3.2243	2.13493	4.24933		
0.931043	2.55985	1.28094	2.53103	0.932619	2.55826	1.3467	2.66088	1.43328	2.83673	1.86649	3.69507			1.28057	2.53123	1.33628	2.6423	1.62726	3.21179	2.13423	4.22852		
0.926726	2.56425	1.28553	2.52858	0.928304	2.56264	1.35249	2.6602	1.43603	2.82924	1.86653	3.67834			1.28516	2.52878	1.34204	2.64162	1.62839	3.19946	2.13355	4.20793		
0.9224	2.56868	1.29015	2.52619	0.923981	2.56706	1.35827	2.65949	1.43883	2.82194	1.86659	3.66183			1.28977	2.52638	1.34781	2.641	1.62956	3.18731	2.13288	4.18757		
0.918055	2.57311	1.29478	2.52385	0.919644	2.57149	1.36403	2.65875	1.4417	2.81481	1.86669	3.64552			1.2944	2.52404	1.35362	2.64043	1.63077	3.17534	2.13224	4.16743		
0.913685	2.57754	1.29943	2.52158	0.915285	2.57592	1.36976	2.65797	1.44462	2.80788	1.86682	3.62941			1.29905	2.52176	1.35944	2.63991	1.63201	3.16355	2.13162	4.14751		
0.909282	2.58192	1.3041	2.51936	0.910895	2.58033	1.37546	2.65714	1.44761	2.80112	1.86697	3.6135			1.30372	2.51954	1.36528	2.63943	1.6333	3.15194	2.13101	4.1278		
0.904838	2.58625	1.3088	2.51722	0.906466	2.58468	1.38114	2.65627	1.45067	2.79456	1.86716	3.59779			1.30842	2.51739	1.37114	2.63898	1.63461	3.14049	2.13043	4.10831		
0.900345	2.59049	1.31352	2.51515	0.901992	2.58895	1.38679	2.65535	1.45379	2.78818	1.86737	3.58228			1.31314	2.51531	1.37702	2.63857	1.63596	3.12922	2.12987	4.08903		
0.895798	2.59463	1.31828	2.51315	0.897465	2.59313	1.3924	2.65437	1.45699	2.782	1.86762	3.56696			1.31789	2.5133	1.38291	2.63819	1.63735	3.11811	2.12932	4.06996		
0.891188	2.59865	1.32306	2.51122	0.892879	2.5972	1.39797	2.65332	1.46025	2.77601	1.86789	3.55183			1.32268	2.51137	1.38881	2.63784	1.63878	3.10717	2.1288	4.0511		
0.886512	2.60252	1.32788	2.50937	0.888228	2.60112	1.40351	2.65221	1.4636	2.77022	1.8682	3.53689			1.32749	2.50951	1.39472	2.63751	1.64024	3.0964	2.12831	4.03244		
0.881765	2.60624	1.33272	2.50759	0.883507	2.6049	1.409	2.65103	1.46703	2.76463	1.86853	3.52214			1.33233	2.50773	1.40064	2.63721	1.64174	3.08578	2.12783	4.01399		
0.876945	2.60979	1.3376	2.50589	0.878714	2.60852	1.41445	2.64977	1.47054	2.75924	1.8689	3.50758			1.33721	2.50603	1.40658	2.63692	1.64327	3.07533	2.12737	3.99574		
0.87205	2.61317	1.34252	2.50428	0.873846	2.61196	1.41984	2.64843	1.47413	2.75407	1.86929	3.49319			1.34212	2.5044	1.41252	2.63665	1.64484	3.06503	2.12694	3.97769		
0.867079	2.61636	1.34747	2.50274	0.868903	2.61522	1.42518	2.647	1.47782	2.74911	1.86972	3.47899			1.34707	2.50286	1.41846	2.6364	1.64645	3.05489	2.12653	3.95984		
0.862034	2.61938	1.35245	2.50128	0.863885	2.6183	1.43046	2.64547	1.4816	2.74437	1.87018	3.46496			1.35205	2.50139	1.42442	2.63616	1.64809	3.04491	2.12615	3.94218		
0.856916	2.62221	1.35748	2.4999	0.858793	2.6212	1.43569	2.64385	1.48548	2.73984	1.87066	3.45111			1.35707	2.50001	1.43038	2.63593	1.64977	3.03507	2.12578	3.92472		
0.851728	2.62487	1.36254	2.4986	0.853631	2.62392	1.44084	2.64212	1.48946	2.73554	1.87118	3.43743			1.36213	2.4987	1.43634	2.63571	1.65149	3.02538	2.12545	3.90744		
0.846474	2.62736	1.36763	2.49738	0.8484	2.62647	1.44594	2.64029	1.49355	2.73146	1.87173	3.42393			1.36722	2.49747	1.44231	2.6355	1.65324	3.01585	2.12513	3.89036		
0.841157	2.62969	1.37277	2.49624	0.843106	2.62886	1.45097	2.63836	1.49773	2.72761	1.87231	3.41059			1.37235	2.49633	1.44828	2.63531	1.65503	3.00646	2.12484	3.87347		
0.835782	2.63187	1.37794	2.49517	0.837751	2.63109	1.45592	2.63631	1.50203	2.72399	1.87292	3.39742			1.37752	2.49526	1.45425	2.63511	1.65686	2.99721	2.12457	3.85676		
0.830352	2.63391	1.38315	2.49419	0.832341	2.63318	1.46082	2.63416	1.50643	2.72058	1.87356	3.38442			1.38273	2.49426	1.46023	2.63493	1.65872	2.98811	2.12433	3.84023		
0.824871	2.63582	1.3884	2.49327	0.826878	2.63513	1.46564	2.63192	1.51093	2.7174	1.87424	3.37158			1.38797	2.49334	1.46621	2.63474	1.66062	2.97915	2.12411	3.82389		
0.819344	2.6376	1.39368	2.49243	0.821368	2.63696	1.47041	2.62957	1.51554	2.71442	1.87494	3.35891			1.39325	2.4925	1.47219	2.63457	1.66255	2.97033	2.12392	3.80772		
0.813775	2.63928	1.399	2.49167	0.815814	2.63868	1.47511	2.62714	1.52026	2.71166	1.87567	3.34639			1.39857	2.49173	1.47817	2.63439	1.66453	2.96164	2.12375	3.79173		
0.808167	2.64085	1.40436	2.49097	0.810219	2.64029	1.47976	2.62463	1.52507	2.70909	1.87644	3.33403			1.40393	2.49103	1.48415	2.63422	1.66654	2.9531	2.12361	3.77592		
0.802523	2.64233	1.40975	2.49035	0.804588	2.6418	1.48435	2.62206	1.52997	2.70671	1.87724	3.32183			1.40932	2.4904	1.49013	2.63405	1.66859	2.94469	2.12349	3.76029		
0.796847	2.64373	1.41518	2.48979	0.798923	2.64323	1.4889	2.61942	1.53497	2.7045	1.87807	3.30978			1.41474	2.48983	1.49611	2.63387	1.67067	2.93641	2.12339	3.74482		
0.791141	2.64505	1.42064	2.4893	0.793228	2.64458	1.49342	2.61674	1.54004	2.70246	1.87893	3.29789			1.4202	2.48933	1.50209	2.6337	1.67279	2.92826	2.12333	3.72953		
0.785409	2.6463	1.42614	2.48887	0.787505	2.64585	1.4979	2.61402	1.5452	2.70058	1.87982	3.28614			1.4257	2.4889	1.50807	2.63353	1.67495	2.92025	2.12329	3.7144		
0.779652	2.64748	1.43167	2.4885	0.781757	2.64706	1.50235	2.61128	1.55043	2.69884	1.88074	3.27455			1.43122	2.48852	1.51404	2.63335	1.67715	2.91236	2.12327	3.69944		
0.773873	2.64861	1.43723	2.48818	0.775986	2.64821	1.50679	2.60854	1.55573	2.69723	1.88169	3.2631			1.43678	2.48821	1.52002	2.63317	1.67939	2.90461	2.12328	3.68464		
0.768074	2.64969	1.44283	2.48793	0.770194	2.6493	1.51122	2.6058	1.56109	2.69574	1.88268	3.2518			1.44237	2.48795	1.52599	2.63299	1.68166	2.89698	2.12332	3.67001		
0.762257	2.65072	1.44845	2.48773	0.764383	2.65035	1.51565	2.60308	1.56651	2.69436	1.8837	3.24064			1.448	2.48774	1.53195	2.63281	1.68397	2.88947	2.12338	3.65554		
0.756423	2.65171	1.4541	2.48758	0.758555	2.65136	1.52009	2.60039	1.57199	2.69309	1.88474	3.22962			1.45364	2.48759	1.53792	2.63262	1.68632	2.88209	2.12347	3.64123		
0.750574	2.65266	1.45978	2.48747	0.752711	2.65232	1.52454	2.59776	1.57751	2.69191	1.88582	3.21874			1.45932	2.48748	1.54388	2.63242	1.68871	2.87484	2.12358	3.62708		
0.74471	2.65358	1.46549	2.48742	0.746853	2.65325	1.52902	2.59518	1.58307	2.6908	1.88693	3.20801			1.46503	2.48742	1.54983	2.63221	1.69113	2.8677	2.12373	3.61308		
0.738835	2.65447	1.47122	2.48741	0.740982	2.65415	1.53353	2.59269	1.58867	2.68978	1.88808	3.19741			1.47076	2.48741	1.55578	2.632	1.6936	2.86069	2.12389	3.59924		
0.732948	2.65533	1.47698	2.48744	0.735099	2.65502	1.53809	2.59029	1.59431	2.68883	1.88925	3.18694			1.47652	2.48744	1.56172	2.63178	1.69611	2.8538	2.12409	3.58555		
0.72705	2.65617	1.48276	2.48751	0.729205	2.65587	1.5427	2.588	1.59999	2.68793	1.89046	3.17661			1.4823	2.48751	1.56766	2.63156	1.69865	2.84703	2.12431	3.57201		
0.721143	2.65699	1.48857	2.48762	0.723301	2.65669	1.54739	2.58585	1.60569	2.6871	1.8917	3.16641			1.4881	2.48761	1.57359	2.63132	1.70124	2.84038	2.12456	3.55862		
0.715228	2.65779	1.4944	2.48777	0.717389	2.6575	1.55215	2.58384	1.61142	2.68631	1.89296	3.15635			1.49393	2.48776	1.57951	2.63107	1.70386	2.83385	2.12484	3.54538		
0.709304	2.65857	1.50024	2.48795	0.711468	2.65829	1.557	2.582	1.61717	2.68557	1.89426	3.14641			1.49977	2.48793	1.58542	2.63081	1.70653	2.82744	2.12514	3.53229		
0.703374	2.65934	1.50611	2.48816	0.705541	2.65906	1.56195	2.58034	1.62295	2.68488	1.8956	3.1366			1.50564	2.48814	1.59133	2.63053	1.70924	2.82114	2.12547	3.51934		
0.697437	2.6601	1.512	2.4884	0.699606	2.65983	1.56702	2.57888	1.62875	2.68422	1.89696	3.12692			1.51153	2.48838	1.59722	2.63024	1.71199	2.81496	2.12583	3.50653		
0.691495	2.66086	1.51791	2.48867	0.693666	2.66058	1.57219	2.57761	1.63456	2.6836	1.89836	3.11736			1.51743	2.48865	1.60311	2.62994	1.71479	2.8089	2.12621	3.49387		
0.685548	2.6616	1.52383	2.48897	0.68772	2.66133	1.57748	2.57653	1.64039	2.68301	1.89978	3.10793			1.52336	2.48895	1.60898	2.62962	1.71763	2.80296	2.12662	3.48134		
0.679596	2.66234	1.52977	2.48929	0.68177	2.66207	1.58289	2.57565	1.64624	2.68245	1.90124	3.09862			1.5293	2.48927	1.61484	2.62928	1.72051	2.79713	2.12706	3.46896		
0.67364	2.66308	1.53573	2.48964	0.675815	2.66281	1.5884	2.57495	1.6521	2.68192	1.90273	3.08943			1.53525	2.48961	1.62068	2.62892	1.72344	2.79142	2.12753	3.45671		
0.66768	2.66382	1.5417	2.49001	0.669857	2.66355	1.594	2.57441	1.65798	2.68141	1.90425	3.08036			1.54122	2.48998	1.62651	2.62854	1.72641	2.78582	2.12802	3.4446		
0.661718	2.66456	1.54769	2.4904	0.663896	2.66429	1.59969	2.57401	1.66386	2.68093	1.90581	3.07141			1.54721	2.49036	1.63233	2.62814	1.72943	2.78035	2.12854	3.43262		
0.655753	2.66531	1.55369	2.4908	0.657932	2.66504	1.60546	2.57373	1.66976	2.68046	1.90739	3.06258			1.55321	2.49077	1.63813	2.62771	1.7325	2.77499	2.12909	3.42078		
0.649786	2.66606	1.5597	2.49123	0.651965	2.66578	1.6113	2.57357	1.67566	2.68002	1.90901	3.05386			1.55922	2.49119	1.64391	2.62726	1.73562	2.76974	2.12967	3.40907		
0.643817	2.66682	1.56573	2.49167	0.645997	2.66654	1.61719	2.57349	1.68158	2.67959	1.91066	3.04526			1.56525	2.49164	1.64967	2.62678	1.73879	2.76462	2.13027	3.39749		
0.637848	2.66759	1.57177	2.49213	0.640028	2.6673	1.62313	2.57349	1.6875	2.67917	1.91234	3.03677			1.57128	2.49209	1.65541	2.62627	1.74201	2.75962	2.1309	3.38603		
0.631877	2.66836	1.57782	2.4926	0.634057	2.66808	1.62911	2.57356	1.69343	2.67877	1.91405	3.02839			1.57733	2.49256	1.66113	2.62573	1.74529	2.75474	2.13156	3.37471		
0.625906	2.66916	1.58388	2.49309	0.628086	2.66887	1.63512	2.57368	1.69937	2.67839	1.9158	3.02013			1.58339	2.49305	1.66682	2.62515	1.74862	2.74998	2.13225	3.36351		
0.619935	2.66997	1.58995	2.49359	0.622115	2.66967	1.64116	2.57384	1.70531	2.67801	1.91757	3.01197			1.58946	2.49355	1.67248	2.62454	1.752	2.74534	2.13296	3.35243		
0.613964	2.67079	1.59603	2.4941	0.616145	2.67049	1.64723	2.57404	1.71126	2.67765	1.91938	3.00392			1.59554	2.49406	1.67812	2.62388	1.75545	2.74083	2.13371	3.34148		
0.607995	2.67164	1.60212	2.49462	0.610175	2.67133	1.65332	2.57427	1.71721	2.6773	1.92122	2.99598			1.60163	2.49458	1.68373	2.62318	1.75895	2.73645	2.13448	3.33065		
0.602026	2.67251	1.60822	2.49516	0.604206	2.67219	1.65942	2.57453	1.72317	2.67695	1.92309	2.98815			1.60773	2.49511	1.6893	2.62244	1.76252	2.73219	2.13528	3.31995		
0.59606	2.67341	1.61433	2.4957	0.598239	2.67308	1.66554	2.57481	1.72913	2.67662	1.92499	2.98042			1.61384	2.49565	1.69484	2.62165	1.76615	2.72806	2.1361	3.30936		
0.590096	2.67434	1.62045	2.49625	0.592274	2.674	1.67168	2.5751	1.73509	2.67629	1.92693	2.97279			1.61995	2.4962	1.70035	2.62081	1.76985	2.72407	2.13696	3.29889		
0.584135	2.6753	1.62657	2.49681	0.586311	2.67494	1.67782	2.57541	1.74106	2.67597	1.9289	2.96527			1.62608	2.49676	1.70581	2.61991	1.77362	2.7202	2.13784	3.28854		
0.578177	2.67629	1.6327	2.49737	0.580352	2.67593	1.68397	2.57574	1.74703	2.67566	1.93089	2.95785			1.63221	2.49733	1.71123	2.61896	1.77746	2.71648	2.13875	3.2783		
0.572223	2.67733	1.63884	2.49795	0.574397	2.67695	1.69014	2.57607	1.753	2.67535	1.93293	2.95054			1.63835	2.4979	1.71661	2.61795	1.78137	2.71289	2.13969	3.26818		
0.566274	2.67841	1.64498	2.49853	0.568446	2.67801	1.69631	2.57641	1.75897	2.67504	1.93499	2.94332			1.64449	2.49848	1.72194	2.61687	1.78535	2.70944	2.14065	3.25817		
0.560329	2.67954	1.65114	2.49911	0.562499	2.67912	1.70248	2.57676	1.76494	2.67474	1.93709	2.9362			1.65064	2.49906	1.72723	2.61573	1.78942	2.70613	2.14164	3.24827		
0.554391	2.68072	1.65729	2.4997	0.556559	2.68028	1.70866	2.57711	1.77092	2.67445	1.93921	2.92918			1.6568	2.49965	1.73246	2.61452	1.79356	2.70296	2.14267	3.23849		
0.548459	2.68196	1.66346	2.5003	0.550624	2.6815	1.71484	2.57747	1.77689	2.67415	1.94137	2.92226			1.66296	2.50025	1.73765	2.61325	1.79778	2.69993	2.14371	3.22882		
0.542534	2.68326	1.66963	2.5009	0.544697	2.68278	1.72103	2.57783	1.78287	2.67386	1.94357	2.91544			1.66913	2.50085	1.74278	2.6119	1.80208	2.69704	2.14479	3.21925		
0.536618	2.68464	1.6758	2.5015	0.538778	2.68413	1.72722	2.57819	1.78885	2.67357	1.94579	2.90871			1.67531	2.50145	1.74785	2.61048	1.80646	2.6943	2.1459	3.20979		
0.530712	2.6861	1.68198	2.50211	0.532868	2.68555	1.73341	2.57855	1.79482	2.67328	1.94805	2.90208			1.68148	2.50206	1.75288	2.60899	1.81092	2.69169	2.14703	3.20044		
0.524816	2.68764	1.68817	2.50272	0.526968	2.68707	1.73961	2.57892	1.8008	2.673	1.95034	2.89554			1.68767	2.50267	1.75785	2.60743	1.81547	2.68922	2.14819	3.1912		
0.518931	2.68929	1.69436	2.50333	0.521079	2.68867	1.7458	2.57928	1.80677	2.67271	1.95267	2.88909			1.69386	2.50328	1.76276	2.60581	1.82009	2.68689	2.14938	3.18206		
0.51306	2.69104	1.70055	2.50394	0.515203	2.69038	1.752	2.57964	1.81274	2.67242	1.95503	2.88274			1.70005	2.5039	1.76762	2.60411	1.8248	2.68469	2.1506	3.17302		
0.507204	2.69291	1.70675	2.50456	0.509341	2.69221	1.7582	2.58	1.81871	2.67214	1.95742	2.87648			1.70625	2.50451	1.77243	2.60235	1.82958	2.68262	2.15184	3.16408		
0.501364	2.69492	1.71295	2.50518	0.503494	2.69417	1.7644	2.58036	1.82468	2.67185	1.95985	2.87031			1.71245	2.50513	1.77719	2.60053	1.83444	2.68067	2.15312	3.15525		
0.495542	2.69708	1.71916	2.5058	0.497666	2.69627	1.77059	2.58071	1.83065	2.67156	1.96231	2.86424			1.71866	2.50575	1.7819	2.59865	1.83937	2.67885	2.15442	3.14652		
0.489742	2.69941	1.72537	2.50642	0.491857	2.69854	1.77679	2.58107	1.83661	2.67126	1.9648	2.85825			1.72487	2.50637	1.78657	2.59671	1.84469	2.67759	2.15574	3.13788		
0.483964	2.70193	1.73158	2.50705	0.486071	2.70098	1.78299	2.58142	1.84257	2.67097	1.96733	2.85236			1.73108	2.507	1.79119	2.59473	1.84944	2.67553	2.1571	3.12935		
0.478213	2.70466	1.7378	2.50767	0.48031	2.70364	1.78919	2.58177	1.84853	2.67067	1.96989	2.84655			1.7373	2.50762	1.79578	2.59271	1.85457	2.67403	2.15849	3.12091		
0.472491	2.70764	1.74402	2.50829	0.474577	2.70652	1.79538	2.58211	1.85448	2.67036	1.97249	2.84084			1.74352	2.50824	1.80032	2.59064	1.85977	2.67263	2.1599	3.11257		
0.466803	2.71089	1.75024	2.50892	0.468877	2.70966	1.80158	2.58245	1.86042	2.67005	1.97513	2.83521			1.74974	2.50887	1.80484	2.58854	1.86502	2.67131	2.16134	3.10432		
0.461153	2.71445	1.75647	2.50954	0.463212	2.71311	1.80777	2.58278	1.86636	2.66974	1.9778	2.82967			1.75597	2.50949	1.80932	2.58641	1.87032	2.67009	2.16281	3.09617		
0.455546	2.71836	1.76269	2.51017	0.457588	2.71689	1.81396	2.58311	1.8723	2.66942	1.98051	2.82422			1.76219	2.51012	1.81378	2.58426	1.87568	2.66894	2.1643	3.08811		
0.449988	2.72268	1.76893	2.51079	0.452011	2.72105	1.82015	2.58344	1.87823	2.66909	1.98326	2.81887			1.76842	2.51074	1.81822	2.58209	1.88108	2.66787	2.16583	3.08014		
0.444485	2.72746	1.77516	2.51141	0.446487	2.72566	1.82634	2.58376	1.88415	2.66875	1.98604	2.8136			1.77466	2.51136	1.82263	2.57991	1.88652	2.66686	2.16738	3.07227		
0.439045	2.73278	1.7814	2.51203	0.441024	2.73077	1.83252	2.58407	1.89006	2.6684	1.98886	2.80842			1.78089	2.51198	1.82703	2.57771	1.89201	2.66592	2.16896	3.06448		
0.433677	2.7387	1.78763	2.51266	0.435628	2.73646	1.8387	2.58438	1.89596	2.66805	1.99173	2.80333			1.78713	2.51261	1.83141	2.57551	1.89753	2.66504	2.17056	3.05679		
0.428391	2.74532	1.79387	2.51327	0.430311	2.74281	1.84488	2.58468	1.90185	2.66768	1.99463	2.79832			1.79337	2.51322	1.83578	2.57331	1.90309	2.66422	2.1722	3.04918		
0.423199	2.75275	1.80012	2.51389	0.425083	2.74993	1.85106	2.58498	1.90774	2.6673	1.99758	2.79341			1.79961	2.51384	1.84015	2.57111	1.90868	2.66344	2.17386	3.04166		
0.418112	2.7611	1.80636	2.51451	0.419957	2.75794	1.85723	2.58527	1.91361	2.6669	2.00056	2.78859			1.80586	2.51446	1.84451	2.56892	1.9143	2.66271	2.17555	3.03423		
0.413145	2.77052	1.8126	2.51512	0.414944	2.76695	1.8634	2.58555	1.91947	2.66649	2.00359	2.78386			1.8121	2.51507	1.84886	2.56674	1.91995	2.66202	2.17727	3.02689		
0.408313	2.78115	1.81885	2.51574	0.410061	2.77712	1.86956	2.58582	1.92531	2.66607	2.00667	2.77923			1.81835	2.51569	1.85321	2.56456	1.92562	2.66137	2.17902	3.01963		
0.403632	2.79316	1.8251	2.51635	0.405323	2.78861	1.87572	2.58609	1.93114	2.66562	2.00979	2.77468			1.82459	2.5163	1.85756	2.5624	1.93132	2.66076	2.18079	3.01246		
0.399119	2.80675	1.83134	2.51695	0.400747	2.80159	1.88188	2.58635	1.93696	2.66516	2.01296	2.77024			1.83084	2.5169	1.86192	2.56026	1.93704	2.66018	2.1826	3.00537		
0.394788	2.82209	1.83759	2.51756	0.396348	2.81627	1.88803	2.5866	1.94275	2.66467	2.01618	2.76588			1.83709	2.51751	1.86628	2.55814	1.94277	2.65963	2.18443	2.99836		
0.390658	2.83939	1.84384	2.51816	0.392142	2.83283	1.89417	2.58684	1.94853	2.66416	2.01945	2.76163			1.84334	2.51811	1.87064	2.55604	1.94853	2.65911	2.18628	2.99144		
0.38674	2.85886	1.85009	2.51875	0.388145	2.85149	1.90031	2.58707	1.95428	2.66362	2.02278	2.75747			1.84959	2.5187	1.87502	2.55396	1.9543	2.65861	2.18817	2.9846		
0.383047	2.8807	1.85634	2.51934	0.384369	2.87243	1.90644	2.58729	1.96001	2.66306	2.02616	2.75342			1.85583	2.5193	1.8794	2.55191	1.96008	2.65814	2.19008	2.97783		
0.379588	2.9051	1.86258	2.51993	0.380824	2.89588	1.91257	2.5875	1.96572	2.66246	2.02959	2.74947			1.86208	2.51988	1.88379	2.54989	1.96588	2.65769	2.19202	2.97115		
0.376369	2.93224	1.86883	2.52051	0.377517	2.922	1.91868	2.5877	1.97139	2.66184	2.03309	2.74563			1.86832	2.52046	1.8882	2.54789	1.9717	2.65725	2.19399	2.96455		
0.373394	2.96232	1.87507	2.52108	0.374452	2.95098	1.92479	2.58788	1.97704	2.66117	2.03665	2.74189			1.87456	2.52103	1.89262	2.54593	1.97752	2.65684	2.19599	2.95803		
0.370663	2.99548	1.8813	2.52164	0.371632	2.983	1.93089	2.58805	1.98266	2.66047	2.04028	2.73827			1.8808	2.52159	1.89705	2.544	1.98335	2.65644	2.19802	2.95158		
0.368173	3.03189	1.88753	2.52219	0.369054	3.01821	1.93698	2.58821	1.98824	2.65972	2.04397	2.73476			1.88703	2.52214	1.90151	2.54211	1.9892	2.65606	2.20007	2.94521		
0.365921	3.07172	1.89375	2.52272	0.366716	3.05677	1.94306	2.58836	1.99378	2.65893	2.04774	2.73136			1.89325	2.52268	1.90599	2.54027	1.99505	2.65569				
0.363902	3.11511	1.89995	2.52322	0.364613	3.09884	1.94913	2.58849	1.99928	2.65809	2.05158	2.72809			1.89945	2.52318	1.9105	2.53847	2.00091	2.65533				
0.36211	3.16223	1.90613	2.5237	0.362739	3.14458	1.95519	2.5886	2.00475	2.6572	2.0555	2.72495			1.90563	2.52366	1.91505	2.53673	2.00677	2.65499				
0.360539	3.21325	1.91227	2.52411	0.361087	3.19416	1.96123	2.58869	2.01016	2.65625	2.0595	2.72192			1.91178	2.52408	1.91965	2.53508	2.01264	2.65465				
0.359182	3.26837	1.91834	2.52444	0.359653	3.24776	1.96726	2.58877	2.01553	2.65526	2.06359	2.71903			1.91786	2.52442	1.92432	2.53353	2.01852	2.65433				
0.358033	3.32779	1.9243	2.52462	0.358429	3.30558	1.97328	2.58882	2.02086	2.6542	2.06776	2.71627			1.92383	2.52461	1.92911	2.53215	2.0244	2.65401				
0.357085	3.39172	1.93007	2.52455	0.357408	3.36783	1.97928	2.58885	2.02613	2.65309	2.07202	2.71365			1.92962	2.52456	1.9341	2.53103	2.03029	2.6537				
0.356332	3.46041	1.93556	2.52411	0.356585	3.43476	1.98525	2.58886	2.03136	2.65192	2.07638	2.71115			1.93513	2.52416	1.93938	2.5303	2.03618	2.6534				
0.355769	3.53413	1.94075	2.52328	0.355953	3.50661	1.99121	2.58884	2.03653	2.65069	2.08082	2.7088			1.94034	2.52336	1.94497	2.52998	2.04207	2.6531				
0.35539	3.61318	1.94571	2.52217	0.355507	3.58367	1.99715	2.58879	2.04166	2.64941	2.08536	2.70657			1.94532	2.52226	1.95083	2.53	2.04797	2.6528				
0.355188	3.69788	1.95054	2.52089	0.355241	3.66627	2.00306	2.58871	2.04674	2.64807	2.08999	2.70448			1.95016	2.521	1.95684	2.53023	2.05387	2.65252				
0.355159	3.78858	1.95531	2.51954	0.35515	3.75473	2.00895	2.5886	2.05178	2.64669	2.09471	2.70252			1.95493	2.51965	1.96295	2.53058	2.05976	2.65223				
0.355296	3.88569	1.96004	2.51815	0.355227	3.84946	2.01481	2.58845	2.05678	2.64527	2.09952	2.70069			1.95966	2.51826	1.96912	2.531	2.06566	2.65195				
0.355595	3.98963	1.96477	2.51676	0.355467	3.95085	2.02063	2.58826	2.06175	2.64381	2.10442	2.69898			1.96439	2.51687	1.97531	2.53145	2.07156	2.65166				
0.356049	4.10089	1.96948	2.51537	0.355865	4.05938	2.02642	2.58803	2.06669	2.64232	2.1094	2.69739			1.9691	2.51548	1.98153	2.53194	2.07746	2.65138				
0.356654	4.22001	1.97421	2.51399	0.356416	4.17556	2.03218	2.58776	2.0716	2.64082	2.11446	2.6959			1.97383	2.5141	1.98777	2.53244	2.08336	2.6511				
0.357403	4.34757	1.97894	2.51263	0.357113	4.29996	2.03789	2.58743	2.07651	2.63931	2.1196	2.69453			1.97856	2.51274	1.99401	2.53295	2.08926	2.65082				
0.35829	4.48422	1.98369	2.5113	0.35795	4.43322	2.04356	2.58705	2.0814	2.63779	2.12481	2.69325			1.9833	2.51141	2.00026	2.53346	2.09515	2.65054				
0.35931	4.63071	1.98844	2.50999	0.358922	4.57603	2.04919	2.58662	2.0863	2.63629	2.13009	2.69206			1.98806	2.5101	2.00652	2.53398	2.10104	2.65026				
0.360455	4.78786	1.99322	2.50871	0.360023	4.72918	2.05476	2.58612	2.09121	2.63481	2.13542	2.69096			1.99283	2.50881	2.01278	2.53451	2.10693	2.64998				
0.361721	4.95658	1.99801	2.50746	0.361245	4.89356	2.06028	2.58556	2.09613	2.63335	2.14082	2.68994			1.99762	2.50756	2.01905	2.53503	2.11282	2.64969				
0.363099	5.13791	2.00281	2.50623	0.362583	5.07016	2.06575	2.58493	2.10107	2.63194	2.14627	2.68899			2.00243	2.50633	2.02532	2.53556	2.1187	2.6494				
0.364386	5.30712	2.00764	2.50503	0.364029	5.26009	2.07115	2.58424	2.10605	2.63057	2.15177	2.68811			2.00725	2.50513	2.03159	2.53608	2.12458	2.64911				
0.365543	5.46029	2.01248	2.50386	0.365576	5.46464	2.0765	2.58347	2.11107	2.62926	2.15731	2.68729			2.01209	2.50396	2.03786	2.5366	2.13045	2.64881				
0.366539	5.5936	2.01733	2.50273	0.367217	5.68526	2.08178	2.58262	2.11612	2.628	2.1629	2.68653			2.01694	2.50282	2.04413	2.53713	2.13632	2.64851				
0.367351	5.70353	2.02221	2.50161	0.368943	5.92359	2.08699	2.5817	2.12123	2.62681	2.16852	2.68581			2.02182	2.5017	2.05041	2.53765	2.14218	2.6482				
0.36796	5.78703	2.02711	2.50053	0.370747	6.18156	2.09215	2.58071	2.12638	2.6257	2.17418	2.68514			2.02671	2.50062	2.05669	2.53817	2.14803	2.64788				
0.36853	5.86594	2.03202	2.49948	0.372619	6.46136	2.09723	2.57964	2.13159	2.62465	2.17986	2.68452			2.03163	2.49956	2.06296	2.53869	2.15388	2.64756				
0.368932	5.92205	2.03695	2.49846	0.374552	6.76558	2.10226	2.5785	2.13686	2.62368	2.18558	2.68393			2.03656	2.49854	2.06924	2.5392	2.15972	2.64723				
0.369567	6.01177	2.04191	2.49746	0.376536	7.09721	2.10722	2.5773	2.14218	2.62278	2.19132	2.68338			2.04151	2.49754	2.07552	2.53971	2.16555	2.64688				
0.370447	6.13798	2.04688	2.4965	0.378298	7.41132	2.11213	2.57603	2.14756	2.62196	2.19709	2.68286			2.04648	2.49657	2.0818	2.54022	2.17137	2.64653				
0.371583	6.30488	2.05187	2.49556	0.37982	7.6997	2.11698	2.5747	2.15299	2.62121	2.20288	2.68237			2.05146	2.49563	2.08808	2.54073	2.17717	2.64617				
0.372989	6.51831	2.05687	2.49465	0.38109	7.95399	2.12178	2.57331	2.15847	2.62052					2.05647	2.49472	2.09436	2.54124	2.18297	2.64579				
0.37468	6.78633	2.0619	2.49377	0.382099	8.16606	2.12653	2.57188	2.16401	2.61991					2.0615	2.49384	2.10063	2.54174	2.18875	2.6454				
0.376666	7.11987	2.06695	2.49292	0.382843	8.32864	2.13124	2.5704	2.16959	2.61935					2.06654	2.49298	2.10691	2.54224	2.19452	2.645				
0.378694	7.48463	2.07202	2.49209	0.383528	8.48347	2.13591	2.56888	2.17522	2.61885					2.07161	2.49216	2.11319	2.54274	2.20028	2.64458				
0.380752	7.88489	2.0771	2.49129	0.384005	8.59428	2.14054	2.56733	2.1809	2.6184					2.07669	2.49136	2.11947	2.54323						
0.38283	8.32575	2.0822	2.49052	0.384751	8.77277	2.14514	2.56575	2.18661	2.61801					2.08179	2.49058	2.12575	2.54372						
0.384917	8.81342	2.08733	2.48978	0.385765	9.02656	2.14972	2.56415	2.19235	2.61766					2.08691	2.48984	2.13203	2.54421						
0.387003	9.35544	2.09247	2.48906	0.387046	9.36719	2.15427	2.56253	2.19813	2.61735					2.09205	2.48912	2.1383	2.54469						
0.389076	9.96117	2.09763	2.48837	0.388587	9.81151	2.15881	2.56089	2.20394	2.61707					2.09721	2.48842	2.14458	2.54517						
0.391123	10.6423	2.10281	2.4877	0.390379	10.3839	2.16332	2.55925							2.10239	2.48776	2.15085	2.54565						
0.393133	11.4136	2.10801	2.48706	0.392404	11.1203	2.16783	2.55759							2.10759	2.48711	2.15713	2.54612						
0.395094	12.294	2.11322	2.48645	0.394384	11.9584	2.17232	2.55594							2.1128	2.4865	2.1634	2.54659						
0.396992	13.3087	2.11846	2.48586	0.396307	12.9207	2.1768	2.55428							2.11804	2.48591	2.16968	2.54706						
0.398816	14.4907	2.12371	2.48529	0.398159	14.037	2.18128	2.55262							2.12329	2.48534	2.17595	2.54752						
0.400552	15.8856	2.12898	2.48475	0.399929	15.3479	2.18576	2.55097							2.12856	2.48479	2.18222	2.54798						
0.402188	17.5571	2.13427	2.48423	0.401603	16.9095	2.19023	2.54932							2.13384	2.48428	2.18849	2.54843						
0.403711	19.5976	2.13958	2.48374	0.403168	18.8021	2.1947	2.54768							2.13915	2.48378	2.19476	2.54888						
0.40511	22.146	2.1449	2.48327	0.404614	21.1449	2.19917	2.54606							2.14447	2.48331	2.20103	2.54933						
0.406373	25.4217	2.15024	2.48282	0.405928	24.1223	2.20365	2.54444							2.14981	2.48286								
0.407489	29.7919	2.1556	2.4824	0.407099	28.0361									2.15517	2.48243								
0.40845	35.922	2.16098	2.48199	0.408118	33.4163									2.16054	2.48202								
0.409245	45.1552	2.16637	2.48161	0.408974	41.2866									2.16594	2.48164								
0.409869	60.6703	2.17178	2.48125	0.409662	53.9146									2.17134	2.48128								
0.410315	92.2411	2.17721	2.48091	0.410173	77.5236									2.17677	2.48094								
0.410579	191.779	2.18265	2.48059	0.410504	137.589									2.18221	2.48061								
		2.18811	2.48029	0.410651	607.334									2.18767	2.48031								
		2.19358	2.48001											2.19314	2.48003								
		2.19908	2.47975											2.19863	2.47977								
		2.20458	2.47951											2.20414	2.47953								
