Sym0		Asym0		Sym1		Sym2		Sym3		Sym4		Sym5		Asym1		Asym2		Asym3		Asym4		Asym5	
399  Points		396  Points		399  Points		388  Points		372  Points		362  Points		165  Points		396  Points		391  Points		378  Points		362  Points		173  Points	
Freq (MHz)	Vph (m/ms)	Freq (MHz)	Vph (m/ms)	Freq (MHz)	Vph (m/ms)	Freq (MHz)	Vph (m/ms)	Freq (MHz)	Vph (m/ms)	Freq (MHz)	Vph (m/ms)	Freq (MHz)	Vph (m/ms)	Freq (MHz)	Vph (m/ms)	Freq (MHz)	Vph (m/ms)	Freq (MHz)	Vph (m/ms)	Freq (MHz)	Vph (m/ms)	Freq (MHz)	Vph (m/ms)
2.20176	2.42725	0.346113	1085.91	2.20104	2.42727	0.692291	368.791	1.04741	911.97	1.38445	1180.52	1.7457	6853.08	0.346322	150.951	0.698261	433.039	1.03833	2512.43	1.39656	248590	1.73056	1554.18
2.19632	2.42742	0.346388	131.901	2.1956	2.42744	0.692577	165.507	1.04736	303.063	1.38457	397.848	1.74567	681.338	0.346963	75.3996	0.698172	178.111	1.03843	381.682	1.39654	603.774	1.73065	505.908
2.19089	2.42761	0.34709	70.3535	2.19017	2.42764	0.69308	106.759	1.04725	181.711	1.3848	239.273	1.74561	358.477	0.348027	50.3726	0.69801	112.089	1.03868	206.577	1.39647	302.24	1.73084	302.157
2.18548	2.42782	0.348215	48.0898	2.18476	2.42785	0.693795	78.846	1.0471	129.741	1.38514	171.112	1.74551	243.212	0.349505	37.9219	0.697777	81.7581	1.03908	141.651	1.39636	201.559	1.73113	215.43
2.18008	2.42805	0.349751	36.6296	2.17937	2.42808	0.694719	62.5492	1.04689	100.875	1.3856	133.201	1.74538	184.028	0.351384	30.4919	0.697476	64.3307	1.03962	107.812	1.39621	151.184	1.73151	167.407
2.1747	2.4283	0.351686	29.6639	2.17399	2.42834	0.695846	51.874	1.04664	82.507	1.38617	109.063	1.7452	148.003	0.353648	25.5688	0.697113	53.0146	1.0403	87.0528	1.39603	120.946	1.73197	136.91
2.16935	2.42858	0.354005	24.9948	2.16864	2.42862	0.697168	44.3447	1.04635	69.7897	1.38684	92.3504	1.745	123.767	0.35628	22.0762	0.696692	45.0734	1.04112	73.0221	1.3958	100.78	1.73253	115.827
2.16401	2.42887	0.356688	21.6562	2.1633	2.42891	0.698678	38.7531	1.04602	60.4626	1.38761	80.0952	1.74477	106.346	0.359259	19.4762	0.69622	39.1923	1.04208	62.9082	1.39555	86.372	1.73317	100.385
2.15869	2.42919	0.359715	19.1563	2.15798	2.42924	0.700367	34.4392	1.04566	53.329	1.38848	70.7258	1.74451	93.2199	0.362564	17.4701	0.695705	34.6611	1.04316	55.2742	1.39526	75.5633	1.7339	88.5879
2.15338	2.42953	0.363065	17.2189	2.15268	2.42958	0.702225	31.0119	1.04527	47.6964	1.38945	63.3314	1.74423	82.9742	0.366172	15.8785	0.695154	31.0628	1.04436	49.3093	1.39495	67.1546	1.7347	79.2824
2.1481	2.4299	0.366714	15.6764	2.1474	2.42995	0.70424	28.2248	1.04486	43.1361	1.3905	57.348	1.74392	74.7545	0.370057	14.5874	0.694578	28.136	1.04568	44.5212	1.39462	60.4264	1.73558	71.7554
2.14283	2.43029	0.370637	14.4216	2.14214	2.43034	0.706402	25.9149	1.04444	39.3685	1.39164	52.4076	1.74361	68.0138	0.374195	13.5208	0.693985	25.709	1.04711	40.5939	1.39427	54.9207	1.73653	65.5421
2.13759	2.4307	0.37481	13.3825	2.1369	2.43076	0.708698	23.9701	1.04402	36.2037	1.39285	48.2597	1.74328	62.386	0.378562	12.6259	0.693388	23.6641	1.04863	37.3151	1.39391	50.332	1.73754	60.3266
2.13237	2.43114	0.379207	12.5089	2.13167	2.4312	0.711116	22.3107	1.04359	33.508	1.39413	44.7282	1.74295	57.6165	0.383131	11.8652	0.692799	21.918	1.05025	34.5369	1.39356	46.4491	1.73861	55.8866
2.12716	2.4316	0.383803	11.7651	2.12647	2.43166	0.713642	20.8785	1.04318	31.1845	1.39548	41.6855	1.74262	53.5231	0.387876	11.211	0.69223	20.4101	1.05195	32.1531	1.3932	43.1209	1.73974	52.0614
2.12197	2.43209	0.388572	11.1244	2.12129	2.43215	0.716263	19.63	1.0428	29.1614	1.39688	39.0367	1.7423	49.9717	0.392773	10.6427	0.691696	19.0953	1.05372	30.0855	1.39286	40.2367	1.74091	48.7317
2.11681	2.4326	0.393488	10.5671	2.11613	2.43267	0.718964	18.5321	1.04244	27.3844	1.39833	36.7101	1.74198	46.8615	0.397794	10.1446	0.69121	17.9392	1.05556	28.2752	1.39253	37.7134	1.74213	45.8071
2.11167	2.43314	0.398526	10.0779	2.11099	2.43321	0.721733	17.5592	1.04212	25.8115	1.39982	34.6504	1.74169	44.1152	0.402916	9.70414	0.69079	16.9153	1.05745	26.677	1.39222	35.4876	1.74338	43.218
2.10654	2.43371	0.403659	9.64495	2.10586	2.43378	0.724553	16.6908	1.04185	24.4099	1.40135	32.814	1.74142	41.6729	0.408111	9.31179	0.690451	16.0028	1.05939	25.2558	1.39195	33.5098	1.74466	40.9098
2.10144	2.4343	0.408863	9.25883	2.10076	2.43438	0.727412	15.9109	1.04165	23.1534	1.4029	31.1665	1.74118	39.4868	0.413355	8.95972	0.690211	15.1852	1.06136	23.9836	1.39172	31.7411	1.74597	38.8391
2.09636	2.43492	0.414112	8.91202	2.09568	2.435	0.730293	15.2065	1.04152	22.0211	1.40448	29.68	1.74098	37.5189	0.418621	8.64167	0.690087	14.4489	1.06336	22.838	1.39154	30.1503	1.7473	36.9709
2.09129	2.43557	0.419379	8.59841	2.09063	2.43566	0.733184	14.5668	1.04147	20.9958	1.40606	28.332	1.74082	35.7384	0.423885	8.35249	0.6901	13.7833	1.06538	21.8009	1.39142	28.7121	1.74863	35.2769
2.08625	2.43625	0.424641	8.31301	2.08559	2.43634	0.736069	13.9831	1.04152	20.0634	1.40765	27.1039	1.74071	34.1199	0.429121	8.08793	0.690268	13.1793	1.0674	20.8574	1.39136	27.406	1.74997	33.7337
2.08124	2.43695	0.42987	8.05168	2.08057	2.43705	0.738934	13.4481	1.04167	19.2124	1.40924	25.9802	1.74066	32.6426	0.43364	7.87468	0.690612	12.6295	1.06941	19.9953	1.39137	26.2148	1.75132	32.3219
2.07624	2.43769	0.435042	7.81098	2.07558	2.43779	0.741766	12.9555	1.04194	18.433	1.41081	24.948	1.74067	31.2889	0.437448	7.70403	0.691153	12.1276	1.07142	19.2042	1.39146	25.1243	1.75265	31.0253
2.07126	2.43845	0.440132	7.58801	2.07061	2.43855	0.744549	12.5004	1.04234	17.7169	1.41237	23.9964	1.74075	30.0443	0.440559	7.56984	0.691911	11.6685	1.07339	18.4755	1.39164	24.1225	1.75397	29.8303
2.06631	2.43925	0.445115	7.38032	2.06566	2.43935	0.747272	12.0782	1.04288	17.0571	1.4139	23.1162	1.74091	28.8962	0.442989	7.4678	0.692908	11.2476	1.07534	17.802	1.39192	23.1995	1.75527	28.7252
2.06138	2.44007	0.449967	7.18585	2.06073	2.44018	0.749921	11.6852	1.04357	16.4477	1.4154	22.2994	1.74115	27.8341	0.444758	7.39489	0.694163	10.8612	1.07724	17.1774	1.3923	22.3464	1.75655	27.7001
2.05647	2.44092	0.454665	7.00283	2.05582	2.44104	0.752484	11.3182	1.04442	15.8834	1.41686	21.5394	1.74147	26.849	0.445882	7.34913	0.695696	10.5059	1.0791	16.5963	1.39279	21.5561	1.7578	26.7465
2.05158	2.44181	0.459187	6.82976	2.05093	2.44193	0.754949	10.9744	1.04544	15.36	1.41828	20.8303	1.74189	25.9329	0.447484	7.28452	0.697525	10.1788	1.08089	16.0542	1.39341	20.822	1.75901	25.8572
2.04671	2.44273	0.463514	6.66537	2.04607	2.44285	0.757307	10.6514	1.04664	14.8734	1.41964	20.1669	1.74241	25.0791	0.449209	7.21579	0.699668	9.87753	1.08262	15.5471	1.39414	20.1386	1.76018	25.0256
2.04187	2.44367	0.467627	6.50857	2.04123	2.4438	0.759546	10.3471	1.04803	14.4202	1.42095	19.5448	1.74303	24.2816	0.451524	7.12471	0.702139	9.5997	1.08428	15.0714	1.39501	19.5011	1.76131	24.2462
2.03705	2.44465	0.471513	6.35844	2.03641	2.44479	0.761659	10.0597	1.04961	13.9975	1.4222	18.9603	1.74376	23.5352	0.454396	7.01318	0.70495	9.34338	1.08585	14.6243	1.39602	18.9054	1.7624	23.5142
2.03225	2.44567	0.475157	6.21422	2.03161	2.4458	0.763637	9.78756	1.05139	13.6027	1.42338	18.4097	1.7446	22.8354	0.457782	6.88333	0.708109	9.10675	1.08735	14.203	1.39716	18.3476	1.76343	22.8253
2.02747	2.44671	0.47855	6.07527	2.02684	2.44685	0.765475	9.5293	1.05337	13.2333	1.4245	17.8903	1.74555	22.178	0.461619	6.73734	0.711624	8.88819	1.08875	13.8052	1.39845	17.8244	1.7644	22.1756
2.02271	2.44779	0.481688	5.94108	2.02209	2.44793	0.767167	9.28369	1.05556	12.8873	1.42554	17.3992	1.74662	21.5596	0.465829	6.57729	0.715495	8.68622	1.09005	13.4289	1.39989	17.333	1.76532	21.5619
2.01798	2.4489	0.484568	5.81122	2.01735	2.44905	0.76871	9.04966	1.05796	12.5627	1.42651	16.9341	1.74781	20.9768	0.469817	6.4243	0.719723	8.49946	1.09126	13.0722	1.40148	16.8707	1.76618	20.981
2.01327	2.45004	0.487192	5.68536	2.01265	2.45019	0.770099	8.82627	1.06058	12.2579	1.42741	16.493	1.74912	20.4269	0.47357	6.27754	0.724303	8.32665	1.09237	12.7336	1.40323	16.4352	1.76698	20.4305
2.00858	2.45121	0.489562	5.56322	2.00796	2.45137	0.771335	8.61267	1.0634	11.9713	1.42823	16.0739	1.75055	19.9072	0.477075	6.13633	0.729227	8.16663	1.09338	12.4115	1.40512	16.0244	1.76771	19.9079
2.00391	2.45242	0.491688	5.44462	2.00329	2.45259	0.772417	8.40812	1.06644	11.7015	1.42897	15.6752	1.75211	19.4154	0.480327	6.00008	0.734485	8.01831	1.09429	12.1048	1.40718	15.6363	1.76839	19.4111
1.99926	2.45366	0.49358	5.3294	1.99865	2.45383	0.773346	8.21197	1.06968	11.4472	1.42963	15.2953	1.75379	18.9495	0.483322	5.86834	0.739329	7.89783	1.0951	11.8122	1.40938	15.2693	1.769	18.9381
1.99464	2.45494	0.495249	5.21743	1.99403	2.45511	0.774032	8.04743	1.07312	11.2074	1.43022	14.933	1.75559	18.5075	0.486059	5.74074	0.743643	7.80108	1.0958	11.5328	1.41174	14.9219	1.76955	18.4873
1.99003	2.45625	0.496709	5.10864	1.98942	2.45642	0.774528	7.91159	1.07677	10.9808	1.43074	14.587	1.75751	18.0878	0.488541	5.61698	0.747335	7.72495	1.09641	11.2656	1.41425	14.5925	1.77003	18.0571
1.98544	2.45758	0.497977	5.00295	1.98484	2.45776	0.774877	7.8022	1.0806	10.7665	1.43118	14.2561	1.75955	17.6887	0.490774	5.49684	0.750331	7.66709	1.09692	11.0098	1.4169	14.2799	1.77046	17.6462
1.98088	2.45895	0.499067	4.90031	1.98027	2.45914	0.775115	7.71751	1.08462	10.5637	1.43156	13.9395	1.7617	17.3089	0.492769	5.38013	0.752575	7.62581	1.09734	10.7647	1.4197	13.9829	1.77084	17.2531
1.97633	2.46035	0.499998	4.80068	1.97573	2.46054	0.775269	7.65622	1.08881	10.3715	1.43187	13.6361	1.76396	16.9469	0.494534	5.26673	0.75403	7.59993	1.09768	10.5297	1.42263	13.7004	1.77116	16.8768
1.97179	2.46178	0.500784	4.70401	1.97119	2.46197	0.775359	7.61743	1.09317	10.1891	1.43212	13.3453	1.76634	16.6017	0.496086	5.15653	0.756145	7.56346	1.09794	10.3041	1.4257	13.4315	1.77143	16.5163
1.96726	2.46322	0.501443	4.61028	1.96666	2.46341	0.775474	7.56224	1.09769	10.0158	1.43232	13.0662	1.76881	16.2721	0.497437	5.04947	0.758476	7.52475	1.09812	10.0874	1.42889	13.1752	1.77166	16.1705
1.96272	2.46466	0.501991	4.51944	1.96212	2.46485	0.775584	7.50301	1.10235	9.85091	1.43247	12.7982	1.77139	15.957	0.498604	4.94549	0.761698	7.47362	1.09824	9.87903	1.4322	12.9306	1.77184	15.8386
1.95815	2.46607	0.502443	4.43145	1.95754	2.46624	0.775705	7.4237	1.10715	9.69389	1.43258	12.5406	1.77405	15.6556	0.499604	4.84453	0.765855	7.41133	1.0983	9.67869	1.43562	12.697	1.77199	15.5198
1.95347	2.46733	0.502813	4.34627	1.95283	2.46748	0.775814	7.32538	1.11207	9.54416	1.43265	12.2929	1.77681	15.367	0.500452	4.74655	0.770999	7.33937	1.09831	9.48591	1.43915	12.4736	1.77211	15.2134
1.94844	2.46818	0.503116	4.26385	1.94774	2.46824	0.775883	7.20934	1.1171	9.40117	1.4327	12.0547	1.77964	15.0904	0.501165	4.65152	0.777186	7.25932	1.09828	9.30035	1.44277	12.2599	1.77221	14.9187
1.94285	2.46831	0.503366	4.18414	1.94208	2.46829	0.775878	7.07707	1.12223	9.26444	1.43273	11.8253	1.78255	14.825	0.50176	4.5594	0.784473	7.17279	1.09823	9.1217	1.44648	12.055	1.77229	14.6351
1.93687	2.46795	0.503573	4.10709	1.93607	2.46788	0.775764	6.93018	1.12744	9.13351	1.43275	11.6045	1.78552	14.5701	0.502253	4.47015	0.791941	7.09146	1.09817	8.94965	1.45027	11.8585	1.77236	14.3621
1.93073	2.46738	0.50373	4.04208	1.92992	2.4673	0.775541	6.78827	1.13273	9.00795	1.43277	11.3918	1.78855	14.3251	0.502658	4.38373	0.799571	7.01485	1.09811	8.78396	1.45413	11.6699	1.77242	14.099
1.92454	2.46673	0.50385	3.98819	1.92371	2.46665	0.775218	6.6511	1.13807	8.88736	1.4328	11.1868	1.79163	14.0894	0.502989	4.30009	0.807343	6.9425	1.09806	8.6244	1.45804	11.4886	1.7725	13.8454
1.91831	2.46605	0.503944	3.94468	1.91749	2.46596	0.7748	6.51847	1.14346	8.77138	1.43286	10.9893	1.79476	13.8625	0.503261	4.21918	0.815238	6.874	1.09804	8.47077	1.462	11.3141	1.77259	13.601
1.91207	2.46534	0.504016	3.91094	1.91125	2.46525	0.774295	6.39018	1.14887	8.65964	1.43295	10.7989	1.79792	13.6437	0.503486	4.14096	0.823237	6.80897	1.09808	8.32289	1.466	11.146	1.7727	13.3652
1.90583	2.46463	0.504069	3.88649	1.905	2.46453	0.773712	6.26604	1.1543	8.55182	1.43309	10.6154	1.8011	13.4327	0.503675	4.06537	0.831319	6.74705	1.09817	8.1986	1.47002	10.9839	1.77284	13.1378
1.89959	2.4639	0.504103	3.87101	1.89876	2.46381	0.773057	6.14589	1.15973	8.4476	1.4333	10.4385	1.8043	13.2289	0.503841	3.99236	0.839464	6.68791	1.09829	8.09595	1.47406	10.8274	1.77303	12.9183
1.89334	2.46317	0.504152	3.84898	1.89251	2.46308	0.772337	6.02956	1.16513	8.34668	1.43357	10.2679	1.80751	13.0319	0.503993	3.92186	0.847653	6.63125	1.09844	8.01333	1.4781	10.6761	1.77327	12.7064
1.8871	2.46244	0.504205	3.82532	1.88627	2.46235	0.771559	5.91691	1.1705	8.2488	1.43394	10.1036	1.81071	12.8414	0.504141	3.85381	0.855863	6.57676	1.09859	7.94944	1.48213	10.5297	1.77358	12.5019
1.88085	2.46171	0.50428	3.79363	1.88003	2.46161	0.770731	5.80779	1.17514	8.16576	1.43441	9.94522	1.81391	12.6569	0.504293	3.78816	0.864073	6.52417	1.09873	7.90326	1.48614	10.3879	1.77396	12.3044
1.87462	2.46098	0.504379	3.75434	1.87379	2.46088	0.769858	5.70207	1.17905	8.09651	1.435	9.79266	1.81708	12.4782	0.504458	3.72484	0.872257	6.47319	1.09882	7.87407	1.49012	10.2504	1.77442	12.1138
1.86838	2.46024	0.504507	3.70799	1.86755	2.46015	0.768948	5.59963	1.18225	8.04024	1.43573	9.64576	1.82022	12.3048	0.504644	3.66379	0.880392	6.42356	1.09897	7.83258	1.49405	10.1169	1.77498	11.9297
1.86215	2.45951	0.504673	3.65519	1.86132	2.45941	0.768006	5.50035	1.18476	7.99634	1.43662	9.50435	1.82332	12.1364	0.504857	3.60494	0.888449	6.37503	1.09915	7.78813	1.49792	9.98707	1.77565	11.7519
1.85592	2.45878	0.50489	3.59666	1.8551	2.45868	0.767039	5.40411	1.18659	7.96438	1.43767	9.36832	1.82638	11.9729	0.505104	3.54824	0.8964	6.32732	1.09943	7.72876	1.50173	9.86073	1.77643	11.5803
1.8497	2.45805	0.505142	3.54026	1.84887	2.45795	0.766051	5.31082	1.18775	7.94406	1.43891	9.23751	1.82937	11.8138	0.50539	3.49362	0.904212	6.28018	1.09985	7.65545	1.50545	9.73764	1.77735	11.4145
1.84348	2.45732	0.505434	3.48594	1.84265	2.45722	0.765049	5.22036	1.18941	7.91503	1.44036	9.11182	1.8323	11.659	0.505721	3.44103	0.911851	6.23334	1.10047	7.56943	1.50908	9.61756	1.7784	11.2545
1.83726	2.45659	0.505772	3.43362	1.83644	2.45649	0.764037	5.13265	1.1912	7.88372	1.44202	8.99112	1.83515	11.5082	0.506101	3.39039	0.919281	6.18654	1.10136	7.47221	1.5126	9.50031	1.77961	11.1001
1.83106	2.45586	0.50616	3.38326	1.83023	2.45577	0.76302	5.04758	1.19361	7.84151	1.44392	8.87529	1.83792	11.3611	0.506536	3.34165	0.926461	6.13953	1.10263	7.36554	1.51601	9.38568	1.78098	10.951
1.82485	2.45514	0.506603	3.33479	1.82403	2.45505	0.762004	4.96507	1.19661	7.78871	1.44608	8.76422	1.8406	11.2177	0.507029	3.29475	0.933353	6.09205	1.10421	7.26413	1.51929	9.27351	1.78251	10.8071
1.81865	2.45442	0.507105	3.28815	1.81783	2.45433	0.760993	4.88503	1.20017	7.72568	1.44849	8.65778	1.84317	11.0776	0.507585	3.24963	0.939915	6.04386	1.10614	7.168	1.52243	9.16363	1.78423	10.6683
1.81246	2.45371	0.50767	3.24329	1.81164	2.45361	0.759991	4.80739	1.20423	7.65277	1.45118	8.55585	1.84564	10.9407	0.508206	3.20624	0.946107	5.99473	1.10846	7.07718	1.52542	9.05589	1.78614	10.5344
1.80628	2.453	0.5083	3.20014	1.80546	2.4529	0.759001	4.73207	1.20873	7.57036	1.45415	8.4583	1.84799	10.8069	0.508895	3.16453	0.951892	5.94448	1.1112	6.99168	1.52827	8.95017	1.78824	10.4051
1.8001	2.45229	0.509	3.15866	1.79928	2.4522	0.758029	4.65898	1.21304	7.48913	1.45698	8.37676	1.85023	10.6759	0.509656	3.12443	0.957239	5.89295	1.1144	6.91148	1.53095	8.84633	1.79054	10.2805
1.79392	2.45159	0.509772	3.11879	1.79311	2.45149	0.757078	4.58807	1.21715	7.40892	1.45956	8.30972	1.85234	10.5476	0.510491	3.0859	0.962122	5.84006	1.11809	6.83654	1.53346	8.74428	1.79304	10.1603
1.78776	2.45089	0.510618	3.08048	1.78694	2.4508	0.75615	4.51925	1.22103	7.32962	1.46182	8.25596	1.85433	10.422	0.511403	3.04888	0.966526	5.78575	1.12229	6.76676	1.53581	8.64391	1.79575	10.0443
1.7816	2.4502	0.51154	3.04368	1.78079	2.4501	0.75525	4.45247	1.22469	7.25111	1.46368	8.2145	1.85618	10.2989	0.512393	3.01333	0.970444	5.73006	1.12701	6.70199	1.53798	8.54515	1.79868	9.93248
1.77545	2.44951	0.512542	3.00834	1.77464	2.44942	0.754381	4.38767	1.2281	7.1733	1.4651	8.18459	1.85791	10.1781	0.513464	2.9792	0.973883	5.67307	1.13226	6.64203	1.53973	8.46035	1.80181	9.8246
1.76931	2.44883	0.513624	2.97441	1.76849	2.44874	0.753546	4.32477	1.23125	7.09612	1.46602	8.1657	1.8595	10.0597	0.514616	2.94645	0.976856	5.61492	1.13801	6.58663	1.54111	8.38895	1.80515	9.72053
1.76317	2.44816	0.514789	2.94184	1.76236	2.44807	0.752748	4.26372	1.23416	7.0195	1.46738	8.13889	1.86096	9.94346	0.515853	2.91501	0.979386	5.55578	1.14426	6.53551	1.54218	8.33051	1.8087	9.62012
1.75704	2.44749	0.516038	2.9106	1.75623	2.4474	0.751989	4.20448	1.2368	6.94341	1.46889	8.1102	1.86228	9.82935	0.517175	2.88487	0.981503	5.49586	1.15097	6.48835	1.54298	8.28468	1.81246	9.52322
1.75092	2.44683	0.517372	2.88064	1.75011	2.44674	0.751272	4.14697	1.23918	6.86782	1.47101	8.07192	1.86347	9.71731	0.518583	2.85597	0.983241	5.43536	1.15812	6.44481	1.54355	8.2512	1.81641	9.42967
1.74481	2.44618	0.518793	2.85191	1.74401	2.44609	0.750601	4.09115	1.24131	6.79273	1.47378	8.0247	1.86454	9.60728	0.520079	2.82827	0.984633	5.3745	1.16567	6.40457	1.5439	8.22986	1.82056	9.33934
1.73871	2.44554	0.520302	2.82438	1.73791	2.44545	0.749976	4.03698	1.24318	6.71813	1.47727	7.96934	1.86549	9.4992	0.521665	2.80173	0.985717	5.3135	1.17358	6.36731	1.54438	8.19931	1.8249	9.25206
1.73262	2.4449	0.5219	2.79801	1.73182	2.44482	0.749401	3.98439	1.2448	6.64406	1.48156	7.90671	1.86631	9.39304	0.523341	2.77633	0.986526	5.25253	1.18181	6.33273	1.54489	8.16628	1.82941	9.16769
1.72654	2.44428	0.52359	2.77277	1.72574	2.4442	0.748877	3.93336	1.24618	6.57052	1.48673	7.8378	1.86702	9.28875	0.525109	2.75202	0.987094	5.19177	1.19034	6.30054	1.54554	8.12163	1.83409	9.0861
1.72047	2.44367	0.525371	2.74862	1.71967	2.44359	0.748408	3.88382	1.24734	6.49756	1.49215	7.77187	1.86763	9.18631	0.526971	2.72878	0.987451	5.13137	1.19914	6.27048	1.54632	8.06562	1.83894	9.00714
1.71441	2.44307	0.527247	2.72553	1.71361	2.44299	0.747994	3.83575	1.24827	6.4252	1.49782	7.70876	1.86813	9.08567	0.528929	2.70658	0.987625	5.07147	1.20816	6.24233	1.54717	7.99856	1.84393	8.93067
1.70836	2.44248	0.529219	2.70347	1.70756	2.4424	0.747639	3.78909	1.249	6.3535	1.50372	7.64829	1.86855	8.98683	0.530985	2.6854	0.98764	5.01216	1.21738	6.21588	1.54806	7.92084	1.84907	8.85656
1.70232	2.4419	0.531289	2.68243	1.70152	2.44183	0.747343	3.74381	1.24954	6.28248	1.50984	7.5903	1.86888	8.88977	0.533144	2.66521	0.987519	4.95354	1.22678	6.19093	1.54895	7.83288	1.85433	8.78469
1.6963	2.44134	0.533463	2.66239	1.6955	2.44126	0.74711	3.69987	1.24989	6.21219	1.51615	7.53463	1.86913	8.79446	0.535409	2.64601	0.987282	4.89569	1.23633	6.16732	1.54969	7.74624	1.85971	8.71493
1.69028	2.44079	0.535744	2.64334	1.68949	2.44072	0.74694	3.65724	1.25007	6.14266	1.52264	7.48113	1.8693	8.71283	0.53779	2.62781	0.986947	4.83866	1.24601	6.1449	1.55029	7.66091	1.86449	8.65575
1.68428	2.44025	0.538142	2.62528	1.68349	2.44018	0.746835	3.61588	1.2501	6.07393	1.52931	7.42964	1.86941	8.6443	0.540296	2.61063	0.986529	4.78251	1.25581	6.12353	1.55078	7.57692	1.86862	8.60644
1.67829	2.43973	0.540668	2.60824	1.6775	2.43967	0.746797	3.57575	1.24999	6.00604	1.53612	7.38003	1.86949	8.58835	0.542946	2.59451	0.986041	4.72727	1.2657	6.1031	1.55115	7.49425	1.87207	8.56642
1.67232	2.43923	0.543341	2.59228	1.67153	2.43917	0.746829	3.53682	1.24974	5.93901	1.54308	7.33215	1.86954	8.54457	0.545769	2.57955	0.985498	4.67297	1.27567	6.08347	1.55143	7.41294	1.87482	8.53524
1.66636	2.43875	0.546192	2.57751	1.66557	2.43868	0.74693	3.49907	1.24937	5.87287	1.55015	7.28588	1.86956	8.51264	0.54881	2.56594	0.984908	4.61963	1.2857	6.06457	1.55161	7.33298	1.87686	8.51256
1.66041	2.43828	0.549269	2.56411	1.65963	2.43822	0.747104	3.46246	1.2489	5.80763	1.55733	7.2411	1.86958	8.49233	0.552142	2.55397	0.984282	4.56726	1.29577	6.04627	1.55173	7.25442	1.87816	8.49816
1.65449	2.43783	0.552652	2.55241	1.6537	2.43778	0.747352	3.42696	1.24832	5.74333	1.5646	7.19768	1.8696	8.46328	0.555872	2.54407	0.983628	4.51588	1.30587	6.02849	1.55178	7.17726	1.88005	8.4776
1.64857	2.43741	0.556447	2.54284	1.64779	2.43735	0.747676	3.39255	1.24765	5.67996	1.57195	7.15551	1.86962	8.43192	0.56011	2.53667	0.982955	4.46548	1.31598	6.01114	1.5518	7.10154	1.8821	8.45545
1.64267	2.437	0.560765	2.53583	1.6419	2.43695	0.748077	3.3592	1.24691	5.61755	1.57935	7.11449	1.86965	8.38963	0.564904	2.53193	0.982269	4.41608	1.32609	5.99413	1.55179	7.02729	1.88491	8.42564
1.63679	2.43662	0.565637	2.53145	1.63602	2.43657	0.748557	3.32689	1.24609	5.55611	1.5868	7.0745	1.86968	8.33673	0.570189	2.52946	0.981576	4.36765	1.33617	5.97735	1.55177	6.95455	1.88848	8.38844
1.63093	2.43626	0.570982	2.52925	1.63016	2.43622	0.749118	3.29558	1.24521	5.49563	1.59427	7.03544	1.86971	8.27365	0.575832	2.52861	0.980881	4.32021	1.3462	5.96072	1.55178	6.88338	1.89282	8.34418
1.62509	2.43593	0.576665	2.52858	1.62432	2.43589	0.749762	3.26527	1.24427	5.43612	1.60175	6.99722	1.86976	8.20088	0.581708	2.52879	0.98019	4.27373	1.35617	5.94411	1.55182	6.81383	1.89793	8.29319
1.61926	2.43562	0.582566	2.52887	1.61849	2.43558	0.750491	3.23593	1.24327	5.37758	1.60923	6.95973	1.86983	8.11903	0.587731	2.5296	0.979508	4.22822	1.36604	5.92743	1.55193	6.74597	1.90381	8.23587
1.61346	2.43534	0.588606	2.52975	1.61269	2.43531	0.751307	3.20754	1.24224	5.32002	1.61668	6.92288	1.86994	8.03896	0.59385	2.5308	0.978838	4.18365	1.37578	5.91054	1.55214	6.67989	1.9097	8.17972
1.60767	2.43509	0.594735	2.53099	1.60691	2.43506	0.752212	3.18007	1.24117	5.26342	1.62409	6.88656	1.8701	7.9607	0.600029	2.53223	0.978183	4.14003	1.38537	5.89329	1.55249	6.6157	1.91559	8.12464
1.60191	2.43487	0.600922	2.53245	1.60115	2.43485	0.753209	3.15352	1.24007	5.20778	1.63144	6.85068	1.87034	7.88427	0.60625	2.53381	0.977549	4.09733	1.39475	5.87552	1.55302	6.55352	1.92146	8.07055
1.59617	2.43468	0.607147	2.53405	1.59541	2.43466	0.7543	3.12788	1.23893	5.15309	1.6387	6.81513	1.87067	7.80971	0.612498	2.53548	0.976937	4.05554	1.40387	5.85703	1.55378	6.4935	1.9273	8.01735
1.59045	2.43453	0.613398	2.53572	1.5897	2.43451	0.755488	3.10311	1.23778	5.09936	1.64585	6.77982	1.87112	7.73703	0.618765	2.53719	0.97635	4.01465	1.41269	5.83761	1.55483	6.43581	1.93308	7.96496
1.58476	2.43441	0.619668	2.53743	1.584	2.4344	0.756776	3.07922	1.23661	5.04656	1.65287	6.74464	1.8717	7.6663	0.625046	2.53892	0.975792	3.97465	1.42113	5.81703	1.55623	6.38067	1.9388	7.91329
1.57909	2.43433	0.62595	2.53917	1.57834	2.43432	0.758168	3.05619	1.23543	4.99469	1.65974	6.70949	1.87244	7.59754	0.631335	2.54065	0.975264	3.93551	1.42912	5.79501	1.55806	6.3283	1.94443	7.86226
1.57344	2.43428	0.632241	2.5409	1.57269	2.43428	0.759667	3.03401	1.23423	4.94374	1.66642	6.67426	1.87337	7.53081	0.637631	2.54238	0.974769	3.89722	1.43659	5.77129	1.56039	6.27894	1.94997	7.81177
1.56782	2.43428	0.638537	2.54263	1.56708	2.43428	0.761277	3.01268	1.23303	4.8937	1.6729	6.63884	1.87452	7.46616	0.64393	2.54409	0.974309	3.85978	1.44345	5.74561	1.56331	6.23281	1.9554	7.76175
1.56223	2.43432	0.644837	2.54434	1.56149	2.43432	0.763002	2.99218	1.23182	4.84456	1.67914	6.60313	1.8759	7.40364	0.650232	2.54578	0.973886	3.82315	1.44965	5.71777	1.56689	6.19012	1.96069	7.71212
1.55666	2.43439	0.651139	2.54602	1.55593	2.43441	0.764848	2.97252	1.23062	4.7963	1.68511	6.56703	1.87756	7.3433	0.656535	2.54744	0.973501	3.78734	1.45513	5.6876	1.57117	6.15099	1.96583	7.6628
1.55112	2.43452	0.657441	2.54768	1.55039	2.43454	0.76682	2.9537	1.22942	4.74891	1.69079	6.53044	1.87951	7.28519	0.662837	2.54908	0.973157	3.75231	1.45986	5.65509	1.57621	6.11546	1.97081	7.61371
1.54561	2.43469	0.663743	2.54931	1.54489	2.43472	0.768922	2.93571	1.22822	4.70238	1.69615	6.49327	1.88179	7.22937	0.669138	2.55067	0.972855	3.71807	1.46384	5.62028	1.58199	6.08344	1.9756	7.56479
1.54014	2.43491	0.670044	2.5509	1.53941	2.43494	0.771163	2.91855	1.22704	4.6567	1.70116	6.45545	1.88442	7.17585	0.675438	2.55224	0.972595	3.68459	1.46711	5.58337	1.5885	6.05475	1.98019	7.51597
1.53469	2.43518	0.676344	2.55246	1.53397	2.43522	0.773547	2.90223	1.22586	4.61184	1.70582	6.41692	1.88742	7.12466	0.681736	2.55377	0.972381	3.65185	1.46971	5.5446	1.59569	6.02912	1.98457	7.4672
1.52927	2.4355	0.682641	2.55399	1.52856	2.43555	0.776081	2.88675	1.2247	4.56781	1.71009	6.37764	1.8908	7.07582	0.688031	2.55527	0.972212	3.61985	1.47173	5.50427	1.60349	6.00624	1.98872	7.41841
1.52388	2.43588	0.688936	2.55548	1.52317	2.43593	0.778772	2.87211	1.22355	4.52459	1.71397	6.33759	1.89459	7.02929	0.694323	2.55672	0.972091	3.58857	1.47322	5.4627	1.61184	5.98576	1.99263	7.36957
1.51853	2.43631	0.695227	2.55693	1.51783	2.43637	0.781626	2.85831	1.22242	4.48216	1.71746	6.29676	1.89879	6.98506	0.700611	2.55814	0.972018	3.55799	1.47426	5.42018	1.62065	5.96736	1.99629	7.32064
1.51321	2.43679	0.701515	2.55835	1.51251	2.43686	0.784649	2.84536	1.2213	4.44051	1.72056	6.25519	1.90339	6.94307	0.706896	2.55953	0.971994	3.52811	1.47491	5.37699	1.62987	5.95073	1.9997	7.27159
1.50793	2.43734	0.7078	2.55972	1.50723	2.43741	0.787846	2.83324	1.22021	4.39963	1.72326	6.21291	1.9084	6.90325	0.713177	2.56088	0.972021	3.4989	1.47525	5.33335	1.63942	5.93562	2.00284	7.22241
1.50268	2.43794	0.71408	2.56107	1.50198	2.43803	0.791221	2.82196	1.21914	4.3595	1.72559	6.16999	1.91381	6.86549	0.719454	2.56219	0.972099	3.47036	1.47532	5.28947	1.64927	5.92178	2.00571	7.17309
1.49746	2.43861	0.720356	2.56237	1.49677	2.4387	0.794774	2.8115	1.21809	4.32012	1.72756	6.12649	1.91959	6.82971	0.725726	2.56346	0.972229	3.44246	1.47516	5.24551	1.65935	5.90904	2.00832	7.12363
1.49228	2.43934	0.726628	2.56364	1.4916	2.43944	0.798508	2.80184	1.21707	4.28146	1.7292	6.0825	1.92574	6.79578	0.731993	2.56469	0.972413	3.41521	1.47481	5.2016	1.66964	5.89723	2.01067	7.07406
1.48714	2.44013	0.732895	2.56487	1.48646	2.44024	0.802419	2.79295	1.21608	4.24352	1.73051	6.03811	1.93222	6.76359	0.738256	2.56589	0.97265	3.38858	1.47431	5.15786	1.6801	5.8862	2.01275	7.02438
1.48203	2.441	0.739156	2.56606	1.48136	2.44111	0.806505	2.7848	1.21511	4.20628	1.73152	5.99341	1.93902	6.73301	0.744513	2.56705	0.972942	3.36257	1.47368	5.11435	1.6907	5.87585	2.01459	6.97463
1.47696	2.44192	0.745413	2.56722	1.47629	2.44205	0.810757	2.77736	1.21418	4.16973	1.73227	5.94848	1.94611	6.70391	0.750765	2.56818	0.973289	3.33716	1.47294	5.07117	1.70143	5.86608	2.01619	6.92485
1.47192	2.44292	0.751664	2.56834	1.47126	2.44306	0.81517	2.77057	1.21327	4.13386	1.73277	5.90341	1.95346	6.67617	0.757011	2.56926	0.973693	3.31234	1.4721	5.02835	1.71225	5.85681	2.01756	6.87508
1.46693	2.44399	0.757909	2.56942	1.46627	2.44413	0.819733	2.7644	1.21239	4.09866	1.73304	5.85828	1.96105	6.64969	0.763251	2.57031	0.974154	3.28809	1.47119	4.98596	1.72316	5.84796	2.01872	6.82536
1.46197	2.44512	0.764148	2.57046	1.46131	2.44528	0.824436	2.7588	1.21155	4.06411	1.73311	5.81317	1.96887	6.62435	0.769485	2.57133	0.974672	3.26442	1.47022	4.94401	1.73413	5.83948	2.01968	6.77574
1.45704	2.44633	0.770381	2.57147	1.4564	2.4465	0.829269	2.75371	1.21074	4.0302	1.73299	5.76813	1.97687	6.60005	0.775712	2.5723	0.975248	3.2413	1.4692	4.90253	1.74516	5.83131	2.02046	6.72627
1.45216	2.44761	0.776607	2.57244	1.45152	2.44779	0.83422	2.74909	1.20997	3.99693	1.73271	5.72324	1.98505	6.57669	0.781933	2.57324	0.975883	3.21873	1.46814	4.86156	1.75623	5.8234	2.02107	6.67701
1.44731	2.44897	0.782827	2.57337	1.44667	2.44915	0.839279	2.74489	1.20923	3.96428	1.73228	5.67855	1.99338	6.55418	0.788146	2.57414	0.976578	3.19669	1.46705	4.8211	1.76733	5.8157	2.02153	6.62801
1.4425	2.45039	0.789039	2.57427	1.44187	2.45059	0.844436	2.74106	1.20853	3.93223	1.73172	5.6341	2.00184	6.53244	0.794352	2.575	0.977333	3.17518	1.46593	4.78116	1.77845	5.80818	2.02186	6.57932
1.43773	2.4519	0.795244	2.57512	1.4371	2.4521	0.84968	2.73758	1.20787	3.90079	1.73104	5.58993	2.01042	6.5114	0.800549	2.57583	0.978149	3.15419	1.46479	4.74176	1.78957	5.80078	2.02208	6.53099
1.43299	2.45347	0.80144	2.57594	1.43237	2.45369	0.855002	2.7344	1.20724	3.86993	1.73026	5.54608	2.01909	6.49097	0.806739	2.57661	0.979026	3.1337	1.46363	4.70289	1.80068	5.79347	2.02221	6.4831
1.42829	2.45513	0.807628	2.57672	1.42767	2.45535	0.860395	2.73149	1.20666	3.83965	1.72938	5.50257	2.02784	6.4711	0.812919	2.57736	0.979966	3.11371	1.46247	4.66456	1.81177	5.78619	2.02227	6.43569
1.42363	2.45685	0.813807	2.57746	1.42302	2.45709	0.865851	2.72882	1.20611	3.80993	1.72843	5.45945	2.03665	6.45172	0.819091	2.57807	0.980968	3.09421	1.4613	4.62678	1.82282	5.77891	2.02228	6.38883
1.419	2.45866	0.819977	2.57816	1.41839	2.4589	0.871363	2.72637	1.2056	3.78078	1.7274	5.41671	2.04551	6.43277	0.825252	2.57873	0.982034	3.07519	1.46013	4.58954	1.83382	5.77156	2.02228	6.34259
1.41441	2.46053	0.826137	2.57882	1.4138	2.46079	0.876924	2.7241	1.20514	3.75216	1.7263	5.3744	2.0544	6.41418	0.831403	2.57935	0.983164	3.05664	1.45896	4.55285	1.84474	5.76407	2.02229	6.29705
1.40985	2.46249	0.832287	2.57944	1.40925	2.46275	0.88253	2.72201	1.20471	3.72409	1.72515	5.33251	2.06331	6.39591	0.837543	2.57993	0.984358	3.03856	1.45779	4.51669	1.85556	5.75639	2.02235	6.2523
1.40532	2.46451	0.838425	2.58001	1.40473	2.46479	0.888176	2.72006	1.20433	3.69655	1.72395	5.29107	2.07221	6.37789	0.843671	2.58047	0.985619	3.02093	1.45663	4.48107	1.86625	5.7484	2.02249	6.20845
1.40083	2.46661	0.844552	2.58054	1.40024	2.4669	0.893858	2.71825	1.20399	3.66952	1.72271	5.25008	2.08109	6.36005	0.849787	2.58096	0.986946	3.00376	1.45549	4.44599	1.87677	5.74001	2.02277	6.16564
1.39636	2.46878	0.850665	2.58103	1.39578	2.46908	0.899571	2.71657	1.2037	3.643	1.72144	5.20956	2.08993	6.34236	0.855889	2.5814	0.988341	2.98703	1.45435	4.41143	1.88707	5.73107	2.02324	6.12401
1.39193	2.47103	0.856765	2.58146	1.39135	2.47133	0.905312	2.71499	1.20345	3.61698	1.72013	5.16949	2.09872	6.32473	0.861976	2.5818	0.989804	2.97073	1.45323	4.37739	1.89709	5.7214	2.02399	6.08377
1.38752	2.47334	0.862851	2.58185	1.38694	2.47365	0.911079	2.7135	1.20324	3.59146	1.71879	5.12991	2.10742	6.3071	0.868049	2.58214	0.991337	2.95487	1.45213	4.34387	1.90676	5.7108	2.02509	6.04516
1.38315	2.47571	0.868921	2.58218	1.38257	2.47603	0.916868	2.71211	1.20308	3.56641	1.71743	5.09079	2.11602	6.2894	0.874104	2.58243	0.99294	2.93943	1.45104	4.31087	1.91596	5.699	2.02666	6.00846
1.37879	2.47815	0.874974	2.58246	1.37822	2.47848	0.922678	2.71079	1.20296	3.54184	1.71605	5.05216	2.12449	6.27157	0.880142	2.58266	0.994616	2.92442	1.44998	4.27837	1.92461	5.68568	2.02883	5.97402
1.37446	2.48065	0.881009	2.58269	1.37389	2.48099	0.928506	2.70955	1.20289	3.51774	1.71466	5.014	2.1328	6.2535	0.88616	2.58283	0.996364	2.90982	1.44893	4.24638	1.93255	5.6705	2.03172	5.94217
1.37014	2.48321	0.887024	2.58285	1.36957	2.48355	0.93435	2.70836	1.20287	3.4941	1.71326	4.97632	2.14092	6.23513	0.892158	2.58294	0.998188	2.89563	1.44791	4.21487	1.93967	5.65312	2.03547	5.91324
1.36584	2.48581	0.893018	2.58295	1.36528	2.48616	0.940208	2.70724	1.2029	3.4709	1.71185	4.93912	2.14882	6.21634	0.898132	2.58298	1.00009	2.88185	1.44691	4.18386	1.94585	5.63326	2.04018	5.88745
1.36156	2.48846	0.898989	2.58298	1.36099	2.48881	0.946079	2.70616	1.20297	3.44815	1.71043	4.90239	2.15644	6.19705	0.904082	2.58295	1.00207	2.86848	1.44593	4.15333	1.95103	5.61076	2.04588	5.86485
1.35728	2.49114	0.904936	2.58294	1.35671	2.4915	0.951961	2.70513	1.20309	3.42584	1.70901	4.86614	2.16377	6.17714	0.910005	2.58285	1.00413	2.85551	1.44498	4.12327	1.9552	5.58568	2.05256	5.84534
1.353	2.49385	0.910854	2.58283	1.35243	2.49421	0.957854	2.70415	1.20325	3.40395	1.70759	4.83036	2.17075	6.15651	0.915898	2.58266	1.00627	2.84295	1.44406	4.09368	1.95841	5.55821	2.06014	5.82861
1.34872	2.49657	0.916743	2.58263	1.34815	2.49693	0.963756	2.7032	1.20347	3.38248	1.70617	4.79504	2.17733	6.13504	0.92176	2.58239	1.00849	2.83079	1.44316	4.06456	1.96076	5.52869	2.0685	5.8143
1.34442	2.49929	0.9226	2.58234	1.34385	2.49965	0.969665	2.70229	1.20374	3.36143	1.70475	4.76019	2.18349	6.11264	0.927586	2.58202	1.01081	2.81903	1.4423	4.03589	1.96239	5.49751	2.07751	5.802
1.3401	2.502	0.928421	2.58196	1.33952	2.50235	0.975581	2.7014	1.20405	3.34078	1.70334	4.72581	2.18917	6.08922	0.933374	2.58155	1.01322	2.80767	1.44146	4.00767	1.96342	5.46506	2.08706	5.79135
1.33574	2.50465	0.934203	2.58147	1.33516	2.505	0.981503	2.70055	1.20442	3.32054	1.70194	4.69188	2.19436	6.06472	0.939119	2.58097	1.01572	2.79672	1.44065	3.9799	1.96396	5.43168	2.09704	5.78202
1.33134	2.50725	0.939942	2.58088	1.33075	2.50758	0.98743	2.69971	1.20483	3.30069	1.70055	4.6584	2.19902	6.03908	0.944819	2.58027	1.01832	2.78618	1.43988	3.95256	1.9641	5.39764	2.10736	5.77376
1.32687	2.50974	0.945635	2.58016	1.32628	2.51006	0.993361	2.6989	1.2053	3.28123	1.69916	4.62538	2.20314	6.01231	0.950469	2.57945	1.02102	2.77605	1.43913	3.92565	1.96394	5.36317	2.11797	5.76636
1.32233	2.51211	0.951277	2.57932	1.32172	2.51241	0.999295	2.69811	1.20582	3.26214	1.69779	4.59279			0.956063	2.57848	1.02383	2.76633	1.43842	3.89917	1.96352	5.32845	2.1288	5.75966
1.31769	2.51431	0.956863	2.57833	1.31706	2.51458	1.00523	2.69734	1.20639	3.24344	1.69643	4.56065			0.961598	2.57737	1.02675	2.75703	1.43774	3.8731	1.96289	5.29362	2.13981	5.75353
1.31293	2.51631	0.962389	2.5772	1.31229	2.51655	1.01117	2.69657	1.20701	3.2251	1.69509	4.52894			0.967068	2.5761	1.02979	2.74816	1.4371	3.84745	1.96211	5.25878	2.15096	5.74786
1.30804	2.51807	0.967849	2.5759	1.30738	2.51829	1.01711	2.69582	1.20768	3.20713	1.69376	4.49766			0.972469	2.57466	1.03294	2.73972	1.43648	3.8222	1.96119	5.22401	2.16223	5.74257
1.30301	2.51958	0.973239	2.57444	1.30233	2.51976	1.02305	2.69508	1.20841	3.18951	1.69245	4.46681			0.977794	2.57304	1.03623	2.73171	1.43591	3.79735	1.96016	5.18938	2.1736	5.73761
1.29784	2.52083	0.978554	2.57279	1.29714	2.52097	1.02899	2.69435	1.20919	3.17225	1.69115	4.43638			0.98304	2.57123	1.03965	2.72415	1.43537	3.7729	1.95905	5.15493	2.18505	5.73291
1.29252	2.5218	0.983788	2.57096	1.29181	2.52191	1.03492	2.69362	1.21002	3.15534	1.68988	4.40636			0.988202	2.56923	1.0432	2.71703	1.43486	3.74883	1.95786	5.12071	2.19656	5.72844
1.28707	2.52252	0.988937	2.56892	1.28634	2.5226	1.04086	2.6929	1.21091	3.13877	1.68862	4.37676			0.993276	2.56702	1.04689	2.71035	1.43439	3.72515	1.95661	5.08675	2.20813	5.72415
1.28149	2.523	0.993999	2.56669	1.28074	2.52305	1.04679	2.69218	1.21185	3.12253	1.68739	4.34755			0.99826	2.56461	1.05072	2.70412	1.43396	3.70184	1.95531	5.05306		
1.2758	2.52326	0.99897	2.56425	1.27504	2.52328	1.05272	2.69146	1.21285	3.10664	1.68617	4.31875			1.00315	2.56199	1.0547	2.69834	1.43356	3.67891	1.95397	5.01967		
1.27002	2.52334	1.00385	2.5616	1.26924	2.52334	1.05865	2.69073	1.2139	3.09107	1.68498	4.29034			1.00795	2.55917	1.05882	2.69298	1.43321	3.65634	1.9526	4.98659		
1.26415	2.52325	1.00864	2.55875	1.26337	2.52322	1.06457	2.69	1.21502	3.07582	1.68381	4.26233			1.01266	2.55616	1.06309	2.68806	1.43288	3.63413	1.95121	4.95383		
1.25821	2.52301	1.01333	2.55571	1.25742	2.52297	1.07048	2.68926	1.21618	3.0609	1.68267	4.23469			1.01729	2.55296	1.06749	2.68354	1.4326	3.61227	1.94979	4.9214		
1.25221	2.52266	1.01795	2.55248	1.25142	2.5226	1.07639	2.68852	1.21741	3.0463	1.68155	4.20744			1.02183	2.54959	1.07203	2.67941	1.43236	3.59077	1.94836	4.88931		
1.24617	2.5222	1.02247	2.54909	1.24536	2.52213	1.08228	2.68776	1.2187	3.03201	1.68045	4.18057			1.02629	2.54607	1.07671	2.67566	1.43215	3.5696	1.94691	4.85756		
1.24007	2.52165	1.02693	2.54555	1.23927	2.52157	1.08817	2.68699	1.22004	3.01804	1.67938	4.15406			1.03069	2.54242	1.0815	2.67226	1.43199	3.54878	1.94546	4.82615		
1.23395	2.52102	1.03131	2.54188	1.23313	2.52093	1.09405	2.6862	1.22145	3.00437	1.67834	4.12792			1.03502	2.53866	1.08642	2.66919	1.43186	3.52829	1.944	4.79509		
1.22779	2.52032	1.03564	2.53811	1.22697	2.52022	1.09992	2.68539	1.22292	2.99101	1.67732	4.10214			1.0393	2.53481	1.09144	2.66641	1.43178	3.50813	1.94254	4.76437		
1.22161	2.51956	1.03991	2.53425	1.22079	2.51946	1.10577	2.68456	1.22445	2.97795	1.67633	4.07671			1.04353	2.53089	1.09656	2.66391	1.43173	3.4883	1.94108	4.73401		
1.2154	2.51875	1.04414	2.53032	1.21458	2.51864	1.11161	2.6837	1.22605	2.96519	1.67537	4.05164			1.04773	2.52693	1.10178	2.66166	1.43172	3.46878	1.93963	4.70398		
1.20918	2.51789	1.04833	2.52635	1.20835	2.51777	1.11743	2.68281	1.22771	2.95274	1.67444	4.02691			1.0519	2.52294	1.10708	2.65964	1.43176	3.44958	1.93818	4.67431		
1.20294	2.51699	1.05249	2.52236	1.20211	2.51686	1.12324	2.68189	1.22944	2.94058	1.67353	4.00252			1.05605	2.51895	1.11245	2.65782	1.43183	3.43069	1.93673	4.64497		
1.19668	2.51605	1.05664	2.51837	1.19585	2.51592	1.12902	2.68093	1.23124	2.92873	1.67265	3.97847			1.06018	2.51497	1.1179	2.65618	1.43195	3.41211	1.93529	4.61598		
1.19041	2.51507	1.06077	2.5144	1.18958	2.51494	1.13478	2.67993	1.23312	2.91717	1.67181	3.95475			1.06431	2.51102	1.1234	2.6547	1.43211	3.39383	1.93387	4.58733		
1.18413	2.51406	1.0649	2.51046	1.1833	2.51392	1.14052	2.67888	1.23506	2.90592	1.67099	3.93137			1.06844	2.50712	1.12896	2.65338	1.43231	3.37584	1.93245	4.55902		
1.17784	2.51301	1.06903	2.50656	1.17701	2.51287	1.14623	2.67778	1.23709	2.89496	1.67021	3.9083			1.07258	2.50327	1.13457	2.65218	1.43255	3.35815	1.93105	4.53104		
1.17155	2.51194	1.07317	2.50272	1.17071	2.5118	1.15191	2.67661	1.23919	2.88431	1.66945	3.88555			1.07673	2.49949	1.14022	2.65109	1.43283	3.34074	1.92966	4.5034		
1.16524	2.51085	1.07732	2.49896	1.16441	2.5107	1.15755	2.67538	1.24138	2.87396	1.66873	3.86312			1.08089	2.49579	1.14592	2.65011	1.43316	3.32362	1.92828	4.47609		
1.15893	2.50973	1.08149	2.49527	1.15809	2.50958	1.16316	2.67408	1.24365	2.86393	1.66804	3.841			1.08508	2.49219	1.15165	2.64922	1.43353	3.30678	1.92692	4.4491		
1.15261	2.50858	1.08568	2.49168	1.15178	2.50843	1.16872	2.67269	1.24601	2.8542	1.66738	3.81919			1.08929	2.48868	1.1574	2.64841	1.43394	3.29022	1.92558	4.42244		
1.14629	2.50741	1.0899	2.48818	1.14545	2.50726	1.17424	2.67121	1.24847	2.8448	1.66675	3.79768			1.09354	2.48527	1.16319	2.64768	1.43439	3.27392	1.92425	4.3961		
1.13996	2.50623	1.09415	2.48479	1.13913	2.50607	1.17971	2.66964	1.25103	2.83572	1.66615	3.77647			1.09781	2.48198	1.169	2.647	1.43489	3.2579	1.92295	4.37008		
1.13363	2.50502	1.09843	2.48151	1.1328	2.50485	1.18512	2.66795	1.25369	2.82696	1.66559	3.75555			1.10213	2.4788	1.17484	2.64638	1.43543	3.24214	1.92166	4.34437		
1.1273	2.50379	1.10275	2.47835	1.12646	2.50362	1.19046	2.66614	1.25646	2.81855	1.66506	3.73492			1.10648	2.47574	1.18069	2.64581	1.43601	3.22665	1.92039	4.31897		
1.12096	2.50254	1.10711	2.47531	1.12013	2.50237	1.19574	2.6642	1.25935	2.81048	1.66456	3.71458			1.11088	2.47281	1.18656	2.64529	1.43664	3.21141	1.91914	4.29388		
1.11463	2.50127	1.11152	2.4724	1.11379	2.50111	1.20095	2.66211	1.26236	2.80276	1.6641	3.69452			1.11532	2.47001	1.19244	2.6448	1.43731	3.19642	1.91791	4.26909		
1.10829	2.49999	1.11596	2.46962	1.10745	2.49982	1.20608	2.65987	1.26549	2.7954	1.66367	3.67474			1.11981	2.46735	1.19834	2.64435	1.43803	3.18169	1.91671	4.24461		
1.10194	2.49869	1.12046	2.46697	1.1011	2.49852	1.21112	2.65748	1.26876	2.7884	1.66327	3.65524			1.12435	2.46481	1.20425	2.64392	1.43879	3.1672	1.91552	4.22042		
1.0956	2.49738	1.125	2.46446	1.09476	2.4972	1.21608	2.65491	1.27216	2.78178	1.66291	3.63601			1.12894	2.46242	1.21016	2.64352	1.43959	3.15296	1.91436	4.19653		
1.08926	2.49605	1.1296	2.46208	1.08842	2.49587	1.22094	2.65216	1.27571	2.77553	1.66258	3.61704			1.13358	2.46016	1.21609	2.64315	1.44044	3.13895	1.91323	4.17293		
1.08292	2.4947	1.13425	2.45985	1.08208	2.49452	1.22571	2.64923	1.27941	2.76966	1.66229	3.59834			1.13827	2.45804	1.22203	2.64279	1.44134	3.12519	1.91211	4.14961		
1.07657	2.49334	1.13895	2.45775	1.07573	2.49316	1.23037	2.64613	1.28325	2.76417	1.66203	3.57991			1.14302	2.45606	1.22796	2.64245	1.44228	3.11166	1.91102	4.12659		
1.07023	2.49197	1.14371	2.45579	1.06939	2.49179	1.23495	2.64285	1.28724	2.75905	1.66181	3.56173			1.14783	2.45422	1.23391	2.64212	1.44326	3.09836	1.90996	4.10384		
1.06389	2.49058	1.14853	2.45397	1.06305	2.4904	1.23942	2.6394	1.29138	2.7543	1.66162	3.5438			1.15269	2.45252	1.23986	2.64181	1.44429	3.08529	1.90892	4.08137		
1.05755	2.48919	1.1534	2.45229	1.05671	2.489	1.24381	2.63578	1.29566	2.74991	1.66147	3.52612			1.15761	2.45096	1.24581	2.6415	1.44537	3.07245	1.9079	4.05917		
1.05121	2.48778	1.15833	2.45075	1.05037	2.48759	1.24811	2.63203	1.30009	2.74585	1.66136	3.5087			1.16259	2.44954	1.25176	2.6412	1.44649	3.05982	1.90691	4.03725		
1.04487	2.48636	1.16331	2.44934	1.04404	2.48617	1.25233	2.62814	1.30465	2.74212	1.66128	3.49151			1.16763	2.44824	1.25771	2.6409	1.44766	3.04743	1.90595	4.0156		
1.03854	2.48494	1.16836	2.44807	1.0377	2.48475	1.25649	2.62415	1.30934	2.7387	1.66123	3.47457			1.17272	2.44708	1.26366	2.6406	1.44888	3.03524	1.90501	3.9942		
1.03221	2.4835	1.17346	2.44693	1.03137	2.48331	1.26058	2.62007	1.31415	2.73556	1.66122	3.45787			1.17787	2.44605	1.26961	2.64031	1.45014	3.02328	1.9041	3.97308		
1.02589	2.48206	1.17862	2.44592	1.02505	2.48187	1.26462	2.61593	1.31907	2.73268	1.66125	3.4414			1.18308	2.44515	1.27556	2.64001	1.45145	3.01153	1.90322	3.95221		
1.01957	2.48062	1.18383	2.44503	1.01873	2.48043	1.26863	2.61175	1.3241	2.73005	1.66132	3.42516			1.18834	2.44436	1.28151	2.63971	1.45281	2.99998	1.90237	3.93159		
1.01325	2.47917	1.1891	2.44426	1.01241	2.47898	1.27261	2.60756	1.32922	2.72764	1.66142	3.40915			1.19365	2.4437	1.28745	2.63941	1.45422	2.98865	1.90154	3.91123		
1.00694	2.47772	1.19442	2.44361	1.00611	2.47753	1.27657	2.60337	1.33443	2.72542	1.66156	3.39337			1.19902	2.44314	1.29339	2.6391	1.45568	2.97753	1.90074	3.89112		
1.00064	2.47627	1.1998	2.44307	0.999804	2.47608	1.28054	2.59923	1.33972	2.72339	1.66173	3.37781			1.20444	2.4427	1.29932	2.63878	1.45719	2.96661	1.89997	3.87126		
0.994343	2.47483	1.20522	2.44264	0.99351	2.47464	1.28451	2.59514	1.34508	2.72152	1.66194	3.36247			1.2099	2.44235	1.30525	2.63845	1.45874	2.95589	1.89923	3.85163		
0.988057	2.47339	1.21069	2.44231	0.987226	2.4732	1.28851	2.59114	1.35051	2.7198	1.66219	3.34735			1.21542	2.44211	1.31117	2.63811	1.46035	2.94537	1.89851	3.83225		
0.981781	2.47195	1.21621	2.44208	0.980951	2.47177	1.29255	2.58725	1.35599	2.71821	1.66248	3.33244			1.22098	2.44195	1.31708	2.63775	1.46201	2.93506	1.89783	3.81311		
0.975517	2.47053	1.22178	2.44194	0.974688	2.47035	1.29664	2.58351	1.36152	2.71674	1.66281	3.31775			1.22658	2.44189	1.32298	2.63738	1.46372	2.92494	1.89717	3.7942		
0.969265	2.46913	1.22739	2.44189	0.968439	2.46895	1.3008	2.57995	1.3671	2.71537	1.66317	3.30326			1.23222	2.44191	1.32886	2.63699	1.46548	2.91502	1.89655	3.77553		
0.963028	2.46775	1.23304	2.44192	0.962204	2.46757	1.30505	2.57659	1.37273	2.7141	1.66357	3.28898			1.23791	2.44201	1.33474	2.63658	1.4673	2.9053	1.89595	3.75708		
0.956807	2.46639	1.23873	2.44202	0.955985	2.46621	1.30941	2.57347	1.37839	2.71292	1.66401	3.27491			1.24363	2.44217	1.34061	2.63615	1.46917	2.89577	1.89538	3.73887		
0.950605	2.46506	1.24445	2.4422	0.949786	2.46489	1.31389	2.57062	1.38408	2.71181	1.66448	3.26104			1.24938	2.44241	1.34646	2.6357	1.47109	2.88644	1.89485	3.72087		
0.944425	2.46378	1.25021	2.44245	0.943608	2.46361	1.31852	2.56807	1.3898	2.71077	1.66499	3.24736			1.25517	2.44271	1.35229	2.63521	1.47307	2.87731	1.89434	3.7031		
0.938268	2.46254	1.25601	2.44276	0.937456	2.46238	1.32329	2.56584	1.39556	2.70979	1.66555	3.23388			1.261	2.44307	1.35811	2.6347	1.47511	2.86836	1.89386	3.68554		
0.93214	2.46136	1.26184	2.44313	0.931331	2.46121	1.32823	2.56394	1.40133	2.70887	1.66614	3.2206			1.26685	2.44349	1.36391	2.63416	1.47721	2.85961	1.89342	3.66821		
0.926042	2.46025	1.26769	2.44355	0.925238	2.46011	1.33332	2.56237	1.40713	2.70799	1.66677	3.20751			1.27273	2.44396	1.36969	2.63358	1.47937	2.85106	1.893	3.65108		
0.919981	2.45922	1.27358	2.44403	0.919182	2.45909	1.33858	2.56111	1.41295	2.70717	1.66743	3.19461			1.27864	2.44447	1.37544	2.63297	1.48159	2.8427	1.89262	3.63417		
0.913961	2.45829	1.27949	2.44455	0.913167	2.45818	1.34398	2.56014	1.41878	2.70638	1.66814	3.1819			1.28457	2.44503	1.38117	2.63231	1.48388	2.83454	1.89227	3.61746		
0.907988	2.45748	1.28543	2.44512	0.907201	2.45738	1.34951	2.55943	1.42463	2.70563	1.66889	3.16937			1.29053	2.44563	1.38687	2.63161	1.48623	2.82657	1.89195	3.60096		
0.902069	2.4568	1.29139	2.44572	0.90129	2.45672	1.35516	2.55894	1.4305	2.70492	1.66967	3.15703			1.29651	2.44627	1.39255	2.63085	1.48865	2.8188	1.89166	3.58467		
0.896211	2.45628	1.29737	2.44636	0.89544	2.45623	1.36091	2.55865	1.43637	2.70423	1.67049	3.14486			1.30251	2.44694	1.39819	2.63005	1.49114	2.81123	1.8914	3.56858		
0.890423	2.45595	1.30338	2.44704	0.889662	2.45592	1.36674	2.55852	1.44226	2.70358	1.67136	3.13288			1.30854	2.44765	1.4038	2.62918	1.4937	2.80386	1.89117	3.55268		
0.884713	2.45583	1.3094	2.44775	0.883964	2.45583	1.37265	2.55852	1.44816	2.70294	1.67226	3.12107			1.31458	2.44838	1.40937	2.62826	1.49634	2.7967	1.89097	3.53698		
0.879091	2.45596	1.31545	2.44849	0.878354	2.45599	1.37861	2.55863	1.45407	2.70233	1.6732	3.10944			1.32064	2.44914	1.4149	2.62726	1.49905	2.78974	1.89081	3.52148		
0.873568	2.45636	1.32151	2.44925	0.872844	2.45644	1.38462	2.55883	1.45998	2.70174	1.67418	3.09798			1.32671	2.44993	1.42038	2.6262	1.50185	2.78299	1.89068	3.50617		
0.868151	2.45707	1.32759	2.45004	0.867442	2.45719	1.39067	2.5591	1.46591	2.70117	1.67521	3.08669			1.33281	2.45073	1.42582	2.62505	1.50473	2.77646	1.89058	3.49105		
0.862849	2.45812	1.33368	2.45085	0.862157	2.45828	1.39676	2.55944	1.47184	2.70061	1.67627	3.07557			1.33891	2.45156	1.4312	2.62382	1.5077	2.77014	1.89051	3.47611		
0.85767	2.45953	1.33979	2.45168	0.856994	2.45975	1.40288	2.55982	1.47777	2.70006	1.67737	3.06462			1.34504	2.45241	1.43653	2.6225	1.51075	2.76404	1.89048	3.46136		
0.852618	2.46133	1.34592	2.45253	0.851958	2.4616	1.40902	2.56024	1.48371	2.69953	1.67851	3.05384			1.35117	2.45327	1.44181	2.62108	1.51391	2.75817	1.89048	3.4468		
0.847694	2.46353	1.35205	2.4534	0.847052	2.46385	1.41518	2.5607	1.48965	2.69901	1.6797	3.04322			1.35732	2.45415	1.44702	2.61957	1.51716	2.75252	1.89051	3.43241		
0.842899	2.46613	1.3582	2.45428	0.842274	2.4665	1.42135	2.56118	1.49559	2.6985	1.68092	3.03276			1.36348	2.45505	1.45216	2.61795	1.52051	2.7471	1.89057	3.41821		
0.838229	2.46913	1.36436	2.45518	0.83762	2.46956	1.42754	2.56168	1.50154	2.698	1.68219	3.02247			1.36965	2.45595	1.45724	2.61621	1.52397	2.74192	1.89067	3.40418		
0.833679	2.47254	1.37054	2.45609	0.833086	2.47302	1.43374	2.5622	1.50749	2.6975	1.6835	3.01233			1.37583	2.45687	1.46224	2.61436	1.52753	2.73697	1.8908	3.39033		
0.829243	2.47632	1.37672	2.45701	0.828663	2.47685	1.43995	2.56273	1.51344	2.69701	1.68485	3.00235			1.38202	2.4578	1.46717	2.6124	1.53121	2.73226	1.89096	3.37665		
0.82491	2.48048	1.38291	2.45794	0.824344	2.48105	1.44617	2.56327	1.51938	2.69652	1.68625	2.99253			1.38822	2.45874	1.47202	2.61031	1.535	2.72779	1.89115	3.36314		
0.820673	2.48498	1.38911	2.45887	0.820119	2.4856	1.4524	2.56382	1.52533	2.69604	1.68768	2.98287			1.39443	2.45969	1.47679	2.6081	1.5389	2.72356	1.89138	3.3498		
0.816522	2.4898	1.39532	2.45982	0.815979	2.49047	1.45863	2.56438	1.53128	2.69556	1.68916	2.97336			1.40065	2.46064	1.48148	2.60577	1.54292	2.71956	1.89164	3.33663		
0.812448	2.49493	1.40154	2.46078	0.811913	2.49563	1.46486	2.56493	1.53722	2.69507	1.69069	2.964			1.40687	2.4616	1.4861	2.60332	1.54705	2.7158	1.89194	3.32362		
0.80844	2.50034	1.40777	2.46174	0.807914	2.50108	1.4711	2.56549	1.54317	2.69459	1.69225	2.95479			1.41311	2.46256	1.49064	2.60076	1.55129	2.71227	1.89227	3.31078		
0.80449	2.50601	1.414	2.4627	0.80397	2.50678	1.47734	2.56605	1.5491	2.69411	1.69387	2.94574			1.41935	2.46353	1.4951	2.59808	1.55565	2.70896	1.89263	3.29809		
0.800587	2.51191	1.42025	2.46367	0.800074	2.51271	1.48359	2.56661	1.55504	2.69362	1.69552	2.93684			1.4256	2.46451	1.49949	2.5953	1.56012	2.70587	1.89302	3.28557		
0.796723	2.51801	1.4265	2.46465	0.796214	2.51884	1.48983	2.56716	1.56097	2.69312	1.69723	2.92809			1.43185	2.46548	1.50381	2.59243	1.5647	2.70298	1.89345	3.27321		
0.792887	2.5243	1.43275	2.46562	0.792381	2.52514	1.49607	2.56771	1.56689	2.69262	1.69898	2.91949			1.43811	2.46646	1.50806	2.58946	1.56937	2.7003	1.89391	3.261		
0.789071	2.53074	1.43901	2.4666	0.788566	2.5316	1.50232	2.56826	1.57281	2.69212	1.70078	2.91104			1.44438	2.46744	1.51225	2.58641	1.57415	2.6978	1.89441	3.24894		
0.785263	2.5373	1.44528	2.46758	0.784759	2.53818	1.50856	2.5688	1.57872	2.6916	1.70263	2.90274			1.45065	2.46843	1.51639	2.5833	1.57902	2.69549	1.89494	3.23704		
0.781453	2.54396	1.45155	2.46857	0.780948	2.54485	1.5148	2.56933	1.58462	2.69107	1.70452	2.89458			1.45692	2.46941	1.52048	2.58012	1.58397	2.69334	1.8955	3.22529		
0.77763	2.55067	1.45782	2.46955	0.777122	2.55156	1.52104	2.56986	1.59051	2.69053	1.70647	2.88658			1.4632	2.47039	1.52452	2.57689	1.58901	2.69134	1.8961	3.21369		
0.773782	2.55741	1.46411	2.47053	0.773271	2.5583	1.52728	2.57038	1.59639	2.68998	1.70847	2.87872			1.46949	2.47138	1.52853	2.57362	1.59412	2.68949	1.89673	3.20224		
0.769899	2.56413	1.47039	2.47152	0.769382	2.56502	1.53352	2.57089	1.60225	2.68941	1.71052	2.87102			1.47578	2.47236	1.5325	2.57032	1.59931	2.68778	1.8974	3.19093		
0.765968	2.57079	1.47668	2.4725	0.765444	2.57167	1.53975	2.57139	1.60811	2.68882	1.71263	2.86347			1.48207	2.47334	1.53644	2.567	1.60456	2.68618	1.8981	3.17977		
0.761978	2.57736	1.48297	2.47348	0.761445	2.57822	1.54598	2.57188	1.61394	2.68821	1.71479	2.85606			1.48836	2.47432	1.54036	2.56366	1.60987	2.6847	1.89883	3.16875		
0.757917	2.58379	1.48927	2.47446	0.757373	2.58463	1.5522	2.57236	1.61976	2.68757	1.71701	2.84882			1.49466	2.4753	1.54425	2.56031	1.61523	2.68333	1.8996	3.15788		
0.753775	2.59004	1.49557	2.47544	0.75322	2.59086	1.55842	2.57283	1.62557	2.68691	1.71929	2.84172			1.50097	2.47627	1.54814	2.55697	1.62065	2.68204	1.90041	3.14714		
0.749543	2.59608	1.50187	2.47641	0.748975	2.59687	1.56463	2.57328	1.63135	2.68622	1.72164	2.83478			1.50727	2.47724	1.55201	2.55363	1.62611	2.68085	1.90124	3.13654		
0.745213	2.60188	1.50818	2.47738	0.744632	2.60263	1.57084	2.57372	1.6371	2.6855	1.72405	2.82801			1.51358	2.47821	1.55587	2.55031	1.63162	2.67973	1.90212	3.12608		
0.74078	2.60741	1.51448	2.47834	0.740185	2.60812	1.57704	2.57415	1.64284	2.68474	1.72652	2.82139			1.51988	2.47917	1.55973	2.547	1.63716	2.67869	1.90302	3.11576		
0.736241	2.61265	1.52079	2.47931	0.735632	2.61332	1.58323	2.57456	1.64854	2.68394	1.72907	2.81494			1.52619	2.48012	1.56359	2.54372	1.64274	2.67771	1.90397	3.10557		
0.731594	2.6176	1.5271	2.48026	0.730971	2.61823	1.58942	2.57496	1.65421	2.6831	1.73169	2.80865			1.5325	2.48107	1.56746	2.54047	1.64835	2.67678	1.90494	3.09551		
0.726841	2.62224	1.53341	2.48121	0.726204	2.62283	1.5956	2.57534	1.65985	2.6822	1.73439	2.80254			1.53881	2.48202	1.57133	2.53726	1.65399	2.67592	1.90595	3.08559		
0.721983	2.62658	1.53972	2.48215	0.721333	2.62713	1.60176	2.5757	1.66545	2.68125	1.73717	2.7966			1.54512	2.48295	1.57521	2.53408	1.65966	2.6751	1.907	3.0758		
0.717026	2.63062	1.54603	2.48309	0.716363	2.63114	1.60792	2.57604	1.67101	2.68025	1.74003	2.79085			1.55143	2.48388	1.5791	2.53095	1.66535	2.67432	1.90808	3.06613		
0.711974	2.63439	1.55233	2.48401	0.711299	2.63487	1.61406	2.57636	1.67652	2.67917	1.74299	2.78528			1.55773	2.48479	1.58301	2.52786	1.67106	2.67359	1.9092	3.05659		
0.706834	2.63789	1.55864	2.48492	0.706147	2.63834	1.6202	2.57666	1.68198	2.67803	1.74604	2.77991			1.56403	2.48569	1.58693	2.52483	1.67679	2.67289	1.91036	3.04719		
0.701612	2.64115	1.56493	2.48581	0.700915	2.64156	1.62632	2.57694	1.68739	2.67681	1.74919	2.77473			1.57032	2.48657	1.59088	2.52185	1.68254	2.67222	1.91155	3.0379		
0.696315	2.64417	1.57122	2.48669	0.695608	2.64456	1.63242	2.57719	1.69274	2.6755	1.75245	2.76976			1.5766	2.48742	1.59486	2.51894	1.6883	2.67158	1.91277	3.02874		
0.690948	2.64699	1.5775	2.48754	0.690233	2.64735	1.63851	2.57741	1.69803	2.67411	1.75582	2.765			1.58286	2.48825	1.59886	2.5161	1.69408	2.67097	1.91403	3.01971		
0.685519	2.64961	1.58376	2.48837	0.684796	2.64995	1.64458	2.5776	1.70326	2.67262	1.7593	2.76046			1.58911	2.48903	1.60291	2.51334	1.69986	2.67038	1.91533	3.01079		
0.680034	2.65206	1.59	2.48914	0.679304	2.65237	1.65063	2.57776	1.70841	2.67104	1.76291	2.75614			1.59531	2.48976	1.60701	2.51068	1.70566	2.66981	1.91666	3.002		
0.674497	2.65436	1.5962	2.48985	0.673761	2.65465	1.65666	2.57789	1.71349	2.66936	1.76664	2.75204			1.60146	2.49038	1.61118	2.50815	1.71147	2.66927	1.91803	2.99333		
0.668914	2.65651	1.60234	2.49046	0.668172	2.65678	1.66266	2.57798	1.7185	2.66757	1.7705	2.74818			1.60752	2.49087	1.61545	2.5058	1.71729	2.66873	1.91944	2.98478		
0.66329	2.65853	1.60838	2.49092	0.662543	2.65879	1.66864	2.57802	1.72344	2.66569	1.77449	2.74454			1.61342	2.49111	1.61987	2.5037	1.72311	2.66821	1.92088	2.97634		
0.657629	2.66045	1.61425	2.49111	0.656877	2.66069	1.67459	2.57802	1.7283	2.6637	1.77861	2.74113			1.61908	2.49097	1.62454	2.50199	1.72894	2.66771	1.92236	2.96803		
0.651934	2.66226	1.61987	2.49091	0.651178	2.66249	1.6805	2.57797	1.73309	2.66162	1.78286	2.73795			1.6244	2.49031	1.62954	2.50081	1.73477	2.66721	1.92388	2.95983		
0.646209	2.66398	1.62513	2.49017	0.645449	2.6642	1.68639	2.57787	1.73782	2.65946	1.78725	2.73499			1.62935	2.4891	1.63494	2.50023	1.74061	2.66673	1.92544	2.95174		
0.640457	2.66562	1.63004	2.48889	0.639693	2.66584	1.69223	2.57771	1.74249	2.65723	1.79176	2.73225			1.63404	2.48749	1.64066	2.50017	1.74645	2.66625	1.92703	2.94377		
0.63468	2.6672	1.63469	2.48723	0.633914	2.6674	1.69803	2.57748	1.74711	2.65493	1.79639	2.72971			1.63854	2.48562	1.64662	2.50045	1.75229	2.66577	1.92867	2.93592		
0.628882	2.66871	1.63918	2.48534	0.628113	2.6689	1.70378	2.57718	1.75169	2.65259	1.80114	2.72737			1.64296	2.48363	1.65271	2.50094	1.75813	2.6653	1.93034	2.92818		
0.623064	2.67016	1.64359	2.48333	0.622293	2.67035	1.70947	2.57681	1.75624	2.65021	1.80601	2.72522			1.64733	2.48158	1.65889	2.50155	1.76397	2.66483	1.93205	2.92055		
0.617229	2.67158	1.64796	2.48128	0.616456	2.67176	1.71511	2.57635	1.76077	2.64783	1.81098	2.72323			1.65168	2.47951	1.66512	2.50224	1.76981	2.66436	1.9338	2.91304		
0.611378	2.67295	1.65231	2.47921	0.610603	2.67313	1.72069	2.5758	1.7653	2.64546	1.81604	2.7214			1.65603	2.47745	1.67138	2.50297	1.77564	2.6639	1.93559	2.90563		
0.605514	2.67428	1.65665	2.47716	0.604736	2.67446	1.7262	2.57515	1.76983	2.64311	1.8212	2.71972			1.66038	2.47542	1.67767	2.50374	1.78147	2.66343	1.93742	2.89834		
0.599636	2.67559	1.66101	2.47513	0.598857	2.67576	1.73163	2.57439	1.77438	2.6408	1.82643	2.71818			1.66475	2.47342	1.68397	2.50452	1.7873	2.66295	1.93929	2.89117		
0.593748	2.67688	1.66537	2.47313	0.592967	2.67705	1.73699	2.57353	1.77896	2.63856	1.83175	2.71676			1.66913	2.47146	1.69028	2.50531	1.79312	2.66247	1.94121	2.8841		
0.58785	2.67815	1.66976	2.47118	0.587068	2.67831	1.74226	2.57254	1.78358	2.6364	1.83713	2.71544			1.67353	2.46954	1.69661	2.50612	1.79894	2.66199	1.94316	2.87714		
0.581943	2.6794	1.67416	2.46926	0.58116	2.67957	1.74744	2.57144	1.78826	2.63433	1.84257	2.71423			1.67795	2.46766	1.70294	2.50693	1.80475	2.66149	1.94516	2.8703		
0.576028	2.68065	1.67859	2.46739	0.575245	2.68081	1.75253	2.5702	1.793	2.63236	1.84806	2.71311			1.68239	2.46583	1.70928	2.50774	1.81055	2.66099	1.94721	2.86356		
0.570107	2.68189	1.68304	2.46557	0.569323	2.68206	1.75753	2.56884	1.79782	2.63052	1.85361	2.71206			1.68686	2.46404	1.71562	2.50855	1.81633	2.66048	1.9493	2.85694		
0.564181	2.68314	1.68751	2.46379	0.563396	2.6833	1.76244	2.56735	1.8027	2.6288	1.85921	2.71109			1.69136	2.46231	1.72196	2.50936	1.82211	2.65995	1.95143	2.85043		
0.55825	2.68439	1.69201	2.46206	0.557465	2.68456	1.76725	2.56573	1.80767	2.6272	1.86484	2.71019			1.69588	2.46062	1.72831	2.51017	1.82788	2.65941	1.95361	2.84403		
0.552315	2.68565	1.69653	2.46039	0.55153	2.68582	1.77196	2.56399	1.81273	2.62574	1.87051	2.70935			1.70042	2.45899	1.73466	2.51097	1.83363	2.65885	1.95584	2.83774		
0.546378	2.68693	1.70108	2.45876	0.545592	2.6871	1.77659	2.56214	1.81786	2.62441	1.87622	2.70856			1.705	2.4574	1.74101	2.51178	1.83936	2.65827	1.95812	2.83156		
0.540438	2.68822	1.70566	2.45718	0.539652	2.68839	1.78114	2.56017	1.82308	2.62321	1.88195	2.70782			1.7096	2.45586	1.74736	2.51258	1.84508	2.65767	1.96045	2.8255		
0.534498	2.68954	1.71026	2.45565	0.533711	2.68971	1.78561	2.55811	1.82838	2.62212	1.88771	2.70712			1.71422	2.45438	1.75371	2.51337	1.85078	2.65705	1.96283	2.81956		
0.528556	2.69089	1.71489	2.45417	0.52777	2.69107	1.79001	2.55596	1.83375	2.62116	1.8935	2.70646			1.71888	2.45294	1.76007	2.51416	1.85646	2.6564	1.96526	2.81373		
0.522616	2.69227	1.71955	2.45273	0.521829	2.69245	1.79434	2.55374	1.8392	2.6203	1.8993	2.70583			1.72356	2.45155	1.76642	2.51495	1.86211	2.65572	1.96775	2.80801		
0.516676	2.69369	1.72424	2.45135	0.51589	2.69388	1.79861	2.55144	1.84471	2.61954	1.90513	2.70524			1.72827	2.45021	1.77278	2.51573	1.86774	2.65502	1.97029	2.80241		
0.510739	2.69516	1.72895	2.45002	0.509953	2.69536	1.80284	2.54909	1.85028	2.61887	1.91097	2.70468			1.73301	2.44891	1.77913	2.51651	1.87335	2.65428	1.97289	2.79694		
0.504805	2.69668	1.73369	2.44873	0.50402	2.69688	1.80702	2.54669	1.85592	2.61829	1.91683	2.70414			1.73778	2.44767	1.78548	2.51728	1.87893	2.65351	1.97556	2.79158		
0.498875	2.69826	1.73846	2.44749	0.49809	2.69847	1.81115	2.54425	1.8616	2.61779	1.92271	2.70363			1.74257	2.44647	1.79184	2.51805	1.88447	2.65269	1.97829	2.78635		
0.492949	2.6999	1.74326	2.4463	0.492165	2.70013	1.81526	2.54178	1.86732	2.61735	1.92859	2.70314			1.74739	2.44532	1.79819	2.51881	1.88998	2.65184	1.98108	2.78125		
0.48703	2.70163	1.74809	2.44516	0.486247	2.70186	1.81934	2.53928	1.87309	2.61697	1.93449	2.70266			1.75225	2.44422	1.80454	2.51956	1.89545	2.65093	1.98394	2.77627		
0.481118	2.70343	1.75295	2.44406	0.480336	2.70368	1.8234	2.53678	1.8789	2.61665	1.9404	2.70221			1.75713	2.44316	1.81089	2.52031	1.90089	2.64998	1.98687	2.77143		
0.475214	2.70534	1.75783	2.44301	0.474433	2.70559	1.82744	2.53426	1.88474	2.61638	1.94632	2.70177			1.76203	2.44215	1.81724	2.52105	1.90628	2.64898	1.98988	2.76672		
0.46932	2.70734	1.76274	2.44201	0.468541	2.70762	1.83146	2.53174	1.89062	2.61615	1.95224	2.70134			1.76697	2.44118	1.82359	2.52178	1.91163	2.64792	1.99296	2.76214		
0.463437	2.70947	1.76768	2.44105	0.46266	2.70976	1.83548	2.52923	1.89651	2.61596	1.95818	2.70093			1.77193	2.44026	1.82994	2.52251	1.91692	2.6468	1.99612	2.7577		
0.457567	2.71173	1.77265	2.44013	0.456791	2.71205	1.83949	2.52672	1.90244	2.6158	1.96412	2.70052			1.77692	2.43938	1.83628	2.52323	1.92217	2.64561	1.99937	2.75341		
0.451712	2.71415	1.77764	2.43926	0.450938	2.71448	1.8435	2.52422	1.90838	2.61568	1.97006	2.70013			1.78194	2.43855	1.84262	2.52394	1.92736	2.64435	2.0027	2.74926		
0.445873	2.71673	1.78267	2.43843	0.445102	2.71709	1.8475	2.52174	1.91434	2.61558	1.97601	2.69975			1.78699	2.43776	1.84896	2.52465	1.93249	2.64303	2.00612	2.74526		
0.440054	2.71951	1.78772	2.43765	0.439285	2.71989	1.85151	2.51928	1.92032	2.6155	1.98197	2.69937			1.79206	2.43701	1.8553	2.52535	1.93756	2.64163	2.00963	2.74141		
0.434256	2.7225	1.79279	2.4369	0.43349	2.72291	1.85552	2.51683	1.92632	2.61545	1.98792	2.699			1.79716	2.4363	1.86164	2.52604	1.94257	2.64015	2.01324	2.73771		
0.428483	2.72573	1.7979	2.4362	0.42772	2.72618	1.85954	2.51441	1.93232	2.61541	1.99388	2.69864			1.80229	2.43563	1.86797	2.52672	1.94751	2.63859	2.01694	2.73417		
0.422737	2.72925	1.80303	2.43554	0.421979	2.72973	1.86356	2.51202	1.93834	2.61539	1.99984	2.69828			1.80744	2.435	1.8743	2.52739	1.95238	2.63695	2.02075	2.73078		
0.417024	2.73308	1.80819	2.43491	0.416271	2.73361	1.8676	2.50965	1.94437	2.61538	2.00581	2.69793			1.81262	2.43441	1.88062	2.52805	1.95719	2.63522	2.02465	2.72755		
0.411348	2.73727	1.81337	2.43433	0.410599	2.73785	1.87164	2.50731	1.95041	2.61538	2.01177	2.69758			1.81783	2.43386	1.88694	2.5287	1.96192	2.63341	2.02865	2.72448		
0.405712	2.74187	1.81858	2.43378	0.40497	2.74251	1.8757	2.50501	1.95645	2.61539	2.01773	2.69723			1.82306	2.43335	1.89326	2.52935	1.96658	2.63152	2.03276	2.72156		
0.400125	2.74694	1.82381	2.43328	0.39939	2.74765	1.87977	2.50273	1.9625	2.61541	2.0237	2.69688			1.82832	2.43287	1.89957	2.52998	1.97118	2.62955	2.03697	2.7188		
0.394593	2.75256	1.82907	2.43281	0.393865	2.75335	1.88386	2.50049	1.96855	2.61544	2.02966	2.69653			1.8336	2.43243	1.90588	2.5306	1.9757	2.6275	2.04128	2.71619		
0.389123	2.75881	1.83436	2.43237	0.388404	2.75969	1.88796	2.49828	1.97461	2.61547	2.03562	2.69618			1.8389	2.43203	1.91218	2.53121	1.98016	2.62537	2.04569	2.71372		
0.383725	2.76579	1.83967	2.43197	0.383017	2.76678	1.89207	2.4961	1.98067	2.6155	2.04157	2.69584			1.84424	2.43166	1.91847	2.53181	1.98456	2.62318	2.0502	2.7114		
0.378411	2.77361	1.845	2.43161	0.377714	2.77472	1.89621	2.49396	1.98674	2.61554	2.04753	2.69549			1.84959	2.43132	1.92475	2.53239	1.98889	2.62091	2.0548	2.70922		
0.373192	2.78242	1.85036	2.43127	0.372509	2.78367	1.90036	2.49186	1.9928	2.61558	2.05348	2.69513			1.85497	2.43102	1.93103	2.53296	1.99317	2.61859	2.05949	2.70717		
0.368083	2.79236	1.85574	2.43097	0.367416	2.79378	1.90453	2.4898	1.99887	2.61562	2.05942	2.69477			1.86037	2.43074	1.9373	2.53352	1.9974	2.61621	2.06427	2.70524		
0.3631	2.80364	1.86115	2.43071	0.362451	2.80524	1.90872	2.48777	2.00493	2.61566	2.06536	2.69441			1.86579	2.4305	1.94356	2.53405	2.00158	2.61379	2.06913	2.70344		
0.35826	2.81645	1.86658	2.43047	0.357631	2.81827	1.91293	2.48578	2.011	2.6157	2.0713	2.69404			1.87124	2.43029	1.9498	2.53457	2.00571	2.61132	2.07407	2.70175		
0.353584	2.83104	1.87203	2.43027	0.352978	2.83312	1.91716	2.48384	2.01706	2.61573	2.07722	2.69367			1.87671	2.43011	1.95604	2.53507	2.00982	2.60882	2.07908	2.70016		
0.349092	2.84768	1.8775	2.43009	0.348512	2.85005	1.92142	2.48193	2.02312	2.61576	2.08314	2.69328			1.8822	2.42996	1.96226	2.53555	2.01389	2.6063	2.08417	2.69868		
0.344804	2.86667	1.88299	2.42994	0.344253	2.86937	1.9257	2.48008	2.02917	2.61579	2.08905	2.69289			1.88771	2.42984	1.96846	2.536	2.01794	2.60377	2.08932	2.69729		
0.340743	2.88831	1.88851	2.42983	0.340224	2.89139	1.93002	2.47827	2.03522	2.61581	2.09495	2.69248			1.89324	2.42975	1.97464	2.53643	2.02197	2.60122	2.09453	2.69598		
0.336928	2.91294	1.89404	2.42973	0.336442	2.91644	1.93438	2.47653	2.04127	2.61582	2.10084	2.69207			1.8988	2.42968	1.9808	2.53682	2.02598	2.59868	2.09979	2.69476		
0.333375	2.94089	1.8996	2.42967	0.332925	2.94486	1.93879	2.47487	2.04731	2.61582	2.10671	2.69164			1.90437	2.42963	1.98694	2.53718	2.03	2.59615	2.10511	2.69361		
0.330098	2.97249	1.90517	2.42963	0.329686	2.97696	1.94332	2.47337	2.05334	2.61582	2.11257	2.69119			1.90996	2.42962	1.99305	2.53751	2.03402	2.59363	2.11048	2.69253		
0.327106	3.00805	1.91077	2.42961	0.326732	3.01307	1.9481	2.47219	2.05937	2.61581	2.11842	2.69073			1.91557	2.42962	1.99912	2.53779	2.03805	2.59114	2.11589	2.69151		
0.324403	3.04786	1.91638	2.42962	0.324067	3.05347	1.9534	2.47168	2.06539	2.61579	2.12425	2.69025			1.9212	2.42965	2.00516	2.53802	2.04209	2.58869	2.12134	2.69054		
0.32199	3.09222	1.92201	2.42966	0.321692	3.09845	1.95924	2.47185	2.07139	2.61575	2.13006	2.68975			1.92685	2.4297	2.01115	2.53819	2.04616	2.58629	2.12683	2.68963		
0.319861	3.14139	1.92766	2.42971	0.3196	3.14827	1.96534	2.47234	2.07739	2.6157	2.13585	2.68922			1.93251	2.42978	2.0171	2.5383	2.05027	2.58395	2.13235	2.68877		
0.31801	3.19563	1.93333	2.42979	0.317786	3.20321	1.97153	2.47296	2.08338	2.61564	2.14161	2.68867			1.9382	2.42987	2.02298	2.53833	2.05443	2.58168	2.13791	2.68796		
0.316429	3.25521	1.93902	2.42989	0.316239	3.26351	1.97777	2.47363	2.08935	2.61556	2.14736	2.6881			1.9439	2.42999	2.0288	2.53828	2.05864	2.57949	2.14349	2.68718		
0.315105	3.32041	1.94472	2.43001	0.314948	3.32947	1.98404	2.47432	2.0953	2.61546	2.15307	2.68749			1.94961	2.43013	2.03453	2.53813	2.06292	2.57741	2.1491	2.68644		
0.314027	3.39152	1.95044	2.43015	0.313902	3.40139	1.99031	2.47503	2.10125	2.61535	2.15876	2.68684			1.95535	2.43028	2.04018	2.53788	2.06729	2.57543	2.15473	2.68574		
0.313184	3.46885	1.95617	2.43031	0.313089	3.47957	1.9966	2.47574	2.10717	2.61521	2.16441	2.68616			1.9611	2.43046	2.04573	2.5375	2.07174	2.57359	2.16039	2.68506		
0.312563	3.55278	1.96192	2.43048	0.312497	3.5644	2.0029	2.47646	2.11308	2.61505	2.17002	2.68544			1.96686	2.43065	2.05117	2.53698	2.07631	2.57188	2.16606	2.68442		
0.312154	3.64369	1.96769	2.43068	0.312115	3.65627	2.0092	2.47718	2.11896	2.61487	2.1756	2.68468			1.97264	2.43086	2.05649	2.53633	2.08099	2.57034	2.17175	2.6838		
0.311944	3.74202	1.97347	2.43089	0.31193	3.75562	2.0155	2.47791	2.12482	2.61465	2.18114	2.68387			1.97843	2.43109	2.06169	2.53552	2.0858	2.56896	2.17746	2.6832		
0.311923	3.84829	1.97927	2.43112	0.311933	3.86298	2.02181	2.47863	2.13066	2.61441	2.18663	2.68301			1.98424	2.43133	2.06676	2.53456	2.09074	2.56775	2.18318	2.68262		
0.312079	3.96304	1.98508	2.43137	0.312113	3.97889	2.02812	2.47936	2.13647	2.61414	2.19208	2.6821			1.99006	2.43159	2.07169	2.53344	2.09582	2.56671	2.18892	2.68206		
0.312403	4.0869	1.9909	2.43163	0.312458	4.10402	2.03444	2.48008	2.14225	2.61384	2.19747	2.68113			1.9959	2.43186	2.07651	2.53219	2.10103	2.56584	2.19466	2.68152		
0.312885	4.2206	1.99674	2.4319	0.312959	4.23907	2.04076	2.48081	2.148	2.61349	2.20282	2.68011			2.00174	2.43215	2.08122	2.53081	2.10637	2.56513	2.20042	2.681		
0.313513	4.36493	2.00259	2.43219	0.313607	4.38488	2.04708	2.48153	2.15372	2.61311					2.0076	2.43245	2.08582	2.5293	2.11182	2.56457				
0.314278	4.52082	2.00845	2.4325	0.314389	4.54237	2.0534	2.48225	2.15939	2.61268					2.01348	2.43277	2.09033	2.5277	2.11739	2.56414				
0.31517	4.6893	2.01432	2.43281	0.315297	4.7126	2.05973	2.48297	2.16503	2.61221					2.01936	2.43309	2.09476	2.52601	2.12305	2.56384				
0.316043	4.8473	2.02021	2.43314	0.316321	4.89678	2.06605	2.48369	2.17062	2.61169					2.02526	2.43343	2.09912	2.52425	2.1288	2.56363				
0.316853	4.99093	2.02611	2.43348	0.31745	5.0963	2.07238	2.48441	2.17616	2.61111					2.03117	2.43379	2.10343	2.52243	2.13462	2.56352				
0.317564	5.11636	2.03202	2.43384	0.318675	5.31276	2.07871	2.48512	2.18165	2.61047					2.03709	2.43415	2.1077	2.52057	2.1405	2.56348				
0.318152	5.22009	2.03794	2.4342	0.319985	5.54801	2.08504	2.48584	2.18709	2.60977					2.04302	2.43452	2.11193	2.51868	2.14644	2.56351				
0.318598	5.29905	2.04387	2.43458	0.321369	5.80422	2.09138	2.48655	2.19247	2.609					2.04896	2.43491	2.11613	2.51677	2.15242	2.56359				
0.319018	5.37379	2.04982	2.43497	0.322817	6.08391	2.09771	2.48726	2.19778	2.60816					2.05491	2.4353	2.12031	2.51484	2.15845	2.56372				
0.319315	5.42702	2.05577	2.43536	0.324123	6.34913	2.10405	2.48796	2.20303	2.60725					2.06087	2.43571	2.12447	2.5129	2.16451	2.56389				
0.319788	5.51225	2.06173	2.43577	0.325263	6.59282	2.11039	2.48867							2.06684	2.43612	2.12862	2.51095	2.17059	2.56409				
0.320446	5.63241	2.0677	2.43618	0.326221	6.80782	2.11673	2.48937							2.07282	2.43654	2.13277	2.50901	2.1767	2.56432				
0.321303	5.79176	2.07369	2.4366	0.326986	6.98721	2.12307	2.49007							2.07881	2.43697	2.13691	2.50708	2.18284	2.56457				
0.322371	5.99629	2.07968	2.43704	0.327552	7.12477	2.12941	2.49076							2.08481	2.43741	2.14105	2.50516	2.18899	2.56485				
0.323664	6.25425	2.08568	2.43748	0.328076	7.25581	2.13575	2.49146							2.09082	2.43786	2.14519	2.50325	2.19515	2.56514				
0.325191	6.577	2.09168	2.43792	0.328441	7.34961	2.14209	2.49215							2.09683	2.43831	2.14934	2.50135	2.20133	2.56544				
0.326754	6.93213	2.0977	2.43838	0.329013	7.50072	2.14843	2.49283							2.10285	2.43877	2.15349	2.49947						
0.328343	7.32438	2.10372	2.43884	0.329792	7.71563	2.15477	2.49352							2.10888	2.43924	2.15765	2.49761						
0.329947	7.75954	2.10975	2.4393	0.330779	8.00414	2.16112	2.4942							2.11492	2.43971	2.16183	2.49578						
0.331553	8.24471	2.11579	2.43978	0.331971	8.38059	2.16746	2.49487							2.12097	2.44018	2.16601	2.49396						
0.333151	8.78872	2.12184	2.44025	0.333361	8.86571	2.1738	2.49555							2.12702	2.44067	2.1702	2.49217						
0.33473	9.40272	2.12789	2.44074	0.334937	9.48996	2.18015	2.49622							2.13307	2.44115	2.17441	2.4904						
0.336278	10.1009	2.13394	2.44122	0.33648	10.2006	2.18649	2.49688							2.13914	2.44164	2.17863	2.48866						
0.337784	10.9017	2.14001	2.44171	0.33798	11.0166	2.19283	2.49754							2.1452	2.44214	2.18287	2.48694						
0.339237	11.8296	2.14608	2.44221	0.339425	11.9635	2.19917	2.4982							2.15128	2.44264	2.18712	2.48525						
0.340627	12.9174	2.15215	2.44271	0.340806	13.0756	2.20552	2.49886							2.15736	2.44314	2.19139	2.48359						
0.341943	14.2108	2.15823	2.44321	0.342111	14.4005									2.16344	2.44364	2.19567	2.48196						
0.343175	15.7746	2.16431	2.44371	0.343331	16.0065									2.16952	2.44414	2.19998	2.48036						
0.344313	17.7047	2.1704	2.44422	0.344456	17.9947									2.17561	2.44465	2.2043	2.47878						
0.345348	20.1485	2.17649	2.44472	0.345477	20.5218									2.1817	2.44515								
0.346272	23.3452	2.18258	2.44523	0.346386	23.8439									2.1878	2.44566								
0.347077	27.7101	2.18867	2.44573	0.347175	28.4107									2.19389	2.44616								
0.347758	34.0341	2.19477	2.44623	0.347838	35.091									2.19998	2.44666								
0.348307	44.0309	2.20086	2.44673	0.348369	45.8075									2.20607	2.44715								
0.34872	62.2368			0.348764	65.8335																		
0.348994	105.893			0.34902	116.718																		
0.349127	353.252			0.349133	511.267																		
