Sym0		Asym0		Sym1		Sym2		Sym3		Sym4		Sym5		Asym1		Asym2		Asym3		Asym4		Asym5	
385  Points		381  Points		385  Points		374  Points		365  Points		324  Points		117  Points		381  Points		374  Points		364  Points		172  Points		118  Points	
Freq (MHz)	Vph (m/ms)	Freq (MHz)	Vph (m/ms)	Freq (MHz)	Vph (m/ms)	Freq (MHz)	Vph (m/ms)	Freq (MHz)	Vph (m/ms)	Freq (MHz)	Vph (m/ms)	Freq (MHz)	Vph (m/ms)	Freq (MHz)	Vph (m/ms)	Freq (MHz)	Vph (m/ms)	Freq (MHz)	Vph (m/ms)	Freq (MHz)	Vph (m/ms)	Freq (MHz)	Vph (m/ms)
2.20537	2.52169	0.34614	414.276	2.2044	2.52171	0.692332	391.954	1.3842	625.371	1.47431	876.041	2.07666	16183.5	0.346121	664.147	2.20133	2.58936	1.03868	531.264	1.73049	966.003	1.96559	1339.1
2.19971	2.52186	0.346539	110.26	2.19874	2.52189	0.692822	170.07	1.38347	306.022	1.47502	369.65	2.0766	852.563	0.346457	122.486	2.19651	2.59072	1.03998	243.984	1.73027	422.142	1.96585	520.722
2.19405	2.52205	0.347398	63.7391	2.19309	2.52209	0.693694	108.71	1.38226	202.433	1.47629	234.416	2.07645	437.782	0.347255	67.6126	2.19168	2.59207	1.04213	158.622	1.72988	270.033	1.96634	323.271
2.18842	2.52226	0.348711	44.9503	2.18746	2.5223	0.694939	79.9834	1.38062	151.125	1.47807	171.766	2.0762	294.476	0.348506	46.8212	2.18683	2.59341	1.04498	117.713	1.72932	198.462	1.96705	234.451
2.18279	2.52249	0.350468	34.8201	2.18183	2.52253	0.696546	63.3457	1.37859	120.475	1.48031	135.653	2.07586	221.829	0.350203	35.9156	2.18197	2.59475	1.04838	93.7334	1.72859	156.846	1.96799	183.969
2.17718	2.52273	0.352656	28.5032	2.17622	2.52277	0.6985	52.5056	1.37625	100.088	1.48297	112.177	2.07542	177.914	0.352333	29.2196	2.17709	2.59607	1.05221	77.9873	1.7277	129.626	1.96914	151.417
2.17158	2.52299	0.35526	24.2004	2.17063	2.52303	0.700784	44.8912	1.37363	85.5428	1.48598	95.7012	2.07489	148.496	0.354881	24.7037	2.1722	2.59738	1.05638	66.8614	1.72667	110.43	1.97051	128.689
2.166	2.52326	0.358262	21.09	2.16505	2.52331	0.703381	39.2552	1.37078	74.6403	1.4893	83.506	2.07427	127.411	0.35783	21.4618	2.16728	2.59868	1.0608	58.5854	1.72548	96.1637	1.97208	111.925
2.16043	2.52356	0.361644	18.7432	2.15948	2.52361	0.70627	34.9197	1.36776	66.1629	1.49289	74.118	2.07356	111.557	0.361161	19.0282	2.16234	2.59995	1.06542	52.1901	1.72416	85.1412	1.97384	99.0536
2.15487	2.52387	0.365385	16.9143	2.15392	2.52392	0.709432	31.4843	1.36459	59.3816	1.4967	66.6698	2.07276	99.1995	0.364855	17.1392	2.15738	2.6012	1.07021	47.1009	1.7227	76.3679	1.97579	88.862
2.14933	2.5242	0.369465	15.4526	2.14838	2.52426	0.712848	28.6972	1.36131	53.8335	1.50071	60.6178	2.07188	89.2966	0.36889	15.6342	2.1524	2.60243	1.07513	42.9552	1.72113	69.2179	1.97792	80.5941
2.1438	2.52455	0.373862	14.2604	2.14286	2.52461	0.716497	26.3925	1.35794	49.2102	1.50487	55.6037	2.07093	81.1821	0.373245	14.4096	2.14739	2.60363	1.08015	39.5132	1.71944	63.2781	1.98023	73.7537
2.13829	2.52492	0.378555	13.2713	2.13735	2.52498	0.72036	24.4562	1.35452	45.2984	1.50918	51.3822	2.0699	74.411	0.377899	13.396	2.14234	2.60481	1.08526	36.61	1.71765	58.2647	1.98269	68.0014
2.13279	2.52531	0.383522	12.4392	2.13185	2.52538	0.72442	22.8074	1.35105	41.9458	1.51361	47.7795	2.06879	68.6749	0.38283	12.5447	2.13727	2.60595	1.09044	34.1283	1.71577	53.9761	1.9853	63.0976
2.12731	2.52572	0.388744	11.7307	2.12637	2.52579	0.728658	21.3872	1.34757	39.0408	1.51814	44.6689	2.06762	63.7528	0.388018	11.8209	2.13217	2.60707	1.09569	31.9827	1.7138	50.2656	1.98806	58.8681
2.12184	2.52614	0.394198	11.1209	2.12091	2.52622	0.733059	20.1515	1.34407	36.4996	1.52275	41.9562	2.06639	59.4828	0.392732	11.2739	2.12703	2.60814	1.10098	30.1093	1.71176	47.0234	1.99095	55.1833
2.11639	2.52659	0.399866	10.5914	2.11546	2.52667	0.737605	19.0671	1.34059	34.2583	1.52744	39.5698	2.06509	55.7431	0.396882	10.8588	2.12186	2.60919	1.10631	28.4593	1.70965	44.166	1.99396	51.9447
2.11095	2.52706	0.405728	10.1277	2.11002	2.52715	0.742283	18.108	1.33711	32.267	1.5322	37.4541	2.06375	52.4405	0.400399	10.546	2.11666	2.61019	1.11168	26.995	1.70749	41.6288	1.99708	49.0762
2.10553	2.52755	0.411767	9.71866	2.1046	2.52764	0.747078	17.2537	1.33367	30.4863	1.537	35.5656	2.06235	49.5026	0.403232	10.3161	2.11142	2.61116	1.11707	25.6867	1.70528	39.3607	2.00032	46.518
2.10012	2.52807	0.417963	9.35541	2.0992	2.52816	0.751977	16.4882	1.33026	28.8848	1.54186	33.8695	2.06091	46.872	0.405343	10.156	2.10615	2.6121	1.12249	24.5108	1.70303	37.3211	2.00365	44.2225
2.09473	2.5286	0.4243	9.03084	2.09381	2.52869	0.756968	15.7984	1.3269	27.4371	1.54675	32.3378	2.05942	44.5028	0.406706	10.0572	2.10084	2.61299	1.12792	23.4479	1.70075	35.4772	2.00707	42.1513
2.08935	2.52916	0.430761	8.73918	2.08844	2.52925	0.762039	15.1735	1.32358	26.1223	1.55166	30.9477	2.05791	42.358	0.40868	9.92009	2.0955	2.61385	1.13336	22.4826	1.69845	33.8023	2.01056	40.2732
2.08399	2.52973	0.437331	8.47569	2.08308	2.52983	0.767178	14.6048	1.32033	24.9231	1.55661	29.6804	2.05636	40.4071	0.410847	9.77711	2.09012	2.61466	1.13881	21.6019	1.69614	32.2742	2.01414	38.5624
2.07865	2.53033	0.443993	8.23648	2.07774	2.53044	0.772376	14.0851	1.31714	23.8252	1.56157	28.5203	2.05479	38.6249	0.413827	9.59219	2.08471	2.61544	1.14426	20.7951	1.69382	30.8744	2.01777	36.9976
2.07332	2.53096	0.450732	8.01828	2.07241	2.53107	0.777622	13.6081	1.31402	22.8165	1.56654	27.4541	2.05319	36.9906	0.417646	9.37279	2.07926	2.61619	1.1497	20.0532	1.6915	29.5877	2.02147	35.5608
2.06801	2.5316	0.457534	7.81836	2.0671	2.53171	0.782905	13.1689	1.31099	21.8869	1.57153	26.471	2.05159	35.4865	0.422336	9.12695	2.07379	2.61689	1.15515	19.3686	1.68919	28.401	2.02521	34.237
2.06271	2.53227	0.464384	7.6344	2.06181	2.53239	0.788218	12.7629	1.30803	21.0275	1.57651	25.5615	2.04997	34.0977	0.427928	8.86269	2.06828	2.61757	1.16057	18.7348	1.68689	27.3032	2.029	33.0132
2.05743	2.53296	0.471267	7.46441	2.05653	2.53308	0.793551	12.3865	1.30517	20.2311	1.58149	24.7175	2.04835	32.8114	0.434452	8.58744	2.06274	2.6182	1.16599	18.1463	1.68462	26.2848	2.03282	31.8786
2.05216	2.53368	0.478169	7.30669	2.05127	2.5338	0.798895	12.0364	1.3024	19.4911	1.58647	23.9322	2.04673	31.6169	0.441076	8.33807	2.05718	2.61881	1.17138	17.5984	1.68238	25.3376	2.03667	30.8237
2.04691	2.53441	0.485076	7.15979	2.04602	2.53454	0.804241	11.7098	1.29974	18.8019	1.59143	23.1996	2.04512	30.5048	0.447784	8.11108	2.05158	2.61938	1.17676	17.0867	1.68017	24.4545	2.04055	29.8403
2.04168	2.53517	0.491974	7.02244	2.04079	2.53531	0.809581	11.4044	1.29718	18.1588	1.59638	22.5144	2.04353	29.4668	0.45456	7.90349	2.04596	2.61993	1.1821	16.6079	1.678	23.6294	2.04444	28.9213
2.03646	2.53596	0.498848	6.89352	2.03557	2.5361	0.814223	11.1539	1.29474	17.5575	1.60131	21.8722	2.04195	28.4959	0.461391	7.71282	2.04032	2.62044	1.18742	16.1588	1.67589	22.857	2.04834	28.0605
2.03125	2.53677	0.505684	6.77206	2.03037	2.53691	0.818168	10.9508	1.29241	16.9942	1.60621	21.2688	2.04039	27.5859	0.468261	7.53696	2.03465	2.62093	1.1927	15.7365	1.67383	22.1324	2.05224	27.2525
2.02606	2.5376	0.512468	6.65719	2.02518	2.53774	0.821419	10.7896	1.29021	16.4657	1.61109	20.7009	2.03886	26.7314	0.475156	7.37408	2.02896	2.62139	1.19793	15.3386	1.67183	21.4515	2.05614	26.4926
2.02089	2.53845	0.519185	6.54817	2.02001	2.5386	0.823981	10.6663	1.28814	15.969	1.61593	20.1653	2.03737	25.9274	0.482063	7.22263	2.02325	2.62183	1.20313	14.9631	1.6699	20.8106	2.06003	25.7764
2.01573	2.53933	0.52582	6.44432	2.01485	2.53948	0.82586	10.5777	1.28621	15.5017	1.62074	19.6592	2.03592	25.1699	0.488967	7.08126	2.01752	2.62224	1.20828	14.6079	1.66804	20.2064	2.0639	25.1002
2.01058	2.54023	0.532359	6.34503	2.0097	2.54038	0.827059	10.522	1.28442	15.0612	1.62551	19.1802	2.03451	24.4549	0.495853	6.94879	2.01177	2.62263	1.21337	14.2714	1.66626	19.636	2.06775	24.4606
2.00545	2.54115	0.538787	6.24977	2.00457	2.54131	0.82878	10.4432	1.28277	14.6457	1.63022	18.726	2.03316	23.7791	0.502707	6.82418	2.006	2.62301	1.21841	13.952	1.66457	19.0968	2.07158	23.8547
2.00033	2.54209	0.54509	6.15806	1.99946	2.54226	0.830645	10.3591	1.28129	14.2532	1.63489	18.2948	2.03187	23.1395	0.509516	6.70654	2.00022	2.62336	1.22339	13.6484	1.66297	18.5864	2.07537	23.2798
1.99522	2.54306	0.551253	6.06946	1.99435	2.54323	0.833172	10.2474	1.27996	13.8821	1.63951	17.8846	2.03063	22.5334	0.516264	6.59506	1.99442	2.62369	1.2283	13.3593	1.66147	18.1028	2.07912	22.7334
1.99012	2.54405	0.557262	5.98361	1.98926	2.54422	0.836351	10.1103	1.2788	13.5309	1.64407	17.494	2.02947	21.9582	0.522936	6.48903	1.9886	2.62401	1.23314	13.0836	1.66007	17.6439	2.08282	22.2135
1.98504	2.54506	0.563103	5.90015	1.98417	2.54523	0.840168	9.95023	1.27781	13.1982	1.64856	17.1215	2.02838	21.4119	0.529519	6.38782	1.98278	2.62431	1.23791	12.8203	1.65878	17.2082	2.08647	21.7179
1.97997	2.54608	0.568763	5.81878	1.9791	2.54626	0.844602	9.77009	1.27699	12.8828	1.65298	16.7656	2.02737	20.8923	0.535998	6.29086	1.97694	2.62459	1.2426	12.5685	1.6576	16.794	2.09006	21.2451
1.9749	2.54713	0.574231	5.73924	1.97404	2.54731	0.849628	9.57271	1.27636	12.5835	1.65734	16.4254	2.02645	20.3978	0.542357	6.19766	1.97108	2.62486	1.2472	12.3274	1.65655	16.3999	2.09358	20.7932
1.96985	2.5482	0.579495	5.66129	1.96899	2.54838	0.854579	9.38452	1.27592	12.2994	1.66161	16.0996	2.02562	19.9267	0.548582	6.10775	1.96522	2.62512	1.25172	12.0962	1.65561	16.0246	2.09703	20.3609
1.9648	2.54928	0.584545	5.58474	1.96394	2.54946	0.859447	9.20475	1.27567	12.0294	1.66581	15.7873	2.02489	19.4773	0.55466	6.02075	1.95934	2.62536	1.25615	11.8743	1.65481	15.667	2.10041	19.9468
1.95976	2.55037	0.589374	5.50942	1.9589	2.55056	0.864226	9.03271	1.27562	11.7728	1.66992	15.4876	2.02426	19.0485	0.560576	5.93628	1.95346	2.62559	1.26049	11.6609	1.65415	15.3259	2.10371	19.5497
1.95473	2.55148	0.593974	5.43518	1.95387	2.55167	0.868907	8.86778	1.27574	11.5594	1.67395	15.1997	2.02374	18.6389	0.566317	5.85404	1.94756	2.62581	1.26418	11.4815	1.65363	15.0004	2.10692	19.1685
1.9497	2.5526	0.598341	5.36193	1.94884	2.55279	0.873485	8.70941	1.27597	11.3846	1.67788	14.9227	2.02333	18.2474	0.57187	5.77373	1.94166	2.62602	1.26727	11.3331	1.65325	14.6895	2.11003	18.8022
1.94467	2.55373	0.602472	5.28958	1.94381	2.55392	0.877951	8.55707	1.27624	11.2448	1.68171	14.656	2.02304	17.8729	0.577224	5.69511	1.93575	2.62622	1.26978	11.2134	1.65302	14.3924	2.11305	18.4497
1.93963	2.55487	0.606367	5.21806	1.93878	2.55506	0.8823	8.41031	1.27651	11.1373	1.68544	14.399	2.02288	17.5144	0.582369	5.61797	1.92983	2.62642	1.27174	11.1207	1.65294	14.1083	2.11596	18.1103
1.9346	2.556	0.610027	5.14735	1.93374	2.55619	0.886525	8.26872	1.27675	11.0598	1.68907	14.1511	2.02284	17.171	0.587295	5.54213	1.9239	2.6266	1.27316	11.0534	1.65302	13.8365	2.11877	17.7832
1.92956	2.55713	0.613454	5.07742	1.9287	2.55733	0.89062	8.1319	1.27691	11.0109	1.6926	13.9117	2.02294	16.842	0.591995	5.46744	1.91797	2.62677	1.27406	11.0109	1.65326	13.5763	2.12147	17.4675
1.9245	2.55826	0.616656	5.00827	1.92364	2.55845	0.894578	7.99951	1.27716	10.9415	1.69601	13.6803	2.02317	16.5265	0.596465	5.39377	1.91203	2.62694	1.27535	10.9503	1.65367	13.3271	2.12406	17.1628
1.91943	2.55937	0.619639	4.93992	1.91857	2.55956	0.898397	7.87125	1.27746	10.8674	1.69932	13.4565	2.02355	16.2237	0.600699	5.32104	1.90608	2.6271	1.27674	10.8851	1.65424	13.0883	2.12653	16.8682
1.91434	2.56046	0.62241	4.87239	1.91347	2.56065	0.90207	7.74682	1.27792	10.7686	1.70251	13.2398	2.02407	15.9332	0.604697	5.24916	1.90013	2.62725	1.2786	10.7979	1.65498	12.8594	2.12888	16.5834
1.90923	2.56153	0.624982	4.80571	1.90835	2.5617	0.905593	7.62596	1.27856	10.6469	1.70558	13.0299	2.02474	15.6541	0.608459	5.1781	1.89418	2.6274	1.28092	10.6895	1.65589	12.6399	2.13111	16.3076
1.90408	2.56255	0.627363	4.73993	1.9032	2.56273	0.908964	7.50846	1.27945	10.5043	1.70854	12.8265	2.02556	15.3859	0.611987	5.10783	1.88821	2.62754	1.28367	10.5613	1.65697	12.4292	2.13323	16.0406
1.8989	2.56354	0.629567	4.67508	1.89801	2.5637	0.912179	7.39408	1.28065	10.3434	1.71139	12.6291	2.02652	15.1281	0.615287	5.03834	1.88225	2.62768	1.28681	10.4149	1.65822	12.2269	2.13522	15.7817
1.89367	2.56446	0.631606	4.61121	1.89277	2.56462	0.915237	7.28266	1.28223	10.1667	1.71412	12.4374	2.02765	14.8802	0.618364	4.96964	1.87628	2.62781	1.29031	10.2517	1.65964	12.0327	2.13709	15.5307
1.88838	2.56533	0.633492	4.54836	1.88748	2.56547	0.918137	7.17401	1.28402	9.99795	1.71673	12.2513	2.02892	14.6416	0.621227	4.90175	1.87031	2.62793	1.29368	10.0935	1.66102	11.8696	2.13884	15.2871
1.88304	2.56612	0.635239	4.48657	1.88213	2.56624	0.920877	7.06799	1.28602	9.83683	1.71923	12.0704	2.03035	14.412	0.623884	4.8347	1.86433	2.62805	1.29695	9.94003	1.6623	11.735	2.14047	15.0506
1.87764	2.56683	0.63686	4.42589	1.87671	2.56694	0.923457	6.96446	1.28824	9.6829	1.72132	11.9168	2.03194	14.1908	0.626347	4.76852	1.85835	2.62817	1.30009	9.79098	1.66342	11.6266	2.14199	14.8208
1.87217	2.56745	0.638367	4.36635	1.87123	2.56755	0.92588	6.8633	1.29067	9.53576	1.72304	11.7888	2.03367	13.9777	0.628627	4.70325	1.85236	2.62829	1.30312	9.64616	1.66435	11.5427	2.1434	14.5975
1.86664	2.56798	0.639773	4.30798	1.86569	2.56806	0.928147	6.7644	1.2933	9.39504	1.72441	11.6849	2.03556	13.7723	0.630736	4.63895	1.84638	2.6284	1.30603	9.50538	1.66506	11.482	2.1447	14.3804
1.86104	2.56843	0.64109	4.2508	1.86007	2.5685	0.930259	6.66767	1.29613	9.2604	1.72547	11.6039	2.0376	13.5741	0.632687	4.57565	1.84039	2.62851	1.30883	9.36844	1.66553	11.4436	2.1459	14.1692
1.85537	2.56879	0.642329	4.19484	1.8544	2.56884	0.93222	6.57302	1.29916	9.1315	1.72623	11.5451	2.03979	13.383	0.634493	4.51339	1.8344	2.62861	1.31153	9.2352	1.66621	11.389	2.147	13.9637
1.84964	2.56907	0.643503	4.14012	1.84866	2.5691	0.934034	6.48038	1.30238	9.00802	1.72672	11.5077	2.04212	13.1985	0.636167	4.45223	1.82841	2.62872	1.31412	9.10549	1.66698	11.3304	2.148	13.7637
1.84386	2.56927	0.64462	4.08664	1.84287	2.56929	0.935705	6.38968	1.30578	8.88967	1.7274	11.4544	2.04458	13.0202	0.637722	4.39218	1.82241	2.62882	1.31661	8.97918	1.66805	11.252	2.14892	13.5689
1.83803	2.5694	0.645692	4.03442	1.83703	2.56942	0.937238	6.30086	1.30935	8.77615	1.72813	11.397	2.04719	12.848	0.639171	4.3333	1.81641	2.62892	1.319	8.85615	1.66945	11.1548	2.14975	13.3793
1.83215	2.56947	0.646596	3.98994	1.83114	2.56948	0.938637	6.21388	1.3131	8.6672	1.7291	11.3197	2.04992	12.6816	0.640525	4.2756	1.81042	2.62902	1.32131	8.73631	1.67124	11.0403	2.15052	13.1945
1.82623	2.56949	0.647348	3.95278	1.82522	2.56948	0.939908	6.12868	1.317	8.56256	1.73031	11.2234	2.05279	12.5205	0.641797	4.2191	1.80442	2.62911	1.32354	8.61954	1.67343	10.9099	2.15121	13.0145
1.82028	2.56945	0.647961	3.92257	1.81926	2.56944	0.941058	6.04522	1.32105	8.46197	1.73171	11.1091	2.05577	12.3647	0.642998	4.16384	1.79842	2.62921	1.32569	8.50576	1.67609	10.7653	2.15184	12.8391
1.81429	2.56938	0.648441	3.89902	1.81327	2.56936	0.942092	5.96347	1.32525	8.3652	1.7333	10.9777	2.05846	12.233	0.644139	4.10982	1.79241	2.62931	1.32779	8.39491	1.6789	10.6258	2.15242	12.6681
1.80828	2.56926	0.648791	3.88189	1.80726	2.56924	0.943016	5.88339	1.32958	8.27203	1.73505	10.8305	2.06082	12.1235	0.64523	4.05705	1.78641	2.6294	1.32983	8.28692	1.68184	10.4912	2.15295	12.5015
1.80225	2.56911	0.649015	3.87101	1.80122	2.56908	0.943838	5.80495	1.33402	8.18225	1.73673	10.687	2.06282	12.0349	0.646279	4.00553	1.78041	2.6295	1.33183	8.18173	1.68491	10.3612	2.15337	12.3597
1.7962	2.56893	0.649335	3.85549	1.79517	2.5689	0.944563	5.72812	1.33859	8.09565	1.73833	10.5471	2.06443	11.9661	0.647298	3.95528	1.77441	2.6296	1.33379	8.07929	1.68811	10.2357	2.15372	12.2412
1.79013	2.56873	0.649682	3.83877	1.78909	2.56869	0.945198	5.65287	1.34325	8.01205	1.73988	10.4108	2.06562	11.9161	0.648293	3.90629	1.76841	2.62969	1.33574	7.97956	1.69143	10.1143	2.15399	12.1449
1.78404	2.5685	0.650153	3.81628	1.78301	2.56846	0.945749	5.57918	1.348	7.93125	1.74138	10.2778	2.0664	11.8844	0.649272	3.85854	1.76241	2.62979	1.33769	7.88252	1.69485	9.99684	2.15421	12.0699
1.77795	2.56825	0.650749	3.78826	1.7769	2.56821	0.946223	5.50701	1.35284	7.85309	1.74284	10.1482	2.06752	11.8392	0.650243	3.81204	1.75641	2.62989	1.33964	7.78814	1.69839	9.88317	2.15436	12.0152
1.77184	2.56799	0.65147	3.75498	1.77079	2.56794	0.946626	5.43636	1.35775	7.77741	1.74426	10.0218	2.06874	11.7906	0.651212	3.76677	1.75041	2.63	1.34162	7.69639	1.70202	9.77308	2.15445	11.9805
1.76571	2.5677	0.65232	3.71681	1.76467	2.56765	0.946965	5.36718	1.36272	7.70404	1.74565	9.89862	2.07043	11.7253	0.652187	3.72272	1.74441	2.6301	1.34363	7.60727	1.70574	9.66637	2.15459	11.931
1.75958	2.5674	0.653306	3.67412	1.75854	2.56735	0.947244	5.29946	1.36773	7.63283	1.74703	9.77849	2.07259	11.6441	0.653171	3.67987	1.73841	2.63021	1.34571	7.52077	1.70954	9.56287	2.15474	11.8776
1.75345	2.56709	0.654309	3.63262	1.7524	2.56703	0.947472	5.23318	1.37279	7.56365	1.7484	9.66139	2.07525	11.5478	0.654171	3.63821	1.73241	2.63032	1.34786	7.43688	1.71342	9.46243	2.15493	11.8058
1.7473	2.56676	0.655332	3.59229	1.74625	2.56671	0.947652	5.1683	1.37787	7.49637	1.74977	9.54724	2.07842	11.4375	0.655191	3.59771	1.72642	2.63043	1.3501	7.35561	1.71736	9.36487	2.15518	11.7161
1.74115	2.56642	0.656381	3.5531	1.7401	2.56636	0.94779	5.10482	1.38298	7.43084	1.75115	9.436	2.08213	11.3142	0.656236	3.55837	1.72043	2.63055	1.35246	7.27697	1.72136	9.27006	2.15548	11.6096
1.73499	2.56607	0.657459	3.51503	1.73394	2.56601	0.947892	5.0427	1.38808	7.36696	1.75256	9.3276	2.08591	11.1944	0.65731	3.52015	1.71444	2.63068	1.35494	7.20095	1.72542	9.17784	2.15584	11.4871
1.72883	2.56571	0.658571	3.47807	1.72778	2.56565	0.947963	4.98192	1.39319	7.30461	1.754	9.222	2.08974	11.0778	0.658417	3.48304	1.70845	2.63081	1.35759	7.12758	1.72951	9.08809	2.15625	11.3498
1.72266	2.56535	0.659719	3.44218	1.72161	2.56528	0.948007	4.92246	1.39828	7.24367	1.75548	9.11915	2.09363	10.9643	0.65956	3.44701	1.70247	2.63094	1.3604	7.05686	1.73365	9.00067	2.15669	11.2158
1.71649	2.56497	0.660906	3.40736	1.71543	2.5649	0.948029	4.8643	1.40335	7.18405	1.75701	9.01899	2.09756	10.8537	0.660742	3.41204	1.69649	2.63108	1.36341	6.98881	1.73781	8.91547	2.15714	11.0852
1.71031	2.56458	0.662136	3.37357	1.70926	2.56451	0.948035	4.80741	1.40838	7.12565	1.7586	8.92149	2.10153	10.746	0.661966	3.37811	1.69051	2.63123	1.36663	6.92343	1.74199	8.83236	2.15763	10.9578
1.70413	2.56419	0.663411	3.34079	1.70308	2.56412	0.948027	4.75177	1.41337	7.06837	1.76026	8.8266	2.10554	10.6409	0.663235	3.34519	1.68454	2.63139	1.37008	6.86074	1.74618	8.75124	2.15816	10.8335
1.69795	2.56378	0.664733	3.30899	1.69689	2.56372	0.94801	4.69736	1.41831	7.01213	1.762	8.73428	2.10957	10.5384	0.66455	3.31327	1.67858	2.63155	1.37379	6.80072	1.75038	8.672	2.15873	10.7123
1.69176	2.56338	0.666104	3.27817	1.69071	2.5633	0.947988	4.64416	1.42317	6.95684	1.76383	8.64448	2.11362	10.4383	0.665914	3.28231	1.67262	2.63173	1.37776	6.74337	1.75458	8.59454	2.15935	10.5941
1.68557	2.56296	0.667527	3.24828	1.68452	2.56289	0.947965	4.59213	1.42797	6.90242	1.76576	8.55717	2.11768	10.3405	0.66733	3.2523	1.66666	2.63191	1.38202	6.68867	1.75876	8.51877	2.16003	10.4788
1.67938	2.56254	0.669002	3.21931	1.67833	2.56246	0.947943	4.54127	1.43268	6.84881	1.7678	8.4723	2.12175	10.245	0.668798	3.22321	1.66071	2.63211	1.38657	6.6366	1.76293	8.4446	2.16078	10.3664
1.67319	2.56211	0.670531	3.19124	1.67213	2.56203	0.947926	4.49154	1.4373	6.79593	1.76995	8.38984	2.12583	10.1516	0.670319	3.19501	1.65477	2.63232	1.39143	6.5871	1.76708	8.37194	2.16159	10.2567
1.667	2.56167	0.672116	3.16403	1.66594	2.5616	0.947918	4.44293	1.44182	6.74371	1.77223	8.30975	2.1299	10.0601	0.671897	3.16769	1.64884	2.63254	1.3966	6.54014	1.7712	8.30072	2.16248	10.1498
1.6608	2.56123	0.673757	3.13768	1.65974	2.56116	0.947921	4.3954	1.44622	6.69211	1.77464	8.23198	2.13396	9.97065	0.67353	3.14122	1.64291	2.63278	1.40209	6.49563	1.77529	8.23085	2.16346	10.0456
1.6546	2.56079	0.675457	3.11215	1.65354	2.56071	0.947938	4.34895	1.45052	6.64106	1.77719	8.1565	2.138	9.88301	0.675222	3.11558	1.637	2.63304	1.40789	6.45351	1.77933	8.16228	2.16452	9.94401
1.6484	2.56034	0.677215	3.08743	1.64734	2.56026	0.947972	4.30355	1.45468	6.59052	1.77988	8.08326	2.14203	9.79712	0.676972	3.09075	1.63109	2.63331	1.41399	6.41368	1.78333	8.09493	2.16568	9.84496
1.6422	2.55988	0.679032	3.06349	1.64114	2.5598	0.948025	4.25917	1.45872	6.54044	1.78272	8.01222	2.14603	9.71292	0.678781	3.0667	1.6252	2.63361	1.42041	6.37604	1.78727	8.02874	2.16693	9.74841
1.636	2.55942	0.680909	3.04031	1.63494	2.55934	0.948099	4.21581	1.46262	6.49078	1.78573	7.94334	2.15	9.63032	0.68065	3.04342	1.61931	2.63392	1.42712	6.34048	1.79116	7.96365	2.16829	9.6543
1.6298	2.55895	0.682847	3.01787	1.62874	2.55887	0.948197	4.17342	1.46638	6.44151	1.78889	7.87657	2.15394	9.54925	0.68258	3.02088	1.61344	2.63426	1.43411	6.30689	1.79498	7.89961	2.16975	9.56257
1.62359	2.55848	0.684846	2.99615	1.62254	2.5584	0.948321	4.132	1.47	6.3926	1.79222	7.81185	2.15784	9.46966	0.68457	2.99907	1.60759	2.63463	1.44137	6.27515	1.79874	7.83656	2.17133	9.47318
1.61739	2.558	0.686906	2.97513	1.61633	2.55792	0.948472	4.09153	1.47347	6.34401	1.79571	7.74915	2.16169	9.39148	0.686622	2.97795	1.60175	2.63502	1.44889	6.24515	1.80242	7.77447	2.17302	9.38607
1.61118	2.55752	0.689028	2.95479	1.61013	2.55744	0.948653	4.05198	1.47678	6.29574	1.79938	7.68841	2.1655	9.31464	0.688735	2.95752	1.59593	2.63545	1.45665	6.21676	1.80604	7.71329	2.17483	9.30119
1.60498	2.55704	0.691212	2.93511	1.60392	2.55695	0.948865	4.01333	1.47994	6.24776	1.80321	7.62957	2.16925	9.2391	0.69091	2.93775	1.59013	2.63591	1.46463	6.18988	1.80957	7.65298	2.17676	9.21848
1.59877	2.55655	0.693457	2.91607	1.59771	2.55646	0.949111	3.97557	1.48295	6.20006	1.80722	7.57259	2.17296	9.16481	0.693147	2.91863	1.58435	2.63641	1.47282	6.16438	1.81303	7.5935	2.17881	9.13789
1.59256	2.55605	0.695764	2.89766	1.59151	2.55597	0.949391	3.93867	1.4858	6.15263	1.81139	7.5174	2.1766	9.09171	0.695446	2.90013	1.57859	2.63695	1.4812	6.14016	1.81641	7.53484	2.181	9.05937
1.58636	2.55556	0.698133	2.87985	1.5853	2.55547	0.949707	3.90263	1.4885	6.10546	1.81573	7.46394	2.18019	9.01977	0.697807	2.88224	1.57285	2.63754	1.48976	6.11711	1.81971	7.47695	2.1833	8.98286
1.58015	2.55505	0.700564	2.86263	1.57909	2.55497	0.95006	3.86741	1.49104	6.05856	1.82024	7.41217	2.18372	8.94893	0.700229	2.86494	1.56714	2.63818	1.49847	6.09515	1.82292	7.41982	2.18574	8.90832
1.57394	2.55455	0.703056	2.84598	1.57289	2.55446	0.950452	3.833	1.49344	6.01192	1.82491	7.36201	2.18718	8.87917	0.702713	2.84822	1.56146	2.63887	1.50733	6.07416	1.82606	7.36342	2.18831	8.83569
1.56774	2.55404	0.70561	2.82989	1.56668	2.55395	0.950885	3.79939	1.49568	5.96555	1.82973	7.3134	2.19058	8.81045	0.705259	2.83205	1.55582	2.63962	1.51631	6.05407	1.82911	7.30774	2.191	8.76492
1.56153	2.55353	0.708225	2.81433	1.56047	2.55344	0.951358	3.76656	1.49778	5.91945	1.83471	7.26628	2.19392	8.74273	0.707866	2.81642	1.5502	2.64043	1.52541	6.0348	1.83209	7.25277	2.19383	8.69595
1.55533	2.55301	0.710901	2.7993	1.55427	2.55292	0.951873	3.73448	1.49974	5.87363	1.83984	7.22059	2.19719	8.67599	0.710533	2.80132	1.54463	2.64131	1.5346	6.01625	1.83499	7.1985	2.19678	8.62874
1.54912	2.55249	0.713638	2.78477	1.54806	2.5524	0.952431	3.70315	1.50156	5.82809	1.8451	7.17627	2.2004	8.6102	0.713262	2.78672	1.53909	2.64227	1.54388	5.99837	1.83782	7.14493	2.19986	8.56322
1.54291	2.55197	0.716435	2.77074	1.54186	2.55188	0.953034	3.67254	1.50325	5.78285	1.8505	7.13325			0.71605	2.77262	1.5336	2.64331	1.55323	5.98107	1.84058	7.09205	2.20307	8.49935
1.53671	2.55145	0.719292	2.75719	1.53565	2.55136	0.953681	3.64265	1.50481	5.73793	1.85603	7.09147			0.718899	2.759	1.52815	2.64444	1.56264	5.9643	1.84328	7.03986		
1.53051	2.55092	0.722208	2.74409	1.52945	2.55083	0.954374	3.61345	1.50625	5.69332	1.86167	7.05087			0.721807	2.74585	1.52275	2.64566	1.57209	5.94798	1.84592	6.98837		
1.5243	2.55039	0.725184	2.73145	1.52325	2.5503	0.955114	3.58493	1.50757	5.64904	1.86742	7.01139			0.724775	2.73315	1.51741	2.64699	1.58157	5.93206	1.84852	6.9376		
1.5181	2.54986	0.728218	2.71925	1.51704	2.54977	0.955901	3.55708	1.50878	5.6051	1.87327	6.97296			0.727801	2.72089	1.51212	2.64842	1.59106	5.91646	1.85108	6.88755		
1.5119	2.54932	0.731311	2.70747	1.51084	2.54923	0.956736	3.52988	1.50988	5.56152	1.87922	6.93552			0.730887	2.70905	1.50689	2.64997	1.60056	5.90114	1.8536	6.83824		
1.5057	2.54879	0.734463	2.69611	1.50464	2.54869	0.957619	3.50331	1.51088	5.51831	1.88525	6.89902			0.73403	2.69763	1.50172	2.65163	1.61004	5.88603	1.85611	6.78969		
1.4995	2.54825	0.737672	2.68515	1.49845	2.54815	0.958552	3.47737	1.51178	5.47547	1.89135	6.8634			0.737232	2.68662	1.49661	2.65342	1.61949	5.87107	1.85861	6.74193		
1.49331	2.54771	0.740939	2.67457	1.49225	2.54761	0.959534	3.45204	1.5126	5.43302	1.89752	6.8286			0.740491	2.67599	1.49157	2.65535	1.6289	5.85619	1.86112	6.69499		
1.48711	2.54717	0.744265	2.66439	1.48606	2.54707	0.960566	3.4273	1.51333	5.39097	1.90374	6.79456			0.743808	2.66575	1.48659	2.65741	1.63825	5.84135	1.86365	6.64891		
1.48092	2.54662	0.747647	2.65457	1.47986	2.54653	0.96165	3.40315	1.51398	5.34932	1.91	6.76123			0.747183	2.65588	1.48169	2.65961	1.64752	5.82646	1.86622	6.60371		
1.47473	2.54608	0.751088	2.64512	1.47367	2.54599	0.962784	3.37957	1.51456	5.30808	1.9163	6.72856			0.750616	2.64638	1.47685	2.66195	1.65669	5.81147	1.86885	6.55946		
1.46854	2.54554	0.754588	2.63602	1.46749	2.54545	0.963969	3.35654	1.51507	5.26727	1.92262	6.6965			0.754108	2.63724	1.47208	2.66444	1.66574	5.79629	1.87156	6.51619		
1.46236	2.54499	0.758149	2.62728	1.4613	2.5449	0.965207	3.33406	1.51551	5.22689	1.92895	6.66499			0.75766	2.62845	1.46738	2.66707	1.67464	5.78087	1.87437	6.47396		
1.45617	2.54445	0.761771	2.61889	1.45512	2.54436	0.966496	3.31212	1.5159	5.18694	1.93528	6.63398			0.761274	2.62002	1.46275	2.66986	1.68338	5.76511	1.8773	6.43284		
1.44999	2.54391	0.76546	2.61086	1.44894	2.54382	0.967839	3.2907	1.51623	5.14743	1.9416	6.60342			0.764953	2.61194	1.45819	2.67279	1.69193	5.74894	1.88039	6.39288		
1.44382	2.54337	0.76922	2.6032	1.44276	2.54328	0.969234	3.26979	1.51651	5.10837	1.94791	6.57327			0.768703	2.60422	1.4537	2.67587	1.70025	5.73228	1.88366	6.35415		
1.43764	2.54283	0.773062	2.59593	1.43659	2.54274	0.970682	3.24938	1.51675	5.06976	1.95418	6.54348			0.772534	2.5969	1.44927	2.6791	1.70832	5.71505	1.88714	6.31673		
1.43147	2.54229	0.777003	2.58911	1.43042	2.5422	0.972183	3.22946	1.51694	5.03159	1.9604	6.514			0.776459	2.59001	1.44491	2.68248	1.71612	5.69715	1.89086	6.28068		
1.42531	2.54176	0.781072	2.58281	1.42426	2.54167	0.973738	3.21002	1.51709	4.99389	1.96657	6.48478			0.780509	2.58363	1.44061	2.686	1.72361	5.67851	1.89486	6.24607		
1.41915	2.54123	0.785324	2.5772	1.4181	2.54114	0.975347	3.19105	1.51721	4.95663	1.97268	6.45579			0.784731	2.57792	1.43637	2.68967	1.73076	5.65906	1.89915	6.21297		
1.41299	2.54071	0.789843	2.57255	1.41194	2.54062	0.97701	3.17254	1.5173	4.91984	1.9787	6.42698			0.789208	2.57312	1.4322	2.69349	1.73755	5.63872	1.90377	6.18142		
1.40684	2.54019	0.794733	2.56917	1.40579	2.5401	0.978727	3.15448	1.51736	4.8835	1.98464	6.39831			0.794042	2.56955	1.42808	2.69745	1.74396	5.61746	1.90874	6.15148		
1.4007	2.53967	0.800033	2.56716	1.39965	2.53958	0.980498	3.13687	1.5174	4.84762	1.99048	6.36974			0.799289	2.56736	1.42401	2.70155	1.74997	5.59523	1.91409	6.12316		
1.39456	2.53916	0.805673	2.56625	1.39351	2.53908	0.982324	3.11968	1.51741	4.81219	1.9962	6.34124			0.804889	2.56633	1.42001	2.70579	1.75557	5.57202	1.91981	6.09648		
1.38843	2.53866	0.811533	2.56606	1.38738	2.53858	0.984205	3.10291	1.51741	4.77723	2.0018	6.31276			0.810725	2.56606	1.41606	2.71017	1.76075	5.54782	1.92593	6.07142		
1.3823	2.53817	0.817525	2.56628	1.38126	2.53809	0.986141	3.08656	1.51739	4.74272	2.00727	6.28427			0.816703	2.56624	1.41215	2.7147	1.76551	5.52268	1.93244	6.04796		
1.37618	2.53769	0.823595	2.56675	1.37514	2.53761	0.988132	3.07062	1.51736	4.70866	2.01259	6.25575			0.822765	2.56667	1.40831	2.71936	1.76986	5.49662	1.93934	6.02602		
1.37008	2.53723	0.829712	2.56735	1.36904	2.53715	0.990178	3.05507	1.51732	4.67505	2.01776	6.22716			0.828877	2.56726	1.40451	2.72416	1.77382	5.46971	1.94661	6.00556		
1.36398	2.53677	0.835859	2.56803	1.36294	2.53669	0.99228	3.03992	1.51727	4.64189	2.02277	6.19848			0.83502	2.56794	1.40076	2.7291	1.7774	5.44203	1.95424	5.98649		
1.35789	2.53633	0.842026	2.56877	1.35685	2.53626	0.994438	3.02514	1.51721	4.60918	2.02761	6.16968			0.841185	2.56867	1.39705	2.73418	1.78062	5.41365	1.96221	5.96871		
1.35181	2.53591	0.848205	2.56953	1.35077	2.53583	0.996651	3.01074	1.51715	4.57691	2.03227	6.14076			0.847363	2.56943	1.3934	2.73939	1.78351	5.38465	1.97049	5.95213		
1.34574	2.5355	0.854394	2.57031	1.34471	2.53543	0.998921	2.99671	1.51709	4.54508	2.03675	6.11168			0.85355	2.57021	1.38979	2.74475	1.78609	5.35514	1.97907	5.93666		
1.33969	2.53511	0.860588	2.5711	1.33866	2.53505	1.00125	2.98304	1.51702	4.51369	2.04104	6.08245			0.859744	2.571	1.38622	2.75024	1.78839	5.32519	1.98791	5.9222		
1.33365	2.53475	0.866787	2.57189	1.33262	2.53469	1.00363	2.96973	1.51696	4.48273	2.04514	6.05304			0.865942	2.57179	1.3827	2.75587	1.79042	5.29488	1.997	5.90865		
1.32762	2.53442	0.872989	2.57268	1.3266	2.53436	1.00607	2.95676	1.5169	4.45221	2.04905	6.02347			0.872144	2.57257	1.37923	2.76165	1.79223	5.2643	2.00631	5.89593		
1.32162	2.53411	0.879193	2.57346	1.32059	2.53406	1.00857	2.94414	1.51685	4.4221	2.05276	5.99372			0.878347	2.57336	1.37579	2.76756	1.79382	5.2335	2.01581	5.88396		
1.31563	2.53383	0.885397	2.57424	1.31461	2.53379	1.01113	2.93185	1.5168	4.39242	2.05628	5.96381			0.884552	2.57413	1.37241	2.77362	1.79522	5.20257	2.02549	5.87266		
1.30966	2.53359	0.891602	2.57501	1.30864	2.53356	1.01374	2.9199	1.51677	4.36316	2.0596	5.93372			0.890757	2.5749	1.36906	2.77981	1.79646	5.17156	2.03532	5.86196		
1.30371	2.53339	0.897808	2.57576	1.30269	2.53336	1.01641	2.90827	1.51674	4.33431	2.06272	5.90349			0.896962	2.57566	1.36575	2.78616	1.79753	5.14051	2.0453	5.8518		
1.29778	2.53323	0.904013	2.57651	1.29677	2.53321	1.01915	2.89696	1.51672	4.30587	2.06566	5.87311			0.903167	2.57641	1.36249	2.79264	1.79847	5.10948	2.0554	5.84212		
1.29188	2.53312	0.910217	2.57724	1.29087	2.53311	1.02194	2.88597	1.51672	4.27783	2.06841	5.84259			0.909372	2.57714	1.35927	2.79928	1.79928	5.0785	2.0656	5.83287		
1.286	2.53306	0.916421	2.57797	1.285	2.53306	1.02479	2.8753	1.51672	4.25019	2.07098	5.81197			0.915576	2.57787	1.35609	2.80606	1.79999	5.04761	2.0759	5.824		
1.28016	2.53306	0.922624	2.57868	1.27916	2.53307	1.02771	2.86493	1.51675	4.22295	2.07337	5.78124			0.921779	2.57858	1.35295	2.813	1.80059	5.01685	2.08627	5.81546		
1.27434	2.53312	0.928826	2.57938	1.27335	2.53313	1.03069	2.85487	1.51678	4.1961	2.07559	5.75044			0.927981	2.57928	1.34985	2.82008	1.80111	4.98623	2.09671	5.80722		
1.26856	2.53324	0.935026	2.58006	1.26758	2.53327	1.03373	2.84512	1.51684	4.16963	2.07765	5.71957			0.934181	2.57997	1.34679	2.82732	1.80155	4.95578	2.10721	5.79924		
1.26281	2.53344	0.941225	2.58074	1.26183	2.53348	1.03684	2.83566	1.51691	4.14355	2.07954	5.68867			0.940381	2.58065	1.34377	2.83472	1.80191	4.92553	2.11776	5.79148		
1.2571	2.53372	0.947423	2.5814	1.25613	2.53377	1.04001	2.8265	1.517	4.11784	2.08129	5.65774			0.946579	2.58131	1.34079	2.84227	1.80222	4.89549	2.12833	5.7839		
1.25143	2.53408	0.953619	2.58205	1.25047	2.53415	1.04325	2.81764	1.51711	4.09251	2.0829	5.62681			0.952775	2.58196	1.33785	2.84998	1.80247	4.86567	2.13893	5.77648		
1.24581	2.53452	0.959814	2.58269	1.24485	2.53461	1.04656	2.80908	1.51724	4.06754	2.08437	5.59589			0.95897	2.5826	1.33496	2.85786	1.80267	4.83609	2.14954	5.76918		
1.24022	2.53506	0.966008	2.58331	1.23928	2.53517	1.04994	2.8008	1.51739	4.04294	2.08571	5.56502			0.965164	2.58323	1.3321	2.86589	1.80282	4.80675	2.16015	5.76197		
1.23469	2.53571	0.972199	2.58393	1.23375	2.53583	1.0534	2.79282	1.51756	4.01869	2.08692	5.53419			0.971356	2.58384	1.32928	2.8741	1.80294	4.77768	2.17074	5.75482		
1.2292	2.53645	0.978389	2.58453	1.22826	2.53659	1.05692	2.78514	1.51776	3.9948	2.08803	5.50344			0.977546	2.58445	1.3265	2.88247	1.80303	4.74886	2.18132	5.74769		
1.22375	2.5373	0.984577	2.58512	1.22283	2.53746	1.06053	2.77774	1.51798	3.97126	2.08902	5.47278			0.983735	2.58504	1.32377	2.89102	1.80308	4.72033	2.19186	5.74056		
1.21836	2.53826	0.990764	2.5857	1.21745	2.53844	1.06421	2.77064	1.51822	3.94806	2.08991	5.44221			0.989921	2.58562	1.32107	2.89974	1.80312	4.69206	2.20234	5.73337		
1.21302	2.53934	0.996949	2.58626	1.21211	2.53953	1.06797	2.76383	1.51849	3.9252	2.09071	5.41177			0.996106	2.58619	1.31841	2.90864	1.80313	4.66408				
1.20772	2.54052	1.00313	2.58682	1.20682	2.54074	1.07182	2.75732	1.51878	3.90267	2.09141	5.38146			1.00229	2.58674	1.31579	2.91771	1.80312	4.63639				
1.20248	2.54183	1.00931	2.58736	1.20159	2.54206	1.07575	2.7511	1.5191	3.88048	2.09204	5.35129			1.00847	2.58729	1.31321	2.92697	1.80309	4.60898				
1.19728	2.54325	1.01549	2.5879	1.1964	2.5435	1.07976	2.74517	1.51944	3.85862	2.09258	5.32128			1.01465	2.58782	1.31067	2.93641	1.80306	4.58186				
1.19213	2.54478	1.02167	2.58842	1.19126	2.54505	1.08387	2.73953	1.51981	3.83707	2.09306	5.29144			1.02083	2.58835	1.30818	2.94605	1.80301	4.55504				
1.18702	2.54643	1.02784	2.58893	1.18616	2.54672	1.08806	2.73419	1.52021	3.81584	2.09346	5.26177			1.027	2.58886	1.30572	2.95587	1.80296	4.52851				
1.18196	2.54818	1.03402	2.58943	1.1811	2.54849	1.09235	2.72913	1.52063	3.79493	2.0938	5.23229			1.03318	2.58936	1.3033	2.96589	1.8029	4.50227				
1.17694	2.55004	1.04019	2.58992	1.17609	2.55037	1.09672	2.72437	1.52108	3.77432	2.09409	5.203			1.03935	2.58985	1.30092	2.9761	1.80284	4.47632				
1.17196	2.55201	1.04636	2.59039	1.17112	2.55236	1.10119	2.71988	1.52156	3.75402	2.09432	5.17391			1.04552	2.59033	1.29858	2.98652	1.80277	4.45066				
1.16702	2.55408	1.05252	2.59086	1.16618	2.55444	1.10575	2.71567	1.52207	3.73402	2.0945	5.14503			1.05168	2.5908	1.29628	2.99714	1.80271	4.4253				
1.16211	2.55624	1.05869	2.59132	1.16127	2.55662	1.11041	2.71173	1.52261	3.71432	2.09464	5.11637			1.05785	2.59126	1.29403	3.00796	1.80265	4.40023				
1.15723	2.55849	1.06485	2.59176	1.1564	2.55888	1.11515	2.70805	1.52318	3.69491	2.09473	5.08792			1.06401	2.5917	1.29181	3.019	1.80259	4.37545				
1.15237	2.56082	1.07101	2.5922	1.15155	2.56123	1.11998	2.70462	1.52378	3.67578	2.09479	5.0597			1.07017	2.59214	1.28963	3.03025	1.80254	4.35096				
1.14754	2.56323	1.07717	2.59262	1.14672	2.56365	1.12489	2.70143	1.52441	3.65694	2.09481	5.03171			1.07633	2.59257	1.28749	3.04172	1.8025	4.32675				
1.14274	2.56572	1.08332	2.59304	1.14192	2.56615	1.12988	2.69846	1.52506	3.63838	2.0948	5.00395			1.08249	2.59298	1.2854	3.05341	1.80246	4.30283				
1.13794	2.56826	1.08948	2.59344	1.13713	2.5687	1.13495	2.69572	1.52575	3.6201	2.09476	4.97642			1.08864	2.59339	1.28334	3.06533	1.80243	4.27919				
1.13317	2.57087	1.09563	2.59384	1.13235	2.57131	1.14009	2.69317	1.52647	3.60209	2.09469	4.94914			1.09479	2.59379	1.28132	3.07747	1.80242	4.25584				
1.1284	2.57352	1.10178	2.59422	1.12758	2.57397	1.14531	2.69082	1.52722	3.58434	2.0946	4.92209			1.10094	2.59417	1.27935	3.08985	1.80241	4.23276				
1.12363	2.5762	1.10792	2.5946	1.12282	2.57667	1.15058	2.68864	1.52801	3.56686	2.09449	4.89528			1.10709	2.59455	1.27741	3.10247	1.80242	4.20996				
1.11887	2.57892	1.11407	2.59496	1.11805	2.57939	1.15592	2.68662	1.52882	3.54965	2.09436	4.86872			1.11323	2.59491	1.27552	3.11532	1.80244	4.18744				
1.1141	2.58166	1.12021	2.59532	1.11328	2.58213	1.16131	2.68475	1.52967	3.53268	2.09421	4.8424			1.11937	2.59527	1.27366	3.12842	1.80247	4.16519				
1.10932	2.58441	1.12634	2.59566	1.1085	2.58488	1.16675	2.68303	1.53055	3.51598	2.09405	4.81633			1.12551	2.59561	1.27185	3.14177	1.80252	4.14321				
1.10453	2.58716	1.13248	2.59599	1.10371	2.58762	1.17224	2.68142	1.53146	3.49952	2.09387	4.79051			1.13164	2.59595	1.27007	3.15537	1.80258	4.1215				
1.09972	2.58989	1.13861	2.59632	1.0989	2.59035	1.17778	2.67993	1.5324	3.48331	2.09369	4.76493			1.13778	2.59627	1.26834	3.16923	1.80266	4.10005				
1.09489	2.5926	1.14474	2.59663	1.09406	2.59306	1.18335	2.67855	1.53337	3.46734	2.09349	4.73959			1.1439	2.59659	1.26665	3.18336	1.80276	4.07886				
1.09003	2.59527	1.15087	2.59693	1.0892	2.59572	1.18896	2.67727	1.53438	3.45161	2.09329	4.71451			1.15003	2.59689	1.26499	3.19774	1.80287	4.05794				
1.08514	2.5979	1.15699	2.59723	1.0843	2.59834	1.1946	2.67607	1.53542	3.43611	2.09308	4.68967			1.15615	2.59719	1.26338	3.2124	1.803	4.03727				
1.08021	2.60047	1.16311	2.59751	1.07937	2.6009	1.20027	2.67495	1.5365	3.42085	2.09287	4.66507			1.16227	2.59747	1.26181	3.22734	1.80316	4.01686				
1.07524	2.60297	1.16922	2.59778	1.07439	2.60339	1.20597	2.67391	1.5376	3.40582	2.09265	4.64072			1.16839	2.59774	1.26027	3.24255	1.80333	3.99669				
1.07023	2.6054	1.17533	2.59804	1.06938	2.6058	1.2117	2.67293	1.53874	3.39101	2.09244	4.61662			1.1745	2.59801	1.25878	3.25805	1.80352	3.97678				
1.06518	2.60774	1.18144	2.59829	1.06431	2.60813	1.21745	2.67201	1.53991	3.37643	2.09222	4.59276			1.18061	2.59826	1.25733	3.27385	1.80373	3.95712				
1.06008	2.60999	1.18755	2.59853	1.0592	2.61037	1.22322	2.67115	1.54112	3.36206	2.092	4.56914			1.18672	2.5985	1.25591	3.28993	1.80397	3.9377				
1.05493	2.61215	1.19365	2.59876	1.05404	2.61251	1.22901	2.67034	1.54236	3.34792	2.09179	4.54576			1.19282	2.59873	1.25454	3.30632	1.80422	3.91852				
1.04973	2.61421	1.19974	2.59897	1.04883	2.61455	1.23482	2.66958	1.54363	3.33398	2.09158	4.52262			1.19891	2.59894	1.25321	3.32301	1.8045	3.89958				
1.04448	2.61617	1.20584	2.59918	1.04358	2.6165	1.24065	2.66886	1.54494	3.32026	2.09137	4.49972			1.20501	2.59915	1.25191	3.34001	1.8048	3.88087				
1.03918	2.61803	1.21192	2.59937	1.03827	2.61834	1.24649	2.66817	1.54628	3.30674	2.09116	4.47706			1.21109	2.59934	1.25065	3.35732	1.80512	3.8624				
1.03383	2.6198	1.21801	2.59955	1.03292	2.62009	1.25234	2.66753	1.54766	3.29343	2.09097	4.45463			1.21718	2.59953	1.24944	3.37496	1.80546	3.84416				
1.02844	2.62146	1.22408	2.59972	1.02752	2.62174	1.2582	2.66692	1.54906	3.28032	2.09078	4.43244			1.22325	2.5997	1.24826	3.39292	1.80583	3.82614				
1.02301	2.62304	1.23015	2.59987	1.02208	2.6233	1.26408	2.66633	1.55051	3.2674	2.0906	4.41048			1.22933	2.59985	1.24712	3.41122	1.80622	3.80836				
1.01753	2.62452	1.23622	2.60002	1.01659	2.62477	1.26997	2.66578	1.55198	3.25469	2.09042	4.38875			1.23539	2.6	1.24601	3.42985	1.80664	3.79079				
1.01202	2.62592	1.24228	2.60014	1.01107	2.62615	1.27587	2.66525	1.55349	3.24216	2.09026	4.36725			1.24146	2.60013	1.24495	3.44882	1.80708	3.77345				
1.00646	2.62724	1.24834	2.60026	1.00551	2.62746	1.28178	2.66474	1.55503	3.22983	2.09011	4.34598			1.24751	2.60024	1.24392	3.46814	1.80755	3.75632				
1.00087	2.62848	1.25438	2.60036	0.999916	2.62869	1.28769	2.66426	1.55661	3.21769	2.08996	4.32493			1.25356	2.60034	1.24293	3.48782	1.80804	3.73941				
0.99525	2.62965	1.26042	2.60044	0.994289	2.62984	1.29361	2.6638	1.55822	3.20572	2.08983	4.3041			1.2596	2.60043	1.24198	3.50786	1.80855	3.72271				
0.989598	2.63076	1.26646	2.60051	0.988632	2.63094	1.29954	2.66335	1.55986	3.19395	2.08971	4.2835			1.26564	2.6005	1.24106	3.52826	1.80909	3.70622				
0.983918	2.6318	1.27248	2.60056	0.982947	2.63197	1.30548	2.66293	1.56154	3.18235	2.08961	4.26312			1.27166	2.60055	1.24018	3.54904	1.80966	3.68994				
0.978212	2.63279	1.2785	2.6006	0.977237	2.63295	1.31142	2.66252	1.56326	3.17093	2.08951	4.24296			1.27768	2.60059	1.23933	3.57019	1.81025	3.67386				
0.972482	2.63372	1.28451	2.60061	0.971503	2.63387	1.31737	2.66212	1.565	3.15968	2.08943	4.22301			1.28369	2.60061	1.23852	3.59173	1.81087	3.65799				
0.96673	2.63461	1.29051	2.60061	0.965747	2.63475	1.32332	2.66174	1.56678	3.14861	2.08937	4.20328			1.28969	2.60061	1.23775	3.61366	1.81152	3.64232				
0.960957	2.63545	1.2965	2.60059	0.959971	2.63558	1.32928	2.66137	1.5686	3.1377	2.08932	4.18376			1.29568	2.60059	1.237	3.63598	1.81219	3.62684				
0.955165	2.63624	1.30248	2.60054	0.954176	2.63638	1.33524	2.66101	1.57044	3.12697	2.08928	4.16444			1.30166	2.60055	1.23629	3.65871	1.81289	3.61156				
0.949356	2.637	1.30844	2.60048	0.948364	2.63713	1.34121	2.66067	1.57232	3.11639	2.08926	4.14534			1.30763	2.60049	1.23562	3.68184	1.81361	3.59648				
0.943531	2.63773	1.3144	2.60039	0.942536	2.63785	1.34717	2.66033	1.57424	3.10598	2.08926	4.12645			1.31359	2.6004	1.23497	3.7054	1.81437	3.58158				
0.937691	2.63842	1.32034	2.60027	0.936694	2.63854	1.35315	2.66	1.57619	3.09574	2.08928	4.10775			1.31953	2.60029	1.23435	3.72937	1.81515	3.56687				
0.931838	2.63909	1.32627	2.60013	0.930839	2.6392	1.35912	2.65969	1.57817	3.08565	2.08931	4.08927			1.32546	2.60016	1.23377	3.75377	1.81595	3.55235				
0.925972	2.63973	1.33218	2.59997	0.924971	2.63983	1.3651	2.65938	1.58019	3.07571	2.08936	4.07098			1.33138	2.59999	1.23321	3.77861	1.81679	3.53801				
0.920095	2.64034	1.33808	2.59977	0.919092	2.64044	1.37108	2.65907	1.58224	3.06593	2.08942	4.05289			1.33728	2.5998	1.23269	3.80389	1.81765	3.52386				
0.914207	2.64093	1.34396	2.59954	0.913202	2.64103	1.37706	2.65878	1.58432	3.05631	2.08951	4.03499			1.34316	2.59957	1.23219	3.82961	1.81854	3.50988				
0.908309	2.6415	1.34982	2.59928	0.907303	2.64159	1.38305	2.65849	1.58644	3.04683	2.08961	4.01729			1.34903	2.59932	1.23171	3.85579	1.81946	3.49608				
0.902402	2.64205	1.35567	2.59898	0.901394	2.64214	1.38903	2.65821	1.58859	3.0375	2.08974	3.99979			1.35487	2.59902	1.23126	3.88243	1.8204	3.48246				
0.896487	2.64258	1.36149	2.59865	0.895478	2.64267	1.39502	2.65793	1.59077	3.02831	2.08988	3.98247			1.3607	2.59869	1.23084	3.90953	1.82137	3.46901				
0.890564	2.6431	1.36729	2.59827	0.889554	2.64319	1.40101	2.65766	1.59299	3.01927	2.09004	3.96535			1.3665	2.59832	1.23044	3.9371	1.82238	3.45573				
0.884634	2.64361	1.37306	2.59785	0.883623	2.64369	1.407	2.65739	1.59524	3.01037	2.09022	3.94841			1.37228	2.59791	1.23005	3.96515	1.82341	3.44262				
0.878698	2.6441	1.37881	2.59739	0.877685	2.64418	1.41299	2.65712	1.59753	3.00162	2.09043	3.93165			1.37803	2.59745	1.22969	3.99369	1.82446	3.42968				
0.872755	2.64458	1.38453	2.59688	0.871741	2.64466	1.41898	2.65686	1.59984	2.993	2.09065	3.91508			1.38375	2.59695	1.22934	4.02271	1.82555	3.4169				
0.866807	2.64505	1.39022	2.59631	0.865792	2.64513	1.42498	2.65661	1.6022	2.98451	2.09089	3.89869			1.38945	2.59639	1.22902	4.05223	1.82666	3.40428				
0.860854	2.64551	1.39588	2.5957	0.859838	2.64558	1.43097	2.65635	1.60458	2.97616	2.09116	3.88248			1.39511	2.59579	1.2287	4.08225	1.82781	3.39183				
0.854896	2.64596	1.40151	2.59503	0.853879	2.64604	1.43696	2.6561	1.607	2.96794	2.09144	3.86645			1.40074	2.59512	1.2284	4.11277	1.82898	3.37953				
0.848933	2.64641	1.4071	2.5943	0.847916	2.64648	1.44296	2.65585	1.60945	2.95986	2.09175	3.85059			1.40634	2.5944	1.2281	4.1438	1.83018	3.36739				
0.842967	2.64684	1.41266	2.59351	0.841949	2.64692	1.44895	2.6556	1.61193	2.9519	2.09208	3.8349			1.4119	2.59362	1.22781	4.17533	1.83141	3.35541				
0.836997	2.64728	1.41817	2.59266	0.835979	2.64735	1.45494	2.65535	1.61445	2.94407	2.09243	3.81939			1.41742	2.59278	1.22753	4.20739	1.83267	3.34357				
0.831024	2.64771	1.42365	2.59174	0.830005	2.64778	1.46093	2.65511	1.617	2.93637	2.0928	3.80405			1.42291	2.59187	1.22725	4.23996	1.83395	3.33189				
0.825047	2.64814	1.42909	2.59076	0.824028	2.64821	1.46692	2.65486	1.61959	2.92879	2.0932	3.78888			1.42835	2.5909	1.22697	4.27305	1.83527	3.32036				
0.819068	2.64856	1.43449	2.58972	0.818048	2.64863	1.47291	2.65462	1.6222	2.92133	2.09361	3.77387			1.43376	2.58987	1.22668	4.30666	1.83661	3.30898				
0.813086	2.64898	1.43985	2.58861	0.812066	2.64905	1.4789	2.65437	1.62486	2.914	2.09405	3.75903			1.43912	2.58877	1.22639	4.34079	1.83798	3.29774				
0.807102	2.6494	1.44517	2.58744	0.806082	2.64947	1.48489	2.65413	1.62754	2.90678	2.09452	3.74435			1.44445	2.5876	1.22608	4.37544	1.83938	3.28665				
0.801116	2.64982	1.45045	2.5862	0.800096	2.6499	1.49088	2.65388	1.63026	2.89969	2.095	3.72983			1.44973	2.58637	1.22576	4.41061	1.84081	3.2757				
0.795129	2.65025	1.45569	2.58491	0.794108	2.65032	1.49686	2.65364	1.63301	2.89271	2.09551	3.71547			1.45497	2.58509	1.22542	4.44629	1.84227	3.26489				
0.78914	2.65067	1.46089	2.58356	0.788118	2.65074	1.50284	2.65339	1.63579	2.88584	2.09604	3.70127			1.46018	2.58375	1.22505	4.48249	1.84376	3.25422				
0.783149	2.65109	1.46605	2.58216	0.782128	2.65117	1.50882	2.65314	1.63861	2.87909	2.0966	3.68723			1.46535	2.58235	1.22465	4.51918	1.84527	3.24368				
0.777157	2.65152	1.47118	2.58071	0.776136	2.65159	1.5148	2.65289	1.64146	2.87246	2.09717	3.67334			1.47049	2.58091	1.22422	4.55638	1.84682	3.23328				
0.771165	2.65195	1.47628	2.57922	0.770143	2.65203	1.52077	2.65263	1.64434	2.86593	2.09778	3.6596			1.47559	2.57942	1.22374	4.59405	1.84839	3.22302				
0.765172	2.65239	1.48136	2.57769	0.76415	2.65246	1.52675	2.65237	1.64726	2.85952	2.0984	3.64602			1.48067	2.5779	1.22321	4.6322	1.84999	3.21289				
0.759178	2.65283	1.4864	2.57612	0.758156	2.65291	1.53272	2.65211	1.65021	2.85321	2.09905	3.63258			1.48572	2.57634	1.22263	4.67081	1.85162	3.20288				
0.753184	2.65328	1.49143	2.57454	0.752162	2.65336	1.53868	2.65184	1.6532	2.84702	2.09972	3.6193			1.49075	2.57476	1.22198	4.70985	1.85328	3.19301				
0.74719	2.65373	1.49643	2.57293	0.746168	2.65381	1.54464	2.65157	1.65622	2.84093	2.10042	3.60616			1.49575	2.57315	1.22126	4.74931	1.85497	3.18326				
0.741196	2.6542	1.50142	2.57131	0.740174	2.65428	1.5506	2.6513	1.65927	2.83495	2.10114	3.59316			1.50074	2.57153	1.22046	4.78916	1.85669	3.17364				
0.735202	2.65467	1.5064	2.56967	0.73418	2.65475	1.55655	2.65102	1.66236	2.82907	2.10189	3.58031			1.50572	2.5699	1.21956	4.82937	1.85844	3.16415				
0.729209	2.65515	1.51136	2.56804	0.728187	2.65523	1.5625	2.65073	1.66549	2.8233	2.10266	3.5676			1.51069	2.56826	1.21856	4.86991	1.86021	3.15478				
0.723217	2.65564	1.51632	2.5664	0.722195	2.65573	1.56844	2.65044	1.66864	2.81763	2.10345	3.55503			1.51565	2.56662	1.21745	4.91074	1.86201	3.14553				
0.717226	2.65615	1.52128	2.56477	0.716204	2.65624	1.57438	2.65014	1.67184	2.81207	2.10427	3.5426			1.5206	2.56499	1.21621	4.95182	1.86384	3.13639				
0.711236	2.65667	1.52623	2.56315	0.710214	2.65676	1.58031	2.64983	1.67507	2.80661	2.10511	3.5303			1.52555	2.56337	1.21483	4.9931	1.8657	3.12738				
0.705247	2.6572	1.53118	2.56154	0.704226	2.65729	1.58623	2.64951	1.67833	2.80125	2.10598	3.51814			1.53051	2.56175	1.21329	5.03453	1.86759	3.11849				
0.69926	2.65775	1.53614	2.55994	0.69824	2.65784	1.59215	2.64918	1.68163	2.79599	2.10688	3.50612			1.53546	2.56016	1.21158	5.07605	1.86951	3.10971				
0.693275	2.65831	1.54109	2.55837	0.692255	2.65841	1.59806	2.64884	1.68497	2.79083	2.10779	3.49423			1.54042	2.55858	1.20969	5.1176	1.87146	3.10104				
0.687292	2.6589	1.54606	2.55682	0.686273	2.659	1.60396	2.64849	1.68835	2.78578	2.10873	3.48247			1.54538	2.55703	1.2076	5.15911	1.87343	3.09249				
0.681312	2.6595	1.55104	2.5553	0.680293	2.65961	1.60985	2.64813	1.69176	2.78082	2.1097	3.47084			1.55036	2.5555	1.20529	5.20052	1.87543	3.08405				
0.675335	2.66013	1.55602	2.5538	0.674316	2.66024	1.61573	2.64775	1.69521	2.77597	2.11069	3.45934			1.55534	2.554	1.20276	5.24176	1.87746	3.07571				
0.669361	2.66078	1.56102	2.55234	0.668342	2.66089	1.6216	2.64736	1.6987	2.77121	2.11171	3.44797			1.56034	2.55253	1.19997	5.28274	1.87952	3.06749				
0.66339	2.66146	1.56603	2.5509	0.662372	2.66158	1.62745	2.64695	1.70223	2.76656	2.11275	3.43672			1.56534	2.5511	1.19693	5.32341	1.88161	3.05938				
0.657423	2.66216	1.57105	2.5495	0.656406	2.66229	1.6333	2.64653	1.7058	2.76201	2.11382	3.4256			1.57037	2.54969	1.19361	5.36369	1.88372	3.05137				
0.651461	2.6629	1.57609	2.54814	0.650445	2.66303	1.63913	2.64608	1.70942	2.75755	2.11491	3.4146			1.5754	2.54833	1.19	5.40352	1.88587	3.04347				
0.645503	2.66367	1.58115	2.54682	0.644488	2.66381	1.64495	2.64562	1.71307	2.75321	2.11603	3.40372			1.58046	2.54699	1.1861	5.44284	1.88804	3.03567				
0.639551	2.66448	1.58622	2.54553	0.638536	2.66462	1.65075	2.64513	1.71677	2.74896	2.11717	3.39297			1.58553	2.5457	1.1819	5.48161	1.89024	3.02797				
0.633604	2.66532	1.59131	2.54428	0.632591	2.66547	1.65653	2.64462	1.72052	2.74481	2.11833	3.38233			1.59062	2.54444	1.1774	5.5198	1.89247	3.02037				
0.627663	2.66621	1.59642	2.54307	0.626651	2.66637	1.66229	2.64408	1.72431	2.74077	2.11953	3.37181			1.59573	2.54323	1.17259	5.55737	1.89472	3.01288				
0.62173	2.66715	1.60155	2.5419	0.620719	2.66732	1.66804	2.64351	1.72815	2.73684	2.12074	3.36141			1.60085	2.54205	1.16748	5.59433	1.89701	3.00548				
0.615804	2.66814	1.60671	2.54077	0.614795	2.66832	1.67376	2.64292	1.73204	2.73301	2.12199	3.35112			1.606	2.54092	1.16207	5.63068	1.89932	2.99818				
0.609887	2.66919	1.61188	2.53968	0.608879	2.66937	1.67946	2.64229	1.73598	2.72929	2.12325	3.34095			1.61117	2.53983	1.15638	5.66644	1.90166	2.99098				
0.603979	2.6703	1.61707	2.53864	0.602972	2.67049	1.68513	2.64162	1.73997	2.72568	2.12455	3.33089			1.61636	2.53878	1.15041	5.70166	1.90402	2.98388				
0.598081	2.67147	1.62229	2.53763	0.597077	2.67168	1.69078	2.64092	1.74402	2.72218	2.12586	3.32094			1.62158	2.53777	1.14418	5.73639	1.90642	2.97687				
0.592195	2.67273	1.62753	2.53667	0.591192	2.67295	1.69639	2.64018	1.74812	2.71879	2.12721	3.3111			1.62681	2.5368	1.13771	5.77069	1.90884	2.96995				
0.58632	2.67406	1.63279	2.53576	0.58532	2.6743	1.70198	2.63939	1.75228	2.71552	2.12858	3.30138			1.63207	2.53588	1.13101	5.80463	1.91129	2.96312				
0.58046	2.67549	1.63807	2.53488	0.579463	2.67575	1.70753	2.63856	1.75651	2.71237	2.12997	3.29176			1.63735	2.535	1.1241	5.83831	1.91377	2.95639				
0.574615	2.67702	1.64338	2.53404	0.573621	2.67729	1.71304	2.63768	1.76079	2.70933	2.13139	3.28224			1.64266	2.53416	1.117	5.87181	1.91627	2.94974				
0.568787	2.67867	1.64871	2.53325	0.567796	2.67896	1.71852	2.63675	1.76514	2.70641	2.13283	3.27284			1.64799	2.53336	1.10973	5.90524	1.91881	2.94319				
0.562978	2.68044	1.65407	2.5325	0.56199	2.68075	1.72396	2.63576	1.76956	2.70362	2.1343	3.26354			1.65334	2.5326	1.10232	5.93869	1.92137	2.93672				
0.55719	2.68234	1.65945	2.53179	0.556205	2.68269	1.72936	2.63472	1.77404	2.70094	2.13579	3.25434			1.65871	2.53188	1.09477	5.97229	1.92395	2.93034				
0.551425	2.68441	1.66485	2.53112	0.550445	2.68478	1.73472	2.63363	1.77859	2.69839	2.13731	3.24525			1.66411	2.53121	1.08712	6.00614	1.92657	2.92405				
0.545687	2.68665	1.67027	2.53049	0.544711	2.68705	1.74004	2.63248	1.78321	2.69597	2.13886	3.23625			1.66953	2.53057	1.07937	6.04035	1.92921	2.91784				
0.539977	2.68909	1.67572	2.5299	0.539007	2.68953	1.74531	2.63127	1.7879	2.69366	2.14043	3.22736			1.67498	2.52998	1.07156	6.07506	1.93188	2.91172				
0.5343	2.69175	1.68119	2.52935	0.533336	2.69223	1.75054	2.63	1.79266	2.69148	2.14202	3.21857			1.68044	2.52942	1.06369	6.11038	1.93458	2.90568				
0.52866	2.69466	1.68668	2.52883	0.527703	2.69518	1.75572	2.62868	1.7975	2.68942	2.14364	3.20987			1.68593	2.5289	1.05579	6.14645	1.9373	2.89972				
0.523061	2.69785	1.6922	2.52836	0.522111	2.69843	1.76087	2.6273	1.8024	2.68747	2.14529	3.20127			1.69145	2.52842	1.04787	6.18339	1.94005	2.89384				
0.517509	2.70136	1.69774	2.52792	0.516568	2.702	1.76597	2.62587	1.80737	2.68565	2.14696	3.19277			1.69698	2.52797	1.03994	6.22135	1.94283	2.88805				
0.512009	2.70524	1.7033	2.52751	0.511077	2.70594	1.77103	2.62439	1.81241	2.68393	2.14865	3.18437			1.70254	2.52756	1.03204	6.26047	1.94564	2.88233				
0.506568	2.70952	1.70888	2.52714	0.505647	2.7103	1.77605	2.62287	1.81751	2.68232	2.15037	3.17606			1.70812	2.52719	1.02416	6.3009	1.94847	2.87669				
0.501193	2.71427	1.71448	2.52681	0.500284	2.71513	1.78104	2.6213	1.82267	2.68082	2.15212	3.16784			1.71372	2.52685	1.01634	6.3428	1.95133	2.87113				
0.495893	2.71955	1.72011	2.5265	0.494997	2.72051	1.786	2.6197	1.8279	2.67941	2.15389	3.15971			1.71934	2.52654	1.00858	6.38633	1.95422	2.86565				
0.490676	2.72543	1.72575	2.52623	0.489796	2.7265	1.79093	2.61807	1.83318	2.67809	2.15568	3.15168			1.72498	2.52627	1.0009	6.43168	1.95713	2.86025				
0.485552	2.73198	1.73141	2.52599	0.484689	2.73318	1.79583	2.61642	1.83852	2.67687	2.1575	3.14373			1.73064	2.52602	0.993319	6.47904	1.96007	2.85492				
0.480533	2.73931	1.7371	2.52578	0.479688	2.74064	1.80072	2.61474	1.84391	2.67572	2.15935	3.13588			1.73632	2.5258	0.985853	6.5286	1.96304	2.84966				
0.475629	2.74749	1.7428	2.5256	0.474805	2.74898	1.80558	2.61306	1.84934	2.67466	2.16122	3.12811			1.74202	2.52562	0.978517	6.58057	1.96603	2.84448				
0.470851	2.75663	1.74852	2.52544	0.47005	2.75829	1.81044	2.61136	1.85482	2.67366	2.16311	3.12043			1.74774	2.52546	0.971329	6.63519	1.96906	2.83938				
0.466211	2.76684	1.75426	2.52531	0.465435	2.7687	1.81529	2.60967	1.86035	2.67273	2.16503	3.11284			1.75348	2.52533	0.964305	6.6927	1.97211	2.83434				
0.461721	2.77824	1.76001	2.52521	0.460971	2.78031	1.82013	2.60799	1.86591	2.67186	2.16697	3.10533			1.75923	2.52522	0.957461	6.75335	1.97518	2.82938				
0.45739	2.79093	1.76579	2.52514	0.456668	2.79323	1.82498	2.60632	1.8715	2.67105	2.16894	3.09791			1.765	2.52514	0.950815	6.81743	1.97829	2.82449				
0.453228	2.80502	1.77158	2.52508	0.452535	2.80757	1.82984	2.60467	1.87713	2.67029	2.17094	3.09057			1.77079	2.52509	0.944384	6.88522	1.98142	2.81968				
0.449242	2.82064	1.77738	2.52505	0.44858	2.82346	1.8347	2.60305	1.88279	2.66958	2.17295	3.08331			1.77659	2.52506	0.938183	6.95705	1.98458	2.81493				
0.445439	2.83787	1.7832	2.52504	0.444809	2.84098	1.83959	2.60146	1.88848	2.66891	2.175	3.07614			1.78241	2.52504	0.932229	7.03324	1.98776	2.81025				
0.441823	2.85683	1.78904	2.52506	0.441225	2.86024	1.8445	2.59991	1.89419	2.66828	2.17706	3.06905			1.78824	2.52505	0.926537	7.11415	1.99098	2.80564				
0.438397	2.87761	1.79489	2.52509	0.437832	2.88134	1.84943	2.59842	1.89993	2.66769	2.17915	3.06204			1.79409	2.52509	0.921123	7.20014	1.99422	2.8011				
0.435161	2.9003	1.80075	2.52514	0.434629	2.90437	1.8544	2.59699	1.90568	2.66713	2.18127	3.0551			1.79995	2.52513	0.916	7.2916	1.99749	2.79663				
0.432117	2.92499	1.80663	2.52521	0.431617	2.92941	1.85942	2.59562	1.91146	2.66661	2.18341	3.04825			1.80583	2.5252	0.911181	7.38896	2.00078	2.79222				
0.429262	2.95177	1.81252	2.5253	0.428794	2.95655	1.86448	2.59434	1.91726	2.66611	2.18558	3.04147			1.81172	2.52529	0.906676	7.49263	2.00411	2.78789				
0.426595	2.98072	1.81842	2.52541	0.426158	2.98588	1.8696	2.59314	1.92307	2.66564	2.18776	3.03478			1.81762	2.52539	0.902497	7.60306	2.00746	2.78361				
0.424113	3.01194	1.82434	2.52553	0.423708	3.0175	1.87479	2.59203	1.9289	2.6652	2.18998	3.02815			1.82353	2.52551	0.89865	7.72073	2.01084	2.77941				
0.421814	3.04552	1.83026	2.52566	0.421441	3.05149	1.88004	2.59103	1.93474	2.66478	2.19222	3.02161			1.82945	2.52565	0.895141	7.84613	2.01425	2.77527				
0.419696	3.08156	1.8362	2.52582	0.419353	3.08796	1.88536	2.59013	1.9406	2.66438	2.19448	3.01514			1.83539	2.52579	0.891974	7.97976	2.01769	2.7712				
0.417755	3.12018	1.84215	2.52598	0.417442	3.12703	1.89076	2.58934	1.94647	2.66399	2.19676	3.00874			1.84134	2.52596	0.88915	8.12216	2.02116	2.76719				
0.41599	3.16148	1.84811	2.52616	0.415707	3.1688	1.89624	2.58865	1.95235	2.66363	2.19907	3.00241			1.84729	2.52613	0.88667	8.2739	2.02465	2.76325				
0.414398	3.20559	1.85407	2.52635	0.414144	3.2134	1.90179	2.58808	1.95824	2.66328	2.20141	2.99616			1.85326	2.52632	0.884531	8.43556	2.02818	2.75937				
0.412976	3.25265	1.86005	2.52655	0.412751	3.26098	1.90741	2.5876	1.96414	2.66295					1.85924	2.52652	0.882728	8.60778	2.03174	2.75556				
0.411723	3.3028	1.86604	2.52676	0.411526	3.31167	1.91309	2.58721	1.97005	2.66263					1.86522	2.52673	0.881256	8.79123	2.03532	2.75181				
0.410637	3.35621	1.87203	2.52699	0.410468	3.36565	1.91884	2.58691	1.97596	2.66232					1.87122	2.52695	0.880107	8.98663	2.03894	2.74813				
0.409715	3.41304	1.87804	2.52722	0.409574	3.42309	1.92464	2.58669	1.98189	2.66203					1.87722	2.52719	0.879273	9.19474	2.04259	2.74451				
0.408957	3.47349	1.88405	2.52746	0.408843	3.48417	1.93049	2.58653	1.98782	2.66175					1.88323	2.52743	0.878744	9.41641	2.04627	2.74096				
0.408359	3.53775	1.89007	2.52771	0.408274	3.5491	1.93638	2.58642	1.99376	2.66148					1.88925	2.52768	0.878508	9.65256	2.04998	2.73747				
0.407922	3.60604	1.8961	2.52798	0.407863	3.6181	1.9423	2.58637	1.9997	2.66121					1.89528	2.52794	0.878535	9.87093	2.05372	2.73405				
0.407642	3.6786	1.90214	2.52824	0.40761	3.69142	1.94826	2.58636	2.00565	2.66096					1.90131	2.52821	0.878722	10.0669	2.0575	2.73069				
0.407518	3.75569	1.90818	2.52852	0.407513	3.7693	1.95425	2.58638	2.0116	2.66071					1.90735	2.52848	0.878987	10.2362	2.06131	2.72739				
0.407549	3.83758	1.91423	2.5288	0.40757	3.85204	1.96026	2.58644	2.01756	2.66048					1.9134	2.52877	0.879266	10.3748	2.06516	2.72416				
0.407732	3.92457	1.92028	2.5291	0.407778	3.93993	1.96629	2.58652	2.02353	2.66025					1.91946	2.52906	0.879509	10.4796	2.06904	2.721				
0.408065	4.01699	1.92634	2.52939	0.408137	4.03332	1.97234	2.58662	2.02949	2.66002					1.92552	2.52935	0.87976	10.5781	2.07295	2.7179				
0.408547	4.1152	1.93241	2.5297	0.408644	4.13256	1.9784	2.58674	2.03547	2.6598					1.93158	2.52965	0.879951	10.6479	2.07691	2.71487				
0.409174	4.21959	1.93849	2.53	0.409295	4.23804	1.98447	2.58688	2.04144	2.65959					1.93766	2.52996	0.880274	10.7591	2.0809	2.71191				
0.409945	4.33059	1.94456	2.53032	0.41009	4.3502	1.99056	2.58704	2.04742	2.65938					1.94374	2.53027	0.880761	10.9146	2.08492	2.70901				
0.410856	4.44865	1.95065	2.53064	0.411025	4.46952	1.99666	2.5872	2.0534	2.65918					1.94982	2.53059	0.881456	11.1185	2.08899	2.70618				
0.411905	4.5743	1.95674	2.53096	0.412098	4.59651	2.00276	2.58738	2.05938	2.65898					1.95591	2.53092	0.882409	11.3765	2.0931	2.70343				
0.41309	4.70809	1.96283	2.53129	0.413305	4.73175	2.00888	2.58756	2.06536	2.65879					1.962	2.53124	0.883679	11.6961	2.09725	2.70074				
0.414405	4.85064	1.96893	2.53162	0.414642	4.87587	2.015	2.58775	2.07135	2.6586					1.9681	2.53158	0.88533	12.0871	2.10145	2.69812				
0.415849	5.00265	1.97504	2.53196	0.416107	5.02957	2.02112	2.58795	2.07734	2.65841					1.9742	2.53191	0.887178	12.5063	2.10568	2.69558				
0.417417	5.16488	1.98114	2.5323	0.417696	5.19362	2.02725	2.58815	2.08333	2.65823					1.98031	2.53225	0.889213	12.9564	2.10996	2.6931				
0.419105	5.33818	1.98726	2.53264	0.419405	5.3689	2.03339	2.58836	2.08932	2.65805					1.98642	2.53259	0.891424	13.4405	2.11429	2.6907				
0.420909	5.5235	1.99337	2.53299	0.421228	5.55637	2.03952	2.58857	2.09532	2.65788					1.99254	2.53294	0.893803	13.9621	2.11867	2.68838				
0.422826	5.7219	1.99949	2.53334	0.423163	5.75711	2.04567	2.58878	2.10131	2.6577					1.99866	2.53329	0.896341	14.5253	2.12309	2.68612				
0.424582	5.90639	2.00562	2.53369	0.425203	5.97236	2.05181	2.589	2.10731	2.65753					2.00478	2.53364	0.899028	15.1347	2.12756	2.68395				
0.426142	6.07288	2.01175	2.53404	0.427345	6.20348	2.05796	2.58922	2.1133	2.65736					2.01091	2.534	0.901857	15.7959	2.13209	2.68185				
0.427472	6.21743	2.01788	2.5344	0.429581	6.45206	2.06411	2.58944	2.1193	2.65719					2.01704	2.53435	0.90482	16.5153	2.13666	2.67983				
0.428549	6.33638	2.02401	2.53476	0.431907	6.71988	2.07026	2.58966	2.1253	2.65702					2.02318	2.53471	0.907909	17.3003	2.14129	2.67788				
0.429356	6.42661	2.03015	2.53512	0.434316	7.00898	2.07641	2.58988	2.1313	2.65685					2.02931	2.53507	0.911116	18.1598	2.14597	2.67601				
0.430107	6.51176	2.03629	2.53549	0.436801	7.32172	2.08256	2.5901	2.13729	2.65669					2.03545	2.53544	0.914434	19.1045	2.1507	2.67422				
0.430636	6.57224	2.04244	2.53585	0.439356	7.66084	2.08872	2.59032	2.14329	2.65652					2.0416	2.5358	0.917855	20.1473	2.15549	2.6725				
0.431471	6.66885	2.04858	2.53622	0.441972	8.02951	2.09487	2.59054	2.14929	2.65636					2.04774	2.53617	0.921371	21.3034	2.16033	2.67086				
0.432624	6.80454	2.05473	2.53658	0.444642	8.43145	2.10103	2.59076	2.15528	2.6562					2.05389	2.53653	0.924976	22.5921	2.16523	2.6693				
0.434109	6.98358	2.06088	2.53695	0.447005	8.81227	2.10719	2.59098	2.16128	2.65603					2.06005	2.5369	0.928661	24.0367	2.17017	2.66781				
0.435943	7.21196	2.06704	2.53732	0.449042	9.16202	2.11334	2.5912	2.16728	2.65587					2.0662	2.53727	0.932417	25.6668	2.17517	2.66639				
0.438146	7.49781	2.0732	2.53769	0.450739	9.47052	2.1195	2.59142	2.17327	2.65571					2.07236	2.53764	0.936236	27.5199	2.18023	2.66505				
0.440734	7.85215	2.07936	2.53807	0.452087	9.72792	2.12566	2.59164	2.17926	2.65554					2.07852	2.53802	0.940106	29.6442	2.18533	2.66377				
0.44338	8.23793	2.08552	2.53844	0.453081	9.9253	2.13182	2.59185	2.18525	2.65538					2.08468	2.53839	0.944017	32.1034	2.19048	2.66256				
0.446074	8.65923	2.09168	2.53881	0.453997	10.1133	2.13797	2.59207	2.19124	2.65521					2.09084	2.53876	0.947954	34.9822	2.19568	2.66142				
0.448809	9.12085	2.09785	2.53919	0.454635	10.2479	2.14413	2.59228	2.19723	2.65505					2.09701	2.53913	0.951901	38.3974	2.20093	2.66034				
0.451574	9.62853	2.10402	2.53956	0.455632	10.4648	2.15029	2.59249	2.20322	2.65488					2.10318	2.53951	0.955837	42.5131						
0.454358	10.1892	2.11019	2.53993	0.456989	10.7733	2.15644	2.5927							2.10935	2.53988	0.959738	47.5684						
0.457152	10.8113	2.11636	2.54031	0.458705	11.1876	2.1626	2.5929							2.11552	2.54026	0.96357	53.9254						
0.459942	11.5051	2.12254	2.54068	0.460774	11.7283	2.16875	2.59311							2.1217	2.54063	0.967289	62.1604						
0.462716	12.2834	2.12872	2.54106	0.463186	12.4257	2.1749	2.59331							2.12787	2.54101	0.970838	73.2499						
0.465459	13.1625	2.13489	2.54143	0.465923	13.3238	2.18106	2.59351							2.13405	2.54138	0.97414	88.992						
0.468159	14.163	2.14107	2.54181	0.468613	14.3475	2.18721	2.59371							2.14023	2.54176	0.977095	113.103						
0.470798	15.3116	2.14725	2.54218	0.47124	15.5246	2.19336	2.59391							2.14641	2.54213	0.979574	154.712						
0.473359	16.6439	2.15344	2.54256	0.473787	16.8926	2.19951	2.5941							2.15259	2.54251	0.981431	243.883						
0.475826	18.2079	2.15962	2.54293	0.476236	18.5021	2.20565	2.59429							2.15878	2.54288	0.982521	572.299						
0.47818	20.07	2.16581	2.5433	0.478569	20.4236									2.16496	2.54325								
0.480401	22.3254	2.17199	2.54368	0.480766	22.7584									2.17115	2.54363								
0.482471	25.1146	2.17818	2.54405	0.482807	25.6575									2.17734	2.544								
0.484369	28.6552	2.18437	2.54442	0.484674	29.3564									2.18353	2.54437								
0.486076	33.302	2.19056	2.54479	0.486347	34.2435									2.18972	2.54474								
0.487573	39.6769	2.19675	2.54516	0.487806	41.0087									2.19591	2.54511								
0.488842	48.9763	2.20294	2.54553	0.489035	51.006									2.2021	2.54548								
0.489869	63.8365			0.490018	67.3066																		
0.490639	91.4278			0.490743	98.6815																		
0.491141	160.556			0.4912	184.273																		
0.49137	653.754			0.491381	1371.77																		
