Sym0		Asym0		Sym1		Sym2		Sym3		Sym4		Sym5		Asym1		Asym2		Asym3		Asym4		Asym5	
388  Points		393  Points		389  Points		388  Points		371  Points		361  Points		157  Points		393  Points		380  Points		369  Points		351  Points		170  Points	
Freq (MHz)	Vph (m/ms)	Freq (MHz)	Vph (m/ms)	Freq (MHz)	Vph (m/ms)	Freq (MHz)	Vph (m/ms)	Freq (MHz)	Vph (m/ms)	Freq (MHz)	Vph (m/ms)	Freq (MHz)	Vph (m/ms)	Freq (MHz)	Vph (m/ms)	Freq (MHz)	Vph (m/ms)	Freq (MHz)	Vph (m/ms)	Freq (MHz)	Vph (m/ms)	Freq (MHz)	Vph (m/ms)
2.2011	2.49592	0.346137	429.245	2.20557	2.49577	0.692219	3869.78	1.17363	1103.79	1.38454	649.778	1.95608	5416.94	0.346278	172.546	0.78242	837.942	1.03834	1401.56	1.56479	816.285	1.73055	9079.09
2.19526	2.49583	0.346515	111.284	2.19995	2.49592	0.692373	278.478	1.17347	348.142	1.38488	312.038	1.95586	732.946	0.346887	80.4045	0.782293	241.364	1.03853	340.697	1.5645	370.351	1.73071	692.838
2.18925	2.49554	0.347335	64.07	2.19406	2.49578	0.69279	144.522	1.17315	206.611	1.38546	205.387	1.95534	392.962	0.347934	52.5448	0.782027	140.943	1.03895	193.991	1.56399	239.444	1.73116	360.252
2.18315	2.49515	0.34859	45.1041	2.18803	2.49546	0.69347	97.6572	1.17267	146.85	1.38626	153.128	1.95451	268.355	0.349412	39.132	0.781624	99.4949	1.03959	135.663	1.56327	176.858	1.73188	243.488
2.17701	2.4947	0.350271	34.9015	2.18192	2.49506	0.694408	73.8067	1.17203	113.868	1.3873	122.117	1.95339	203.675	0.351309	31.2651	0.78109	76.8538	1.04046	104.354	1.56236	140.165	1.73287	183.952
2.17084	2.49423	0.352364	28.5468	2.17577	2.49461	0.695597	59.3723	1.17125	92.9542	1.38855	101.593	1.952	164.06	0.35361	26.1085	0.78043	62.581	1.04154	84.831	1.56126	116.045	1.73411	147.866
2.16465	2.49374	0.354853	24.2208	2.1696	2.49413	0.697033	49.7055	1.17032	78.5048	1.39002	87.0113	1.95036	137.296	0.356298	22.4776	0.779651	52.7571	1.04283	71.4994	1.55998	98.975	1.73561	123.663
2.15846	2.49323	0.35772	21.0943	2.16341	2.49364	0.698705	42.7849	1.16927	67.9212	1.39169	76.1211	1.9485	117.999	0.359355	19.7898	0.778762	45.5802	1.04433	61.8218	1.55854	86.256	1.73734	106.309
2.15227	2.49272	0.360946	18.7353	2.15722	2.49313	0.700606	37.5901	1.16809	59.8333	1.39355	67.681	1.94645	103.423	0.362759	17.7249	0.777771	40.1059	1.04603	54.4805	1.55695	76.4105	1.7393	93.2611
2.14607	2.4922	0.364509	16.8966	2.15102	2.49261	0.702724	33.5502	1.16681	53.4501	1.39559	60.9499	1.94423	92.023	0.366489	16.0928	0.776689	35.7916	1.04791	48.7231	1.55523	68.5621	1.74146	83.0961
2.13987	2.49168	0.368387	15.4264	2.14482	2.4921	0.705049	30.321	1.16542	48.2833	1.3978	55.4579	1.94186	82.8615	0.370522	14.7731	0.775528	32.3033	1.04996	44.0887	1.55339	62.1584	1.74381	74.9558
2.13367	2.49115	0.372557	14.2264	2.13862	2.49157	0.707569	27.6824	1.16396	44.0149	1.40017	50.893	1.93937	75.3375	0.374835	13.686	0.774299	29.4242	1.05219	40.2795	1.55146	56.8335	1.74634	68.2913
2.12747	2.49063	0.376997	13.2302	2.13243	2.49105	0.710272	25.4873	1.16242	40.4291	1.40269	47.0394	1.93678	69.0478	0.379405	12.7765	0.773015	27.0073	1.05457	37.0941	1.54944	52.3358	1.74904	62.7359
2.12128	2.4901	0.381682	12.3912	2.12623	2.49052	0.713145	23.6336	1.16082	37.3741	1.40535	43.7436	1.93411	63.7115	0.384209	12.0054	0.77169	24.9497	1.0571	34.3917	1.54735	48.4863	1.75188	58.0346
2.11508	2.48957	0.386589	11.6759	2.12003	2.48999	0.716175	22.0481	1.15917	34.7402	1.40813	40.8931	1.93137	59.1272	0.389223	11.3442	0.770336	23.1769	1.05976	32.0707	1.5452	45.1542	1.75485	54.0051
2.10889	2.48904	0.391697	11.0595	2.11384	2.48946	0.719349	20.677	1.15749	32.4461	1.41102	38.4038	1.92858	55.1464	0.394425	10.7714	0.768967	21.6338	1.06254	30.0563	1.54301	42.242	1.75794	50.5133
2.1027	2.48851	0.39698	10.5231	2.10765	2.48894	0.722654	19.48	1.15579	30.4302	1.41401	36.2112	1.92576	51.6575	0.399792	10.2708	0.767599	20.2789	1.06544	28.2916	1.54079	39.6751	1.76114	47.4587
2.09651	2.48799	0.402419	10.0524	2.10146	2.48841	0.726075	18.4262	1.15407	28.6449	1.4171	34.2655	1.92293	48.5749	0.405302	9.82965	0.766246	19.0801	1.06844	26.7333	1.53856	37.3957	1.76444	44.7641
2.09033	2.48746	0.40799	9.63614	2.09527	2.48788	0.729601	17.4914	1.15237	27.0532	1.42027	32.5272	1.92008	45.8316	0.410933	9.43806	0.764923	18.0122	1.07153	25.3472	1.53632	35.3583	1.76781	42.3695
2.08415	2.48693	0.413671	9.26539	2.08909	2.48735	0.733217	16.6567	1.15068	25.6254	1.4235	30.965	1.91724	43.3749	0.416663	9.08805	0.763645	17.0555	1.0747	24.1064	1.53409	33.5266	1.77126	40.2276
2.07797	2.48641	0.419441	8.93297	2.08291	2.48683	0.73691	15.9068	1.14901	24.3377	1.4268	29.5534	1.91442	41.1623	0.421721	8.8119	0.76243	16.1938	1.07793	22.9892	1.53188	31.8712	1.77478	38.3002
2.0718	2.48589	0.425279	8.63306	2.07673	2.4863	0.740666	15.2293	1.14739	23.1709	1.43015	28.2715	1.91162	39.1593	0.426069	8.59492	0.761291	15.4142	1.08123	21.9779	1.5297	30.368	1.77834	36.5568
2.06563	2.48536	0.431164	8.3609	2.07056	2.48578	0.744473	14.6143	1.14582	22.109	1.43353	27.1023	1.90885	37.3378	0.429683	8.42687	0.760248	14.706	1.08457	21.0582	1.52756	28.9972	1.78195	34.9721
2.05947	2.48485	0.437074	8.11252	2.06439	2.48526	0.748318	14.0532	1.14432	21.1388	1.43695	26.0314	1.90613	35.6745	0.432549	8.30063	0.759316	14.0604	1.08795	20.218	1.52547	27.7424	1.78558	33.5254
2.05331	2.48433	0.442989	7.88462	2.05823	2.48474	0.752187	13.5392	1.14289	20.2493	1.4404	25.0468	1.90346	34.1498	0.434659	8.21128	0.758512	13.47	1.09136	19.4475	1.52344	26.5897	1.78925	32.1992
2.04715	2.48381	0.448887	7.67442	2.05207	2.48422	0.756067	13.0663	1.14154	19.4311	1.44385	24.1384	1.90085	32.7473	0.436011	8.15556	0.757855	12.9286	1.09479	18.7381	1.52148	25.5274	1.79293	30.9791
2.041	2.4833	0.454747	7.47956	2.04591	2.48371	0.759946	12.6297	1.1403	18.6764	1.44732	23.2976	1.8983	31.4531	0.437955	8.07737	0.757363	12.4309	1.09822	18.0827	1.51959	24.5455	1.79662	29.8527
2.03485	2.48279	0.46055	7.29802	2.03976	2.4832	0.763811	12.2252	1.13916	17.9784	1.45078	22.517	1.89583	30.2554	0.440068	7.99483	0.757054	11.9724	1.10165	17.4753	1.51779	23.6355	1.80031	28.8095
2.02871	2.48229	0.466272	7.12808	2.03362	2.48269	0.767651	11.849	1.13815	17.3313	1.45423	21.7902	1.89344	29.1441	0.44294	7.88644	0.756947	11.5493	1.10507	16.9106	1.51609	22.7901	1.804	27.8405
2.02257	2.48179	0.471895	6.96823	2.02748	2.48219	0.771451	11.4982	1.13727	16.73	1.45767	21.1118	1.89113	28.1102	0.446566	7.75529	0.757061	11.1582	1.10847	16.3841	1.51449	22.0028	1.80768	26.938
2.01644	2.48129	0.477397	6.8172	2.02134	2.48169	0.775202	11.1699	1.13653	16.1702	1.46108	20.4769	1.88892	27.1463	0.450937	7.60481	0.757413	10.7962	1.11184	15.8919	1.513	21.2682	1.81133	26.0952
2.01031	2.48079	0.482758	6.67386	2.01521	2.48119	0.77889	10.8619	1.13594	15.6481	1.46446	19.8813	1.8868	26.2456	0.456031	7.43849	0.758023	10.4608	1.11518	15.4307	1.51162	20.5813	1.81496	25.3063
2.00419	2.4803	0.487959	6.53724	2.00908	2.48069	0.782505	10.5722	1.13551	15.1604	1.4678	19.3214	1.88479	25.4023	0.461818	7.25965	0.758907	10.1498	1.11846	14.9973	1.51037	19.9379	1.81856	24.5661
1.99808	2.47982	0.492982	6.40649	2.00296	2.4802	0.786035	10.2988	1.13525	14.704	1.47109	18.794	1.88289	24.6113	0.46752	7.09205	0.760084	9.86126	1.1217	14.5893	1.50925	19.3343	1.82213	23.8702
1.99197	2.47933	0.497809	6.28088	1.99685	2.47972	0.78947	10.0403	1.13518	14.2763	1.47434	18.2961	1.88111	23.8681	0.473118	6.93425	0.761568	9.59333	1.12487	14.2043	1.50828	18.767	1.82565	23.2146
1.98587	2.47886	0.502425	6.15979	1.99074	2.47924	0.7928	9.79518	1.13529	13.8751	1.47752	17.8252	1.87945	23.1687	0.47859	6.785	0.763375	9.34448	1.12797	13.8402	1.50744	18.2332	1.82912	22.5958
1.97977	2.47839	0.506816	6.04268	1.98464	2.47876	0.796014	9.5623	1.1356	13.4982	1.48065	17.3791	1.87791	22.5095	0.483918	6.64322	0.765516	9.11328	1.131	13.4952	1.50676	17.7301	1.83254	22.0106
1.97368	2.47792	0.510971	5.92911	1.97855	2.47829	0.799106	9.34053	1.13611	13.1438	1.4837	16.9557	1.87651	21.8874	0.489081	6.50796	0.767662	8.92519	1.13394	13.1678	1.50623	17.2554	1.8359	21.4563
1.9676	2.47746	0.51488	5.81868	1.97246	2.47783	0.802065	9.1289	1.13683	12.8102	1.48668	16.5533	1.87524	21.2993	0.494063	6.3784	0.769701	8.77405	1.13679	12.8565	1.50587	16.807	1.83919	20.9304
1.96153	2.47701	0.518538	5.7111	1.96638	2.47737	0.80453	8.95209	1.13776	12.4958	1.48958	16.1701	1.87411	20.7429	0.498844	6.25384	0.771536	8.65512	1.13955	12.5599	1.50567	16.3828	1.84242	20.4307
1.95546	2.47656	0.521942	5.60612	1.96031	2.47692	0.806544	8.80654	1.13892	12.1993	1.49239	15.8048	1.87313	20.2157	0.503412	6.13367	0.773082	8.56478	1.14221	12.277	1.50565	15.9813	1.84557	19.955
1.9494	2.47612	0.525091	5.50354	1.95424	2.47647	0.808148	8.68957	1.14029	11.9195	1.49512	15.456	1.87229	19.7157	0.507752	6.01738	0.774273	8.50037	1.14477	12.0067	1.50579	15.6008	1.84865	19.5017
1.94335	2.47569	0.527988	5.40323	1.94818	2.47604	0.809375	8.59914	1.1419	11.6551	1.49776	15.1226	1.87161	19.241	0.511853	5.90452	0.775059	8.46002	1.14722	11.7481	1.50612	15.2398	1.85164	19.0692
1.9373	2.47527	0.530637	5.30508	1.94213	2.47561	0.810255	8.53376	1.14372	11.4052	1.50031	14.8034	1.87108	18.7899	0.515708	5.79475	0.776222	8.40317	1.14955	11.5003	1.50662	14.8971	1.85455	18.6558
1.93126	2.47485	0.533048	5.20902	1.93609	2.47518	0.810807	8.49241	1.14578	11.1687	1.50275	14.4975	1.87071	18.3607	0.51931	5.68776	0.77753	8.34291	1.15178	11.2625	1.5073	14.5714	1.85737	18.2604
1.92524	2.47444	0.53523	5.115	1.93005	2.47477	0.811586	8.4336	1.14806	10.9447	1.5051	14.204	1.87049	17.9521	0.522657	5.58332	0.779382	8.26341	1.15389	11.0342	1.50817	14.2617	1.8601	17.8816
1.91922	2.47405	0.537194	5.02302	1.92403	2.47436	0.812414	8.37052	1.15056	10.7325	1.50736	13.9221	1.87044	17.5626	0.52575	5.48126	0.781845	8.16678	1.15588	10.8147	1.50921	13.9668	1.86274	17.5184
1.91321	2.47366	0.538955	4.93305	1.91801	2.47397	0.813507	8.28611	1.15328	10.5312	1.50951	13.651	1.87055	17.1912	0.528592	5.38143	0.785001	8.05552	1.15776	10.6034	1.51044	13.6859	1.86529	17.1697
1.90721	2.47328	0.540527	4.84511	1.912	2.47358	0.814836	8.18152	1.15622	10.3402	1.51156	13.3901	1.87082	16.8367	0.531188	5.28374	0.788947	7.93235	1.15953	10.3998	1.51185	13.4181	1.86773	16.8347
1.90122	2.47291	0.541925	4.75921	1.906	2.4732	0.81636	8.05814	1.15936	10.1587	1.51351	13.1389	1.87126	16.498	0.533548	5.18813	0.793794	7.80011	1.16119	10.2035	1.51343	13.1626	1.87008	16.5124
1.89524	2.47255	0.543164	4.67535	1.90002	2.47284	0.818034	7.91752	1.16271	9.98609	1.51536	12.8967	1.87185	16.1742	0.535681	5.09457	0.798969	7.67691	1.16274	10.014	1.51518	12.9186	1.87233	16.2022
1.88927	2.47221	0.544261	4.59355	1.89404	2.47248	0.819802	7.7613	1.16625	9.82187	1.51712	12.663	1.87261	15.8644	0.537599	5.00302	0.80446	7.56201	1.16418	9.8311	1.51711	12.6855	1.87449	15.9033
1.88331	2.47187	0.54523	4.51383	1.88807	2.47214	0.821407	7.61025	1.16998	9.66545	1.51879	12.4373	1.87352	15.5678	0.539317	4.91351	0.810251	7.45476	1.16552	9.65435	1.5192	12.4625	1.87655	15.6151
1.87736	2.47155	0.546087	4.43618	1.88211	2.47181	0.82285	7.46406	1.17389	9.51631	1.52037	12.2194	1.87459	15.2837	0.540849	4.82601	0.816327	7.35453	1.16678	9.48347	1.52145	12.2491	1.87851	15.3369
1.87143	2.47124	0.546846	4.36062	1.87617	2.47149	0.824135	7.32245	1.17796	9.37398	1.52187	12.0087	1.87581	15.0113	0.542211	4.74056	0.822669	7.26073	1.16795	9.31821	1.52386	12.0448	1.88038	15.0683
1.8655	2.47095	0.547522	4.28713	1.87024	2.47118	0.825264	7.18518	1.18219	9.238	1.52328	11.805	1.87718	14.7499	0.543418	4.65716	0.82926	7.17283	1.1689	9.17858	1.52641	11.8488	1.88215	14.8088
1.85959	2.47067	0.548128	4.21571	1.86431	2.47089	0.826243	7.05203	1.18599	9.12436	1.52463	11.6078	1.8787	14.4989	0.544485	4.57581	0.836081	7.09032	1.16967	9.06266	1.52911	11.6609	1.88384	14.5578
1.85369	2.47041	0.548677	4.14634	1.8584	2.47062	0.827075	6.92279	1.18932	9.03084	1.52591	11.417	1.88035	14.2578	0.545428	4.49655	0.843112	7.01272	1.17029	8.96892	1.53193	11.4804	1.88545	14.3149
1.84781	2.47016	0.54918	4.07902	1.85251	2.47035	0.827766	6.7973	1.19212	8.95573	1.52713	11.2322	1.88214	14.026	0.546262	4.41936	0.850336	6.93962	1.17076	8.8961	1.53488	11.307	1.88698	14.0799
1.84193	2.46993	0.54959	4.022	1.84662	2.47011	0.828324	6.6754	1.19436	8.8977	1.5283	11.0532	1.88406	13.8029	0.547002	4.34425	0.857733	6.87061	1.17109	8.8433	1.53795	11.1403	1.88843	13.8522
1.83608	2.46971	0.549924	3.97458	1.84075	2.46988	0.828753	6.55693	1.19603	8.85577	1.52943	10.8799	1.8861	13.5882	0.547661	4.27122	0.865284	6.80531	1.17131	8.80982	1.54113	10.9798	1.88982	13.6317
1.83023	2.46951	0.550192	3.9362	1.8349	2.46967	0.829061	6.44177	1.19711	8.82925	1.53053	10.7118	1.88826	13.3813	0.548254	4.20025	0.87297	6.74339	1.17161	8.76213	1.5444	10.8251	1.89114	13.4179
1.8244	2.46934	0.550401	3.90637	1.82906	2.46948	0.829256	6.3298	1.19867	8.79157	1.53161	10.549	1.89053	13.1818	0.548791	4.13134	0.880772	6.68452	1.17193	8.71087	1.54776	10.676	1.8924	13.2106
1.81859	2.46918	0.550553	3.88473	1.82323	2.4693	0.829345	6.22092	1.20037	8.75117	1.53267	10.3912	1.89289	12.9893	0.549286	4.06446	0.888672	6.62839	1.17237	8.64211	1.5512	10.5321	1.89362	13.0095
1.81279	2.46904	0.55065	3.87101	1.81742	2.46915	0.829335	6.115	1.20271	8.69715	1.53374	10.2383	1.89535	12.8035	0.549748	3.99959	0.89665	6.57475	1.17291	8.55668	1.55471	10.3931	1.8948	12.8145
1.80701	2.46893	0.55079	3.85146	1.81163	2.46902	0.829234	6.01197	1.20569	8.63028	1.53482	10.0901	1.8979	12.6239	0.550189	3.93671	0.904688	6.52332	1.17355	8.45565	1.55828	10.2587	1.89594	12.6252
1.80124	2.46883	0.550941	3.83045	1.80585	2.4689	0.829049	5.91174	1.20934	8.5515	1.53592	9.94647	1.90052	12.4503	0.550617	3.87579	0.912765	6.47385	1.1743	8.34023	1.56189	10.1287	1.89706	12.4415
1.79549	2.46876	0.551148	3.80226	1.80008	2.46882	0.828787	5.81421	1.21368	8.46184	1.53706	9.80731	1.90322	12.2823	0.551041	3.81678	0.920863	6.42612	1.17517	8.21183	1.56554	10.0027	1.89817	12.2632
1.78976	2.46871	0.551411	3.76724	1.79434	2.46875	0.828456	5.71931	1.21871	8.36239	1.53826	9.67252	1.90597	12.1196	0.551469	3.75966	0.928959	6.37989	1.17606	8.08767	1.56922	9.88053	1.89927	12.09
1.78405	2.46869	0.551735	3.72582	1.78861	2.46871	0.828063	5.62696	1.22379	8.26636	1.53951	9.54197	1.90878	11.9619	0.551909	3.70439	0.937033	6.33495	1.177	7.96769	1.57292	9.76198	1.90037	11.9219
1.77836	2.4687	0.552127	3.67852	1.78291	2.46869	0.827615	5.5371	1.2289	8.1735	1.54067	9.4316	1.91163	11.809	0.552368	3.65093	0.945061	6.29109	1.178	7.85182	1.57663	9.64682	1.90148	11.7587
1.77268	2.46873	0.552597	3.62591	1.77722	2.4687	0.827119	5.44965	1.23403	8.08357	1.54171	9.33997	1.91452	11.6607	0.552852	3.59923	0.95302	6.2481	1.17909	7.74003	1.58032	9.53484	1.90262	11.6002
1.76703	2.46879	0.553094	3.57505	1.77155	2.46874	0.82658	5.36454	1.23917	7.99635	1.54261	9.26586	1.91743	11.5166	0.553366	3.54926	0.960885	6.20578	1.18029	7.63229	1.58354	9.4397	1.90379	11.4463
1.7614	2.46887	0.553625	3.52589	1.76589	2.4688	0.826005	5.28172	1.24429	7.91163	1.54335	9.20833	1.92037	11.3765	0.553916	3.50098	0.968628	6.16394	1.18162	7.52859	1.58626	9.3603	1.905	11.2969
1.75578	2.46899	0.554195	3.4784	1.76026	2.46889	0.825401	5.20111	1.2494	7.82922	1.54392	9.16662	1.92331	11.2403	0.554507	3.45434	0.976222	6.12236	1.18312	7.42892	1.5885	9.29577	1.90626	11.1518
1.75019	2.46914	0.554807	3.43253	1.75466	2.46902	0.824772	5.12267	1.25446	7.74891	1.54428	9.14019	1.92625	11.1077	0.555143	3.40929	0.983636	6.08087	1.18481	7.3333	1.59026	9.24544	1.90759	11.0109
1.74462	2.46932	0.555466	3.38824	1.74907	2.46917	0.824124	5.04633	1.25947	7.67053	1.54483	9.10255	1.92919	10.9786	0.555829	3.36581	0.990841	6.03926	1.18673	7.24175	1.59155	9.20881	1.90898	10.8741
1.73907	2.46953	0.556176	3.34549	1.7435	2.46936	0.823463	4.97203	1.26441	7.59391	1.54543	9.0621	1.93212	10.8527	0.556567	3.32384	0.997804	5.99735	1.18891	7.15429	1.59237	9.18553	1.91046	10.7414
1.73355	2.46978	0.556941	3.30423	1.73796	2.46958	0.822793	4.89972	1.26927	7.5189	1.54628	9.00788	1.93502	10.7299	0.557362	3.28334	1.00449	5.95497	1.19137	7.07093	1.59355	9.15229	1.91203	10.6125
1.72805	2.47006	0.557763	3.26442	1.73244	2.46983	0.822119	4.82935	1.27403	7.44534	1.5474	8.94059	1.93789	10.6101	0.558215	3.24427	1.01088	5.91195	1.19416	6.99171	1.59482	9.11646	1.9137	10.4875
1.72257	2.47038	0.558646	3.22602	1.72694	2.47012	0.821445	4.76086	1.27868	7.37308	1.54883	8.8611	1.94072	10.4931	0.559131	3.20659	1.01693	5.86815	1.19729	6.91663	1.59654	9.06819	1.91548	10.3661
1.71711	2.47073	0.559592	3.18899	1.72147	2.47044	0.820776	4.69421	1.28321	7.30201	1.55062	8.77045	1.94351	10.3787	0.56011	3.17026	1.02262	5.82345	1.2008	6.84568	1.5987	9.00791	1.91737	10.2484
1.71168	2.47112	0.560604	3.15329	1.71602	2.47081	0.820116	4.62934	1.28759	7.232	1.55284	8.66983	1.94625	10.2668	0.561157	3.13523	1.02793	5.77776	1.20472	6.77883	1.60127	8.9361	1.91939	10.1342
1.70628	2.47155	0.561683	3.11888	1.7106	2.47121	0.819469	4.56621	1.29182	7.16293	1.55523	8.57277	1.94893	10.1573	0.562272	3.10148	1.03283	5.73102	1.20906	6.71602	1.60423	8.85332	1.92154	10.0234
1.7009	2.47203	0.562831	3.08573	1.7052	2.47165	0.818837	4.50478	1.29589	7.09471	1.55782	8.4792	1.95155	10.0501	0.563457	3.06896	1.03733	5.68321	1.21382	6.65718	1.60757	8.76014	1.92382	9.91602
1.69555	2.47254	0.564051	3.05378	1.69982	2.47213	0.818226	4.44499	1.29978	7.02724	1.56061	8.38904	1.9541	9.94505	0.564714	3.03763	1.04142	5.63436	1.21903	6.60216	1.61081	8.66882	1.92625	9.81184
1.69022	2.47309	0.565343	3.02301	1.69448	2.47265	0.817637	4.3868	1.30348	6.96045	1.56362	8.30221	1.95658	9.84208	0.566044	3.00746	1.04509	5.58452	1.22466	6.55083	1.61396	8.57922	1.92849	9.72364
1.68492	2.47369	0.566709	2.99338	1.68916	2.47321	0.817074	4.33017	1.307	6.89427	1.56684	8.21864	1.95867	9.75398	0.567449	2.97841	1.04836	5.53378	1.23073	6.503	1.617	8.49127	1.93048	9.6503
1.67965	2.47433	0.56815	2.96486	1.68386	2.47382	0.81654	4.27507	1.31031	6.82863	1.57029	8.13824	1.96041	9.68001	0.568929	2.95044	1.05125	5.48225	1.2372	6.45846	1.61994	8.40485	1.9322	9.59091
1.6744	2.47502	0.569666	2.9374	1.67859	2.47446	0.816038	4.22144	1.31342	6.76349	1.57397	8.06091	1.96182	9.61962	0.570486	2.92353	1.05377	5.43006	1.24406	6.41701	1.62276	8.31989	1.9336	9.54475
1.66919	2.47575	0.57126	2.91098	1.67335	2.47516	0.815569	4.16925	1.31632	6.69882	1.57788	7.98656	1.96291	9.57235	0.572119	2.89764	1.05595	5.37736	1.2513	6.3784	1.62547	8.23632	1.93465	9.51124
1.664	2.47652	0.572931	2.88557	1.66814	2.4759	0.815138	4.11847	1.319	6.63459	1.58202	7.91508	1.96369	9.53786	0.573831	2.87273	1.05782	5.32429	1.25887	6.34243	1.62805	8.15407	1.93533	9.48999
1.65883	2.47735	0.57468	2.86113	1.66296	2.47669	0.814746	4.06905	1.32148	6.57077	1.5864	7.84639	1.96419	9.5159	0.575621	2.84879	1.05939	5.27101	1.26677	6.30885	1.6305	8.07307	1.93632	9.4597
1.6537	2.47822	0.576507	2.83763	1.6578	2.47752	0.814395	4.02096	1.32374	6.50737	1.591	7.78036	1.9649	9.48449	0.57749	2.82577	1.06071	5.21764	1.27495	6.27745	1.63283	7.99328	1.93743	9.42713
1.64859	2.47914	0.578414	2.81505	1.65267	2.4784	0.814087	3.97416	1.3258	6.44438	1.59583	7.71688	1.96566	9.45057	0.579438	2.80365	1.06178	5.16432	1.28339	6.24804	1.63503	7.91465	1.93895	9.38341
1.64351	2.48011	0.580401	2.79335	1.64757	2.47933	0.813825	3.92863	1.32765	6.3818	1.60087	7.65586	1.96667	9.40477	0.581466	2.7824	1.06265	5.11117	1.29207	6.22042	1.6371	7.83714	1.94094	9.32903
1.63846	2.48112	0.582467	2.7725	1.6425	2.48031	0.81361	3.88433	1.3293	6.31965	1.60613	7.59716	1.96793	9.3474	0.583574	2.76199	1.06333	5.05829	1.30096	6.19442	1.63905	7.76073	1.94343	9.26464
1.63344	2.48219	0.584614	2.75249	1.63745	2.48134	0.813444	3.84122	1.33076	6.25795	1.61159	7.54068	1.9694	9.27885	0.585763	2.7424	1.06384	5.00577	1.31004	6.16987	1.64087	7.68538	1.94645	9.19095
1.62845	2.48331	0.586842	2.73329	1.63243	2.48241	0.813329	3.79928	1.33204	6.19671	1.61724	7.4863	1.97106	9.19954	0.588034	2.72361	1.0642	4.9537	1.31929	6.14663	1.64256	7.61107	1.95006	9.10876
1.62348	2.48448	0.589152	2.71487	1.62745	2.48354	0.813266	3.75848	1.33313	6.13595	1.62307	7.43392	1.97289	9.10996	0.590386	2.70559	1.06444	4.90216	1.32868	6.12456	1.64414	7.5378	1.95382	9.02903
1.61854	2.4857	0.591544	2.69721	1.62248	2.48472	0.813258	3.71878	1.33406	6.0757	1.62908	7.38341	1.97463	9.02188	0.592822	2.68832	1.06456	4.85118	1.33821	6.10354	1.64561	7.46555	1.95774	8.95166
1.61363	2.48697	0.59402	2.6803	1.61755	2.48595	0.813304	3.68017	1.33483	6.01598	1.63525	7.33466	1.97629	8.93525	0.595341	2.67179	1.06459	4.80084	1.34784	6.08345	1.64697	7.39433	1.9618	8.87657
1.60875	2.48829	0.596581	2.66412	1.61265	2.48723	0.813408	3.6426	1.33545	5.95682	1.64157	7.28759	1.97787	8.85005	0.597948	2.65599	1.06454	4.75116	1.35757	6.0642	1.64824	7.32413	1.96599	8.80364
1.60389	2.48967	0.59923	2.64866	1.60777	2.48856	0.81357	3.60607	1.33593	5.89824	1.64803	7.24206	1.97936	8.76625	0.600644	2.64089	1.06441	4.70218	1.36737	6.04569	1.64941	7.25495	1.97032	8.73281
1.59906	2.49109	0.60197	2.63391	1.60292	2.48995	0.813791	3.57053	1.33627	5.84026	1.65461	7.198	1.98079	8.68382	0.603434	2.62652	1.06423	4.65392	1.37724	6.02782	1.6505	7.18682	1.97478	8.66397
1.59426	2.49257	0.604807	2.61987	1.59809	2.49138	0.814073	3.53597	1.33649	5.7829	1.6613	7.15529	1.98214	8.60274	0.606325	2.61286	1.064	4.60642	1.38715	6.01051	1.65153	7.11975	1.97936	8.59703
1.58948	2.49409	0.607751	2.60657	1.59329	2.49287	0.814417	3.50236	1.3366	5.72619	1.66809	7.11384	1.98344	8.523	0.609329	2.59995	1.06372	4.55968	1.3971	5.99368	1.65249	7.05375	1.98406	8.53191
1.58473	2.49567	0.610815	2.59404	1.58852	2.49441	0.814824	3.46968	1.33659	5.67013	1.67497	7.07356	1.98468	8.44459	0.612464	2.58785	1.06341	4.51371	1.40706	5.97724	1.65342	6.98886	1.98885	8.46851
1.58	2.4973	0.614023	2.58236	1.58377	2.49599	0.815295	3.43791	1.3365	5.61476	1.68192	7.03436	1.98587	8.36751	0.615761	2.57666	1.06308	4.46852	1.41702	5.96113	1.65431	6.92511	1.99375	8.40676
1.57529	2.49897	0.617415	2.57167	1.57905	2.49763	0.815831	3.40702	1.33631	5.56007	1.68893	6.99616	1.98702	8.29174	0.619273	2.56658	1.06272	4.42413	1.42697	5.94526	1.6552	6.86252	1.99873	8.34657
1.57061	2.5007	0.621057	2.56222	1.57435	2.49932	0.816434	3.377	1.33604	5.50608	1.69598	6.95886	1.98813	8.21728	0.623083	2.55791	1.06236	4.38052	1.43688	5.92954	1.65609	6.80116	2.00379	8.28785
1.56594	2.50247	0.62505	2.55437	1.56967	2.50105	0.817104	3.34782	1.33569	5.4528	1.70306	6.92239	1.98923	8.14415	0.627304	2.55107	1.06198	4.3377	1.44673	5.9139	1.65701	6.74107	2.00893	8.23052
1.5613	2.50428	0.629505	2.54855	1.56501	2.50283	0.817842	3.31946	1.33528	5.40024	1.71016	6.88666	1.99032	8.07235	0.632028	2.54639	1.0616	4.29567	1.45651	5.89823	1.65799	6.68231	2.01412	8.17451
1.55668	2.50614	0.634475	2.54489	1.56037	2.50465	0.818649	3.29191	1.3348	5.34841	1.71727	6.8516	1.99141	8.00188	0.637244	2.54375	1.06122	4.25442	1.46618	5.88245	1.65905	6.62496	2.01936	8.11974
1.55207	2.50804	0.639889	2.54307	1.55575	2.50652	0.819527	3.26514	1.33427	5.29731	1.72435	6.81712	1.99251	7.93277	0.642838	2.54266	1.06085	4.21395	1.47573	5.86644	1.66022	6.56911	2.02463	8.06613
1.54748	2.50998	0.645617	2.54252	1.55115	2.50843	0.820477	3.23915	1.33369	5.24694	1.73141	6.78315	1.99364	7.86502	0.648681	2.54257	1.06049	4.17425	1.48511	5.85008	1.66154	6.51485	2.02994	8.01361
1.5429	2.51195	0.651542	2.54275	1.54655	2.51037	0.821499	3.21391	1.33307	5.1973	1.73842	6.7496	1.99482	7.79865	0.654676	2.54307	1.06014	4.13531	1.4943	5.83325	1.66304	6.4623	2.03527	7.9621
1.53832	2.51395	0.657589	2.54345	1.54198	2.51235	0.822594	3.1894	1.3324	5.1484	1.74537	6.71641	1.99604	7.73369	0.660767	2.54393	1.0598	4.09713	1.50325	5.81579	1.66479	6.41159	2.0406	7.91153
1.53376	2.51597	0.663712	2.54442	1.5374	2.51435	0.823764	3.16562	1.33171	5.10024	1.75224	6.68349	1.99735	7.67016	0.666918	2.545	1.05949	4.05969	1.51191	5.79754	1.66682	6.36286	2.04592	7.86184
1.52919	2.51801	0.669883	2.54556	1.53284	2.51638	0.82501	3.14254	1.33098	5.05281	1.75901	6.65077	1.99874	7.60809	0.673107	2.5462	1.05919	4.02299	1.52023	5.77834	1.66919	6.31627	2.05123	7.81296
1.52462	2.52006	0.676086	2.5468	1.52827	2.51842	0.826333	3.12015	1.33023	5.00611	1.76566	6.61817	2.00024	7.54751	0.679323	2.54748	1.05892	3.98701	1.52817	5.758	1.67195	6.27198	2.0565	7.76482
1.52004	2.52211	0.682312	2.54811	1.5237	2.52047	0.827734	3.09845	1.32946	4.96013	1.77217	6.58561	2.00186	7.48845	0.685557	2.5488	1.05867	3.95175	1.53565	5.73633	1.67518	6.23015	2.06174	7.71736
1.51545	2.52415	0.688552	2.54944	1.51912	2.52252	0.829216	3.07742	1.32867	4.91487	1.77852	6.55303	2.00363	7.43094	0.691802	2.55014	1.05845	3.9172	1.54264	5.71318	1.67892	6.19092	2.06693	7.67052
1.51083	2.52617	0.694802	2.55079	1.51452	2.52456	0.830779	3.05704	1.32787	4.87033	1.78469	6.52034	2.00557	7.37502	0.698057	2.55149	1.05826	3.88334	1.54907	5.6884	1.68321	6.15439	2.07204	7.62423
1.50617	2.52814	0.701059	2.55214	1.5099	2.52657	0.832424	3.03731	1.32705	4.82651	1.79066	6.48747	2.0077	7.32071	0.704316	2.55284	1.05811	3.85016	1.55491	5.66188	1.6881	6.12063	2.07708	7.57843
1.50148	2.53005	0.707321	2.55349	1.50523	2.52853	0.834155	3.01821	1.32623	4.78338	1.79642	6.45437	2.01003	7.26807	0.71058	2.55419	1.05798	3.81765	1.56014	5.63357	1.6936	6.08962	2.08203	7.53307
1.49672	2.53189	0.713586	2.55482	1.50053	2.53043	0.835973	2.99974	1.32541	4.74095	1.80193	6.42095	2.01259	7.2171	0.716846	2.55551	1.05789	3.78581	1.56474	5.60349	1.69971	6.0613	2.08688	7.4881
1.4919	2.53362	0.719852	2.55614	1.49576	2.53224	0.83788	2.9819	1.32458	4.69921	1.80719	6.38718	2.01539	7.16784	0.723113	2.55682	1.05784	3.75461	1.56872	5.57173	1.70641	6.03555	2.09162	7.44346
1.48699	2.53522	0.726119	2.55744	1.49092	2.53395	0.839878	2.96466	1.32376	4.65816	1.81218	6.353	2.01846	7.12032	0.72938	2.55811	1.05782	3.72406	1.57212	5.53841	1.71368	6.01218	2.09623	7.3991
1.48199	2.53667	0.732387	2.55872	1.48599	2.53552	0.84197	2.94804	1.32294	4.61778	1.81688	6.31836	2.0218	7.07453	0.735647	2.55938	1.05785	3.69413	1.57497	5.50372	1.72146	5.99099	2.1007	7.35498
1.47688	2.53795	0.738653	2.55998	1.48097	2.53694	0.844159	2.93201	1.32212	4.57806	1.82128	6.28326	2.02544	7.0305	0.741913	2.56063	1.05791	3.66482	1.57733	5.46785	1.72972	5.97176	2.10502	7.31106
1.47166	2.53905	0.744919	2.56121	1.47584	2.53819	0.846449	2.91659	1.32132	4.539	1.82538	6.24765	2.02938	6.98821	0.748178	2.56185	1.05801	3.63611	1.57923	5.43101	1.73838	5.95426	2.10919	7.26729
1.46633	2.53996	0.751183	2.56242	1.4706	2.53925	0.848842	2.90177	1.32052	4.50059	1.82916	6.21155	2.03364	6.94766	0.754441	2.56304	1.05816	3.608	1.58074	5.39341	1.74742	5.93828	2.11319	7.22365
1.46089	2.54069	0.757445	2.56361	1.46525	2.54012	0.851342	2.88754	1.31974	4.46282	1.83263	6.17494	2.0382	6.9088	0.760702	2.56421	1.05834	3.58047	1.58191	5.35522	1.75678	5.92363	2.11702	7.1801
1.45534	2.54123	0.763705	2.56476	1.45978	2.54081	0.853954	2.8739	1.31897	4.42568	1.83579	6.13786	2.04309	6.87162	0.766961	2.56536	1.05858	3.55352	1.58277	5.31662	1.76641	5.91013	2.12066	7.13662
1.44969	2.54161	0.769963	2.5659	1.45421	2.54132	0.856681	2.86087	1.31821	4.38917	1.83864	6.10033	2.04829	6.83605	0.773217	2.56647	1.05885	3.52712	1.58338	5.27775	1.77628	5.89763	2.12413	7.09319
1.44395	2.54183	0.776218	2.567	1.44854	2.54166	0.859529	2.84843	1.31747	4.35327	1.84119	6.06237	2.0538	6.80206	0.779471	2.56757	1.05918	3.50129	1.58376	5.23873	1.78636	5.886	2.1274	7.0498
1.43814	2.54193	0.78247	2.56808	1.44279	2.54186	0.862501	2.83659	1.31675	4.31798	1.84345	6.02405	2.05961	6.76956	0.785722	2.56864	1.05954	3.47599	1.58395	5.19969	1.79662	5.87512	2.13048	7.00643
1.43226	2.5419	0.78872	2.56914	1.43696	2.54193	0.865602	2.82535	1.31606	4.28328	1.84543	5.98539	2.0657	6.73849	0.79197	2.56968	1.05996	3.45123	1.58398	5.16069	1.80702	5.86489	2.13336	6.96309
1.42633	2.54178	0.794966	2.57017	1.43107	2.54188	0.868837	2.81471	1.31538	4.24917	1.84715	5.94646	2.07207	6.70878	0.798215	2.57069	1.06042	3.42698	1.58387	5.12183	1.81756	5.85523	2.13606	6.91977
1.42034	2.54156	0.80121	2.57117	1.42513	2.54174	0.87221	2.80467	1.31473	4.21563	1.84862	5.90731	2.07871	6.68035	0.804457	2.57168	1.06093	3.40326	1.58364	5.08315	1.8282	5.84606	2.13856	6.87648
1.41431	2.54127	0.80745	2.57215	1.41913	2.54151	0.875725	2.79523	1.3141	4.18267	1.84985	5.86799	2.08558	6.65312	0.810695	2.57265	1.06149	3.38003	1.58331	5.04471	1.83893	5.83732	2.14088	6.83323
1.40825	2.54091	0.813686	2.57311	1.4131	2.5412	0.879383	2.78639	1.31349	4.15027	1.85087	5.82856	2.09269	6.627	0.81693	2.57359	1.0621	3.3573	1.58288	5.00656	1.84975	5.82895	2.14302	6.79004
1.40216	2.5405	0.819919	2.57403	1.40703	2.54083	0.883188	2.77813	1.31292	4.11842	1.85168	5.78906	2.1	6.60193	0.823161	2.57451	1.06275	3.33505	1.58239	4.96873	1.86062	5.8209	2.14498	6.74693
1.39604	2.54003	0.826148	2.57494	1.40093	2.54041	0.887139	2.77045	1.31237	4.08711	1.85231	5.74955	2.10751	6.57782	0.829388	2.5754	1.06346	3.31328	1.58183	4.93124	1.87155	5.81312	2.14677	6.70392
1.3899	2.53952	0.832374	2.57582	1.39481	2.53993	0.891236	2.76333	1.31185	4.05634	1.85277	5.71007	2.1152	6.55461	0.835611	2.57626	1.06422	3.29198	1.58121	4.89412	1.88251	5.80557	2.14841	6.66104
1.38374	2.53897	0.838596	2.57667	1.38866	2.53941	0.895476	2.75676	1.31135	4.02609	1.85307	5.67066	2.12305	6.53222	0.841831	2.57711	1.06503	3.27113	1.58055	4.85739	1.89351	5.79821	2.1499	6.61832
1.37757	2.53838	0.844813	2.5775	1.3825	2.53886	0.899856	2.7507	1.31089	3.99637	1.85322	5.63137	2.13104	6.51058	0.848046	2.57792	1.06589	3.25074	1.57985	4.82106	1.90451	5.791	2.15126	6.57578
1.37137	2.53777	0.851026	2.57831	1.37632	2.53826	0.904371	2.74514	1.31046	3.96715	1.85324	5.59223	2.13915	6.48963	0.854257	2.57872	1.0668	3.23079	1.57913	4.78514	1.91553	5.7839	2.15249	6.53347
1.36517	2.53712	0.857235	2.57909	1.37013	2.53764	0.909013	2.74004	1.31006	3.93843	1.85314	5.55326	2.14738	6.46931	0.860463	2.57948	1.06777	3.21127	1.57837	4.74964	1.92653	5.77688	2.15362	6.49143
1.35896	2.53645	0.863439	2.57984	1.36392	2.53699	0.913777	2.73538	1.3097	3.91021	1.85294	5.51451	2.15571	6.44957	0.866665	2.58023	1.06878	3.19217	1.5776	4.71457	1.93751	5.76989	2.15465	6.44968
1.35273	2.53575	0.869639	2.58058	1.35771	2.53631	0.918654	2.73111	1.30937	3.88248	1.85263	5.47599	2.16412	6.43033	0.872862	2.58095	1.06985	3.1735	1.5768	4.67994	1.94846	5.7629	2.15561	6.40829
1.3465	2.53503	0.875833	2.58128	1.35148	2.53561	0.923636	2.72721	1.30907	3.85522	1.85223	5.43774	2.1726	6.41156	0.879054	2.58164	1.07098	3.15523	1.576	4.64574	1.95936	5.75585	2.15651	6.36729
1.34026	2.53429	0.882023	2.58197	1.34525	2.53489	0.928714	2.72365	1.30881	3.82843	1.85176	5.39976	2.18113	6.39321	0.885241	2.58231	1.07215	3.13737	1.57519	4.61198	1.97019	5.74869	2.15738	6.32674
1.33401	2.53353	0.888207	2.58263	1.339	2.53414	0.933881	2.7204	1.30858	3.8021	1.8512	5.36207	2.1897	6.37521	0.891423	2.58296	1.07338	3.1199	1.57438	4.57866	1.98093	5.74137	2.15823	6.28671
1.32776	2.53276	0.894386	2.58326	1.33276	2.53338	0.939129	2.71742	1.30839	3.77623	1.85059	5.3247	2.19829	6.35752	0.897599	2.58358	1.07466	3.10282	1.57356	4.54578	1.99155	5.73381	2.1591	6.24726
1.3215	2.53196	0.900559	2.58387	1.3265	2.5326	0.94445	2.71469	1.30824	3.75081	1.84991	5.28765	2.2069	6.34009	0.903769	2.58418	1.076	3.08612	1.57274	4.51334	2.00202	5.72592	2.16002	6.20846
1.31524	2.53115	0.906727	2.58446	1.32024	2.5318	0.949838	2.71219	1.30812	3.72583	1.84918	5.25094			0.909933	2.58475	1.07739	3.0698	1.57193	4.48134	2.01231	5.71762	2.16102	6.17042
1.30897	2.53033	0.912888	2.58502	1.31398	2.53099	0.955284	2.70989	1.30804	3.70128	1.84841	5.21457			0.916091	2.5853	1.07884	3.05385	1.57113	4.44977	2.02237	5.70877	2.16215	6.13325
1.3027	2.52949	0.919042	2.58555	1.30771	2.53016	0.960785	2.70777	1.308	3.67715	1.84759	5.17855			0.922242	2.58582	1.08034	3.03826	1.57033	4.41863	2.03214	5.69923	2.16347	6.09707
1.29642	2.52863	0.92519	2.58606	1.30144	2.52932	0.966334	2.70581	1.308	3.65345	1.84674	5.14289			0.928386	2.58631	1.0819	3.02302	1.56954	4.38793	2.04156	5.68884	2.16503	6.06204
1.29015	2.52777	0.93133	2.58654	1.29516	2.52846	0.971927	2.704	1.30804	3.63016	1.84585	5.1076			0.934522	2.58678	1.08352	3.00814	1.56876	4.35765	2.05055	5.67738	2.1669	6.02835
1.28387	2.52689	0.937464	2.587	1.28888	2.52759	0.977559	2.70232	1.30811	3.60727	1.84493	5.07268			0.940651	2.58722	1.08519	2.9936	1.568	4.32779	2.05902	5.66465	2.16918	5.99619
1.27759	2.52599	0.943589	2.58742	1.2826	2.52671	0.983226	2.70076	1.30823	3.58478	1.84399	5.03813			0.946772	2.58764	1.08691	2.9794	1.56725	4.29835	2.06688	5.6504	2.17195	5.96581
1.2713	2.52509	0.949705	2.58782	1.27632	2.52581	0.988925	2.69931	1.30839	3.56268	1.84303	5.00396			0.952884	2.58802	1.0887	2.96553	1.56652	4.26933	2.07403	5.63441	2.17532	5.93744
1.26502	2.52417	0.955813	2.58819	1.27004	2.52491	0.994652	2.69795	1.30858	3.54098	1.84205	4.97016			0.958987	2.58837	1.09054	2.95199	1.56581	4.24071	2.0804	5.61651	2.17938	5.91128
1.25873	2.52325	0.961912	2.58853	1.26375	2.52399	1.0004	2.69667	1.30882	3.51965	1.84106	4.93675			0.965081	2.5887	1.09244	2.93877	1.56511	4.21251	2.08594	5.59661	2.1842	5.88751
1.25244	2.52231	0.968	2.58884	1.25747	2.52306	1.00618	2.69548	1.3091	3.49869	1.84005	4.90371			0.971164	2.58899	1.09439	2.92588	1.56444	4.1847	2.09064	5.5747	2.18983	5.86619
1.24615	2.52136	0.974078	2.58912	1.25118	2.52212	1.01198	2.69435	1.30942	3.4781	1.83904	4.87105			0.977236	2.58925	1.09641	2.9133	1.56378	4.15729	2.09452	5.55089	2.19626	5.84728
1.23986	2.5204	0.980144	2.58936	1.24489	2.52117	1.01779	2.69329	1.30979	3.45787	1.83801	4.83877			0.983296	2.58948	1.09849	2.90103	1.56315	4.13028	2.09765	5.52539	2.20347	5.83067
1.23358	2.51943	0.986199	2.58957	1.2386	2.52021	1.02363	2.69229	1.31019	3.438	1.83698	4.80686			0.989344	2.58967	1.10062	2.88906	1.56254	4.10365	2.1001	5.49844		
1.22729	2.51846	0.99224	2.58975	1.23231	2.51924	1.02948	2.69134	1.31064	3.41848	1.83595	4.77533			0.995378	2.58982	1.10282	2.8774	1.56196	4.0774	2.10198	5.4703		
1.221	2.51747	0.998268	2.58988	1.22602	2.51826	1.03534	2.69043	1.31113	3.39931	1.83492	4.74418			1.0014	2.58994	1.10508	2.86604	1.5614	4.05154	2.10336	5.44122		
1.21471	2.51648	1.00428	2.58998	1.21973	2.51727	1.04121	2.68957	1.31167	3.38047	1.83389	4.7134			1.0074	2.59001	1.1074	2.85497	1.56086	4.02604	2.10432	5.41142		
1.20842	2.51548	1.01028	2.59003	1.21344	2.51628	1.0471	2.68875	1.31225	3.36196	1.83287	4.68298			1.01339	2.59004	1.10978	2.8442	1.56035	4.00092	2.10495	5.38109		
1.20213	2.51447	1.01626	2.59004	1.20716	2.51528	1.053	2.68797	1.31287	3.34379	1.83184	4.65294			1.01936	2.59002	1.11223	2.83372	1.55987	3.97616	2.10528	5.3504		
1.19585	2.51345	1.02222	2.59	1.20087	2.51427	1.0589	2.68722	1.31353	3.32594	1.83083	4.62326			1.02531	2.58996	1.11475	2.82353	1.55942	3.95176	2.10539	5.31946		
1.18957	2.51243	1.02816	2.58991	1.19459	2.51325	1.06481	2.68649	1.31424	3.3084	1.82982	4.59394			1.03124	2.58984	1.11733	2.81363	1.55899	3.92771	2.10529	5.28839		
1.18328	2.5114	1.03408	2.58976	1.1883	2.51223	1.07074	2.6858	1.31499	3.29118	1.82882	4.56499			1.03715	2.58967	1.11998	2.80401	1.55859	3.90402	2.10503	5.25727		
1.17701	2.51037	1.03997	2.58956	1.18202	2.5112	1.07666	2.68513	1.31579	3.27427	1.82782	4.53639			1.04303	2.58943	1.1227	2.79468	1.55823	3.88067	2.10463	5.22616		
1.17073	2.50933	1.04584	2.5893	1.17574	2.51016	1.0826	2.68448	1.31663	3.25766	1.82685	4.50814			1.04888	2.58914	1.1255	2.78564	1.55789	3.85766	2.10412	5.19512		
1.16446	2.50829	1.05168	2.58897	1.16947	2.50913	1.08854	2.68385	1.31752	3.24135	1.82588	4.48024			1.05471	2.58877	1.12837	2.77688	1.55758	3.83499	2.10351	5.16419		
1.15819	2.50725	1.05749	2.58857	1.1632	2.50808	1.09448	2.68324	1.31845	3.22533	1.82492	4.45269			1.0605	2.58833	1.13131	2.76841	1.5573	3.81264	2.10282	5.13341		
1.15192	2.5062	1.06327	2.5881	1.15693	2.50704	1.10043	2.68265	1.31943	3.20961	1.82398	4.42548			1.06626	2.58782	1.13434	2.76022	1.55706	3.79063	2.10206	5.10281		
1.14566	2.50516	1.06901	2.58754	1.15066	2.50599	1.10638	2.68207	1.32045	3.19416	1.82306	4.39861			1.07198	2.58722	1.13744	2.75233	1.55684	3.76894	2.10123	5.0724		
1.1394	2.50411	1.07471	2.58689	1.1444	2.50495	1.11234	2.68151	1.32152	3.179	1.82215	4.37208			1.07766	2.58652	1.14063	2.74473	1.55666	3.74756	2.10036	5.04221		
1.13315	2.50306	1.08037	2.58616	1.13814	2.5039	1.11829	2.68095	1.32263	3.16412	1.82126	4.34588			1.0833	2.58573	1.14391	2.73742	1.55651	3.7265	2.09945	5.01225		
1.12691	2.50202	1.08599	2.58531	1.13189	2.50285	1.12425	2.68041	1.32379	3.14951	1.82039	4.32001			1.08889	2.58484	1.14729	2.73041	1.5564	3.70575	2.0985	4.98253		
1.12067	2.50098	1.09155	2.58437	1.12565	2.50181	1.13021	2.67988	1.325	3.13516	1.81953	4.29446			1.09443	2.58383	1.15075	2.7237	1.55631	3.68531	2.09752	4.95307		
1.11444	2.49995	1.09706	2.5833	1.11941	2.50078	1.13617	2.67935	1.32625	3.12108	1.81869	4.26924			1.09991	2.5827	1.15432	2.7173	1.55626	3.66516	2.09651	4.92387		
1.10821	2.49893	1.10252	2.58212	1.11318	2.49974	1.14213	2.67884	1.32755	3.10726	1.81788	4.24434			1.10533	2.58146	1.15798	2.7112	1.55625	3.64531	2.09549	4.89493		
1.102	2.49791	1.10792	2.58081	1.10696	2.49872	1.1481	2.67832	1.32889	3.0937	1.81708	4.21975			1.1107	2.58008	1.16175	2.70542	1.55626	3.62576	2.09444	4.86627		
1.0958	2.49691	1.11325	2.57937	1.10075	2.49771	1.15406	2.67782	1.33028	3.0804	1.81631	4.19547			1.116	2.57856	1.16563	2.69994	1.55632	3.60649	2.09339	4.83788		
1.08961	2.49593	1.11851	2.57779	1.09455	2.49671	1.16002	2.67731	1.33172	3.06734	1.81556	4.1715			1.12123	2.57691	1.16962	2.69478	1.5564	3.58751	2.09232	4.80977		
1.08343	2.49496	1.12371	2.57606	1.08836	2.49573	1.16598	2.67681	1.33321	3.05453	1.81483	4.14783			1.12639	2.57511	1.17372	2.68993	1.55652	3.56881	2.09125	4.78194		
1.07727	2.49402	1.12884	2.5742	1.08219	2.49477	1.17193	2.67631	1.33474	3.04196	1.81412	4.12446			1.13148	2.57317	1.17794	2.6854	1.55668	3.55039	2.09017	4.75439		
1.07112	2.49311	1.13389	2.5722	1.07603	2.49384	1.17789	2.67581	1.33632	3.02963	1.81344	4.10139			1.13649	2.5711	1.18227	2.68117	1.55687	3.53224	2.08909	4.72712		
1.06499	2.49222	1.13888	2.57005	1.06988	2.49293	1.18384	2.6753	1.33795	3.01754	1.81278	4.07862			1.14144	2.56888	1.18672	2.67725	1.5571	3.51436	2.08801	4.70013		
1.05888	2.49138	1.14379	2.56777	1.06376	2.49205	1.18979	2.6748	1.33963	3.00569	1.81214	4.05613			1.14632	2.56654	1.19128	2.67362	1.55736	3.49674	2.08693	4.67343		
1.05279	2.49057	1.14864	2.56537	1.05765	2.49121	1.19573	2.67429	1.34136	2.99406	1.81153	4.03393			1.15114	2.56407	1.19595	2.67027	1.55766	3.47939	2.08585	4.647		
1.04673	2.48982	1.15343	2.56285	1.05157	2.49042	1.20167	2.67378	1.34313	2.98266	1.81095	4.01201			1.15589	2.5615	1.20073	2.6672	1.558	3.46229	2.08478	4.62086		
1.04069	2.48913	1.15815	2.56022	1.04551	2.48968	1.20761	2.67326	1.34496	2.97149	1.81039	3.99038			1.16059	2.55882	1.20561	2.66439	1.55837	3.44545	2.08371	4.59499		
1.03469	2.4885	1.16282	2.5575	1.03948	2.489	1.21354	2.67273	1.34684	2.96055	1.80985	3.96901			1.16523	2.55606	1.21059	2.66182	1.55878	3.42886	2.08265	4.56941		
1.02872	2.48795	1.16744	2.5547	1.03348	2.48838	1.21946	2.6722	1.34876	2.94982	1.80935	3.94792			1.16983	2.55322	1.21566	2.65948	1.55922	3.41252	2.0816	4.54409		
1.02279	2.48749	1.17202	2.55184	1.02752	2.48785	1.22538	2.67165	1.35074	2.93932	1.80887	3.92711			1.17439	2.55033	1.22082	2.65735	1.55971	3.39642	2.08056	4.51906		
1.0169	2.48713	1.17656	2.54892	1.0216	2.48741	1.23128	2.67109	1.35277	2.92903	1.80841	3.90655			1.17892	2.54739	1.22606	2.65541	1.56023	3.38057	2.07953	4.49429		
1.01106	2.48688	1.18108	2.54597	1.01572	2.48707	1.23718	2.67052	1.35486	2.91896	1.80799	3.88626			1.18341	2.54442	1.23137	2.65366	1.56078	3.36495	2.07851	4.4698		
1.00528	2.48677	1.18556	2.54299	1.00989	2.48685	1.24307	2.66994	1.35699	2.9091	1.80759	3.86623			1.18789	2.54143	1.23675	2.65207	1.56137	3.34956	2.0775	4.44558		
0.999552	2.4868	1.19003	2.54	1.00412	2.48676	1.24895	2.66933	1.35919	2.89946	1.80722	3.84646			1.19235	2.53845	1.2422	2.65063	1.562	3.33441	2.07651	4.42162		
0.993892	2.487	1.19448	2.53701	0.998409	2.48683	1.25481	2.66871	1.36143	2.89003	1.80688	3.82694			1.1968	2.53546	1.2477	2.64932	1.56267	3.31948	2.07553	4.39793		
0.988303	2.48737	1.19893	2.53404	0.992763	2.48706	1.26067	2.66806	1.36374	2.88081	1.80656	3.80767			1.20124	2.5325	1.25325	2.64813	1.56338	3.30478	2.07457	4.3745		
0.982791	2.48795	1.20337	2.53109	0.987189	2.48747	1.26651	2.66739	1.3661	2.8718	1.80628	3.78864			1.20569	2.52957	1.25885	2.64706	1.56412	3.2903	2.07362	4.35133		
0.97736	2.48874	1.20782	2.52817	0.981692	2.48809	1.27233	2.6667	1.36852	2.863	1.80603	3.76986			1.21014	2.52667	1.26449	2.64608	1.5649	3.27604	2.07268	4.32841		
0.972016	2.48976	1.21227	2.5253	0.976279	2.48892	1.27813	2.66597	1.371	2.85441	1.8058	3.75132			1.21459	2.52382	1.27017	2.64519	1.56572	3.262	2.07177	4.30576		
0.966761	2.49102	1.21674	2.52247	0.970952	2.48999	1.28392	2.66521	1.37354	2.84603	1.8056	3.73302			1.21907	2.52102	1.27588	2.64438	1.56657	3.24817	2.07087	4.28335		
0.961599	2.49254	1.22121	2.5197	0.965716	2.49131	1.28968	2.66441	1.37615	2.83787	1.80544	3.71496			1.22355	2.51828	1.28162	2.64364	1.56747	3.23455	2.06999	4.2612		
0.95653	2.49432	1.22571	2.51699	0.960572	2.49287	1.29542	2.66358	1.37883	2.82992	1.8053	3.69713			1.22806	2.51561	1.28739	2.64296	1.5684	3.22114	2.06913	4.23929		
0.951553	2.49636	1.23022	2.51435	0.955521	2.49471	1.30114	2.66269	1.38157	2.82219	1.8052	3.67952			1.23258	2.513	1.29319	2.64235	1.56937	3.20793	2.06829	4.21763		
0.946668	2.49867	1.23476	2.51178	0.950564	2.4968	1.30682	2.66176	1.38438	2.81467	1.80512	3.66214			1.23713	2.51047	1.29901	2.64178	1.57038	3.19492	2.06747	4.19621		
0.941872	2.50124	1.23933	2.50928	0.945697	2.49917	1.31248	2.66078	1.38727	2.80737	1.80508	3.64499			1.24171	2.50802	1.30485	2.64126	1.57143	3.18211	2.06667	4.17503		
0.93716	2.50408	1.24392	2.50687	0.940918	2.50179	1.3181	2.65973	1.39024	2.80029	1.80506	3.62806			1.24632	2.50565	1.3107	2.64078	1.57251	3.1695	2.06589	4.15409		
0.932529	2.50716	1.24854	2.50454	0.936223	2.50468	1.32368	2.65862	1.39328	2.79345	1.80508	3.61134			1.25096	2.50336	1.31657	2.64034	1.57363	3.15708	2.06513	4.13339		
0.927971	2.51048	1.2532	2.50229	0.931606	2.50781	1.32923	2.65744	1.39641	2.78683	1.80513	3.59485			1.25563	2.50116	1.32246	2.63993	1.5748	3.14485	2.0644	4.11292		
0.923482	2.51403	1.25788	2.50014	0.927063	2.51117	1.33473	2.65618	1.39963	2.78045	1.80521	3.57856			1.26034	2.49905	1.32836	2.63955	1.576	3.13282	2.06368	4.09268		
0.919056	2.51779	1.26261	2.49807	0.922587	2.51477	1.34018	2.65483	1.40294	2.7743	1.80532	3.56248			1.26508	2.49703	1.33427	2.63919	1.57724	3.12097	2.06299	4.07267		
0.914685	2.52176	1.26737	2.49609	0.918173	2.51857	1.34557	2.6534	1.40634	2.7684	1.80546	3.54662			1.26986	2.4951	1.34019	2.63886	1.57851	3.1093	2.06232	4.05288		
0.910364	2.52591	1.27217	2.49421	0.913812	2.52258	1.35091	2.65186	1.40985	2.76275	1.80563	3.53095			1.27468	2.49326	1.34612	2.63855	1.57983	3.09781	2.06167	4.03332		
0.906085	2.53024	1.277	2.49242	0.9095	2.52677	1.35619	2.65022	1.41345	2.75735	1.80584	3.51549			1.27954	2.49152	1.35206	2.63826	1.58119	3.08651	2.06105	4.01398		
0.901843	2.53473	1.28188	2.49072	0.90523	2.53113	1.36141	2.64847	1.41717	2.75221	1.80608	3.50023			1.28444	2.48987	1.35801	2.63798	1.58258	3.07538	2.06045	3.99486		
0.897628	2.53935	1.2868	2.48912	0.900993	2.53565	1.36655	2.6466	1.421	2.74733	1.80635	3.48517			1.28938	2.48832	1.36396	2.63772	1.58402	3.06442	2.05987	3.97596		
0.893435	2.54409	1.29176	2.48761	0.896783	2.54029	1.37163	2.64461	1.42494	2.74272	1.80665	3.4703			1.29436	2.48686	1.36992	2.63747	1.58549	3.05364	2.05932	3.95726		
0.889256	2.54894	1.29676	2.4862	0.892594	2.54506	1.37663	2.6425	1.42899	2.73836	1.80698	3.45563			1.29938	2.4855	1.37588	2.63723	1.587	3.04303	2.05879	3.93878		
0.885082	2.55387	1.30181	2.48488	0.888416	2.54993	1.38156	2.64026	1.43317	2.73427	1.80735	3.44114			1.30445	2.48423	1.38184	2.637	1.58855	3.03259	2.05828	3.92051		
0.880906	2.55886	1.3069	2.48365	0.884243	2.55487	1.38641	2.6379	1.43746	2.73044	1.80775	3.42685			1.30956	2.48305	1.38781	2.63678	1.59014	3.02231	2.05781	3.90245		
0.876719	2.56388	1.31203	2.48251	0.880065	2.55986	1.39119	2.63542	1.44187	2.72687	1.80818	3.41274			1.31471	2.48196	1.39378	2.63657	1.59177	3.0122	2.05735	3.88459		
0.872513	2.56891	1.3172	2.48147	0.875875	2.56489	1.39589	2.63282	1.4464	2.72354	1.80864	3.39881			1.31991	2.48096	1.39975	2.63636	1.59344	3.00225	2.05692	3.86694		
0.868278	2.57393	1.32242	2.48051	0.871664	2.56992	1.40052	2.63012	1.45103	2.72045	1.80914	3.38507			1.32515	2.48005	1.40573	2.63615	1.59515	2.99246	2.05652	3.84948		
0.864006	2.5789	1.32767	2.47964	0.867423	2.57493	1.40509	2.62731	1.45578	2.71759	1.80967	3.3715			1.33042	2.47922	1.4117	2.63595	1.5969	2.98283	2.05614	3.83222		
0.859688	2.58381	1.33297	2.47885	0.863142	2.5799	1.4096	2.62442	1.46063	2.71495	1.81023	3.35811			1.33574	2.47848	1.41767	2.63575	1.59869	2.97335	2.05579	3.81516		
0.855315	2.58862	1.33831	2.47815	0.858813	2.58479	1.41406	2.62145	1.46558	2.71251	1.81082	3.3449			1.34111	2.47782	1.42365	2.63554	1.60052	2.96404	2.05547	3.7983		
0.85088	2.59331	1.34369	2.47753	0.854428	2.58957	1.41847	2.61842	1.47061	2.71027	1.81145	3.33186			1.34651	2.47723	1.42962	2.63534	1.60239	2.95487	2.05517	3.78162		
0.846375	2.59785	1.34911	2.47698	0.84998	2.59423	1.42283	2.61535	1.47574	2.70819	1.81211	3.31899			1.35195	2.47673	1.43559	2.63514	1.6043	2.94586	2.0549	3.76514		
0.841795	2.60222	1.35457	2.47651	0.84546	2.59874	1.42717	2.61225	1.48094	2.70628	1.81281	3.30629			1.35742	2.4763	1.44156	2.63493	1.60625	2.937	2.05465	3.74884		
0.837136	2.60641	1.36007	2.47611	0.840865	2.60308	1.43149	2.60913	1.48622	2.70452	1.81353	3.29375			1.36294	2.47593	1.44752	2.63472	1.60824	2.92828	2.05443	3.73272		
0.832395	2.6104	1.3656	2.47578	0.83619	2.60723	1.43579	2.60601	1.49156	2.7029	1.8143	3.28138			1.36849	2.47564	1.45348	2.63451	1.61027	2.91972	2.05424	3.71679		
0.827569	2.61418	1.37116	2.47552	0.831431	2.61118	1.44009	2.60291	1.49697	2.7014	1.81509	3.26917			1.37407	2.47541	1.45944	2.63429	1.61235	2.9113	2.05408	3.70105		
0.822659	2.61775	1.37677	2.47532	0.826588	2.61492	1.4444	2.59985	1.50243	2.70001	1.81592	3.25713			1.37969	2.47524	1.46539	2.63406	1.61446	2.90302	2.05394	3.68548		
0.817667	2.62111	1.3824	2.47518	0.821662	2.61844	1.44871	2.59684	1.50794	2.69873	1.81678	3.24524			1.38534	2.47514	1.47134	2.63383	1.61662	2.89489	2.05383	3.67009		
0.812595	2.62426	1.38807	2.4751	0.816653	2.62176	1.45306	2.59389	1.5135	2.69753	1.81767	3.23351			1.39103	2.47508	1.47728	2.63359	1.61882	2.8869	2.05375	3.65487		
0.807446	2.62721	1.39376	2.47508	0.811565	2.62487	1.45744	2.59104	1.5191	2.69642	1.8186	3.22193			1.39674	2.47509	1.48322	2.63334	1.62106	2.87906	2.0537	3.63983		
0.802224	2.62997	1.39949	2.4751	0.806402	2.62778	1.46187	2.5883	1.52474	2.69539	1.81956	3.21051			1.40248	2.47514	1.48915	2.63308	1.62335	2.87135	2.05367	3.62496		
0.796935	2.63254	1.40524	2.47518	0.801166	2.6305	1.46635	2.58568	1.53041	2.69442	1.82055	3.19924			1.40825	2.47524	1.49507	2.6328	1.62568	2.86378	2.05367	3.61026		
0.791582	2.63494	1.41102	2.4753	0.795863	2.63303	1.47092	2.58322	1.53611	2.69352	1.82158	3.18811			1.41404	2.47538	1.50098	2.63252	1.62805	2.85635	2.0537	3.59572		
0.78617	2.63718	1.41683	2.47547	0.790498	2.6354	1.47557	2.58092	1.54184	2.69267	1.82264	3.17714			1.41986	2.47557	1.50688	2.63222	1.63047	2.84906	2.05376	3.58135		
0.780704	2.63928	1.42266	2.47567	0.785075	2.63761	1.48032	2.57882	1.54759	2.69187	1.82373	3.16631			1.4257	2.47579	1.51277	2.6319	1.63293	2.84191	2.05385	3.56715		
0.77519	2.64123	1.42851	2.47592	0.779599	2.63968	1.48518	2.57693	1.55337	2.69112	1.82486	3.15563			1.43157	2.47606	1.51865	2.63157	1.63544	2.83489	2.05396	3.55311		
0.76963	2.64307	1.43439	2.4762	0.774075	2.64161	1.49016	2.57527	1.55917	2.69041	1.82602	3.14509			1.43745	2.47636	1.52452	2.63122	1.638	2.82801	2.0541	3.53923		
0.764029	2.64479	1.44029	2.47651	0.768507	2.64343	1.49527	2.57383	1.56498	2.68974	1.82722	3.13469			1.44336	2.47669	1.53038	2.63085	1.6406	2.82127	2.05427	3.52551		
0.758391	2.64642	1.4462	2.47686	0.762898	2.64513	1.50051	2.57263	1.57082	2.6891	1.82845	3.12443			1.44929	2.47705	1.53622	2.63046	1.64326	2.81466	2.05447	3.51194		
0.752719	2.64794	1.45214	2.47724	0.757253	2.64673	1.50587	2.57165	1.57667	2.68849	1.82971	3.11431			1.45523	2.47744	1.54205	2.63004	1.64596	2.80819	2.0547	3.49854		
0.747017	2.64939	1.45809	2.47764	0.751575	2.64824	1.51134	2.57087	1.58253	2.68792	1.83101	3.10433			1.4612	2.47786	1.54786	2.6296	1.64871	2.80186	2.05496	3.48528		
0.741287	2.65076	1.46406	2.47807	0.745867	2.64967	1.51693	2.57028	1.5884	2.68736	1.83234	3.09448			1.46718	2.47831	1.55365	2.62913	1.65151	2.79566	2.05524	3.47218		
0.735531	2.65206	1.47005	2.47853	0.740131	2.65103	1.52261	2.56986	1.59429	2.68684	1.8337	3.08476			1.47317	2.47878	1.55942	2.62864	1.65437	2.7896	2.05556	3.45922		
0.729753	2.6533	1.47606	2.47901	0.734371	2.65231	1.52837	2.56958	1.60019	2.68633	1.8351	3.07518			1.47919	2.47926	1.56517	2.62811	1.65728	2.78368	2.0559	3.44642		
0.723954	2.65449	1.48207	2.47951	0.728589	2.65354	1.5342	2.56942	1.6061	2.68584	1.83653	3.06572			1.48521	2.47977	1.5709	2.62754	1.66025	2.7779	2.05628	3.43376		
0.718137	2.65562	1.48811	2.48003	0.722786	2.65472	1.5401	2.56936	1.61201	2.68537	1.838	3.0564			1.49125	2.4803	1.5766	2.62694	1.66327	2.77225	2.05668	3.42125		
0.712302	2.65672	1.49415	2.48056	0.716965	2.65585	1.54604	2.56938	1.61794	2.68492	1.8395	3.0472			1.4973	2.48085	1.58227	2.6263	1.66636	2.76675	2.05711	3.40888		
0.706452	2.65777	1.50021	2.48112	0.711127	2.65693	1.55203	2.56948	1.62387	2.68448	1.84104	3.03813			1.50337	2.48141	1.58792	2.62562	1.6695	2.7614	2.05757	3.39666		
0.700588	2.65879	1.50628	2.48169	0.705274	2.65798	1.55805	2.56964	1.6298	2.68406	1.84261	3.02919			1.50945	2.48199	1.59354	2.62489	1.67271	2.75618	2.05806	3.38457		
0.694712	2.65978	1.51237	2.48227	0.699408	2.65899	1.56411	2.56984	1.63575	2.68365	1.84421	3.02037			1.51553	2.48258	1.59912	2.62411	1.67598	2.75112	2.05857	3.37263		
0.688824	2.66074	1.51846	2.48287	0.693529	2.65997	1.57019	2.57009	1.64169	2.68325	1.84585	3.01167			1.52163	2.48319	1.60467	2.62328	1.67932	2.7462	2.05912	3.36082		
0.682925	2.66168	1.52456	2.48348	0.687638	2.66093	1.57629	2.57037	1.64765	2.68286	1.84752	3.00309			1.52774	2.4838	1.61017	2.6224	1.68273	2.74143	2.0597	3.34915		
0.677018	2.6626	1.53068	2.4841	0.681738	2.66187	1.58241	2.57068	1.6536	2.68248	1.84922	2.99463			1.53386	2.48443	1.61564	2.62145	1.68622	2.73682	2.0603	3.33761		
0.671102	2.6635	1.5368	2.48473	0.675829	2.66278	1.58855	2.57101	1.65956	2.6821	1.85097	2.98629			1.53999	2.48507	1.62107	2.62044	1.68977	2.73236	2.06094	3.32621		
0.665178	2.66439	1.54293	2.48538	0.669911	2.66368	1.59469	2.57136	1.66552	2.68174	1.85274	2.97807			1.54612	2.48571	1.62644	2.61936	1.69341	2.72805	2.06161	3.31494		
0.659248	2.66527	1.54907	2.48603	0.663986	2.66457	1.60085	2.57172	1.67149	2.68138	1.85455	2.96997			1.55227	2.48637	1.63177	2.61822	1.69712	2.72391	2.0623	3.30379		
0.653311	2.66614	1.55522	2.48668	0.658055	2.66545	1.60702	2.5721	1.67745	2.68103	1.8564	2.96198			1.55842	2.48703	1.63705	2.617	1.70092	2.71993	2.06302	3.29278		
0.64737	2.66701	1.56137	2.48735	0.652117	2.66632	1.6132	2.57249	1.68342	2.68068	1.85828	2.9541			1.56458	2.4877	1.64228	2.6157	1.7048	2.71611	2.06378	3.2819		
0.641423	2.66787	1.56754	2.48802	0.646174	2.66718	1.61939	2.57288	1.68939	2.68033	1.86019	2.94634			1.57075	2.48838	1.64744	2.61432	1.70876	2.71246	2.06456	3.27114		
0.635473	2.66874	1.57371	2.4887	0.640227	2.66805	1.62558	2.57328	1.69536	2.67999	1.86214	2.93869			1.57692	2.48906	1.65255	2.61287	1.71282	2.70897	2.06537	3.26051		
0.629519	2.6696	1.57989	2.48939	0.634276	2.66891	1.63177	2.57369	1.70133	2.67965	1.86413	2.93115			1.5831	2.48975	1.6576	2.61133	1.71696	2.70565	2.06621	3.25		
0.623562	2.67047	1.58607	2.49008	0.628322	2.66977	1.63797	2.5741	1.70729	2.67932	1.86615	2.92372			1.58929	2.49044	1.6626	2.6097	1.72119	2.7025	2.06709	3.23961		
0.617603	2.67135	1.59226	2.49077	0.622364	2.67065	1.64417	2.57451	1.71326	2.67898	1.86821	2.91641			1.59548	2.49114	1.66753	2.60799	1.72552	2.69951	2.06799	3.22935		
0.611643	2.67223	1.59845	2.49147	0.616405	2.67152	1.65038	2.57492	1.71923	2.67865	1.87031	2.9092			1.60168	2.49184	1.67239	2.6062	1.72993	2.69668	2.06892	3.2192		
0.60568	2.67313	1.60465	2.49217	0.610444	2.67241	1.65659	2.57534	1.72519	2.67831	1.87244	2.9021			1.60788	2.49254	1.6772	2.60433	1.73443	2.69401	2.06988	3.20917		
0.599717	2.67405	1.61086	2.49288	0.604482	2.67332	1.6628	2.57575	1.73116	2.67798	1.87461	2.8951			1.61409	2.49324	1.68195	2.60238	1.73903	2.69149	2.07087	3.19926		
0.593754	2.67498	1.61707	2.49358	0.598518	2.67423	1.66901	2.57616	1.73712	2.67764	1.87681	2.88822			1.6203	2.49395	1.68664	2.60036	1.74371	2.68913	2.07189	3.18947		
0.587791	2.67593	1.62329	2.49429	0.592555	2.67517	1.67522	2.57657	1.74308	2.6773	1.87905	2.88144			1.62652	2.49466	1.69128	2.59827	1.74847	2.68692	2.07294	3.17979		
0.581829	2.67691	1.62951	2.495	0.586593	2.67613	1.68143	2.57698	1.74903	2.67696	1.88133	2.87476			1.63274	2.49538	1.69587	2.5961	1.75332	2.68484	2.07402	3.17023		
0.575868	2.67791	1.63573	2.49572	0.580631	2.67711	1.68764	2.57739	1.75498	2.67661	1.88365	2.86819			1.63897	2.49609	1.7004	2.59388	1.75824	2.6829	2.07513	3.16077		
0.56991	2.67895	1.64196	2.49643	0.57467	2.67812	1.69385	2.57779	1.76093	2.67626	1.88601	2.86173			1.6452	2.4968	1.70489	2.59161	1.76324	2.68109	2.07627	3.15143		
0.563953	2.68002	1.64819	2.49715	0.568712	2.67916	1.70006	2.57818	1.76687	2.67591	1.88841	2.85537			1.65143	2.49752	1.70933	2.58928	1.76831	2.6794	2.07743	3.1422		
0.557999	2.68112	1.65443	2.49786	0.562756	2.68024	1.70627	2.57858	1.7728	2.67555	1.89084	2.84911			1.65767	2.49823	1.71374	2.58692	1.77344	2.67782	2.07863	3.13308		
0.55205	2.68227	1.66066	2.49858	0.556803	2.68135	1.71247	2.57896	1.77873	2.67518	1.89332	2.84296			1.66391	2.49895	1.71811	2.58451	1.77865	2.67635	2.07986	3.12406		
0.546104	2.68347	1.66691	2.49929	0.550854	2.68251	1.71868	2.57935	1.78465	2.6748	1.89584	2.83691			1.67016	2.49966	1.72245	2.58208	1.78391	2.67498	2.08112	3.11516		
0.540164	2.68472	1.67315	2.50001	0.544909	2.68372	1.72488	2.57972	1.79056	2.67441	1.8984	2.83097			1.6764	2.50038	1.72676	2.57962	1.78922	2.6737	2.08241	3.10636		
0.534229	2.68603	1.6794	2.50072	0.53897	2.68498	1.73109	2.5801	1.79647	2.67402	1.901	2.82513			1.68265	2.50109	1.73105	2.57715	1.79459	2.6725	2.08372	3.09766		
0.528302	2.6874	1.68565	2.50144	0.533037	2.6863	1.73728	2.58046	1.80236	2.67361	1.90365	2.81939			1.6889	2.50181	1.73532	2.57466	1.8	2.67139	2.08507	3.08907		
0.522382	2.68885	1.6919	2.50215	0.527111	2.68769	1.74348	2.58082	1.80825	2.67319	1.90634	2.81376			1.69516	2.50252	1.73958	2.57216	1.80546	2.67034	2.08645	3.08057		
0.51647	2.69037	1.69816	2.50286	0.521192	2.68915	1.74967	2.58117	1.81412	2.67275	1.90908	2.80824			1.70142	2.50323	1.74381	2.56966	1.81096	2.66937	2.08785	3.07219		
0.510568	2.69198	1.70442	2.50357	0.515282	2.69069	1.75586	2.58151	1.81998	2.6723	1.91186	2.80282			1.70767	2.50394	1.74804	2.56717	1.8165	2.66845	2.08929	3.0639		
0.504677	2.6937	1.71068	2.50427	0.509383	2.69232	1.76205	2.58185	1.82582	2.67183	1.9147	2.79751			1.71394	2.50464	1.75227	2.56468	1.82207	2.66759	2.09076	3.05571		
0.498799	2.69552	1.71694	2.50498	0.503494	2.69405	1.76823	2.58217	1.83165	2.67134	1.91758	2.79231			1.7202	2.50534	1.75648	2.5622	1.82767	2.66679	2.09225	3.04762		
0.492934	2.69746	1.7232	2.50568	0.497618	2.6959	1.77441	2.58249	1.83746	2.67083	1.92052	2.78722			1.72646	2.50604	1.7607	2.55973	1.8333	2.66603	2.09378	3.03962		
0.487085	2.69954	1.72947	2.50638	0.491757	2.69787	1.78058	2.5828	1.84326	2.6703	1.92351	2.78225			1.73272	2.50674	1.76491	2.55728	1.83896	2.66532	2.09534	3.03173		
0.481254	2.70177	1.73573	2.50708	0.485911	2.69997	1.78674	2.5831	1.84903	2.66974	1.92655	2.77738			1.73899	2.50744	1.76913	2.55485	1.84464	2.66464	2.09692	3.02393		
0.475442	2.70417	1.742	2.50777	0.480084	2.70224	1.79291	2.58339	1.85478	2.66915	1.92965	2.77263			1.74526	2.50812	1.77335	2.55244	1.85035	2.664	2.09854	3.01622		
0.469653	2.70677	1.74826	2.50845	0.474276	2.70468	1.79906	2.58367	1.86051	2.66853	1.93282	2.768			1.75152	2.50881	1.77758	2.55006	1.85608	2.6634	2.10018	3.00861		
0.463888	2.70958	1.75453	2.50914	0.468491	2.70731	1.80521	2.58393	1.86621	2.66787	1.93605	2.76349			1.75778	2.50949	1.78182	2.54771	1.86182	2.66283	2.10186	3.00109		
0.458152	2.71263	1.76079	2.50981	0.462732	2.71017	1.81135	2.58419	1.87188	2.66718	1.93934	2.75911			1.76405	2.51016	1.78607	2.54539	1.86758	2.66228	2.10357	2.99366		
0.452448	2.71597	1.76705	2.51048	0.457003	2.71328	1.81748	2.58443	1.87752	2.66645	1.9427	2.75485			1.77031	2.51083	1.79033	2.5431	1.87336	2.66176	2.1053	2.98633		
0.446781	2.71961	1.77331	2.51114	0.451306	2.71667	1.8236	2.58465	1.88313	2.66568	1.94614	2.75072			1.77657	2.51148	1.79461	2.54084	1.87915	2.66126	2.10707	2.97908		
0.441155	2.72362	1.77957	2.51179	0.445646	2.72039	1.82972	2.58487	1.88869	2.66485	1.94965	2.74673			1.78282	2.51212	1.7989	2.53863	1.88495	2.66079	2.10887	2.97193		
0.435576	2.72804	1.78581	2.51243	0.440029	2.72448	1.83582	2.58506	1.89422	2.66398	1.95324	2.74287			1.78906	2.51275	1.80322	2.53646	1.89077	2.66033	2.11069	2.96486		
0.430051	2.73293	1.79205	2.51305	0.43446	2.72898	1.84191	2.58524	1.8997	2.66305	1.95692	2.73916			1.79529	2.51336	1.80756	2.53434	1.8966	2.6599	2.11255	2.95788		
0.424586	2.73836	1.79828	2.51364	0.428947	2.73397	1.84799	2.58541	1.90514	2.66206	1.96068	2.73559			1.80151	2.51394	1.81193	2.53227	1.90243	2.65947	2.11444	2.95099		
0.419192	2.74441	1.80448	2.51421	0.423496	2.73952	1.85406	2.58555	1.91053	2.66102	1.96453	2.73217			1.8077	2.51448	1.81633	2.53027	1.90827	2.65907	2.11636	2.94419		
0.413878	2.75118	1.81066	2.51472	0.418117	2.74571	1.86012	2.58567	1.91587	2.6599	1.96848	2.7289			1.81385	2.51496	1.82079	2.52835	1.91413	2.65867	2.11831	2.93747		
0.408655	2.75877	1.81678	2.51516	0.41282	2.75263	1.86615	2.58577	1.92116	2.65872	1.97252	2.72579			1.81993	2.51535	1.82531	2.52654	1.91998	2.65829	2.12028	2.93084		
0.403536	2.76732	1.82281	2.51548	0.407617	2.76041	1.87217	2.58585	1.92639	2.65748	1.97667	2.72283			1.82589	2.51556	1.82995	2.52489	1.92585	2.65791	2.1223	2.92429		
0.398535	2.77697	1.82869	2.51558	0.40252	2.76917	1.87818	2.58589	1.93156	2.65616	1.98091	2.72003			1.83165	2.51551	1.83476	2.5235	1.93172	2.65755	2.12434	2.91783		
0.393669	2.78788	1.83432	2.51535	0.397545	2.77906	1.88416	2.58592	1.93668	2.65478	1.98526	2.71739			1.83713	2.51505	1.83984	2.52248	1.93759	2.6572	2.12641	2.91145		
0.388953	2.80025	1.83963	2.51468	0.392708	2.79025	1.89012	2.58591	1.94174	2.65333	1.98971	2.71491			1.84228	2.51417	1.84526	2.52193	1.94346	2.65685	2.12851	2.90515		
0.384406	2.81426	1.84465	2.51361	0.388025	2.80292	1.89606	2.58587	1.94676	2.65181	1.99427	2.71258			1.84718	2.51294	1.851	2.52182	1.94934	2.6565	2.13065	2.89893		
0.380045	2.83014	1.84947	2.51228	0.383514	2.8173	1.90197	2.58579	1.95172	2.65024	1.99892	2.71041			1.85193	2.51152	1.85694	2.52199	1.95523	2.65617	2.13281	2.8928		
0.375889	2.84813	1.85418	2.5108	0.379193	2.83358	1.90785	2.58567	1.95664	2.64862	2.00368	2.70838			1.8566	2.51001	1.86302	2.52233	1.96111	2.65583	2.13501	2.88674		
0.371952	2.86845	1.85883	2.50926	0.375079	2.85202	1.9137	2.58551	1.96151	2.64696	2.00853	2.7065			1.86124	2.50845	1.86916	2.52278	1.96699	2.6555	2.13724	2.88077		
0.368249	2.89134	1.86346	2.50769	0.371188	2.87284	1.91951	2.58531	1.96636	2.64526	2.01347	2.70475			1.86586	2.50687	1.87536	2.52328	1.97288	2.65518	2.1395	2.87488		
0.36479	2.91703	1.86807	2.50612	0.367533	2.89627	1.92529	2.58505	1.97118	2.64354	2.0185	2.70313			1.87047	2.50531	1.88158	2.52382	1.97876	2.65485	2.14179	2.86906		
0.361585	2.94575	1.87269	2.50456	0.364125	2.92256	1.93102	2.58475	1.97598	2.64181	2.02361	2.70162			1.87509	2.50376	1.88783	2.52438	1.98464	2.65452	2.14412	2.86333		
0.358636	2.9777	1.87731	2.50302	0.360971	2.95191	1.93671	2.58438	1.98078	2.64007	2.0288	2.70023			1.87972	2.50223	1.89408	2.52496	1.99052	2.6542	2.14648	2.85767		
0.355946	3.01309	1.88195	2.50151	0.358075	2.98454	1.94235	2.58395	1.98557	2.63835	2.03406	2.69895			1.88436	2.50073	1.90035	2.52554	1.9964	2.65387	2.14887	2.85209		
0.353511	3.05209	1.88659	2.50002	0.355436	3.02064	1.94793	2.58345	1.99038	2.63665	2.03939	2.69775			1.88902	2.49925	1.90662	2.52613	2.00228	2.65354	2.15129	2.8466		
0.351328	3.0949	1.89126	2.49856	0.353052	3.06039	1.95346	2.58288	1.9952	2.63499	2.04477	2.69665			1.89369	2.49781	1.9129	2.52673	2.00815	2.65321	2.15375	2.84117		
0.349392	3.1417	1.89594	2.49713	0.350919	3.10399	1.95893	2.58223	2.00005	2.63337	2.05022	2.69563			1.89838	2.4964	1.91919	2.52733	2.01402	2.65288	2.15625	2.83583		
0.347694	3.19268	1.90064	2.49574	0.349031	3.15161	1.96434	2.58151	2.00494	2.6318	2.05571	2.69468			1.90309	2.49502	1.92548	2.52793	2.01988	2.65254	2.15877	2.83057		
0.346228	3.24803	1.90536	2.49438	0.347381	3.20345	1.96968	2.5807	2.00987	2.63031	2.06126	2.6938			1.90782	2.49368	1.93177	2.52852	2.02574	2.65219	2.16134	2.82538		
0.344985	3.30798	1.9101	2.49305	0.34596	3.25971	1.97495	2.5798	2.01484	2.62888	2.06684	2.69297			1.91257	2.49237	1.93806	2.52912	2.03159	2.65184	2.16393	2.82027		
0.343958	3.37275	1.91486	2.49176	0.344761	3.32061	1.98014	2.57882	2.01988	2.62754	2.07247	2.69221			1.91734	2.4911	1.94435	2.52972	2.03743	2.65148	2.16657	2.81523		
0.343139	3.44261	1.91964	2.4905	0.343777	3.38638	1.98527	2.57774	2.02497	2.62628	2.07812	2.69149			1.92213	2.48985	1.95065	2.53031	2.04327	2.65112	2.16924	2.81028		
0.34252	3.51784	1.92443	2.48927	0.342999	3.4573	1.99032	2.57659	2.03012	2.6251	2.08382	2.69082			1.92694	2.48865	1.95695	2.53091	2.0491	2.65074	2.17195	2.8054		
0.342094	3.59875	1.92925	2.48808	0.342419	3.53364	1.9953	2.57534	2.03533	2.62402	2.08954	2.69019			1.93177	2.48747	1.96324	2.5315	2.05491	2.65036	2.17469	2.8006		
0.341853	3.68568	1.9341	2.48692	0.342031	3.61573	2.00021	2.57401	2.04061	2.62302	2.09528	2.6896			1.93662	2.48633	1.96954	2.53208	2.06072	2.64996	2.17748	2.79588		
0.341791	3.77902	1.93896	2.4858	0.341827	3.70392	2.00506	2.57261	2.04595	2.62211	2.10105	2.68904			1.9415	2.48523	1.97584	2.53267	2.06652	2.64956	2.1803	2.79123		
0.341901	3.8792	1.94384	2.48471	0.3418	3.7986	2.00984	2.57113	2.05135	2.62128	2.10685	2.68852			1.94639	2.48416	1.98214	2.53325	2.0723	2.64913	2.18316	2.78667		
0.342176	3.98669	1.94875	2.48366	0.341944	3.90022	2.01456	2.56959	2.05682	2.62053	2.11266	2.68802			1.95131	2.48312	1.98844	2.53383	2.07807	2.6487	2.18607	2.78218		
0.342609	4.10201	1.95367	2.48263	0.342251	4.00923	2.01922	2.56798	2.06233	2.61986	2.11849	2.68755			1.95625	2.48211	1.99474	2.53441	2.08383	2.64825	2.18902	2.77778		
0.343194	4.22575	1.95862	2.48164	0.342715	4.1262	2.02384	2.56632	2.0679	2.61925	2.12433	2.6871			1.9612	2.48114	2.00104	2.53498	2.08957	2.64778	2.19201	2.77345		
0.343922	4.35856	1.96359	2.48069	0.343329	4.2517	2.02841	2.56461	2.07352	2.61872	2.1302	2.68667			1.96618	2.4802	2.00734	2.53555	2.09529	2.64729	2.19504	2.76921		
0.344788	4.50115	1.96858	2.47976	0.344085	4.38642	2.03294	2.56286	2.07919	2.61824	2.13607	2.68626			1.97119	2.4793	2.01364	2.53611	2.10099	2.64678	2.19813	2.76505		
0.345784	4.65436	1.97359	2.47887	0.344978	4.53108	2.03743	2.56108	2.08489	2.61782	2.14196	2.68587			1.97621	2.47842	2.01993	2.53667	2.10668	2.64624	2.20125	2.76097		
0.346903	4.81909	1.97863	2.47801	0.346	4.68652	2.0419	2.55926	2.09064	2.61745	2.14786	2.6855			1.98125	2.47758	2.02623	2.53723	2.11234	2.64569				
0.348137	4.99639	1.98368	2.47719	0.347142	4.8537	2.04633	2.55743	2.09642	2.61713	2.15377	2.68514			1.98632	2.47677	2.03253	2.53778	2.11798	2.64511				
0.349301	5.16205	1.98876	2.47639	0.348399	5.03366	2.05075	2.55557	2.10223	2.61685	2.15968	2.6848			1.99141	2.47599	2.03883	2.53833	2.12359	2.6445				
0.350353	5.31216	1.99386	2.47562	0.349761	5.22762	2.05514	2.55371	2.10807	2.6166	2.16561	2.68446			1.99652	2.47524	2.04512	2.53888	2.12918	2.64386				
0.351263	5.44293	1.99897	2.47489	0.351221	5.43694	2.05952	2.55183	2.11394	2.61639	2.17154	2.68414			2.00164	2.47452	2.05142	2.53942	2.13473	2.64318				
0.352006	5.55084	2.00411	2.47418	0.352771	5.66322	2.06388	2.54995	2.11983	2.61621	2.17748	2.68383			2.0068	2.47383	2.05771	2.53996	2.14026	2.64248				
0.352565	5.63286	2.00927	2.47351	0.354402	5.90824	2.06824	2.54807	2.12574	2.61606	2.18343	2.68353			2.01197	2.47317	2.06401	2.54049	2.14575	2.64173				
0.353089	5.7104	2.01445	2.47286	0.356104	6.17412	2.07259	2.54619	2.13167	2.61593	2.18938	2.68323			2.01716	2.47254	2.0703	2.54102	2.15121	2.64095				
0.353459	5.76555	2.01966	2.47224	0.357869	6.4633	2.07693	2.54431	2.13762	2.61582	2.19534	2.68295			2.02237	2.47193	2.07659	2.54154	2.15663	2.64012				
0.354044	5.85379	2.02488	2.47165	0.359688	6.77862	2.08128	2.54244	2.14359	2.61574	2.2013	2.68267			2.0276	2.47136	2.08288	2.54206	2.16201	2.63925				
0.354855	5.97797	2.03012	2.47109	0.361308	7.07735	2.08562	2.54059	2.14956	2.61567					2.03285	2.47081	2.08916	2.54257	2.16735	2.63834				
0.355904	6.14231	2.03538	2.47056	0.36271	7.35165	2.08996	2.53874	2.15555	2.61561					2.03813	2.47029	2.09545	2.54308	2.17264	2.63738				
0.357205	6.35268	2.04066	2.47005	0.363881	7.59353	2.09431	2.53691	2.16156	2.61557					2.04342	2.4698	2.10173	2.54358	2.17789	2.63636				
0.358771	6.61715	2.04597	2.46957	0.364813	7.79528	2.09866	2.5351	2.16757	2.61554					2.04873	2.46933	2.10802	2.54408	2.18309	2.63529				
0.360612	6.94675	2.05129	2.46912	0.3655	7.94996	2.10302	2.5333	2.17359	2.61553					2.05406	2.46889	2.1143	2.54457	2.18824	2.63417				
0.362492	7.30779	2.05663	2.46869	0.366134	8.09727	2.10738	2.53152	2.17962	2.61552					2.05941	2.46848	2.12057	2.54506	2.19333	2.633				
0.364399	7.70464	2.06199	2.46829	0.366575	8.2027	2.11175	2.52976	2.18565	2.61552					2.06478	2.46809	2.12685	2.54554	2.19838	2.63176				
0.366324	8.14259	2.06737	2.46791	0.367265	8.37252	2.11613	2.52802	2.1917	2.61553					2.07017	2.46772	2.13312	2.54601	2.20337	2.63047				
0.368256	8.62805	2.07276	2.46756	0.368203	8.614	2.12052	2.5263	2.19774	2.61554					2.07558	2.46738	2.13939	2.54648						
0.370183	9.16888	2.07818	2.46723	0.369388	8.93811	2.12493	2.52461	2.20379	2.61556					2.081	2.46706	2.14565	2.54694						
0.372094	9.77485	2.08361	2.46692	0.370815	9.36089	2.12934	2.52293							2.08645	2.46677	2.15191	2.5474						
0.373977	10.4582	2.08906	2.46664	0.372475	9.90559	2.13377	2.52129							2.09191	2.4665	2.15817	2.54785						
0.375821	11.2347	2.09453	2.46637	0.374352	10.6063	2.13821	2.51966							2.09738	2.46625	2.16442	2.54829						
0.377614	12.1246	2.10002	2.46613	0.376186	11.4038	2.14266	2.51806							2.10288	2.46602	2.17067	2.54872						
0.379343	13.1548	2.10552	2.46591	0.377967	12.3195	2.14713	2.51649							2.10839	2.46581	2.17691	2.54914						
0.380996	14.3612	2.11104	2.46572	0.379682	13.3818	2.15161	2.51494							2.11392	2.46562	2.18314	2.54955						
0.382563	15.7939	2.11658	2.46554	0.381318	14.6292	2.15611	2.51342							2.11947	2.46545	2.18937	2.54996						
0.38403	17.5239	2.12213	2.46538	0.382866	16.1151	2.16063	2.51193							2.12503	2.46531	2.1956	2.55035						
0.385388	19.6553	2.1277	2.46524	0.384313	17.916	2.16516	2.51047							2.13061	2.46518	2.20181	2.55073						
0.386626	22.3484	2.13329	2.46512	0.385647	20.1452	2.16971	2.50904							2.1362	2.46507								
0.387733	25.8617	2.13889	2.46502	0.386859	22.9781	2.17429	2.50764							2.14181	2.46498								
0.3887	30.6421	2.1445	2.46494	0.387939	26.7018	2.17889	2.50627							2.14743	2.4649								
0.389519	37.5341	2.15013	2.46488	0.388877	31.8199	2.18352	2.50495							2.15307	2.46485								
0.390184	48.3478	2.15578	2.46483	0.389666	39.3054	2.18819	2.50368							2.15872	2.46481								
0.390687	67.7928	2.16144	2.4648	0.390298	51.3118	2.19291	2.50248							2.16439	2.46479								
0.391025	113.158	2.16711	2.46478	0.390768	73.7439	2.19772	2.50138							2.17007	2.46478								
0.391195	340.713	2.1728	2.46478	0.391073	130.724	2.20267	2.50045							2.17577	2.46479								
		2.1785	2.4648	0.391208	571.772									2.18147	2.46481								
		2.18422	2.46483											2.1872	2.46485								
		2.18994	2.46487											2.19293	2.4649								
		2.19568	2.46493											2.19868	2.46497								
		2.20144	2.465											2.20443	2.46505								
