Sym0		Asym0		Sym1		Sym2		Sym3		Sym4		Sym5		Asym1		Asym2		Asym3		Asym4		Asym5	
390  Points		394  Points		390  Points		388  Points		371  Points		362  Points		158  Points		394  Points		380  Points		370  Points		356  Points		171  Points	
Freq (MHz)	Vph (m/ms)	Freq (MHz)	Vph (m/ms)	Freq (MHz)	Vph (m/ms)	Freq (MHz)	Vph (m/ms)	Freq (MHz)	Vph (m/ms)	Freq (MHz)	Vph (m/ms)	Freq (MHz)	Vph (m/ms)	Freq (MHz)	Vph (m/ms)	Freq (MHz)	Vph (m/ms)	Freq (MHz)	Vph (m/ms)	Freq (MHz)	Vph (m/ms)	Freq (MHz)	Vph (m/ms)
2.20165	2.48456	0.346175	275.508	2.20146	2.48461	0.692261	524.735	1.15355	1805.41	1.38447	1083.07	1.92259	4192.16	0.346137	422.628	0.768997	416.86	1.03839	577.7	1.53801	789.431	1.73055	20448
2.19687	2.48563	0.346638	97.2638	2.19667	2.48568	0.692538	190.958	1.15344	391.483	1.3847	386.175	1.92243	695.018	0.346516	110.835	0.76883	185.165	1.03867	253.034	1.53778	361.349	1.73067	723.518
2.19209	2.48672	0.347539	59.1931	2.19189	2.48676	0.693071	116.796	1.15319	219.499	1.38514	235.045	1.92203	378.845	0.347335	63.9212	0.768538	118.977	1.03916	162.059	1.53737	234.246	1.73104	368.352
2.1873	2.4878	0.348873	42.6564	2.18711	2.48785	0.693857	84.1912	1.1528	152.464	1.38579	168.989	1.92141	260.326	0.348587	45.0301	0.768122	87.616	1.03986	119.255	1.53679	173.248	1.73164	247.136
2.18251	2.48889	0.350627	33.4374	2.18232	2.48893	0.694892	65.8738	1.15228	116.763	1.38665	131.963	1.92058	198.239	0.350263	34.8569	0.767588	69.3125	1.04077	94.3838	1.53605	137.419	1.73247	186.003
2.17768	2.48993	0.352788	27.5756	2.17749	2.48997	0.696169	54.1503	1.15162	94.5822	1.38771	108.285	1.91953	160.02	0.352348	28.5164	0.766942	57.3127	1.04189	78.135	1.53515	113.839	1.73352	149.164
2.17277	2.49089	0.35534	23.5311	2.17257	2.49092	0.697682	46.0102	1.15085	79.4604	1.38896	91.8464	1.91829	134.118	0.354827	24.1982	0.76619	48.8358	1.0432	66.6927	1.53411	97.1408	1.73479	124.545
2.16767	2.49163	0.358265	20.5802	2.16746	2.49165	0.699422	40.0332	1.14996	68.4878	1.3904	79.7705	1.91688	115.402	0.357683	21.0764	0.765341	42.5272	1.04469	58.2027	1.53293	84.6921	1.73626	106.937
2.16225	2.49201	0.361541	18.3378	2.16202	2.49202	0.701379	35.4618	1.14896	60.1611	1.39203	70.5273	1.91529	101.243	0.360894	18.7203	0.764404	37.6481	1.04637	51.6559	1.53163	75.0524	1.73794	93.7207
2.15649	2.492	0.365148	16.5803	2.15625	2.49199	0.703542	31.8549	1.14787	53.625	1.39382	63.2267	1.91356	90.1554	0.36444	16.8835	0.763388	33.7614	1.04823	46.4557	1.53021	67.3661	1.7398	83.4387
2.15051	2.49173	0.369063	15.1688	2.15027	2.49172	0.705901	28.9384	1.14669	48.3572	1.39578	57.3162	1.9117	81.2364	0.368298	15.4145	0.762305	30.5917	1.05024	42.227	1.52869	61.0933	1.74183	75.2132
2.14442	2.49134	0.373262	14.0125	2.14418	2.49132	0.708445	26.5329	1.14543	44.0207	1.39789	52.4346	1.90972	73.9057	0.372445	14.2153	0.761166	27.9572	1.05242	38.7219	1.52708	55.8764	1.74403	68.4847
2.13828	2.49088	0.377723	13.0496	2.13803	2.49086	0.71116	24.516	1.14411	40.3883	1.40014	48.3356	1.90764	67.7734	0.376859	13.2195	0.759984	25.733	1.05473	35.7703	1.52539	51.4692	1.74638	62.8797
2.13211	2.49038	0.382422	12.2365	2.13186	2.49036	0.714033	22.8014	1.14273	37.3014	1.40252	44.8457	1.90548	62.5675	0.381514	12.3807	0.758772	23.8301	1.05718	33.2514	1.52364	47.6967	1.74887	58.1392
2.12592	2.48987	0.387335	11.5416	2.12567	2.48985	0.717053	21.3264	1.14131	34.6456	1.40503	41.8389	1.90324	58.0927	0.386388	11.6654	0.757542	22.1839	1.05975	31.0769	1.52184	44.431	1.75149	54.0782
2.11973	2.48934	0.392439	10.9414	2.11948	2.48932	0.720206	20.0446	1.13986	32.3366	1.40764	39.2219	1.90095	54.2052	0.391458	11.0488	0.756309	20.746	1.06244	29.1812	1.52	41.5764	1.75423	50.5607
2.11352	2.4888	0.397712	10.4182	2.11327	2.48878	0.723477	18.9206	1.13839	30.3108	1.41036	36.9238	1.89862	50.7965	0.3967	10.5121	0.755087	19.4795	1.06523	27.5141	1.51813	39.06	1.75708	47.4847
2.10732	2.48825	0.403129	9.95818	2.10707	2.48823	0.726855	17.9271	1.13691	28.5193	1.41317	34.8897	1.89626	47.7835	0.402092	10.0411	0.753891	18.356	1.06811	26.0367	1.51624	36.8253	1.76001	44.7723
2.10111	2.4877	0.408669	9.55067	2.10086	2.48768	0.730325	17.0428	1.13544	26.9241	1.41606	33.0767	1.89388	45.1011	0.407611	9.62432	0.752737	17.353	1.07107	24.7185	1.51435	34.8276	1.76304	42.3626
2.09491	2.48715	0.41431	9.18709	2.09466	2.48713	0.733874	16.2506	1.13399	25.4947	1.41902	31.4508	1.89149	42.6981	0.413234	9.25299	0.75164	16.4526	1.0741	23.5352	1.51247	33.0314	1.76614	40.2078
2.08871	2.4866	0.42003	8.86057	2.08846	2.48658	0.737488	15.5368	1.13256	24.2069	1.42205	29.9844	1.88911	40.5331	0.41894	8.9199	0.750616	15.6402	1.07719	22.467	1.5106	31.4079	1.7693	38.2695
2.0825	2.48604	0.425806	8.56549	2.08225	2.48602	0.741154	14.8902	1.13118	23.041	1.42512	28.6551	1.88674	38.5726	0.423963	8.65626	0.749683	14.9042	1.08033	21.4979	1.50876	29.9336	1.77251	36.5166
2.0763	2.48549	0.431617	8.29727	2.07605	2.48547	0.744859	14.3017	1.12985	21.9808	1.42824	27.4445	1.88439	36.7893	0.428271	8.44854	0.748857	14.2348	1.08351	20.6146	1.50695	28.589	1.77578	34.9237
2.0701	2.48493	0.437442	8.05208	2.06986	2.48491	0.748589	13.7635	1.12858	21.0129	1.43139	26.3373	1.88208	35.1603	0.431844	8.28731	0.748155	13.6239	1.08671	19.8061	1.5052	27.3581	1.77908	33.4698
2.06391	2.48438	0.443258	7.82672	2.06366	2.48435	0.752332	13.2694	1.1274	20.1262	1.43456	25.3207	1.87982	33.6667	0.434673	8.16597	0.747597	13.0648	1.08994	19.0632	1.5035	26.2274	1.7824	32.1373
2.05772	2.48382	0.449045	7.6185	2.05747	2.4838	0.756073	12.8139	1.12629	19.311	1.43775	24.3839	1.8776	32.2925	0.436754	8.07996	0.7472	12.5517	1.09317	18.3781	1.50187	25.1852	1.78575	30.9116
2.05153	2.48327	0.45478	7.42512	2.05128	2.48325	0.759801	12.3925	1.12529	18.5596	1.44095	23.5179	1.87544	31.0242	0.438085	8.02628	0.746984	12.0799	1.09641	17.7442	1.50032	24.2219	1.78911	29.7803
2.04534	2.48272	0.460442	7.24464	2.0451	2.48269	0.763503	12.0012	1.1244	17.865	1.44415	22.7147	1.87335	29.8503	0.439998	7.95088	0.746966	11.6451	1.09963	17.1557	1.49885	23.3291	1.79247	28.7328
2.03916	2.48217	0.466009	7.07537	2.03891	2.48214	0.767165	11.6367	1.12363	17.2214	1.44734	21.9676	1.87134	28.7607	0.442074	7.87119	0.747167	11.2437	1.10283	16.6078	1.49747	22.4996	1.79584	27.7599
2.03299	2.48162	0.471461	6.91586	2.03274	2.48159	0.770776	11.2961	1.12299	16.6238	1.45051	21.2708	1.8694	27.747	0.444893	7.76641	0.747605	10.8728	1.10601	16.0963	1.49619	21.7272	1.79919	26.8539
2.02681	2.48107	0.476777	6.76486	2.02656	2.48105	0.774324	10.9769	1.1225	16.0677	1.45366	20.6193	1.86755	26.8017	0.448446	7.6394	0.748299	10.5295	1.10914	15.6175	1.49503	21.0064	1.80252	26.008
2.02064	2.48052	0.481936	6.62129	2.02039	2.4805	0.777798	10.6769	1.12216	15.5492	1.45678	20.0087	1.8658	25.9183	0.452717	7.49335	0.749267	10.2116	1.11224	15.1682	1.49398	20.3325	1.80583	25.2162
2.01448	2.47998	0.48692	6.48421	2.01423	2.47996	0.781185	10.3942	1.12198	15.0651	1.45986	19.435	1.86415	25.0911	0.45768	7.3315	0.750526	9.91692	1.11527	14.7456	1.49306	19.7013	1.80911	24.4735
2.00832	2.47944	0.491711	6.35281	2.00807	2.47942	0.784475	10.1271	1.12198	14.6124	1.4629	18.895	1.86261	24.3152	0.463296	7.15694	0.752094	9.64361	1.11825	14.3472	1.49227	19.1091	1.81236	23.7753
2.00216	2.4789	0.496292	6.22638	2.00192	2.47888	0.787658	9.87403	1.12216	14.1883	1.46588	18.3856	1.86118	23.586	0.468807	6.99282	0.753983	9.39002	1.12115	13.9709	1.49162	18.5525	1.81556	23.1176
1.99601	2.47837	0.50065	6.10435	1.99577	2.47835	0.790725	9.63381	1.12253	13.7906	1.46881	17.9042	1.85987	22.8998	0.474192	6.8378	0.756206	9.15464	1.12398	13.6147	1.49111	18.0289	1.81872	22.4968
1.98987	2.47784	0.504773	5.9862	1.98962	2.47782	0.793666	9.40524	1.12309	13.4173	1.47167	17.4483	1.85868	22.253	0.479431	6.69072	0.758774	8.93612	1.12672	13.2768	1.49076	17.5354	1.82182	21.9098
1.98373	2.47731	0.50865	5.87151	1.98348	2.47729	0.796473	9.1873	1.12387	13.0663	1.47446	17.0159	1.85762	21.6425	0.484503	6.55057	0.761299	8.75845	1.12937	12.9558	1.49056	17.0698	1.82486	21.3539
1.9776	2.47679	0.512276	5.75995	1.97735	2.47677	0.79914	8.97907	1.12485	12.736	1.47718	16.6051	1.8567	21.0655	0.48939	6.41648	0.763665	8.61577	1.13193	12.6503	1.49053	16.6299	1.82784	20.8264
1.97147	2.47627	0.515647	5.65124	1.97122	2.47625	0.801344	8.80491	1.12604	12.425	1.47982	16.2143	1.85592	20.5194	0.494076	6.2877	0.765771	8.50355	1.13439	12.3591	1.49066	16.214	1.83076	20.3252
1.96535	2.47576	0.518762	5.54515	1.9651	2.47574	0.803132	8.66143	1.12746	12.1317	1.48238	15.8418	1.85528	20.0021	0.498545	6.16358	0.767532	8.41833	1.13675	12.0811	1.49096	15.8202	1.8336	19.8483
1.95923	2.47525	0.521623	5.44153	1.95898	2.47523	0.804545	8.54604	1.1291	11.855	1.48485	15.4863	1.85479	19.5114	0.502784	6.04359	0.768881	8.35759	1.139	11.8152	1.49143	15.447	1.83636	19.3938
1.95312	2.47474	0.524237	5.34025	1.95288	2.47472	0.805621	8.45679	1.13096	11.5937	1.48723	15.1466	1.85444	19.0455	0.506783	5.92725	0.769768	8.31953	1.14113	11.5607	1.49208	15.093	1.83904	18.9601
1.94702	2.47424	0.52661	5.24123	1.94677	2.47422	0.806389	8.39225	1.13305	11.3467	1.48952	14.8216	1.85425	18.6026	0.510532	5.8142	0.771076	8.26594	1.14316	11.3167	1.49291	14.757	1.84164	18.5457
1.94092	2.47375	0.528753	5.14441	1.94068	2.47373	0.806869	8.35141	1.13536	11.1131	1.49171	14.5103	1.85421	18.1814	0.514028	5.70412	0.772541	8.20912	1.14507	11.0824	1.49391	14.4376	1.84415	18.1493
1.93483	2.47326	0.530677	5.04977	1.93459	2.47324	0.807545	8.29332	1.13789	10.8919	1.49381	14.2117	1.85433	17.7803	0.517268	5.59677	0.774606	8.13419	1.14687	10.8574	1.49509	14.1338	1.84658	17.7697
1.92875	2.47278	0.532397	4.95729	1.92851	2.47276	0.808259	8.23101	1.14064	10.6823	1.49581	13.925	1.8546	17.398	0.520254	5.49196	0.777335	8.04314	1.14855	10.6409	1.49645	13.8446	1.84891	17.4057
1.92268	2.47231	0.533926	4.86696	1.92243	2.47229	0.809198	8.14758	1.14361	10.4835	1.49771	13.6496	1.85504	17.0333	0.522988	5.38955	0.780809	7.93829	1.15012	10.4324	1.49798	13.5692	1.85116	17.0563
1.91661	2.47184	0.53528	4.7788	1.91637	2.47182	0.810331	8.04418	1.14678	10.2948	1.49952	13.3846	1.85562	16.6852	0.525477	5.28943	0.785121	7.82223	1.15159	10.2316	1.49968	13.3065	1.85331	16.7206
1.91055	2.47138	0.536476	4.6928	1.91031	2.47137	0.811619	7.92216	1.15016	10.1156	1.50123	13.1294	1.85637	16.3527	0.527732	5.19154	0.790375	7.69762	1.15295	10.0379	1.50156	13.0558	1.85536	16.3978
1.9045	2.47093	0.537528	4.60897	1.90426	2.47091	0.813015	7.78304	1.15373	9.94516	1.50285	12.8836	1.85727	16.0347	0.529761	5.09584	0.795943	7.58147	1.15421	9.85094	1.5036	12.8165	1.85733	16.0871
1.89846	2.47049	0.538452	4.52733	1.89822	2.47047	0.814466	7.62843	1.15748	9.78296	1.50438	12.6466	1.85832	15.7304	0.531579	5.0023	0.80181	7.4731	1.15537	9.67044	1.5058	12.5877	1.8592	15.7878
1.89243	2.47006	0.539263	4.44786	1.89219	2.47004	0.815758	7.47889	1.16142	9.62844	1.50582	12.4178	1.85952	15.439	0.5332	4.91092	0.807957	7.37187	1.15645	9.49606	1.50816	12.3688	1.86098	15.4993
1.88641	2.46963	0.539978	4.37057	1.88616	2.46962	0.816893	7.33415	1.16552	9.48107	1.50718	12.197	1.86087	15.1598	0.534638	4.8217	0.814369	7.27716	1.15745	9.32752	1.51067	12.1593	1.86268	15.2209
1.88039	2.46922	0.540609	4.29546	1.88015	2.4692	0.817875	7.19394	1.16978	9.3404	1.50847	11.9836	1.86237	14.892	0.535909	4.73463	0.821027	7.18844	1.15837	9.16456	1.51332	11.9585	1.86429	14.9521
1.87439	2.46881	0.54117	4.2225	1.87415	2.4688	0.818709	7.05803	1.17418	9.20595	1.50968	11.7774	1.864	14.635	0.537029	4.64974	0.82791	7.10517	1.15913	9.02693	1.51611	11.766	1.86582	14.6925
1.8684	2.46842	0.541674	4.15169	1.86815	2.46841	0.8194	6.92621	1.17872	9.07732	1.51083	11.5779	1.86576	14.3882	0.538014	4.56703	0.835002	7.02688	1.15974	8.91273	1.51902	11.5812	1.86727	14.4415
1.86241	2.46804	0.542132	4.083	1.86217	2.46803	0.819955	6.79831	1.18277	8.96966	1.51192	11.385	1.86766	14.151	0.538879	4.4865	0.842282	6.95313	1.16023	8.82039	1.52206	11.4038	1.86864	14.1987
1.85644	2.46767	0.542504	4.02485	1.8562	2.46766	0.820379	6.67414	1.1863	8.88094	1.51297	11.1983	1.86967	13.9229	0.539639	4.40814	0.849732	6.88352	1.1606	8.74871	1.52521	11.2332	1.86995	13.9639
1.85048	2.46732	0.542806	3.97652	1.85024	2.4673	0.820679	6.55356	1.18925	8.8096	1.51398	11.0176	1.8718	13.7033	0.540309	4.33197	0.857332	6.81765	1.16087	8.69673	1.52846	11.069	1.8712	13.7365
1.84453	2.46697	0.543048	3.93741	1.84429	2.46696	0.820863	6.43643	1.19162	8.75443	1.51495	10.8426	1.87404	13.4918	0.540903	4.25795	0.865064	6.75518	1.16105	8.66379	1.5318	10.9109	1.87239	13.5163
1.83859	2.46664	0.543236	3.90702	1.83835	2.46663	0.820937	6.32263	1.19337	8.71453	1.51591	10.6732	1.87638	13.2879	0.541433	4.18609	0.872908	6.69579	1.16129	8.61687	1.53522	10.7585	1.87353	13.3029
1.83266	2.46633	0.543373	3.88498	1.83243	2.46631	0.82091	6.21203	1.1945	8.68929	1.51685	10.5091	1.87882	13.0912	0.541913	4.11637	0.880845	6.63916	1.16156	8.56646	1.53872	10.6114	1.87463	13.0962
1.82675	2.46603	0.543461	3.87101	1.82651	2.46602	0.820789	6.10452	1.19612	8.6534	1.5178	10.3502	1.88134	12.9014	0.542353	4.04875	0.888857	6.58503	1.16191	8.49885	1.54229	10.4694	1.8757	12.8958
1.82085	2.46574	0.543586	3.85111	1.82061	2.46573	0.820581	6.00001	1.1979	8.61489	1.51876	10.1963	1.88394	12.718	0.542764	3.98321	0.896923	6.53311	1.16236	8.4149	1.5459	10.3321	1.87674	12.7014
1.81497	2.46548	0.543723	3.82972	1.81473	2.46547	0.820294	5.89839	1.20033	8.56336	1.51974	10.0473	1.88661	12.5407	0.543157	3.91972	0.905025	6.48316	1.16291	8.31569	1.54956	10.1992	1.87776	12.513
1.80909	2.46523	0.543909	3.80103	1.80886	2.46522	0.819935	5.79959	1.20343	8.4995	1.52077	9.90301	1.88934	12.3691	0.543541	3.85824	0.913142	6.43494	1.16357	8.20244	1.55325	10.0706	1.87878	12.3302
1.80324	2.465	0.544148	3.76539	1.803	2.46499	0.819511	5.7035	1.2072	8.42416	1.52185	9.76332	1.89213	12.203	0.543924	3.79874	0.921251	6.38822	1.16436	8.07661	1.55696	9.94583	1.8798	12.1528
1.79739	2.46478	0.544442	3.72327	1.79716	2.46478	0.81903	5.61006	1.21165	8.33826	1.52299	9.62813	1.89496	12.0421	0.544315	3.74118	0.929332	6.34277	1.16519	7.95511	1.56068	9.82478	1.88083	11.9807
1.79157	2.46459	0.544799	3.67518	1.79133	2.46458	0.818497	5.51919	1.2168	8.24278	1.52421	9.49732	1.89782	11.886	0.54472	3.68552	0.937361	6.29838	1.16611	7.83789	1.5644	9.70719	1.88188	11.8138
1.78576	2.46442	0.545231	3.62171	1.78552	2.46441	0.817921	5.4308	1.22196	8.15037	1.52553	9.37079	1.90072	11.7345	0.545147	3.63171	0.945312	6.25483	1.16712	7.7249	1.56811	9.59286	1.88296	11.6518
1.77996	2.46427	0.545691	3.57005	1.77973	2.46426	0.817306	5.34483	1.22713	8.06078	1.52676	9.26396	1.90363	11.5875	0.545601	3.57971	0.95316	6.21192	1.16826	7.61612	1.57179	9.48158	1.88408	11.4946
1.77418	2.46414	0.546185	3.52015	1.77395	2.46414	0.816659	5.26121	1.23229	7.97381	1.52789	9.17536	1.90655	11.4445	0.546089	3.52948	0.960877	6.16943	1.16955	7.51154	1.57545	9.37316	1.88525	11.3421
1.76842	2.46404	0.546719	3.47195	1.76819	2.46404	0.815986	5.17988	1.23742	7.88923	1.52887	9.10378	1.90948	11.3055	0.546614	3.48096	0.968433	6.12717	1.17102	7.41115	1.5786	9.28088	1.88648	11.1941
1.76268	2.46396	0.547297	3.42543	1.76245	2.46396	0.815292	5.10076	1.24252	7.80686	1.52969	9.04826	1.9124	11.1702	0.547183	3.43412	0.975797	6.08493	1.1727	7.31497	1.58125	9.20374	1.88778	11.0505
1.75696	2.46391	0.547923	3.38053	1.75673	2.4639	0.814583	5.0238	1.24755	7.72649	1.53031	9.00803	1.9153	11.0383	0.5478	3.38892	0.982937	6.04251	1.17463	7.22302	1.58342	9.14096	1.88917	10.9112
1.75125	2.46388	0.548601	3.3372	1.75102	2.46388	0.813864	4.94894	1.25252	7.64796	1.53072	8.98255	1.91818	10.9099	0.548468	3.3453	0.98982	5.99972	1.17683	7.13532	1.58512	9.09195	1.89064	10.7761
1.74557	2.46388	0.549335	3.29541	1.74534	2.46388	0.81314	4.87612	1.2574	7.57109	1.53132	8.94627	1.92103	10.7845	0.549191	3.30322	0.996413	5.95638	1.17934	7.05189	1.58636	9.05625	1.89221	10.6451
1.7399	2.46391	0.550128	3.25511	1.73968	2.46391	0.812415	4.80528	1.26218	7.49573	1.53199	8.90733	1.92384	10.6622	0.549973	3.26264	1.00268	5.91232	1.1822	6.97276	1.58715	9.03355	1.8939	10.518
1.73426	2.46397	0.550982	3.21626	1.73403	2.46397	0.811693	4.73637	1.26684	7.42172	1.53294	8.85514	1.9266	10.5427	0.550815	3.22352	1.0086	5.86739	1.18543	6.89793	1.58828	9.00112	1.8957	10.3948
1.72864	2.46405	0.551901	3.17881	1.72841	2.46406	0.810979	4.66934	1.27138	7.34894	1.5342	8.79045	1.92932	10.4259	0.551722	3.1858	1.01414	5.82148	1.18905	6.82737	1.58949	8.96613	1.89762	10.2754
1.72304	2.46418	0.552887	3.14272	1.72281	2.46418	0.810277	4.60413	1.27577	7.27725	1.53582	8.71411	1.93197	10.3117	0.552695	3.14946	1.01929	5.77452	1.1931	6.76105	1.59113	8.91896	1.89968	10.1596
1.71746	2.46433	0.553942	3.10795	1.71723	2.46434	0.80959	4.54069	1.28	7.20653	1.53784	8.62718	1.93455	10.1998	0.553736	3.11444	1.02401	5.72645	1.19759	6.6989	1.59316	8.86	1.90188	10.0474
1.7119	2.46452	0.555067	3.07446	1.71168	2.46453	0.808922	4.47898	1.28406	7.13669	1.54035	8.53084	1.93707	10.0904	0.554848	3.08072	1.02832	5.67727	1.20253	6.64079	1.59558	8.78967	1.90422	9.93859
1.70637	2.46474	0.556265	3.04222	1.70615	2.46475	0.808276	4.41895	1.28794	7.06761	1.54307	8.43808	1.93951	9.98308	0.556032	3.04824	1.0322	5.62702	1.20791	6.58659	1.59835	8.70847	1.90671	9.83319
1.70086	2.465	0.557536	3.01117	1.70064	2.46501	0.807655	4.36055	1.29163	6.99923	1.54601	8.34881	1.94187	9.87792	0.55729	3.01697	1.03567	5.57578	1.21374	6.53612	1.60144	8.61693	1.90936	9.73105
1.69538	2.4653	0.558883	2.98129	1.69516	2.46531	0.807063	4.30374	1.29512	6.93147	1.54918	8.26295	1.94415	9.77476	0.558622	2.98687	1.03873	5.52364	1.21999	6.48917	1.60441	8.52705	1.91217	9.63209
1.68992	2.46563	0.560307	2.95255	1.6897	2.46564	0.806502	4.24847	1.2984	6.86426	1.55258	8.1804	1.94634	9.67355	0.560031	2.95791	1.04141	5.47075	1.22666	6.44553	1.60726	8.43873	1.91475	9.54836
1.68448	2.466	0.561807	2.92489	1.68427	2.46602	0.805975	4.19471	1.30147	6.79757	1.55621	8.10107	1.94817	9.58685	0.561517	2.93005	1.04372	5.41724	1.23372	6.40495	1.60999	8.3519	1.91704	9.47879
1.67908	2.46642	0.563386	2.89829	1.67886	2.46644	0.805485	4.14241	1.30432	6.73135	1.56009	8.02486	1.94968	9.51403	0.563081	2.90326	1.0457	5.36327	1.24113	6.36719	1.6126	8.26647	1.91901	9.42247
1.67369	2.46688	0.565045	2.87272	1.67348	2.4669	0.805034	4.09154	1.30695	6.66557	1.56421	7.95165	1.95089	9.45454	0.564724	2.8775	1.04737	5.309	1.24889	6.33202	1.61508	8.18239	1.9206	9.3787
1.66834	2.46738	0.566782	2.84815	1.66813	2.4674	0.804624	4.04205	1.30937	6.60023	1.56856	7.88134	1.95182	9.40795	0.566447	2.85273	1.04875	5.25458	1.25695	6.2992	1.61742	8.09958	1.9218	9.34694
1.66301	2.46792	0.5686	2.82453	1.6628	2.46794	0.804257	3.99392	1.31157	6.53531	1.57315	7.81382	1.95249	9.37395	0.568249	2.82894	1.04989	5.20015	1.26529	6.26852	1.61963	8.018	1.92258	9.3268
1.65771	2.46851	0.570499	2.80185	1.6575	2.46853	0.803936	3.9471	1.31356	6.47081	1.57797	7.74896	1.95291	9.3523	0.570133	2.80608	1.0508	5.14583	1.27388	6.23976	1.62171	7.93761	1.92371	9.2981
1.65244	2.46914	0.57248	2.78007	1.65223	2.46917	0.803662	3.90155	1.31534	6.40675	1.58302	7.68666	1.95351	9.32133	0.572098	2.78414	1.0515	5.09176	1.2827	6.21274	1.62365	7.85837	1.92497	9.26724
1.6472	2.46982	0.574542	2.75917	1.64699	2.46985	0.803438	3.85726	1.31691	6.34313	1.58829	7.62678	1.95415	9.28787	0.574145	2.76307	1.05203	5.03803	1.29172	6.18728	1.62546	7.78024	1.9267	9.22582
1.64198	2.47055	0.576687	2.73912	1.64177	2.47058	0.803265	3.81417	1.31829	6.27998	1.59376	7.5692	1.95501	9.24269	0.576274	2.74286	1.0524	4.98473	1.30092	6.16323	1.62714	7.70321	1.92895	9.17432
1.6368	2.47133	0.578916	2.7199	1.63659	2.47136	0.803145	3.77227	1.31948	6.21731	1.59944	7.51381	1.95605	9.18608	0.578487	2.72348	1.05264	4.93194	1.31028	6.14044	1.6287	7.62726	1.93175	9.11333
1.63164	2.47215	0.581228	2.70148	1.63143	2.47219	0.803079	3.73152	1.32049	6.15515	1.6053	7.46049	1.95727	9.11841	0.580783	2.70491	1.05275	4.87973	1.31978	6.11877	1.63013	7.55237	1.93514	9.04355
1.62651	2.47303	0.583626	2.68384	1.62631	2.47306	0.803069	3.6919	1.32133	6.09353	1.61134	7.40911	1.95864	9.0401	0.583165	2.68712	1.05277	4.82815	1.32939	6.0981	1.63145	7.47854	1.93917	8.96572
1.62141	2.47396	0.586112	2.66697	1.62121	2.47399	0.803117	3.65336	1.32201	6.03247	1.61755	7.35957	1.96013	8.95164	0.585634	2.67011	1.05269	4.77725	1.3391	6.07833	1.63267	7.40577	1.94336	8.89021
1.61634	2.47493	0.588687	2.65086	1.61614	2.47497	0.803224	3.61589	1.32254	5.972	1.62391	7.31175	1.96154	8.86465	0.588192	2.65386	1.05254	4.72706	1.3489	6.05935	1.63378	7.33407	1.94768	8.81692
1.6113	2.47596	0.591357	2.63549	1.6111	2.47601	0.803391	3.57946	1.32292	5.91214	1.63041	7.26553	1.96286	8.7791	0.590843	2.63835	1.05232	4.67762	1.35877	6.04106	1.63481	7.26343	1.95214	8.74574
1.60629	2.47705	0.594126	2.62088	1.60609	2.47709	0.803619	3.54405	1.32318	5.85291	1.63704	7.22082	1.96412	8.69497	0.593593	2.6236	1.05205	4.62895	1.36869	6.02338	1.63575	7.19388	1.95672	8.67659
1.60131	2.47818	0.597004	2.60704	1.60111	2.47823	0.80391	3.50962	1.32331	5.79434	1.64378	7.17751	1.9653	8.61224	0.596449	2.60961	1.05174	4.58106	1.37865	6.00623	1.63663	7.12543	1.96143	8.60937
1.59636	2.47937	0.600006	2.59402	1.59616	2.47942	0.804266	3.47615	1.32332	5.73645	1.65063	7.13551	1.96642	8.5309	0.599426	2.59642	1.05139	4.53397	1.38864	5.98951	1.63745	7.05811	1.96624	8.54399
1.59144	2.48062	0.603156	2.58188	1.59124	2.48067	0.804686	3.44363	1.32323	5.67925	1.65756	7.0947	1.96749	8.45093	0.602546	2.58411	1.05101	4.48769	1.39863	5.97316	1.63823	6.99193	1.97117	8.48035
1.58654	2.48192	0.606495	2.57078	1.58635	2.48197	0.805173	3.41202	1.32304	5.62277	1.66456	7.05501	1.96851	8.37234	0.605845	2.5728	1.05062	4.44222	1.40861	5.95708	1.63899	6.92694	1.97618	8.41836
1.58168	2.48327	0.610091	2.56097	1.58148	2.48332	0.805727	3.38131	1.32277	5.567	1.67163	7.01635	1.96949	8.29512	0.609385	2.56272	1.0502	4.39757	1.41856	5.94119	1.63973	6.86318	1.98129	8.35795
1.57684	2.48467	0.614043	2.55284	1.57665	2.48473	0.80635	3.35147	1.32241	5.51198	1.67874	6.97861	1.97045	8.21927	0.613261	2.55423	1.04978	4.35373	1.42847	5.92542	1.6405	6.80068	1.98646	8.29901
1.57203	2.48614	0.618466	2.5468	1.57184	2.4862	0.807043	3.32248	1.32198	5.4577	1.68589	6.94173	1.97139	8.1448	0.617588	2.54777	1.04935	4.31071	1.4383	5.90966	1.64129	6.73952	1.99171	8.24147
1.56725	2.48765	0.62341	2.54299	1.56706	2.48771	0.807806	3.29433	1.32148	5.40417	1.69305	6.90561	1.97232	8.07171	0.622434	2.54355	1.04893	4.2685	1.44805	5.89382	1.64215	6.67975	1.99701	8.18525
1.5625	2.48922	0.628806	2.54109	1.5623	2.48929	0.808642	3.267	1.32093	5.3514	1.70021	6.87017	1.97327	8.00001	0.627754	2.54133	1.0485	4.22709	1.45767	5.87779	1.6431	6.62145	2.00235	8.13026
1.55777	2.49084	0.634522	2.5405	1.55758	2.49091	0.80955	3.24046	1.32032	5.29939	1.70736	6.83532	1.97423	7.92973	0.633419	2.54053	1.04809	4.18648	1.46714	5.86145	1.64417	6.56472	2.00773	8.07643
1.55306	2.49252	0.640441	2.54072	1.55288	2.49259	0.810533	3.2147	1.31966	5.24815	1.71448	6.801	1.97522	7.86087	0.639307	2.54063	1.04769	4.14666	1.47643	5.84467	1.6454	6.50966	2.01313	8.02367
1.54839	2.49425	0.646485	2.54144	1.5482	2.49432	0.811592	3.18971	1.31896	5.19767	1.72155	6.76712	1.97627	7.79347	0.645331	2.54127	1.0473	4.10762	1.48549	5.8273	1.64683	6.4564	2.01854	7.97193
1.54373	2.49603	0.652607	2.54244	1.54354	2.4961	0.812727	3.16547	1.31822	5.14796	1.72856	6.73359	1.97738	7.72753	0.651442	2.54223	1.04693	4.06935	1.49427	5.80917	1.64852	6.40507	2.02395	7.92111
1.5391	2.49786	0.65878	2.54362	1.53891	2.49793	0.81394	3.14195	1.31746	5.09901	1.73548	6.70034	1.97857	7.66309	0.657607	2.54339	1.04659	4.03184	1.50273	5.79012	1.65051	6.35583	2.02935	7.87116
1.53449	2.49974	0.664986	2.54492	1.5343	2.49981	0.815233	3.11916	1.31666	5.05082	1.74231	6.66728	1.97986	7.60019	0.663808	2.54466	1.04626	3.99508	1.51081	5.76995	1.65287	6.30885	2.03472	7.822
1.5299	2.50166	0.671215	2.54627	1.52971	2.50174	0.816606	3.09708	1.31584	5.00339	1.74901	6.63434	1.98128	7.53884	0.670033	2.54601	1.04597	3.95906	1.51845	5.74847	1.65565	6.26429	2.04006	7.77355
1.52532	2.50363	0.677459	2.54765	1.52514	2.50371	0.818063	3.07568	1.315	4.95671	1.75556	6.60144	1.98283	7.47909	0.676274	2.54739	1.0457	3.92377	1.52559	5.72549	1.65891	6.22233	2.04534	7.72577
1.52077	2.50564	0.683714	2.54906	1.52058	2.50572	0.819603	3.05497	1.31415	4.91078	1.76196	6.56849	1.98455	7.42097	0.682527	2.54879	1.04546	3.8892	1.53218	5.70084	1.66272	6.18311	2.05057	7.67858
1.51622	2.50768	0.689976	2.55046	1.51604	2.50776	0.82123	3.03494	1.31328	4.86559	1.76817	6.53542	1.98644	7.36451	0.688788	2.5502	1.04525	3.85534	1.53816	5.67441	1.66712	6.14672	2.05571	7.63191
1.51169	2.50976	0.696243	2.55186	1.5115	2.50984	0.822946	3.01556	1.3124	4.82113	1.77417	6.50216	1.98854	7.30976	0.695054	2.5516	1.04508	3.82216	1.54352	5.64612	1.67214	6.11321	2.06077	7.58572
1.50716	2.51187	0.702513	2.55325	1.50698	2.51195	0.824752	2.99684	1.31152	4.7774	1.77995	6.46863	1.99086	7.25675	0.701324	2.55299	1.04494	3.78967	1.54824	5.61597	1.67779	6.08255	2.06573	7.53993
1.50263	2.51399	0.708784	2.55462	1.50245	2.51408	0.826651	2.97877	1.31064	4.73439	1.78548	6.43477	1.99343	7.20551	0.707595	2.55436	1.04483	3.75786	1.55232	5.58403	1.68407	6.05467	2.07058	7.49449
1.49811	2.51613	0.715057	2.55597	1.49793	2.51622	0.828646	2.96133	1.30976	4.69209	1.79074	6.40051	1.99626	7.15606	0.713867	2.55572	1.04477	3.7267	1.55579	5.55044	1.69095	6.02939	2.0753	7.44936
1.49357	2.51828	0.721329	2.5573	1.49339	2.51836	0.83074	2.94454	1.30888	4.6505	1.79572	6.36581	1.99938	7.10842	0.72014	2.55705	1.04474	3.69619	1.55869	5.51538	1.69839	6.00651	2.07988	7.40447
1.48902	2.52041	0.727601	2.55861	1.48884	2.5205	0.832936	2.92837	1.308	4.60959	1.8004	6.33062	2.00279	7.06261	0.726412	2.55836	1.04476	3.66631	1.56107	5.47906	1.70635	5.98581	2.08431	7.35979
1.48445	2.52252	0.733871	2.55989	1.48427	2.52261	0.835238	2.91283	1.30713	4.56938	1.80477	6.29492	2.00651	7.01863	0.732683	2.55964	1.04482	3.63706	1.56297	5.44169	1.71477	5.96705	2.08858	7.31526
1.47985	2.5246	0.74014	2.56114	1.47966	2.52468	0.83765	2.89793	1.30628	4.52984	1.80882	6.25868	2.01055	6.97646	0.738952	2.5609	1.04492	3.60842	1.56447	5.4035	1.7236	5.94999	2.09268	7.27086
1.4752	2.52661	0.746407	2.56237	1.47501	2.52669	0.840176	2.88365	1.30543	4.49097	1.81255	6.2219	2.01492	6.9361	0.745219	2.56214	1.04506	3.58038	1.56561	5.36468	1.73278	5.93442	2.0966	7.22654
1.4705	2.52855	0.752672	2.56357	1.4703	2.52863	0.84282	2.86999	1.3046	4.45276	1.81595	6.1846	2.01962	6.89749	0.751485	2.56334	1.04525	3.55294	1.56644	5.32541	1.74227	5.92013	2.10033	7.18229
1.46572	2.53038	0.758935	2.56474	1.46553	2.53045	0.845587	2.85697	1.30378	4.41519	1.81903	6.14679	2.02465	6.8606	0.757748	2.56452	1.04548	3.52608	1.567	5.28585	1.75202	5.90696	2.10387	7.13807
1.46087	2.53208	0.765194	2.56589	1.46067	2.53215	0.848483	2.84458	1.30298	4.37827	1.8218	6.10849	2.03001	6.82537	0.764008	2.56567	1.04576	3.49978	1.56733	5.24614	1.762	5.89476	2.10721	7.09387
1.45591	2.53363	0.771451	2.56701	1.45571	2.53369	0.851511	2.83281	1.30219	4.34198	1.82425	6.06976	2.03567	6.79174	0.770265	2.5668	1.04608	3.47404	1.56747	5.20639	1.77218	5.88339	2.11035	7.04968
1.45085	2.53501	0.777705	2.5681	1.45065	2.53506	0.854677	2.82169	1.30143	4.3063	1.82641	6.03063	2.04165	6.75963	0.776519	2.56789	1.04646	3.44886	1.56744	5.16669	1.78252	5.87274	2.11329	7.0055
1.44568	2.53619	0.783955	2.56916	1.44547	2.53623	0.857985	2.81119	1.30069	4.27124	1.82828	5.99117	2.04791	6.72897	0.782771	2.56896	1.04688	3.42421	1.56727	5.12713	1.79301	5.86271	2.11602	6.96132
1.44039	2.53718	0.790203	2.5702	1.44017	2.53721	0.861439	2.80133	1.29997	4.23678	1.82988	5.95143	2.05445	6.69966	0.789018	2.57001	1.04735	3.40008	1.56697	5.08776	1.80361	5.85323	2.11856	6.91714
1.43498	2.53796	0.796446	2.57121	1.43476	2.53799	0.865042	2.7921	1.29928	4.20291	1.83124	5.91146	2.06125	6.67164	0.795263	2.57102	1.04787	3.37648	1.56658	5.04864	1.81432	5.84422	2.12089	6.87299
1.42945	2.53856	0.802686	2.5722	1.42923	2.53858	0.868795	2.78348	1.29861	4.16963	1.83235	5.87133	2.06829	6.64481	0.801503	2.57201	1.04844	3.35338	1.56609	5.00982	1.82511	5.83561	2.12304	6.82888
1.42383	2.53897	0.808922	2.57315	1.4236	2.53899	0.8727	2.77547	1.29797	4.13692	1.83325	5.83109	2.07556	6.61908	0.80774	2.57297	1.04906	3.33079	1.56553	4.97133	1.83598	5.82735	2.12499	6.78482
1.41811	2.53923	0.815155	2.57408	1.41788	2.53923	0.876755	2.76806	1.29735	4.10477	1.83394	5.7908	2.08303	6.59438	0.813973	2.57391	1.04973	3.30868	1.5649	4.9332	1.8469	5.8194	2.12677	6.74084
1.41232	2.53934	0.821383	2.57499	1.41208	2.53934	0.880958	2.76121	1.29677	4.07318	1.83445	5.7505	2.09069	6.57063	0.820202	2.57482	1.05045	3.28706	1.56422	4.89546	1.85786	5.8117	2.12838	6.69697
1.40645	2.53932	0.827607	2.57587	1.40621	2.53932	0.885305	2.75491	1.29621	4.04214	1.83478	5.71025	2.09852	6.54776	0.826427	2.5757	1.05123	3.2659	1.5635	4.85811	1.86886	5.80421	2.12984	6.65324
1.40052	2.5392	0.833826	2.57672	1.40028	2.53919	0.889792	2.74913	1.29569	4.01164	1.83496	5.67009	2.1065	6.52568	0.832647	2.57656	1.05206	3.24521	1.56274	4.82118	1.87988	5.7969	2.13115	6.60969
1.39454	2.53898	0.840041	2.57755	1.3943	2.53897	0.89441	2.74384	1.29519	3.98167	1.835	5.63007	2.11462	6.50434	0.838863	2.57739	1.05294	3.22497	1.56195	4.78468	1.89092	5.78972	2.13232	6.56634
1.38852	2.53867	0.846251	2.57835	1.38827	2.53866	0.899153	2.739	1.29473	3.95221	1.83491	5.59021	2.12286	6.48366	0.845074	2.5782	1.05387	3.20518	1.56114	4.74862	1.90195	5.78264	2.13338	6.52324
1.38246	2.5383	0.852457	2.57912	1.38221	2.53829	0.904013	2.73459	1.2943	3.92327	1.8347	5.55055	2.1312	6.46359	0.851281	2.57898	1.05486	3.18583	1.5603	4.713	1.91296	5.77561	2.13433	6.48043
1.37636	2.53787	0.858657	2.57987	1.37612	2.53785	0.90898	2.73056	1.29391	3.89483	1.83438	5.51112	2.13963	6.44406	0.857482	2.57973	1.0559	3.1669	1.55945	4.67783	1.92395	5.7686	2.1352	6.43795
1.37024	2.53738	0.864852	2.5806	1.37	2.53736	0.914047	2.72687	1.29355	3.86689	1.83397	5.47194	2.14814	6.42503	0.863678	2.58046	1.057	3.1484	1.55859	4.64312	1.9349	5.76156	2.13599	6.39586
1.3641	2.53684	0.871042	2.58129	1.36385	2.53682	0.919204	2.72351	1.29323	3.83944	1.83347	5.43304	2.1567	6.40643	0.869869	2.58116	1.05815	3.13031	1.55772	4.60885	1.94578	5.75444	2.13674	6.35421
1.35794	2.53626	0.877226	2.58196	1.35769	2.53624	0.924444	2.72044	1.29294	3.81247	1.83289	5.39444	2.16531	6.38822	0.876054	2.58184	1.05935	3.11263	1.55685	4.57504	1.95659	5.74718	2.13747	6.31305
1.35176	2.53565	0.883404	2.58261	1.35151	2.53562	0.929758	2.71763	1.29268	3.78596	1.83224	5.35616	2.17395	6.37035	0.882233	2.58249	1.06061	3.09535	1.55598	4.54168	1.96729	5.73971	2.1382	6.27245
1.34556	2.535	0.889576	2.58323	1.34531	2.53497	0.93514	2.71505	1.29247	3.75993	1.83153	5.31821	2.1826	6.35275	0.888406	2.58311	1.06193	3.07846	1.55511	4.50878	1.97785	5.73195	2.13895	6.23249
1.33935	2.53432	0.895741	2.58382	1.3391	2.53429	0.940583	2.71268	1.29229	3.73434	1.83076	5.28059	2.19126	6.33539	0.894573	2.58371	1.0633	3.06196	1.55424	4.47632	1.98825	5.72381	2.13978	6.19325
1.33313	2.53361	0.9019	2.58438	1.33288	2.53358	0.946081	2.71049	1.29215	3.70921	1.82994	5.24333	2.1999	6.31822	0.900733	2.58428	1.06473	3.04583	1.55339	4.44432	1.99844	5.71518	2.14071	6.15485
1.3269	2.53287	0.908051	2.58492	1.32665	2.53284	0.951627	2.70848	1.29205	3.68452	1.82907	5.20644	2.2085	6.30118	0.906885	2.58482	1.06622	3.03008	1.55254	4.41275	2.00837	5.70591	2.14181	6.11741
1.32066	2.53212	0.914195	2.58542	1.32041	2.53209	0.957218	2.70662	1.29199	3.66026	1.82817	5.16991			0.913031	2.58533	1.06776	3.0147	1.5517	4.38164	2.01796	5.69583	2.14311	6.08107
1.31441	2.53134	0.920331	2.5859	1.31416	2.5313	0.962849	2.70489	1.29197	3.63643	1.82723	5.13376			0.919168	2.58581	1.06936	2.99967	1.55087	4.35096	2.02715	5.68475	2.14471	6.04601
1.30816	2.53054	0.926459	2.58635	1.30791	2.5305	0.968515	2.70329	1.29199	3.61302	1.82627	5.09799			0.925297	2.58627	1.07102	2.985	1.55006	4.32071	2.03585	5.67245	2.14668	6.01245
1.3019	2.52972	0.932578	2.58677	1.30165	2.52968	0.974213	2.70179	1.29205	3.59002	1.82527	5.06261			0.931418	2.58669	1.07273	2.97068	1.54927	4.2909	2.04397	5.65867	2.14911	5.9806
1.29563	2.52888	0.938687	2.58716	1.29538	2.52885	0.97994	2.70039	1.29215	3.56743	1.82426	5.02762			0.937529	2.58709	1.07451	2.95671	1.54849	4.26151	2.05139	5.64317	2.1521	5.95074
1.28936	2.52803	0.944787	2.58752	1.28911	2.52799	0.985693	2.69908	1.29229	3.54524	1.82322	4.99301			0.943631	2.58745	1.07634	2.94307	1.54773	4.23254	2.05803	5.62574	2.15577	5.92308
1.28309	2.52716	0.950876	2.58784	1.28283	2.52712	0.991469	2.69785	1.29248	3.52344	1.82217	4.9588			0.949722	2.58778	1.07824	2.92977	1.54699	4.20399	2.06384	5.60624	2.16019	5.89784
1.27681	2.52627	0.956954	2.58813	1.27656	2.52623	0.997266	2.6967	1.2927	3.50202	1.8211	4.92497			0.955802	2.58808	1.08019	2.91679	1.54627	4.17585	2.06877	5.58464	2.16544	5.87515
1.27053	2.52537	0.96302	2.58838	1.27027	2.52533	1.00308	2.69561	1.29297	3.48099	1.82003	4.89155			0.961871	2.58834	1.08221	2.90414	1.54557	4.14812	2.07285	5.56102	2.17152	5.85499
1.26424	2.52445	0.969073	2.5886	1.26399	2.52442	1.00892	2.69457	1.29328	3.46033	1.81895	4.85851			0.967926	2.58856	1.08429	2.89181	1.5449	4.12079	2.07613	5.53556	2.17842	5.83729
1.25795	2.52353	0.975113	2.58877	1.2577	2.52349	1.01476	2.69359	1.29363	3.44004	1.81786	4.82586			0.973969	2.58874	1.08643	2.8798	1.54425	4.09386	2.0787	5.50851	2.18608	5.82182
1.25166	2.52258	0.981137	2.58891	1.25141	2.52255	1.02063	2.69266	1.29403	3.42011	1.81677	4.7936			0.979996	2.58889	1.08863	2.86811	1.54362	4.06732	2.08065	5.48016	2.19442	5.80834
1.24537	2.52163	0.987146	2.589	1.24512	2.52159	1.0265	2.69178	1.29447	3.40054	1.81568	4.76173			0.986008	2.58899	1.0909	2.85672	1.54302	4.04117	2.08206	5.45077	2.20334	5.79655
1.23908	2.52066	0.993138	2.58905	1.23882	2.52063	1.03239	2.69093	1.29496	3.38131	1.81459	4.73025			0.992003	2.58904	1.09324	2.84564	1.54245	4.01541	2.08304	5.42059		
1.23278	2.51969	0.999112	2.58905	1.23253	2.51965	1.03829	2.69012	1.29549	3.36244	1.8135	4.69915			0.99798	2.58905	1.09564	2.83487	1.5419	3.99002	2.08366	5.38982		
1.22649	2.5187	1.00506	2.58899	1.22623	2.51866	1.04419	2.68935	1.29606	3.3439	1.81242	4.66843			1.00394	2.58901	1.09811	2.8244	1.54138	3.965	2.08397	5.35865		
1.22019	2.5177	1.011	2.58889	1.21994	2.51766	1.05011	2.6886	1.29668	3.32569	1.81134	4.63809			1.00987	2.58891	1.10066	2.81424	1.54089	3.94035	2.08403	5.32721		
1.2139	2.51669	1.01691	2.58872	1.21364	2.51665	1.05603	2.68788	1.29734	3.30782	1.81027	4.60812			1.01579	2.58876	1.10327	2.80438	1.54043	3.91606	2.08389	5.29561		
1.2076	2.51567	1.02279	2.58849	1.20734	2.51563	1.06196	2.68719	1.29805	3.29026	1.80921	4.57852			1.02168	2.58854	1.10596	2.79482	1.54	3.89214	2.08358	5.26395		
1.2013	2.51464	1.02864	2.5882	1.20105	2.5146	1.06789	2.68652	1.2988	3.27303	1.80816	4.5493			1.02754	2.58826	1.10872	2.78556	1.5396	3.86856	2.08313	5.2323		
1.19501	2.5136	1.03447	2.58783	1.19475	2.51356	1.07383	2.68587	1.2996	3.25611	1.80711	4.52044			1.03337	2.58791	1.11156	2.7766	1.53923	3.84533	2.08255	5.20072		
1.18871	2.51255	1.04026	2.58739	1.18846	2.51251	1.07977	2.68524	1.30044	3.2395	1.80609	4.49194			1.03917	2.58748	1.11448	2.76794	1.53889	3.82245	2.08188	5.16926		
1.18242	2.51149	1.04602	2.58686	1.18216	2.51145	1.08572	2.68462	1.30133	3.22319	1.80507	4.4638			1.04493	2.58697	1.11749	2.75959	1.53858	3.79991	2.08113	5.13794		
1.17612	2.51043	1.05174	2.58624	1.17587	2.51039	1.09167	2.68402	1.30227	3.20718	1.80407	4.43601			1.05066	2.58637	1.12058	2.75155	1.5383	3.7777	2.0803	5.10681		
1.16983	2.50936	1.05741	2.58553	1.16958	2.50932	1.09762	2.68343	1.30325	3.19146	1.80309	4.40858			1.05634	2.58567	1.12376	2.74382	1.53806	3.75582	2.07941	5.07588		
1.16354	2.50828	1.06304	2.58472	1.16329	2.50824	1.10358	2.68286	1.30428	3.17604	1.80212	4.38149			1.06198	2.58488	1.12704	2.7364	1.53785	3.73426	2.07847	5.04518		
1.15725	2.5072	1.06863	2.58379	1.157	2.50716	1.10953	2.68229	1.30536	3.1609	1.80117	4.35475			1.06757	2.58398	1.13041	2.72929	1.53767	3.71303	2.07749	5.01471		
1.15097	2.50611	1.07415	2.58275	1.15072	2.50607	1.11549	2.68174	1.30648	3.14604	1.80024	4.32835			1.07311	2.58296	1.13388	2.72251	1.53753	3.69211	2.07648	4.9845		
1.14469	2.50502	1.07963	2.58158	1.14443	2.50498	1.12145	2.68119	1.30765	3.13146	1.79932	4.30229			1.07859	2.58181	1.13746	2.71604	1.53742	3.6715	2.07543	4.95455		
1.13841	2.50392	1.08504	2.58028	1.13816	2.50388	1.12741	2.68065	1.30887	3.11715	1.79843	4.27655			1.08401	2.58054	1.14114	2.70991	1.53734	3.6512	2.07436	4.92487		
1.13213	2.50283	1.09038	2.57885	1.13188	2.50278	1.13337	2.68011	1.31013	3.10311	1.79755	4.25115			1.08937	2.57913	1.14493	2.7041	1.5373	3.6312	2.07327	4.89546		
1.12586	2.50173	1.09566	2.57727	1.12561	2.50168	1.13932	2.67958	1.31145	3.08934	1.7967	4.22607			1.09467	2.57758	1.14884	2.69863	1.5373	3.61151	2.07217	4.86634		
1.1196	2.50063	1.10087	2.57554	1.11935	2.50058	1.14528	2.67905	1.31281	3.07583	1.79587	4.20131			1.09989	2.57588	1.15287	2.69348	1.53732	3.5921	2.07105	4.8375		
1.11334	2.49953	1.10601	2.57366	1.11309	2.49948	1.15123	2.67852	1.31422	3.06258	1.79506	4.17687			1.10504	2.57403	1.15701	2.68867	1.53739	3.57299	2.06992	4.80895		
1.10709	2.49843	1.11107	2.57164	1.10683	2.49839	1.15719	2.67799	1.31568	3.04958	1.79427	4.15275			1.11011	2.57203	1.16127	2.68418	1.53749	3.55416	2.06879	4.78068		
1.10084	2.49734	1.11606	2.56946	1.10059	2.49729	1.16313	2.67746	1.31719	3.03683	1.79351	4.12893			1.11512	2.56988	1.16565	2.68002	1.53762	3.53562	2.06765	4.75271		
1.0946	2.49625	1.12097	2.56714	1.09435	2.49621	1.16908	2.67692	1.31874	3.02434	1.79277	4.10542			1.12005	2.56759	1.17015	2.67616	1.5378	3.51735	2.06651	4.72503		
1.08837	2.49517	1.12582	2.56468	1.08812	2.49513	1.17502	2.67639	1.32035	3.01208	1.79206	4.08222			1.1249	2.56516	1.17477	2.67262	1.538	3.49936	2.06537	4.69764		
1.08215	2.49411	1.13059	2.5621	1.0819	2.49406	1.18096	2.67585	1.32201	3.00007	1.79137	4.05931			1.12969	2.5626	1.1795	2.66936	1.53825	3.48164	2.06423	4.67054		
1.07594	2.49305	1.13531	2.5594	1.07569	2.49301	1.18689	2.6753	1.32372	2.9883	1.7907	4.03669			1.13442	2.55992	1.18433	2.66637	1.53853	3.46418	2.0631	4.64373		
1.06974	2.49202	1.13996	2.55659	1.06949	2.49197	1.19281	2.67474	1.32548	2.97677	1.79006	4.01437			1.13908	2.55713	1.18927	2.66365	1.53885	3.44699	2.06197	4.6172		
1.06356	2.491	1.14456	2.55369	1.06331	2.49096	1.19873	2.67417	1.32729	2.96548	1.78945	3.99234			1.14369	2.55425	1.1943	2.66117	1.53921	3.43006	2.06084	4.59097		
1.05739	2.49001	1.14912	2.55072	1.05714	2.48997	1.20464	2.6736	1.32916	2.95441	1.78886	3.97059			1.14826	2.55129	1.19943	2.65892	1.5396	3.41338	2.05973	4.56502		
1.05124	2.48904	1.15363	2.54769	1.05099	2.489	1.21054	2.67301	1.33107	2.94358	1.7883	3.94912			1.15278	2.54827	1.20464	2.65688	1.54003	3.39696	2.05862	4.53936		
1.0451	2.48811	1.15811	2.54461	1.04486	2.48807	1.21643	2.6724	1.33305	2.93297	1.78777	3.92794			1.15726	2.5452	1.20992	2.65503	1.5405	3.38079	2.05753	4.51397		
1.03899	2.48722	1.16256	2.5415	1.03874	2.48718	1.22232	2.67178	1.33507	2.92259	1.78727	3.90702			1.16171	2.54209	1.21528	2.65335	1.541	3.36486	2.05644	4.48887		
1.0329	2.48637	1.16699	2.53838	1.03266	2.48634	1.22819	2.67114	1.33715	2.91244	1.78679	3.88638			1.16615	2.53897	1.2207	2.65183	1.54155	3.34917	2.05537	4.46405		
1.02684	2.48558	1.1714	2.53526	1.02659	2.48555	1.23404	2.67048	1.33929	2.90251	1.78634	3.866			1.17056	2.53585	1.22619	2.65046	1.54213	3.33372	2.05431	4.4395		
1.0208	2.48485	1.1758	2.53214	1.02056	2.48483	1.23989	2.66979	1.34149	2.8928	1.78592	3.84588			1.17497	2.53273	1.23172	2.64921	1.54275	3.31851	2.05327	4.41523		
1.0148	2.4842	1.1802	2.52905	1.01456	2.48417	1.24572	2.66908	1.34374	2.88332	1.78553	3.82603			1.17937	2.52963	1.23731	2.64808	1.54341	3.30353	2.05224	4.39123		
1.00884	2.48363	1.1846	2.52599	1.0086	2.48361	1.25153	2.66834	1.34606	2.87406	1.78517	3.80644			1.18377	2.52657	1.24294	2.64706	1.5441	3.28878	2.05123	4.3675		
1.00291	2.48315	1.18901	2.52297	1.00268	2.48313	1.25732	2.66756	1.34844	2.86502	1.78484	3.7871			1.18817	2.52354	1.24861	2.64613	1.54484	3.27425	2.05023	4.34403		
0.997037	2.48279	1.19342	2.52	0.996801	2.48277	1.26309	2.66675	1.35088	2.85621	1.78454	3.76801			1.19259	2.52056	1.25431	2.64528	1.54561	3.25995	2.04925	4.32083		
0.991213	2.48255	1.19785	2.51709	0.990979	2.48254	1.26884	2.6659	1.35339	2.84761	1.78426	3.74916			1.19701	2.51764	1.26005	2.64451	1.54642	3.24586	2.04829	4.29789		
0.985446	2.48245	1.2023	2.51424	0.985215	2.48245	1.27456	2.66501	1.35596	2.83925	1.78402	3.73057			1.20145	2.51478	1.26581	2.6438	1.54727	3.232	2.04734	4.27521		
0.979743	2.48251	1.20677	2.51146	0.979515	2.48252	1.28026	2.66406	1.35861	2.83111	1.78381	3.71221			1.20592	2.51199	1.2716	2.64316	1.54816	3.21834	2.04642	4.25279		
0.97411	2.48276	1.21126	2.50876	0.973884	2.48277	1.28592	2.66306	1.36132	2.8232	1.78363	3.6941			1.2104	2.50927	1.27741	2.64257	1.54909	3.2049	2.04551	4.23062		
0.968553	2.4832	1.21577	2.50614	0.968331	2.48322	1.29155	2.662	1.36412	2.81552	1.78348	3.67622			1.21491	2.50663	1.28325	2.64203	1.55006	3.19167	2.04463	4.20871		
0.963079	2.48385	1.22032	2.5036	0.96286	2.48389	1.29714	2.66088	1.36699	2.80807	1.78336	3.65857			1.21945	2.50407	1.2891	2.64153	1.55107	3.17864	2.04376	4.18704		
0.957692	2.48475	1.22489	2.50115	0.957476	2.48479	1.3027	2.65968	1.36995	2.80087	1.78327	3.64115			1.22402	2.5016	1.29497	2.64107	1.55211	3.16581	2.04292	4.16562		
0.952397	2.48589	1.2295	2.49878	0.952185	2.48594	1.30821	2.6584	1.37299	2.7939	1.78321	3.62396			1.22862	2.49923	1.30086	2.64065	1.5532	3.15319	2.0421	4.14444		
0.947197	2.4873	1.23414	2.49652	0.946989	2.48736	1.31367	2.65704	1.37612	2.78719	1.78318	3.60699			1.23326	2.49694	1.30675	2.64025	1.55432	3.14076	2.0413	4.12351		
0.942095	2.48898	1.23882	2.49434	0.941891	2.48906	1.31908	2.65559	1.37934	2.78072	1.78319	3.59025			1.23793	2.49475	1.31266	2.63988	1.55549	3.12853	2.04052	4.10281		
0.93709	2.49095	1.24354	2.49226	0.936891	2.49103	1.32443	2.65403	1.38266	2.77451	1.78323	3.57372			1.24265	2.49265	1.31858	2.63954	1.55669	3.11649	2.03976	4.08235		
0.932183	2.49319	1.2483	2.49028	0.931987	2.49329	1.32972	2.65237	1.38609	2.76857	1.7833	3.55741			1.2474	2.49065	1.32451	2.63922	1.55794	3.10463	2.03903	4.06213		
0.927371	2.49572	1.2531	2.4884	0.927178	2.49583	1.33494	2.65059	1.38962	2.76289	1.7834	3.54131			1.25219	2.48875	1.33045	2.63891	1.55922	3.09297	2.03832	4.04213		
0.922649	2.49853	1.25794	2.48662	0.92246	2.49865	1.3401	2.64869	1.39326	2.75748	1.78353	3.52543			1.25702	2.48695	1.33639	2.63863	1.56054	3.08149	2.03763	4.02236		
0.918013	2.50161	1.26282	2.48494	0.917828	2.50174	1.34518	2.64667	1.39702	2.75235	1.7837	3.50975			1.26189	2.48525	1.34234	2.63836	1.56191	3.07019	2.03697	4.00282		
0.913458	2.50495	1.26775	2.48336	0.913277	2.50509	1.35019	2.64451	1.4009	2.7475	1.7839	3.49428			1.26681	2.48365	1.3483	2.6381	1.56331	3.05908	2.03633	3.98351		
0.908978	2.50854	1.27272	2.48188	0.908799	2.50869	1.35512	2.64223	1.40489	2.74292	1.78413	3.47901			1.27178	2.48215	1.35426	2.63785	1.56475	3.04814	2.03572	3.96441		
0.904567	2.51236	1.27774	2.48049	0.90439	2.51252	1.35997	2.63981	1.40901	2.73863	1.7844	3.46394			1.27678	2.48075	1.36022	2.63761	1.56624	3.03738	2.03513	3.94554		
0.900216	2.5164	1.2828	2.47921	0.900042	2.51657	1.36474	2.63726	1.41325	2.7346	1.78469	3.44907			1.28183	2.47945	1.36619	2.63738	1.56776	3.02679	2.03456	3.92688		
0.89592	2.52065	1.2879	2.47802	0.895748	2.52083	1.36944	2.63459	1.41761	2.73085	1.78502	3.43439			1.28693	2.47824	1.37215	2.63715	1.56933	3.01637	2.03403	3.90843		
0.891672	2.52509	1.29305	2.47693	0.891501	2.52527	1.37406	2.6318	1.4221	2.72736	1.78539	3.41991			1.29207	2.47713	1.37812	2.63693	1.57093	3.00612	2.03351	3.8902		
0.887464	2.5297	1.29824	2.47594	0.887295	2.52989	1.37861	2.6289	1.42669	2.72413	1.78578	3.40561			1.29725	2.47612	1.38409	2.63672	1.57258	2.99605	2.03302	3.87217		
0.883288	2.53447	1.30348	2.47504	0.883121	2.53467	1.3831	2.62591	1.43141	2.72113	1.78621	3.39151			1.30248	2.4752	1.39007	2.6365	1.57426	2.98613	2.03256	3.85435		
0.879138	2.53938	1.30876	2.47422	0.878972	2.53958	1.38753	2.62283	1.43622	2.71837	1.78668	3.37759			1.30776	2.47437	1.39604	2.63629	1.57599	2.97638	2.03213	3.83674		
0.875006	2.5444	1.31408	2.4735	0.87484	2.5446	1.39191	2.61968	1.44114	2.71582	1.78717	3.36386			1.31307	2.47363	1.40201	2.63607	1.57776	2.9668	2.03172	3.81933		
0.870884	2.54952	1.31945	2.47286	0.870717	2.54973	1.39624	2.61647	1.44616	2.71347	1.7877	3.3503			1.31843	2.47297	1.40797	2.63586	1.57957	2.95737	2.03134	3.80212		
0.866762	2.55471	1.32486	2.4723	0.866596	2.55492	1.40054	2.61323	1.45126	2.71131	1.78827	3.33693			1.32383	2.4724	1.41394	2.63564	1.58142	2.9481	2.03098	3.78511		
0.862633	2.55995	1.3303	2.47182	0.862466	2.56016	1.40482	2.60997	1.45645	2.70932	1.78886	3.32374			1.32927	2.47191	1.4199	2.63542	1.58332	2.93899	2.03065	3.76829		
0.858487	2.56521	1.33579	2.47142	0.858319	2.56542	1.40908	2.60671	1.46171	2.70749	1.7895	3.31071			1.33475	2.47149	1.42586	2.6352	1.58526	2.93004	2.03035	3.75167		
0.854315	2.57047	1.34131	2.47109	0.854147	2.57068	1.41333	2.60346	1.46704	2.7058	1.79016	3.29787			1.34026	2.47115	1.43182	2.63497	1.58723	2.92124	2.03008	3.73523		
0.850109	2.57569	1.34688	2.47083	0.849938	2.5759	1.41758	2.60024	1.47244	2.70424	1.79086	3.28519			1.34582	2.47088	1.43777	2.63473	1.58926	2.91259	2.02983	3.71899		
0.845858	2.58085	1.35247	2.47064	0.845685	2.58106	1.42185	2.59708	1.47789	2.7028	1.79159	3.27268			1.35141	2.47068	1.44371	2.63449	1.59132	2.90409	2.02961	3.70293		
0.841553	2.58593	1.3581	2.47052	0.841378	2.58613	1.42614	2.59398	1.48339	2.70147	1.79236	3.26034			1.35703	2.47054	1.44965	2.63424	1.59343	2.89575	2.02942	3.68706		
0.837186	2.59088	1.36377	2.47045	0.837009	2.59108	1.43046	2.59097	1.48894	2.70023	1.79316	3.24816			1.36269	2.47046	1.45559	2.63397	1.59558	2.88755	2.02926	3.67138		
0.832751	2.59569	1.36946	2.47044	0.83257	2.59588	1.43483	2.58807	1.49454	2.69908	1.79399	3.23615			1.36838	2.47044	1.46151	2.6337	1.59778	2.87951	2.02912	3.65587		
0.828239	2.60032	1.37519	2.47049	0.828055	2.60051	1.43926	2.5853	1.50017	2.698	1.79486	3.22429			1.3741	2.47048	1.46743	2.63342	1.60002	2.8716	2.02901	3.64054		
0.823645	2.60477	1.38094	2.47059	0.823459	2.60495	1.44376	2.58268	1.50583	2.697	1.79576	3.2126			1.37985	2.47056	1.47334	2.63312	1.60231	2.86385	2.02893	3.62539		
0.818967	2.60902	1.38673	2.47073	0.818777	2.60918	1.44836	2.58025	1.51153	2.69607	1.7967	3.20106			1.38563	2.4707	1.47924	2.6328	1.60464	2.85624	2.02888	3.61041		
0.814203	2.61305	1.39254	2.47092	0.814009	2.6132	1.45305	2.57801	1.51726	2.69519	1.79767	3.18968			1.39143	2.47088	1.48513	2.63247	1.60702	2.84878	2.02886	3.59561		
0.80935	2.61685	1.39837	2.47116	0.809153	2.617	1.45785	2.57599	1.52301	2.69436	1.79868	3.17845			1.39726	2.47111	1.49101	2.63213	1.60945	2.84146	2.02887	3.58098		
0.804412	2.62043	1.40423	2.47143	0.804211	2.62057	1.46278	2.57421	1.52879	2.69358	1.79972	3.16737			1.40311	2.47138	1.49687	2.63176	1.61193	2.83429	2.0289	3.56652		
0.799389	2.62379	1.41011	2.47175	0.799185	2.62392	1.46784	2.57267	1.53458	2.69285	1.80079	3.15645			1.40899	2.47168	1.50272	2.63137	1.61445	2.82725	2.02897	3.55222		
0.794285	2.62694	1.41601	2.47209	0.794078	2.62706	1.47304	2.57137	1.5404	2.69215	1.8019	3.14567			1.41489	2.47202	1.50856	2.63096	1.61703	2.82037	2.02906	3.53809		
0.789105	2.62987	1.42193	2.47247	0.788895	2.62999	1.47836	2.57031	1.54623	2.69149	1.80304	3.13503			1.42081	2.4724	1.51438	2.63052	1.61965	2.81362	2.02918	3.52413		
0.783853	2.63261	1.42788	2.47289	0.78364	2.63272	1.48381	2.56947	1.55208	2.69087	1.80422	3.12455			1.42675	2.47281	1.52018	2.63006	1.62233	2.80703	2.02933	3.51032		
0.778533	2.63517	1.43384	2.47333	0.778318	2.63527	1.48937	2.56883	1.55794	2.69027	1.80543	3.1142			1.43271	2.47324	1.52596	2.62957	1.62506	2.80057	2.02951	3.49668		
0.773152	2.63755	1.43982	2.47379	0.772934	2.63765	1.49503	2.56837	1.56382	2.6897	1.80668	3.104			1.43868	2.4737	1.53173	2.62905	1.62785	2.79426	2.02972	3.48319		
0.767713	2.63978	1.44581	2.47429	0.767493	2.63987	1.50077	2.56806	1.5697	2.68915	1.80796	3.09394			1.44468	2.47419	1.53747	2.62849	1.6307	2.7881	2.02996	3.46986		
0.762223	2.64186	1.45183	2.4748	0.762	2.64194	1.50659	2.56789	1.5756	2.68862	1.80928	3.08401			1.45068	2.4747	1.54318	2.6279	1.6336	2.78209	2.03023	3.45669		
0.756684	2.64381	1.45785	2.47534	0.75646	2.64388	1.51248	2.56782	1.58151	2.68812	1.81063	3.07422			1.45671	2.47524	1.54887	2.62727	1.63656	2.77622	2.03053	3.44366		
0.751102	2.64563	1.46389	2.4759	0.750877	2.6457	1.51842	2.56784	1.58742	2.68763	1.81202	3.06457			1.46275	2.47579	1.55454	2.62659	1.63958	2.7705	2.03086	3.43079		
0.745481	2.64735	1.46995	2.47647	0.745254	2.64742	1.5244	2.56794	1.59335	2.68716	1.81344	3.05505			1.4688	2.47636	1.56017	2.62587	1.64267	2.76494	2.03121	3.41807		
0.739824	2.64897	1.47602	2.47707	0.739596	2.64903	1.53042	2.5681	1.59928	2.68671	1.81489	3.04567			1.47486	2.47695	1.56577	2.6251	1.64582	2.75953	2.0316	3.4055		
0.734135	2.65049	1.4821	2.47768	0.733905	2.65055	1.53648	2.56832	1.60521	2.68627	1.81639	3.03641			1.48094	2.47756	1.57133	2.62428	1.64904	2.75427	2.03201	3.39307		
0.728417	2.65194	1.48819	2.4783	0.728185	2.652	1.54256	2.56857	1.61116	2.68584	1.81791	3.02728			1.48703	2.47818	1.57686	2.6234	1.65233	2.74917	2.03246	3.38079		
0.722672	2.65331	1.49429	2.47894	0.722439	2.65337	1.54866	2.56887	1.6171	2.68543	1.81947	3.01829			1.49313	2.47882	1.58235	2.62246	1.65569	2.74423	2.03294	3.36865		
0.716903	2.65462	1.5004	2.47959	0.71667	2.65467	1.55478	2.56919	1.62305	2.68502	1.82107	3.00942			1.49924	2.47946	1.58779	2.62146	1.65913	2.73945	2.03344	3.35666		
0.711112	2.65587	1.50653	2.48025	0.710878	2.65592	1.56092	2.56954	1.62901	2.68462	1.8227	3.00067			1.50537	2.48012	1.59319	2.62039	1.66265	2.73484	2.03398	3.3448		
0.705302	2.65707	1.51266	2.48092	0.705067	2.65712	1.56707	2.5699	1.63497	2.68423	1.82437	2.99205			1.5115	2.48079	1.59854	2.61925	1.66624	2.73039	2.03454	3.33308		
0.699473	2.65822	1.5188	2.4816	0.699238	2.65826	1.57324	2.57029	1.64093	2.68385	1.82607	2.98356			1.51764	2.48147	1.60384	2.61803	1.66993	2.72612	2.03514	3.3215		
0.693629	2.65933	1.52495	2.48229	0.693393	2.65937	1.57941	2.57068	1.64689	2.68348	1.82781	2.97518			1.52379	2.48216	1.60908	2.61673	1.67369	2.72201	2.03576	3.31006		
0.68777	2.6604	1.53111	2.48299	0.687534	2.66044	1.58559	2.57109	1.65285	2.68311	1.82959	2.96693			1.52994	2.48286	1.61427	2.61536	1.67755	2.71808	2.03642	3.29875		
0.681899	2.66144	1.53728	2.4837	0.681662	2.66148	1.59178	2.5715	1.65882	2.68274	1.8314	2.95879			1.53611	2.48357	1.6194	2.61389	1.68149	2.71433	2.0371	3.28757		
0.676015	2.66246	1.54345	2.48441	0.675777	2.6625	1.59798	2.57193	1.66478	2.68238	1.83325	2.95078			1.54228	2.48428	1.62446	2.61234	1.68553	2.71074	2.03782	3.27653		
0.67012	2.66344	1.54963	2.48513	0.669882	2.66348	1.60418	2.57235	1.67075	2.68202	1.83513	2.94288			1.54846	2.48499	1.62947	2.61071	1.68966	2.70734	2.03857	3.26561		
0.664216	2.66441	1.55582	2.48585	0.663978	2.66445	1.61038	2.57278	1.67672	2.68167	1.83705	2.9351			1.55464	2.48572	1.63441	2.60898	1.69388	2.70411	2.03934	3.25482		
0.658303	2.66536	1.56201	2.48658	0.658065	2.6654	1.61659	2.57321	1.68268	2.68131	1.83901	2.92744			1.56084	2.48644	1.63929	2.60717	1.6982	2.70105	2.04015	3.24416		
0.652383	2.6663	1.56821	2.48732	0.652144	2.66634	1.6228	2.57365	1.68865	2.68096	1.84101	2.91989			1.56704	2.48718	1.64411	2.60526	1.70261	2.69816	2.04098	3.23363		
0.646455	2.66723	1.57442	2.48805	0.646216	2.66727	1.62901	2.57408	1.69461	2.68061	1.84304	2.91246			1.57324	2.48791	1.64886	2.60328	1.70711	2.69544	2.04185	3.22322		
0.640521	2.66815	1.58063	2.48879	0.640282	2.66818	1.63523	2.57451	1.70057	2.68025	1.84511	2.90513			1.57945	2.48865	1.65355	2.60121	1.7117	2.69289	2.04275	3.21293		
0.634582	2.66906	1.58684	2.48953	0.634342	2.6691	1.64144	2.57494	1.70653	2.6799	1.84722	2.89793			1.58566	2.48939	1.65819	2.59907	1.71639	2.69049	2.04367	3.20276		
0.628638	2.66997	1.59306	2.49028	0.628398	2.67001	1.64766	2.57537	1.71248	2.67954	1.84936	2.89083			1.59188	2.49014	1.66276	2.59685	1.72116	2.68824	2.04463	3.19272		
0.62269	2.67089	1.59929	2.49103	0.62245	2.67092	1.65388	2.5758	1.71843	2.67918	1.85155	2.88385			1.59811	2.49088	1.66729	2.59456	1.72601	2.68614	2.04562	3.18279		
0.616739	2.6718	1.60552	2.49177	0.616499	2.67184	1.66009	2.57622	1.72438	2.67881	1.85378	2.87697			1.60434	2.49163	1.67176	2.59221	1.73094	2.68418	2.04664	3.17299		
0.610784	2.67272	1.61175	2.49252	0.610544	2.67276	1.66631	2.57664	1.73032	2.67844	1.85604	2.87021			1.61057	2.49238	1.67619	2.58981	1.73595	2.68235	2.04769	3.1633		
0.604828	2.67365	1.61799	2.49327	0.604587	2.67369	1.67252	2.57705	1.73626	2.67807	1.85835	2.86356			1.61681	2.49313	1.68057	2.58736	1.74103	2.68064	2.04877	3.15372		
0.598869	2.67459	1.62423	2.49403	0.598629	2.67463	1.67873	2.57746	1.74219	2.67769	1.86069	2.85702			1.62305	2.49388	1.68491	2.58487	1.74618	2.67905	2.04987	3.14426		
0.59291	2.67555	1.63048	2.49478	0.59267	2.67559	1.68494	2.57787	1.74811	2.6773	1.86308	2.85058			1.62929	2.49463	1.68922	2.58234	1.75139	2.67757	2.05101	3.13491		
0.58695	2.67652	1.63673	2.49553	0.58671	2.67656	1.69115	2.57826	1.75403	2.6769	1.86551	2.84426			1.63554	2.49539	1.6935	2.57978	1.75667	2.67619	2.05218	3.12568		
0.58099	2.67752	1.64298	2.49628	0.580749	2.67756	1.69736	2.57866	1.75994	2.67649	1.86799	2.83805			1.64179	2.49614	1.69776	2.5772	1.76199	2.6749	2.05339	3.11656		
0.57503	2.67853	1.64924	2.49703	0.57479	2.67858	1.70357	2.57904	1.76584	2.67607	1.87051	2.83195			1.64805	2.49689	1.70199	2.5746	1.76737	2.6737	2.05462	3.10754		
0.569072	2.67958	1.65549	2.49778	0.568831	2.67962	1.70977	2.57942	1.77172	2.67564	1.87307	2.82596			1.65431	2.49763	1.7062	2.572	1.7728	2.67258	2.05588	3.09864		
0.563115	2.68066	1.66175	2.49852	0.562875	2.6807	1.71597	2.57979	1.7776	2.67519	1.87568	2.82008			1.66057	2.49838	1.71039	2.56938	1.77826	2.67153	2.05717	3.08984		
0.55716	2.68177	1.66802	2.49927	0.55692	2.68181	1.72216	2.58015	1.78347	2.67473	1.87834	2.81431			1.66683	2.49913	1.71458	2.56677	1.78377	2.67055	2.05849	3.08115		
0.551208	2.68292	1.67428	2.50001	0.550968	2.68296	1.72835	2.58051	1.78932	2.67425	1.88105	2.80866			1.67309	2.49987	1.71875	2.56416	1.78932	2.66963	2.05985	3.07256		
0.54526	2.68411	1.68055	2.50075	0.54502	2.68416	1.73454	2.58085	1.79515	2.67375	1.8838	2.80312			1.67936	2.50061	1.72292	2.56156	1.7949	2.66877	2.06123	3.06408		
0.539316	2.68535	1.68682	2.50149	0.539077	2.6854	1.74072	2.58119	1.80097	2.67323	1.88661	2.79769			1.68563	2.50135	1.72708	2.55898	1.80051	2.66796	2.06264	3.0557		
0.533377	2.68665	1.69308	2.50223	0.533138	2.6867	1.7469	2.58152	1.80677	2.67269	1.88948	2.79239			1.6919	2.50209	1.73125	2.55641	1.80615	2.6672	2.06409	3.04742		
0.527444	2.688	1.69936	2.50296	0.527205	2.68806	1.75307	2.58183	1.81255	2.67212	1.8924	2.7872			1.69817	2.50282	1.73541	2.55386	1.81182	2.66648	2.06557	3.03925		
0.521518	2.68942	1.70563	2.50369	0.521279	2.68948	1.75923	2.58214	1.81831	2.67152	1.89537	2.78213			1.70444	2.50355	1.73958	2.55133	1.81751	2.6658	2.06707	3.03117		
0.515599	2.69092	1.7119	2.50441	0.51536	2.69098	1.76539	2.58243	1.82405	2.67089	1.89841	2.77718			1.71071	2.50427	1.74376	2.54883	1.82322	2.66516	2.06861	3.0232		
0.509689	2.6925	1.71817	2.50513	0.509451	2.69256	1.77155	2.58272	1.82976	2.67023	1.90151	2.77236			1.71698	2.50499	1.74795	2.54636	1.82895	2.66455	2.07018	3.01532		
0.503788	2.69417	1.72444	2.50584	0.503551	2.69424	1.77769	2.58298	1.83544	2.66953	1.90468	2.76767			1.72325	2.50571	1.75214	2.54392	1.8347	2.66397	2.07178	3.00754		
0.497899	2.69594	1.73071	2.50655	0.497662	2.69601	1.78383	2.58324	1.84109	2.66879	1.90792	2.76311			1.72952	2.50641	1.75635	2.54151	1.84047	2.66342	2.07341	2.99986		
0.492022	2.69783	1.73698	2.50724	0.491786	2.69791	1.78995	2.58348	1.8467	2.66801	1.91123	2.75868			1.73579	2.50711	1.76057	2.53915	1.84625	2.66289	2.07507	2.99228		
0.48616	2.69984	1.74324	2.50793	0.485924	2.69992	1.79607	2.5837	1.85228	2.66718	1.91461	2.75439			1.74205	2.5078	1.76481	2.53682	1.85204	2.66239	2.07676	2.98478		
0.480313	2.70199	1.7495	2.50861	0.480078	2.70208	1.80218	2.58391	1.85782	2.66629	1.91808	2.75025			1.74831	2.50848	1.76907	2.53454	1.85785	2.66191	2.07848	2.97739		
0.474484	2.7043	1.75574	2.50926	0.474249	2.7044	1.80827	2.5841	1.86331	2.66535	1.92163	2.74625			1.75456	2.50914	1.77335	2.5323	1.86367	2.66145	2.08024	2.97008		
0.468675	2.70679	1.76198	2.5099	0.468441	2.7069	1.81435	2.58427	1.86876	2.66435	1.92526	2.74241			1.7608	2.50978	1.77767	2.53013	1.86949	2.661	2.08202	2.96287		
0.462889	2.70948	1.7682	2.51051	0.462656	2.7096	1.82042	2.58442	1.87416	2.66329	1.92899	2.73871			1.76702	2.51039	1.78202	2.52802	1.87533	2.66057	2.08384	2.95575		
0.457129	2.7124	1.77439	2.51107	0.456897	2.71252	1.82648	2.58455	1.87951	2.66216	1.93281	2.73518			1.77322	2.51097	1.78642	2.52599	1.88118	2.66015	2.08569	2.94872		
0.451397	2.71557	1.78054	2.51156	0.451167	2.71571	1.83252	2.58466	1.8848	2.66096	1.93673	2.73181			1.77937	2.51148	1.79089	2.52407	1.88703	2.65975	2.08756	2.94178		
0.445699	2.71903	1.78661	2.51195	0.44547	2.71918	1.83854	2.58474	1.89004	2.65969	1.94076	2.7286			1.78546	2.51189	1.79546	2.52231	1.89288	2.65936	2.08948	2.93493		
0.440038	2.72283	1.79255	2.51216	0.439811	2.72299	1.84454	2.58479	1.89522	2.65834	1.94488	2.72556			1.79144	2.51214	1.80019	2.52079	1.89875	2.65897	2.09142	2.92817		
0.434419	2.727	1.79829	2.51207	0.434194	2.72717	1.85052	2.58481	1.90034	2.65693	1.94912	2.72269			1.79722	2.51212	1.80518	2.51964	1.90461	2.6586	2.09339	2.9215		
0.428849	2.73159	1.80372	2.51156	0.428626	2.73179	1.85647	2.5848	1.9054	2.65544	1.95346	2.71999			1.80271	2.5117	1.81051	2.51897	1.91048	2.65823	2.0954	2.91491		
0.423334	2.73669	1.80882	2.51061	0.423113	2.73691	1.8624	2.58475	1.91041	2.65388	1.95791	2.71745			1.80788	2.51082	1.81618	2.51876	1.91636	2.65787	2.09744	2.90841		
0.417883	2.74235	1.81368	2.50931	0.417664	2.74259	1.86831	2.58467	1.91536	2.65226	1.96246	2.71508			1.81277	2.50958	1.82208	2.51889	1.92223	2.65751	2.09951	2.902		
0.412503	2.74867	1.81839	2.50783	0.412288	2.74894	1.87418	2.58454	1.92027	2.65059	1.96712	2.71286			1.81751	2.50812	1.82813	2.51922	1.92811	2.65716	2.10161	2.89567		
0.407206	2.75574	1.82302	2.50624	0.406995	2.75605	1.88002	2.58437	1.92513	2.64886	1.97188	2.7108			1.82215	2.50654	1.83427	2.51966	1.93399	2.65681	2.10375	2.88943		
0.402004	2.76369	1.82762	2.50461	0.401796	2.76403	1.88582	2.58415	1.92995	2.64709	1.97674	2.70889			1.82675	2.50492	1.84046	2.52018	1.93987	2.65647	2.10592	2.88327		
0.396909	2.77265	1.8322	2.50297	0.396706	2.77303	1.89158	2.58387	1.93474	2.64529	1.98169	2.70712			1.83133	2.50328	1.84668	2.52074	1.94574	2.65612	2.10812	2.87719		
0.391937	2.78277	1.83677	2.50134	0.391739	2.78321	1.8973	2.58354	1.93952	2.64348	1.98673	2.70547			1.83591	2.50165	1.85293	2.52132	1.95162	2.65578	2.11036	2.8712		
0.387104	2.79423	1.84135	2.49972	0.386912	2.79472	1.90297	2.58314	1.94428	2.64166	1.99186	2.70395			1.84049	2.50003	1.85919	2.52192	1.95749	2.65544	2.11263	2.8653		
0.382427	2.80723	1.84595	2.49813	0.382242	2.80779	1.90858	2.58268	1.94903	2.63984	1.99706	2.70255			1.84508	2.49843	1.86546	2.52253	1.96336	2.65509	2.11493	2.85947		
0.377925	2.82198	1.85055	2.49657	0.377747	2.82261	1.91414	2.58214	1.95379	2.63805	2.00233	2.70125			1.84968	2.49686	1.87174	2.52315	1.96923	2.65474	2.11727	2.85373		
0.373615	2.83871	1.85517	2.49504	0.373446	2.83943	1.91964	2.58153	1.95857	2.63629	2.00767	2.70005			1.8543	2.49532	1.87803	2.52377	1.9751	2.65439	2.11964	2.84807		
0.369517	2.85767	1.85981	2.49354	0.369356	2.85848	1.92508	2.58083	1.96337	2.63457	2.01307	2.69894			1.85893	2.49382	1.88432	2.5244	1.98096	2.65404	2.12205	2.8425		
0.365645	2.8791	1.86447	2.49207	0.365494	2.88002	1.93045	2.58005	1.96821	2.63291	2.01853	2.69791			1.86358	2.49235	1.89061	2.52503	1.98681	2.65368	2.1245	2.837		
0.362015	2.90326	1.86914	2.49064	0.361873	2.9043	1.93575	2.57917	1.97309	2.63131	2.02403	2.69695			1.86826	2.49091	1.89691	2.52565	1.99266	2.65331	2.12698	2.83159		
0.358635	2.93039	1.87384	2.48924	0.358505	2.93155	1.94097	2.57821	1.97802	2.62979	2.02959	2.69606			1.87295	2.48951	1.90321	2.52628	1.9985	2.65294	2.12949	2.82626		
0.355515	2.96071	1.87856	2.48788	0.355395	2.962	1.94612	2.57715	1.983	2.62835	2.03518	2.69524			1.87766	2.48814	1.90951	2.52691	2.00434	2.65256	2.13205	2.82101		
0.352657	2.99445	1.8833	2.48656	0.352547	2.99588	1.9512	2.576	1.98804	2.627	2.04082	2.69446			1.8824	2.48681	1.91581	2.52753	2.01016	2.65217	2.13464	2.81584		
0.350062	3.03181	1.88806	2.48527	0.349962	3.0334	1.9562	2.57475	1.99315	2.62574	2.04649	2.69374			1.88715	2.48551	1.92212	2.52815	2.01598	2.65177	2.13727	2.81076		
0.347726	3.073	1.89284	2.48402	0.347637	3.07474	1.96112	2.57342	1.99832	2.62458	2.05219	2.69307			1.89193	2.48426	1.92842	2.52877	2.02178	2.65136	2.13994	2.80575		
0.345646	3.1182	1.89764	2.48281	0.345567	3.12011	1.96598	2.572	2.00356	2.6235	2.05792	2.69243			1.89673	2.48303	1.93473	2.52938	2.02758	2.65093	2.14265	2.80083		
0.343814	3.16761	1.90246	2.48163	0.343745	3.16969	1.97076	2.5705	2.00886	2.62252	2.06367	2.69183			1.90155	2.48185	1.94103	2.53	2.03336	2.6505	2.1454	2.796		
0.342223	3.22143	1.90731	2.48048	0.342164	3.22369	1.97548	2.56893	2.01423	2.62163	2.06945	2.69127			1.90639	2.4807	1.94734	2.53061	2.03912	2.65004	2.14819	2.79124		
0.340864	3.27988	1.91218	2.47938	0.340814	3.28234	1.98014	2.56729	2.01965	2.62083	2.07525	2.69074			1.91126	2.47958	1.95365	2.53121	2.04488	2.64958	2.15103	2.78657		
0.33973	3.34319	1.91707	2.47831	0.339688	3.34585	1.98475	2.56558	2.02514	2.62011	2.08107	2.69023			1.91614	2.47851	1.95995	2.53182	2.05061	2.64909	2.15391	2.78199		
0.338811	3.41161	1.92199	2.47727	0.338778	3.41448	1.9893	2.56382	2.03069	2.61946	2.0869	2.68976			1.92105	2.47746	1.96626	2.53242	2.05633	2.64858	2.15683	2.77749		
0.338099	3.48543	1.92692	2.47627	0.338074	3.48852	1.99381	2.56202	2.03628	2.61888	2.09276	2.6893			1.92599	2.47645	1.97257	2.53301	2.06203	2.64805	2.15981	2.77308		
0.337586	3.56494	1.93188	2.4753	0.33757	3.56827	1.99828	2.56017	2.04193	2.61837	2.09862	2.68887			1.93094	2.47548	1.97888	2.5336	2.06771	2.6475	2.16283	2.76875		
0.337266	3.6505	1.93686	2.47437	0.337257	3.65408	2.00272	2.55829	2.04762	2.61792	2.1045	2.68845			1.93592	2.47454	1.98518	2.53419	2.07337	2.64693	2.1659	2.76451		
0.337128	3.74248	1.94187	2.47347	0.337126	3.74633	2.00712	2.55638	2.05335	2.61753	2.11039	2.68806			1.94092	2.47363	1.99149	2.53477	2.079	2.64632	2.16902	2.76037		
0.337167	3.84131	1.94689	2.4726	0.337172	3.84544	2.0115	2.55445	2.05912	2.61718	2.1163	2.68768			1.94594	2.47276	1.99779	2.53535	2.08461	2.64569	2.17219	2.75631		
0.337375	3.94745	1.95194	2.47177	0.337387	3.95189	2.01586	2.55251	2.06492	2.61688	2.12221	2.68731			1.95098	2.47192	2.0041	2.53593	2.09019	2.64503	2.17542	2.75235		
0.337744	4.06142	1.95701	2.47097	0.337763	4.06618	2.0202	2.55055	2.07075	2.61662	2.12813	2.68696			1.95605	2.47112	2.0104	2.5365	2.09574	2.64433	2.1787	2.74848		
0.338268	4.1838	1.9621	2.4702	0.338292	4.18892	2.02452	2.54858	2.07661	2.61639	2.13406	2.68662			1.96113	2.47034	2.0167	2.53706	2.10126	2.6436	2.18205	2.74471		
0.338939	4.31525	1.96721	2.46946	0.338969	4.32075	2.02883	2.54661	2.08249	2.6162	2.14	2.68629			1.96624	2.4696	2.023	2.53762	2.10674	2.64282	2.18545	2.74104		
0.339749	4.45648	1.97235	2.46876	0.339784	4.46239	2.03314	2.54465	2.0884	2.61604	2.14594	2.68597			1.97137	2.46889	2.0293	2.53818	2.11219	2.64201	2.18892	2.73747		
0.340691	4.60831	1.97751	2.46809	0.340732	4.61467	2.03744	2.54268	2.09433	2.6159	2.15189	2.68566			1.97653	2.46821	2.0356	2.53873	2.1176	2.64115	2.19245	2.73399		
0.341758	4.77166	1.98269	2.46744	0.341803	4.77851	2.04173	2.54073	2.10027	2.61579	2.15784	2.68535			1.9817	2.46756	2.0419	2.53928	2.12297	2.64025	2.19605	2.73063		
0.342941	4.94757	1.98789	2.46683	0.342991	4.95495	2.04603	2.53878	2.10623	2.6157	2.1638	2.68506			1.9869	2.46695	2.0482	2.53982	2.12829	2.6393	2.19972	2.72737		
0.34406	5.11202	1.99311	2.46625	0.344286	5.14517	2.05032	2.53685	2.11221	2.61563	2.16976	2.68477			1.99212	2.46636	2.05449	2.54036	2.13357	2.6383	2.20346	2.72421		
0.345075	5.26109	1.99835	2.4657	0.345682	5.35052	2.05462	2.53493	2.1182	2.61557	2.17573	2.68449			1.99735	2.4658	2.06078	2.54089	2.1388	2.63724				
0.345955	5.39099	2.00361	2.46517	0.347168	5.57255	2.05892	2.53302	2.1242	2.61553	2.1817	2.68421			2.00261	2.46527	2.06707	2.54141	2.14399	2.63613				
0.346674	5.49823	2.0089	2.46468	0.348737	5.81303	2.06322	2.53114	2.13021	2.6155	2.18767	2.68394			2.00789	2.46477	2.07336	2.54193	2.14911	2.63496				
0.347216	5.57975	2.0142	2.46421	0.35038	6.07403	2.06754	2.52927	2.13623	2.61548	2.19365	2.68367			2.01319	2.46429	2.07964	2.54244	2.15419	2.63373				
0.347723	5.65682	2.01952	2.46377	0.352086	6.35793	2.07186	2.52742	2.14226	2.61547	2.19962	2.68341			2.01851	2.46385	2.08593	2.54295	2.15921	2.63244				
0.348082	5.71166	2.02487	2.46335	0.353847	6.66754	2.07619	2.5256	2.1483	2.61547	2.2056	2.68315			2.02385	2.46343	2.09221	2.54345	2.16418	2.6311				
0.34865	5.79939	2.03023	2.46296	0.355418	6.96088	2.08053	2.52379	2.15434	2.61548					2.02921	2.46303	2.09848	2.54395	2.16908	2.62969				
0.349437	5.9229	2.03561	2.4626	0.356779	7.23025	2.08488	2.52201	2.16038	2.6155					2.03459	2.46267	2.10475	2.54443	2.17394	2.62822				
0.350456	6.0864	2.04102	2.46226	0.357916	7.4678	2.08925	2.52026	2.16644	2.61552					2.03999	2.46232	2.11102	2.54491	2.17873	2.62669				
0.35172	6.29577	2.04644	2.46195	0.358821	7.66594	2.09362	2.51853	2.17249	2.61554					2.04541	2.46201	2.11729	2.54538	2.18347	2.6251				
0.353242	6.5591	2.05188	2.46166	0.359489	7.81785	2.09801	2.51682	2.17855	2.61557					2.05084	2.46171	2.12355	2.54585	2.18816	2.62346				
0.355034	6.88744	2.05734	2.46139	0.360105	7.96253	2.10242	2.51514	2.18461	2.6156					2.0563	2.46144	2.1298	2.5463	2.1928	2.62177				
0.356863	7.24733	2.06281	2.46115	0.360534	8.06608	2.10684	2.51349	2.19067	2.61563					2.06177	2.4612	2.13605	2.54674	2.19739	2.62002				
0.358719	7.64319	2.06831	2.46093	0.361205	8.23287	2.11127	2.51186	2.19674	2.61567					2.06726	2.46097	2.14229	2.54718	2.20193	2.61823				
0.360592	8.08036	2.07382	2.46073	0.362118	8.47004	2.11572	2.51027	2.2028	2.6157					2.07277	2.46077	2.14853	2.54761						
0.362471	8.56534	2.07935	2.46056	0.363271	8.78838	2.12019	2.5087							2.0783	2.46059	2.15476	2.54802						
0.364345	9.10612	2.08489	2.4604	0.36466	9.20363	2.12468	2.50717							2.08384	2.46043	2.16098	2.54842						
0.366201	9.71264	2.09046	2.46027	0.366276	9.73864	2.12918	2.50566							2.0894	2.46029	2.16719	2.54881						
0.368029	10.3974	2.09603	2.46015	0.368102	10.4269	2.13371	2.50419							2.09498	2.46017	2.17339	2.54918						
0.369817	11.1765	2.10163	2.46006	0.369889	11.2102	2.13826	2.50276							2.10057	2.46008	2.17957	2.54954						
0.371554	12.0707	2.10724	2.45998	0.371622	12.1096	2.14285	2.50137							2.10618	2.46	2.18575	2.54988						
0.373226	13.1076	2.11287	2.45992	0.373292	13.1529	2.14747	2.50003							2.1118	2.45993	2.19191	2.5502						
0.374823	14.3245	2.11851	2.45988	0.374886	14.378	2.15214	2.49875							2.11744	2.45989	2.19805	2.5505						
0.376334	15.7731	2.12417	2.45986	0.376393	15.8373	2.1569	2.49759							2.12309	2.45986	2.20418	2.55078						
0.377746	17.5273	2.12984	2.45986	0.377801	17.6059	2.1618	2.4966							2.12876	2.45986								
0.37905	19.6966	2.13552	2.45987	0.3791	19.7949	2.16698	2.49592							2.13444	2.45986								
0.380234	22.4499	2.14122	2.45989	0.380279	22.5765	2.17253	2.49568							2.14014	2.45989								
0.38129	26.0629	2.14693	2.45994	0.381329	26.2324	2.17839	2.4958							2.14585	2.45993								
0.382208	31.0178	2.15266	2.46	0.382242	31.2565	2.18443	2.49612							2.15157	2.45998								
0.382982	38.2414	2.1584	2.46007	0.38301	38.6028	2.19055	2.49654							2.15731	2.46005								
0.383603	49.7705	2.16415	2.46015	0.383625	50.3814	2.19673	2.49701							2.16306	2.46014								
0.384067	71.1231	2.16992	2.46026	0.384083	72.3727	2.20294	2.49751							2.16882	2.46024								
0.38437	124.285	2.1757	2.46037	0.384379	128.143									2.1746	2.46035								
0.384509	489.666	2.18149	2.4605	0.384511	555.473									2.18039	2.46047								
		2.18729	2.46064											2.18619	2.46061								
		2.1931	2.46079											2.192	2.46076								
		2.19892	2.46095											2.19782	2.46092								
		2.20476	2.46113											2.20365	2.46109								
