Sym0		Asym0		Sym1		Sym2		Sym3		Asym1		Asym2		Asym3	
414  Points		430  Points		199  Points		137  Points		122  Points		329  Points		153  Points		111  Points	
Freq (MHz)	Vgr (m/ms)	Freq (MHz)	Vgr (m/ms)	Freq (MHz)	Vgr (m/ms)	Freq (MHz)	Vgr (m/ms)	Freq (MHz)	Vgr (m/ms)	Freq (MHz)	Vgr (m/ms)	Freq (MHz)	Vgr (m/ms)	Freq (MHz)	Vgr (m/ms)
0.00364392	7.44631	0.000283372	0.446611	0.322755	0.0794394	0.444284	0.0617841	0.645501	0.0557379	0.161531	0.505701	0.484135	0.0846855	0.806875	0.038435
0.0105816	7.44511	0.000699477	0.542902	0.322829	0.123057	0.444342	0.107888	0.645553	0.0882892	0.162002	0.672368	0.484214	0.124554	0.806911	0.0585091
0.0175171	7.44197	0.00129501	0.731945	0.322985	0.210113	0.444485	0.200131	0.645666	0.153351	0.162784	1.00237	0.484367	0.204243	0.806984	0.0986631
0.0244489	7.43721	0.00206338	0.913155	0.323221	0.296845	0.444715	0.292552	0.645839	0.218361	0.16387	1.32474	0.484594	0.283786	0.807095	0.138761
0.0313755	7.43078	0.00299657	1.08507	0.323538	0.383152	0.44503	0.385329	0.646073	0.283269	0.165252	1.63738	0.484896	0.363185	0.807243	0.178821
0.0382953	7.42274	0.00408529	1.24661	0.323935	0.468754	0.445433	0.47845	0.646367	0.348047	0.166921	1.93857	0.485271	0.442368	0.807428	0.218876
0.045207	7.41304	0.00531949	1.39705	0.324411	0.553606	0.445922	0.57204	0.646721	0.412709	0.168865	2.22697	0.48572	0.521195	0.807651	0.25885
0.0521087	7.40155	0.00668853	1.53591	0.324966	0.637616	0.446499	0.666204	0.647136	0.477214	0.171071	2.50157	0.486242	0.599672	0.807911	0.298807
0.0589989	7.38832	0.00818149	1.66313	0.325599	0.720676	0.447163	0.761	0.64761	0.541552	0.173526	2.7619	0.486837	0.677819	0.808208	0.338732
0.065876	7.37327	0.00978759	1.77892	0.326309	0.802713	0.447917	0.856477	0.648145	0.605701	0.176217	3.00769	0.487505	0.755523	0.808542	0.378518
0.0727382	7.35629	0.0114963	1.88365	0.327095	0.883657	0.448759	0.952656	0.648739	0.669619	0.179131	3.23881	0.488245	0.832709	0.808913	0.418247
0.0795837	7.33726	0.0132976	1.97775	0.327956	0.963514	0.449692	1.04965	0.649393	0.733295	0.182253	3.45555	0.489057	0.909371	0.809321	0.457934
0.0864104	7.31613	0.0151816	2.06194	0.328891	1.04222	0.450715	1.14748	0.650105	0.796707	0.18557	3.65838	0.48994	0.985498	0.809766	0.497538
0.0932165	7.29284	0.0171398	2.13694	0.329898	1.11981	0.45183	1.24616	0.650877	0.85981	0.18907	3.84769	0.490893	1.06099	0.810248	0.537047
0.0999998	7.26721	0.0191636	2.20336	0.330977	1.19631	0.453037	1.34574	0.651708	0.922588	0.192739	4.02416	0.491917	1.13581	0.810767	0.576442
0.106758	7.23916	0.0212455	2.26202	0.332127	1.27182	0.454338	1.44624	0.652596	0.985082	0.196568	4.18842	0.49301	1.20994	0.811322	0.615755
0.113489	7.20848	0.0233786	2.31365	0.333347	1.34647	0.455732	1.54756	0.653543	1.04723	0.200544	4.34109	0.494171	1.28334	0.811914	0.654976
0.12019	7.17502	0.0255567	2.35895	0.334636	1.42031	0.457221	1.64971	0.654548	1.10898	0.204657	4.48296	0.495401	1.35601	0.812543	0.694087
0.126859	7.13871	0.0277743	2.39852	0.335994	1.49358	0.458806	1.75273	0.65561	1.17036	0.208898	4.61465	0.496698	1.42791	0.813208	0.733052
0.133493	7.09927	0.0300261	2.43298	0.337419	1.56644	0.460487	1.85651	0.656729	1.23138	0.213256	4.73674	0.498062	1.49896	0.813909	0.771942
0.140088	7.05651	0.0323079	2.46293	0.338913	1.63913	0.462266	1.96103	0.657904	1.29198	0.217724	4.84989	0.499491	1.56914	0.814646	0.810759
0.146642	7.01025	0.0346155	2.48884	0.340474	1.71194	0.464141	2.0662	0.659136	1.35208	0.222293	4.95476	0.500986	1.63846	0.81542	0.849428
0.153151	6.96021	0.0369455	2.51122	0.342103	1.78511	0.466116	2.17188	0.660424	1.41179	0.226957	5.05178	0.502544	1.70687	0.816229	0.88802
0.159611	6.90611	0.0392949	2.53057	0.3438	1.85903	0.468189	2.27807	0.661767	1.47108	0.231707	5.14145	0.504166	1.77439	0.817074	0.926459
0.166019	6.84781	0.0413558	2.54515	0.345567	1.93398	0.470361	2.38469	0.663165	1.5299	0.236537	5.22433	0.505851	1.84102	0.817955	0.964812
0.172371	6.78495	0.0431213	2.55612	0.347404	2.01043	0.472632	2.4915	0.664617	1.58821	0.241442	5.30081	0.507597	1.90668	0.818872	1.00307
0.178662	6.71725	0.0445868	2.56427	0.349313	2.08877	0.475003	2.59849	0.666124	1.64601	0.246415	5.37144	0.509404	1.97136	0.819825	1.0412
0.184888	6.64439	0.0457485	2.57007	0.351296	2.16934	0.477474	2.70553	0.667685	1.7034	0.2508	5.42848	0.51127	2.03508	0.820812	1.0793
0.191043	6.56613	0.0466044	2.57416	0.353355	2.25262	0.480045	2.81246	0.669298	1.76023	0.254573	5.47379	0.513196	2.09786	0.821836	1.11726
0.197123	6.48219	0.0471529	2.57662	0.355493	2.33907	0.482715	2.91916	0.670965	1.81653	0.257716	5.5092	0.515179	2.1597	0.822894	1.15511
0.203122	6.39223	0.0479422	2.5799	0.357714	2.42904	0.485484	3.02549	0.672683	1.87239	0.260216	5.53591	0.51722	2.22053	0.823988	1.19287
0.209035	6.29605	0.0488012	2.58328	0.36002	2.52301	0.488353	3.13135	0.674454	1.92771	0.262061	5.5547	0.519317	2.28037	0.825117	1.23059
0.214854	6.19339	0.0499712	2.58757	0.362415	2.6213	0.491319	3.23658	0.676275	1.98245	0.263245	5.56643	0.521469	2.33934	0.826281	1.26824
0.220575	6.08411	0.0514537	2.59253	0.364904	2.7242	0.494384	3.34106	0.678148	2.03672	0.264952	5.58285	0.523676	2.39729	0.82748	1.30582
0.226191	5.96815	0.05325	2.5978	0.367491	2.83207	0.497545	3.4447	0.680071	2.09047	0.266812	5.60009	0.525936	2.4543	0.828714	1.34333
0.231696	5.84544	0.0553615	2.60312	0.370181	2.94498	0.500802	3.5474	0.682043	2.14369	0.269352	5.62263	0.528249	2.51046	0.829983	1.38077
0.237084	5.71603	0.0577894	2.60822	0.372979	3.063	0.504155	3.649	0.684065	2.19638	0.272578	5.64965	0.530614	2.56565	0.831287	1.41817
0.242347	5.58019	0.0602216	2.61245	0.375889	3.18616	0.507602	3.74937	0.686136	2.24852	0.276499	5.68028	0.53303	2.61994	0.832626	1.45553
0.247482	5.43821	0.0626574	2.61581	0.378916	3.31419	0.511142	3.84845	0.688255	2.3002	0.281125	5.71333	0.535496	2.67343	0.834	1.4929
0.252481	5.29057	0.0650959	2.61844	0.382065	3.44678	0.514773	3.94619	0.690422	2.35134	0.286465	5.74777	0.538012	2.72606	0.835408	1.53022
0.25734	5.1378	0.0675366	2.62049	0.385339	3.58349	0.518495	4.0425	0.692636	2.40198	0.291835	5.77861	0.540576	2.77786	0.836851	1.5675
0.262055	4.98074	0.0699789	2.62203	0.388742	3.72352	0.522306	4.13727	0.694898	2.45214	0.297233	5.80597	0.543188	2.82894	0.838329	1.60478
0.266621	4.82028	0.0724224	2.62309	0.391815	3.84772	0.526204	4.23043	0.697206	2.50177	0.302654	5.8299	0.545847	2.87925	0.839841	1.64207
0.271037	4.65741	0.0748667	2.62373	0.394515	3.95487	0.530189	4.32198	0.69956	2.55095	0.308096	5.85062	0.548553	2.92882	0.841389	1.67936
0.2753	4.49317	0.0773115	2.62409	0.396804	4.04395	0.534258	4.41191	0.701959	2.59965	0.313556	5.86823	0.551305	2.97779	0.842971	1.71665
0.279409	4.32868	0.0797564	2.62416	0.39865	4.11461	0.53841	4.50006	0.704404	2.64789	0.319031	5.88283	0.554102	3.02614	0.844587	1.75396
0.283366	4.16516	0.0822013	2.62401	0.400028	4.16667	0.542643	4.58644	0.706893	2.69567	0.324518	5.89455	0.556944	3.07384	0.846239	1.79131
0.287171	4.00371	0.084646	2.62364	0.400919	4.19981	0.546956	4.67107	0.709427	2.74304	0.330015	5.90342	0.55983	3.12106	0.847925	1.82864
0.290826	3.8454	0.0870902	2.62313	0.402212	4.24743	0.551347	4.75391	0.712004	2.79003	0.335518	5.9095	0.56276	3.16781	0.849646	1.86602
0.294336	3.69122	0.0895339	2.62251	0.403634	4.2992	0.555815	4.83493	0.714626	2.83662	0.341026	5.91298	0.565733	3.21408	0.851402	1.90342
0.297704	3.54201	0.0919769	2.62172	0.405595	4.36918	0.560357	4.91412	0.71729	2.88284	0.346536	5.91384	0.568749	3.25995	0.853193	1.94089
0.300936	3.39842	0.0944192	2.62085	0.408121	4.45705	0.564971	4.9915	0.719998	2.92864	0.352046	5.91207	0.571807	3.30555	0.855019	1.97838
0.304037	3.26111	0.0968606	2.61994	0.411242	4.56188	0.569658	5.06702	0.722747	2.97416	0.357553	5.90786	0.574908	3.35084	0.85688	2.01587
0.307013	3.13048	0.0993011	2.61897	0.414996	4.68237	0.574413	5.14071	0.72554	3.01943	0.363055	5.90117	0.578051	3.39585	0.858775	2.05343
0.30987	3.00677	0.101741	2.61794	0.419422	4.81675	0.579237	5.21258	0.728374	3.06434	0.368549	5.89201	0.581236	3.44075	0.860706	2.09105
0.312616	2.89015	0.104179	2.61691	0.423971	4.94612	0.584126	5.28256	0.73125	3.10905	0.374034	5.88043	0.584463	3.48551	0.862672	2.12871
0.315256	2.78062	0.106617	2.61584	0.428639	5.06965	0.58908	5.35074	0.734167	3.15355	0.379507	5.86651	0.587731	3.53014	0.864673	2.16638
0.317797	2.67817	0.109054	2.61476	0.433418	5.18675	0.594097	5.41708	0.737126	3.19782	0.384965	5.85025	0.591041	3.57478	0.866709	2.20408
0.320246	2.58262	0.111489	2.61371	0.438303	5.29698	0.599174	5.48158	0.740126	3.24197	0.390408	5.83157	0.594392	3.61947	0.86878	2.24182
0.32261	2.4937	0.113924	2.6126	0.443288	5.39995	0.604311	5.5443	0.743167	3.28603	0.395832	5.81063	0.597785	3.66417	0.870886	2.27959
0.324893	2.4112	0.116358	2.61149	0.448366	5.49557	0.609506	5.60513	0.746249	3.32998	0.401235	5.78741	0.60122	3.70905	0.873027	2.31735
0.327103	2.33484	0.11879	2.61046	0.453529	5.5837	0.614756	5.66409	0.749372	3.37394	0.406616	5.76185	0.604696	3.75404	0.875204	2.35513
0.329244	2.26429	0.121222	2.60943	0.45877	5.66435	0.62006	5.72123	0.752536	3.41791	0.411972	5.73401	0.608215	3.79919	0.877416	2.39291
0.331322	2.19921	0.123653	2.60837	0.464084	5.73774	0.625417	5.77655	0.755741	3.46191	0.417301	5.70395	0.611316	3.83872	0.879663	2.43067
0.333342	2.13922	0.126082	2.60736	0.469462	5.80399	0.630824	5.82999	0.758987	3.50604	0.422601	5.67163	0.613984	3.87251	0.881945	2.46848
0.335308	2.08405	0.128511	2.60638	0.474899	5.86337	0.63628	5.88149	0.762274	3.55036	0.427869	5.63705	0.616209	3.90068	0.884263	2.50622
0.337225	2.03342	0.130939	2.60538	0.480388	5.91617	0.641783	5.93117	0.765603	3.5949	0.433105	5.60032	0.617979	3.92293	0.886615	2.54392
0.339097	1.98693	0.133366	2.60444	0.485923	5.96264	0.646616	5.97293	0.768973	3.63973	0.438305	5.56144	0.619287	3.93922	0.889003	2.5816
0.340928	1.94428	0.135792	2.60353	0.491498	6.00316	0.650762	6.00733	0.772385	3.68495	0.443468	5.52036	0.620127	3.94981	0.891426	2.61916
0.34272	1.90527	0.138217	2.6026	0.497109	6.03803	0.654209	6.03496	0.775839	3.73056	0.448591	5.47715	0.621338	3.96505	0.893884	2.65672
0.344478	1.86965	0.140642	2.60173	0.50275	6.06762	0.656944	6.05632	0.779336	3.77666	0.453674	5.43192	0.62266	3.9815	0.896376	2.69418
0.346204	1.83709	0.143065	2.60093	0.508415	6.09223	0.658962	6.07177	0.782877	3.82339	0.458713	5.38463	0.624467	4.004	0.898904	2.73152
0.347901	1.80733	0.145488	2.60009	0.514102	6.11212	0.660256	6.08145	0.786461	3.87076	0.463708	5.33535	0.626767	4.03256	0.901466	2.76878
0.349572	1.78027	0.14791	2.59927	0.519805	6.12763	0.66212	6.0951	0.790089	3.91886	0.468655	5.28416	0.62957	4.06721	0.904063	2.80588
0.351218	1.75566	0.150332	2.59849	0.52552	6.13908	0.664151	6.10972	0.793763	3.9678	0.473554	5.23109	0.632889	4.10808	0.906695	2.84287
0.352843	1.73326	0.152752	2.59774	0.531244	6.14668	0.66692	6.12924	0.797483	4.01772	0.478403	5.17629	0.636738	4.15515	0.909361	2.87972
0.354448	1.71298	0.155172	2.59699	0.536974	6.15066	0.670435	6.1532	0.80125	4.06872	0.483199	5.11981	0.640631	4.20241	0.912061	2.91636
0.356035	1.6947	0.157592	2.59629	0.542705	6.15137	0.674704	6.18106	0.805065	4.12082	0.487943	5.06169	0.644569	4.24988	0.914795	2.95286
0.357606	1.67812	0.16001	2.59561	0.548436	6.1489	0.679735	6.21224	0.808928	4.1742	0.492631	5.00205	0.648551	4.29742	0.917563	2.98918
0.358963	1.66496	0.162428	2.59498	0.554163	6.14346	0.685539	6.24597	0.812843	4.22895	0.497264	4.94103	0.652577	4.34507	0.920365	3.02526
0.360112	1.65473	0.164846	2.59433	0.559884	6.13531	0.691374	6.27748	0.816809	4.2852	0.501838	4.87873	0.656647	4.3927	0.9232	3.06116
0.361056	1.64688	0.167263	2.59368	0.565596	6.12458	0.697237	6.30664	0.820828	4.34308	0.506355	4.81529	0.660762	4.44028	0.926069	3.09679
0.3618	1.64113	0.169679	2.5931	0.571296	6.11145	0.703125	6.33334	0.824375	4.39485	0.510811	4.75075	0.664921	4.48772	0.928971	3.13217
0.362346	1.63699	0.172095	2.59255	0.576984	6.09605	0.709038	6.35756	0.827432	4.4401	0.515207	4.68534	0.669124	4.53489	0.931906	3.16732
0.362694	1.63443	0.17451	2.59198	0.582655	6.07851	0.714972	6.3792	0.829984	4.47831	0.519542	4.6192	0.673371	4.58176	0.934873	3.20224
0.363194	1.63091	0.176924	2.5914	0.58831	6.059	0.720925	6.39811	0.832017	4.50912	0.523815	4.55236	0.677662	4.62819	0.937873	3.23687
0.363736	1.62723	0.179339	2.5909	0.593946	6.03753	0.726894	6.4143	0.833522	4.53205	0.528025	4.48507	0.681996	4.67415	0.940904	3.27117
0.364471	1.62261	0.181752	2.59039	0.59956	6.01431	0.732877	6.4276	0.834488	4.54686	0.532172	4.41748	0.686372	4.7195	0.943968	3.30522
0.365398	1.61708	0.184165	2.58987	0.605153	5.98944	0.738871	6.43787	0.835884	4.56843	0.536256	4.34962	0.69079	4.76412	0.947063	3.33895
0.366515	1.61096	0.186578	2.58944	0.610721	5.96291	0.744874	6.44514	0.837408	4.59214	0.540277	4.28171	0.695249	4.80792	0.95019	3.37236
0.36782	1.60447	0.188991	2.58896	0.616264	5.93488	0.750881	6.44924	0.839493	4.62479	0.544235	4.21388	0.699749	4.85077	0.953347	3.4055
0.369312	1.59793	0.191402	2.5885	0.62178	5.90542	0.756891	6.45009	0.842152	4.66688	0.548129	4.14627	0.704288	4.89263	0.956536	3.4383
0.370798	1.59232	0.193814	2.58809	0.627268	5.87461	0.7629	6.44762	0.8454	4.71897	0.551961	4.079	0.708866	4.93341	0.959754	3.47079
0.372279	1.58753	0.196225	2.58767	0.632727	5.8425	0.768905	6.44169	0.849256	4.78175	0.55573	4.01218	0.713481	4.97291	0.962584	3.49886
0.373756	1.58353	0.198636	2.58727	0.638155	5.80917	0.774904	6.43236	0.853745	4.85599	0.559437	3.94593	0.718132	5.01116	0.965013	3.52258
0.37523	1.58028	0.201046	2.58689	0.643552	5.77466	0.780891	6.41964	0.858305	4.9327	0.563083	3.88035	0.722819	5.04808	0.967035	3.54208
0.376701	1.57775	0.203456	2.58651	0.648915	5.73903	0.786866	6.40339	0.862937	5.01185	0.566668	3.81559	0.727539	5.0835	0.968642	3.55736
0.37817	1.57582	0.205866	2.58611	0.654246	5.70231	0.792823	6.38365	0.867644	5.09347	0.570193	3.75165	0.732291	5.11739	0.969827	3.56848
0.379637	1.57449	0.208275	2.58576	0.659541	5.66462	0.798761	6.3606	0.872428	5.17749	0.573658	3.68869	0.737074	5.14975	0.970588	3.57568
0.381104	1.57371	0.210684	2.58544	0.664801	5.62596	0.804676	6.33432	0.877291	5.26374	0.577066	3.62682	0.741887	5.18051	0.971684	3.58602
0.382569	1.57343	0.213093	2.58509	0.670024	5.58634	0.810564	6.30495	0.882236	5.35213	0.580417	3.56596	0.746728	5.20959	0.972879	3.59703
0.384035	1.57362	0.215501	2.58477	0.675211	5.54592	0.816424	6.27273	0.887265	5.44243	0.583711	3.50628	0.751595	5.23698	0.97451	3.61205
0.385502	1.57427	0.217909	2.58447	0.680359	5.50465	0.822253	6.23787	0.892378	5.53434	0.58695	3.44783	0.756486	5.26261	0.976583	3.631
0.386969	1.57529	0.220317	2.58417	0.685468	5.46259	0.828048	6.20066	0.897577	5.62762	0.590136	3.39059	0.761401	5.28645	0.979104	3.65363
0.388437	1.57671	0.222725	2.58387	0.690538	5.41981	0.833807	6.16155	0.902864	5.72182	0.593268	3.33465	0.766337	5.30855	0.982081	3.68
0.389907	1.57852	0.225132	2.58354	0.695567	5.37633	0.839529	6.12087	0.908239	5.81661	0.596349	3.28003	0.771293	5.32891	0.985524	3.70996
0.391379	1.5806	0.227539	2.58327	0.700556	5.33226	0.845213	6.07899	0.913703	5.91157	0.59938	3.22671	0.776267	5.34743	0.988994	3.73963
0.392852	1.58299	0.229945	2.58302	0.705503	5.28755	0.850857	6.03645	0.919255	6.00626	0.602362	3.17471	0.781257	5.36417	0.992492	3.76896
0.394328	1.58573	0.232352	2.58275	0.710408	5.24227	0.856461	5.9936	0.924895	6.10018	0.605296	3.12406	0.786262	5.37912	0.996017	3.79795
0.395807	1.58867	0.234758	2.5825	0.715271	5.19649	0.862025	5.95087	0.930622	6.19292	0.608183	3.07479	0.791281	5.39232	0.999569	3.82669
0.397289	1.59186	0.237164	2.58227	0.720092	5.15023	0.86755	5.90874	0.936435	6.28408	0.611025	3.02683	0.79631	5.40378	1.00315	3.841
0.398773	1.59533	0.23957	2.58201	0.724868	5.1036	0.873035	5.86757	0.942331	6.37324	0.613823	2.98021	0.80135	5.41343		
0.400261	1.59893	0.241975	2.58177	0.729602	5.05655	0.878483	5.82765	0.94831	6.46007	0.616579	2.93493	0.806398	5.42141		
0.401753	1.60274	0.244381	2.58157	0.734291	5.00918	0.883895	5.7893	0.954369	6.54429	0.619292	2.89098	0.811452	5.4277		
0.403248	1.60677	0.246786	2.58133	0.738936	4.96155	0.889271	5.75284	0.960505	6.62562	0.621966	2.84831	0.816512	5.43228		
0.404747	1.61098	0.249191	2.5811	0.743536	4.91367	0.894614	5.71835	0.966715	6.70382	0.6246	2.80687	0.821575	5.43526		
0.40625	1.61529	0.251595	2.58091	0.748092	4.86564	0.899927	5.68599	0.972997	6.77881	0.627196	2.76675	0.82664	5.43661		
0.407757	1.61975	0.254	2.58071	0.752603	4.81741	0.90521	5.65589	0.979347	6.85047	0.629755	2.72786	0.831705	5.43637		
0.409268	1.62436	0.256404	2.58049	0.757068	4.76909	0.910466	5.62802	0.985762	6.91868	0.632279	2.69014	0.83677	5.4346		
0.410783	1.62908	0.258808	2.58028	0.761489	4.72073	0.915697	5.60244	0.992239	6.9835	0.634768	2.65363	0.841832	5.43126		
0.412304	1.63393	0.261212	2.5801	0.765865	4.67237	0.920905	5.5791	0.998775	7.04499	0.637224	2.61831	0.84689	5.42648		
0.413828	1.63885	0.263616	2.57993	0.770196	4.62403	0.926093	5.55788	1.00537	7.07489	0.639647	2.5841	0.851944	5.42024		
0.415357	1.64383	0.26602	2.57974	0.774481	4.57576	0.931262	5.53866			0.642039	2.55095	0.85699	5.41258		
0.416891	1.64896	0.268423	2.57957	0.778722	4.52767	0.936414	5.52143			0.6444	2.51892	0.862029	5.40355		
0.41843	1.65416	0.270827	2.57941	0.782918	4.47972	0.94155	5.50601			0.646733	2.48797	0.867059	5.39318		
0.419974	1.6594	0.27323	2.57923	0.78707	4.4319	0.946673	5.49218			0.649037	2.45799	0.872079	5.38151		
0.421522	1.66473	0.275633	2.57906	0.791177	4.38437	0.951784	5.47988			0.651313	2.42905	0.877087	5.36853		
0.423076	1.67006	0.278035	2.5789	0.795239	4.33713	0.956885	5.46893			0.653563	2.40106	0.882083	5.35435		
0.424634	1.67548	0.280438	2.57875	0.799258	4.29018	0.961975	5.45925			0.655787	2.37396	0.887064	5.33895		
0.426198	1.68097	0.282841	2.5786	0.803234	4.24356	0.967057	5.4506			0.657986	2.34785	0.892031	5.32243		
0.427766	1.68646	0.285243	2.57845	0.807166	4.19733	0.972132	5.44287			0.660162	2.3226	0.896982	5.30479		
0.42934	1.69199	0.287645	2.5783	0.811055	4.15151	0.977199	5.436			0.662314	2.29818	0.901916	5.28601		
0.430919	1.69754	0.290047	2.57816	0.814902	4.10608	0.982261	5.42974			0.664444	2.27465	0.906832	5.26622		
0.432503	1.70313	0.292449	2.57805	0.818706	4.06113	0.987317	5.42398			0.666553	2.2519	0.911729	5.24545		
0.434093	1.70875	0.294851	2.57788	0.822469	4.01665	0.992368	5.41872			0.668641	2.22995	0.916606	5.22367		
0.435687	1.71438	0.297253	2.57776	0.826191	3.97265	0.997414	5.41378			0.670708	2.20875	0.921463	5.20092		
0.437287	1.72005	0.299655	2.57763	0.829872	3.92916	1.00246	5.41133			0.672756	2.1883	0.926298	5.17735		
0.438893	1.72567	0.302056	2.57749	0.833512	3.88621					0.674786	2.16856	0.93111	5.15293		
0.440503	1.73133	0.304458	2.57738	0.837113	3.84382					0.676797	2.14953	0.9359	5.12761		
0.442119	1.73699	0.306859	2.57726	0.840675	3.80201					0.678791	2.13119	0.940665	5.10158		
0.44374	1.74263	0.30926	2.57716	0.844198	3.76075					0.680768	2.11345	0.945406	5.0748		
0.445366	1.74831	0.311661	2.57704	0.847683	3.72005					0.682729	2.09634	0.950121	5.04731		
0.446997	1.75397	0.314062	2.5769	0.85113	3.67996					0.684675	2.07987	0.954811	5.01917		
0.448634	1.75962	0.316463	2.5768	0.85454	3.64043					0.686605	2.06402	0.959474	4.99038		
0.450276	1.76523	0.318864	2.57671	0.857913	3.60151					0.688521	2.04874	0.96411	4.961		
0.451924	1.77085	0.321264	2.57659	0.861251	3.56323					0.690423	2.03399	0.968718	4.93108		
0.453576	1.77648	0.323665	2.57646	0.864553	3.52556					0.692311	2.01981	0.973298	4.90071		
0.455234	1.78212	0.326065	2.57636	0.86782	3.48849					0.694186	2.00612	0.97785	4.86984		
0.456897	1.78768	0.328466	2.57627	0.871053	3.45201					0.696049	1.99294	0.982373	4.83852		
0.458565	1.79321	0.330866	2.57619	0.874253	3.41615					0.6979	1.98028	0.986866	4.80682		
0.460238	1.7988	0.333266	2.57607	0.877419	3.3809					0.699739	1.96808	0.99133	4.77478		
0.461917	1.80434	0.335666	2.57598	0.880553	3.34625					0.701567	1.95635	0.995763	4.74239		
0.463601	1.80982	0.338066	2.5759	0.883654	3.31222					0.703385	1.94506	1.00017	4.7261		
0.465289	1.81526	0.340466	2.57578	0.886725	3.27877					0.705192	1.93421				
0.466983	1.82074	0.342866	2.57572	0.889764	3.24589					0.706989	1.92374				
0.468682	1.82618	0.345266	2.57562	0.892773	3.21363					0.708776	1.9137				
0.470386	1.83158	0.347665	2.5755	0.895752	3.18194					0.710555	1.90411				
0.472095	1.83695	0.350065	2.57544	0.898702	3.15082					0.712324	1.89484				
0.473809	1.84227	0.352464	2.57537	0.901623	3.12032					0.714086	1.88592				
0.475528	1.84761	0.354864	2.5753	0.904517	3.09035					0.715839	1.8774				
0.477252	1.85291	0.357263	2.57523	0.907382	3.06093					0.717584	1.86922				
0.478981	1.85813	0.359662	2.57512	0.91022	3.03209					0.719322	1.8614				
0.480714	1.86333	0.362061	2.57503	0.913032	3.00375					0.721052	1.85386				
0.482453	1.86857	0.364461	2.57498	0.915817	2.97596					0.722776	1.84665				
0.484196	1.87372	0.36686	2.57488	0.918577	2.94873					0.724493	1.83978				
0.485944	1.87882	0.369259	2.5748	0.921312	2.92201					0.726204	1.83316				
0.487697	1.88394	0.371657	2.57476	0.924022	2.89576					0.727909	1.82681				
0.489455	1.88902	0.374056	2.57466	0.926708	2.87003					0.729608	1.82078				
0.491217	1.89405	0.376455	2.57458	0.92937	2.84483					0.731302	1.81506				
0.492984	1.89902	0.378854	2.57454	0.932009	2.82014					0.732991	1.80952				
0.494756	1.90396	0.381252	2.57448	0.934625	2.7959					0.734674	1.80426				
0.496532	1.90888	0.383651	2.57438	0.937219	2.77209					0.736353	1.79929				
0.498313	1.91376	0.38605	2.57433	0.939791	2.7488					0.738027	1.7945				
0.500098	1.91862	0.388448	2.57426	0.942341	2.72595					0.739697	1.78994				
0.501888	1.92346	0.390846	2.5742	0.94487	2.70358					0.741362	1.78561				
0.503682	1.92823	0.393245	2.57416	0.947379	2.68166					0.743024	1.78154				
0.505481	1.93296	0.395643	2.57407	0.949867	2.66012					0.744682	1.77764				
0.507284	1.93766	0.398041	2.57399	0.952336	2.63902					0.746336	1.77393				
0.509091	1.94236	0.400439	2.57395	0.954785	2.61836					0.747987	1.77046				
0.510903	1.94698	0.402838	2.57389	0.957215	2.59811					0.749635	1.76719				
0.512719	1.95156	0.405236	2.57383	0.959626	2.57828					0.75128	1.76406				
0.51454	1.95616	0.407634	2.57376	0.962019	2.55884					0.752922	1.7611				
0.516364	1.96065	0.410031	2.57372	0.964394	2.53978					0.754562	1.75837				
0.518193	1.96513	0.412429	2.57367	0.966752	2.5211					0.756199	1.7558				
0.520026	1.96965	0.414827	2.57361	0.969092	2.50282					0.757834	1.75334				
0.521863	1.97402	0.417225	2.57354	0.971415	2.48493					0.759466	1.75105				
0.523705	1.97841	0.419623	2.57347	0.973722	2.46734					0.761097	1.74895				
0.52555	1.98277	0.42202	2.57347	0.976013	2.45016					0.762725	1.74699				
0.527399	1.98707	0.424418	2.5734	0.978288	2.43337					0.764352	1.7452				
0.529253	1.99138	0.426816	2.57332	0.980547	2.41684					0.765977	1.7435				
0.53111	1.99559	0.429213	2.57329	0.982791	2.40067					0.767601	1.74192				
0.532971	1.99978	0.431611	2.57323	0.985021	2.38489					0.769223	1.74054				
0.534836	2.00399	0.434008	2.5732	0.987235	2.36942					0.770844	1.73927				
0.536705	2.00812	0.436406	2.57312	0.989436	2.35422					0.772464	1.73808				
0.538578	2.01219	0.438803	2.57307	0.991622	2.33936					0.774083	1.73705				
0.540455	2.01628	0.4412	2.57305	0.993795	2.32487					0.775701	1.73613				
0.542335	2.02031	0.443597	2.57297	0.995954	2.31063					0.777318	1.73527				
0.54422	2.02429	0.445995	2.57293	0.998101	2.29669					0.778934	1.73458				
0.546107	2.02827	0.448392	2.5729	1.00023	2.28983					0.78055	1.73402				
0.547999	2.03219	0.450789	2.57286							0.782165	1.73351				
0.549894	2.03606	0.453186	2.5728							0.78378	1.73308				
0.551793	2.03994	0.455583	2.57277							0.785395	1.73279				
0.553695	2.04378	0.45798	2.57272							0.787009	1.73261				
0.555601	2.04757	0.460377	2.57265							0.788623	1.73244				
0.557511	2.05133	0.462774	2.57262							0.790237	1.73244				
0.559424	2.05508	0.465171	2.57261							0.791851	1.73251				
0.56134	2.05878	0.467568	2.57256							0.793466	1.73261				
0.56326	2.06243	0.469965	2.5725							0.79508	1.73285				
0.565183	2.06605	0.472361	2.57244							0.796695	1.73315				
0.56711	2.06965	0.474758	2.5724							0.79831	1.73352				
0.56904	2.07321	0.477155	2.57239							0.799925	1.73396				
0.570973	2.07675	0.479551	2.57234							0.801541	1.73444				
0.57291	2.08027	0.481948	2.57228							0.803157	1.73505				
0.57485	2.08372	0.484345	2.57225							0.804774	1.73568				
0.576792	2.08717	0.486741	2.57224							0.806391	1.73636				
0.578739	2.09061	0.489138	2.57216							0.808009	1.73718				
0.580688	2.09398	0.491534	2.57212							0.809628	1.73799				
0.582641	2.09731	0.493931	2.57214							0.811248	1.73887				
0.584596	2.10063	0.496327	2.57207							0.812868	1.73982				
0.586555	2.10393	0.498723	2.572							0.81449	1.74081				
0.588517	2.10723	0.50112	2.572							0.816112	1.74186				
0.590481	2.11046	0.503516	2.57197							0.817735	1.74296				
0.592449	2.11365	0.505912	2.57191							0.81936	1.7441				
0.59442	2.11681	0.508308	2.57189							0.820985	1.7453				
0.596394	2.11997	0.510705	2.57184							0.822612	1.74655				
0.59837	2.12309	0.513101	2.57181							0.82424	1.74784				
0.60035	2.12619	0.515497	2.5718							0.825869	1.74918				
0.602332	2.12927	0.517893	2.57175							0.827499	1.75051				
0.604318	2.13232	0.520289	2.5717							0.829131	1.75194				
0.606306	2.13531	0.522685	2.57167							0.830764	1.75339				
0.608296	2.13826	0.525081	2.57165							0.832398	1.75485				
0.61029	2.14124	0.527477	2.57161							0.834034	1.75642				
0.612286	2.1442	0.529873	2.57159							0.835671	1.75797				
0.614286	2.14711	0.532269	2.57154							0.83731	1.75956				
0.616287	2.14999	0.534665	2.57152							0.83895	1.76115				
0.618292	2.15282	0.537061	2.57147							0.840591	1.76279				
0.620299	2.15563	0.539456	2.57144							0.842234	1.76453				
0.622309	2.15846	0.541852	2.57143							0.843879	1.76624				
0.624321	2.16127	0.544248	2.57135							0.845526	1.76794				
0.626336	2.16399	0.546644	2.57135							0.847174	1.7697				
0.628353	2.1667	0.549039	2.57135							0.848823	1.77154				
0.630373	2.16945	0.551435	2.57127							0.850475	1.77337				
0.632396	2.17211	0.553831	2.57124							0.852128	1.7752				
0.634421	2.17476	0.556226	2.57125							0.853783	1.77703				
0.636448	2.1774	0.558622	2.57123							0.855439	1.77894				
0.638478	2.18	0.561018	2.57118							0.857097	1.78088				
0.64051	2.18262	0.563413	2.57111							0.858758	1.78276				
0.642545	2.18518	0.565809	2.57108							0.860419	1.78473				
0.644582	2.1877	0.568204	2.5711							0.862083	1.7867				
0.646622	2.19024	0.570599	2.57108							0.863749	1.78868				
0.648664	2.19272	0.572995	2.57103							0.865416	1.79073				
0.650708	2.19517	0.57539	2.571							0.867086	1.79274				
0.652754	2.19764	0.577786	2.57096							0.868757	1.79474				
0.654803	2.20008	0.580181	2.57093							0.87043	1.7968				
0.656854	2.20251	0.582576	2.57092							0.872105	1.79889				
0.658907	2.2049	0.584972	2.57088							0.873782	1.801				
0.660962	2.20726	0.587367	2.57085							0.875461	1.80308				
0.66302	2.20962	0.589762	2.57084							0.877142	1.80518				
0.66508	2.2119	0.592157	2.5708							0.878825	1.80729				
0.667141	2.21421	0.594553	2.57078							0.880509	1.80941				
0.669205	2.21653	0.596948	2.57073							0.882196	1.8116				
0.671272	2.21879	0.599343	2.57071							0.883885	1.81376				
0.67334	2.22106	0.601738	2.5707							0.885576	1.81591				
0.67541	2.22329	0.604133	2.57066							0.887269	1.81808				
0.677483	2.22547	0.606528	2.57067							0.888964	1.82026				
0.679557	2.22766	0.608923	2.57064							0.890661	1.82245				
0.681634	2.22981	0.611318	2.57059							0.89236	1.82464				
0.683712	2.23195	0.613713	2.57057							0.894061	1.82684				
0.685793	2.23412	0.616108	2.57052							0.895764	1.82907				
0.687875	2.23623	0.618503	2.57049							0.897469	1.83132				
0.68996	2.23831	0.620898	2.57052							0.899176	1.83355				
0.692046	2.24041	0.623293	2.57049							0.900886	1.83576				
0.694135	2.24249	0.625688	2.57044							0.902597	1.838				
0.696225	2.24452	0.628083	2.57038							0.904311	1.84025				
0.698317	2.24652	0.630477	2.57039							0.906026	1.84248				
0.700411	2.24851	0.632872	2.57039							0.907744	1.84473				
0.702507	2.25053	0.635267	2.57032							0.909464	1.84703				
0.704605	2.25253	0.637662	2.57032							0.911186	1.84927				
0.706704	2.25444	0.640057	2.57028							0.91291	1.85153				
0.708805	2.25639	0.642451	2.57027							0.914636	1.8538				
0.710909	2.25832	0.644846	2.57026							0.916364	1.85606				
0.713014	2.26023	0.647241	2.57022							0.918094	1.85837				
0.71512	2.2621	0.649635	2.57019							0.919827	1.86062				
0.717229	2.26399	0.65203	2.57018							0.921561	1.86288				
0.719339	2.26585	0.654425	2.57014							0.923298	1.86518				
0.721451	2.26766	0.656819	2.57012							0.925037	1.86743				
0.723565	2.26952	0.659214	2.57011							0.926778	1.86973				
0.72568	2.27136	0.661608	2.57007							0.928521	1.87201				
0.727797	2.27316	0.664003	2.57005							0.930266	1.87429				
0.729916	2.2749	0.666397	2.57004							0.932013	1.8766				
0.732036	2.27665	0.668792	2.57003							0.933763	1.87882				
0.734158	2.27841	0.671186	2.56999							0.935514	1.8811				
0.736282	2.28016	0.673581	2.56997							0.937268	1.88341				
0.738407	2.28188	0.675975	2.56993							0.939024	1.8857				
0.740534	2.28359	0.678369	2.5699							0.940782	1.88798				
0.742662	2.28532	0.680764	2.56993							0.942542	1.89022				
0.744792	2.28699	0.683158	2.56987							0.944304	1.89251				
0.746924	2.28863	0.685552	2.56984							0.946069	1.89479				
0.749057	2.29029	0.687947	2.56986							0.947835	1.89703				
0.751191	2.29193	0.690341	2.5698							0.949603	1.89933				
0.753327	2.29355	0.692735	2.56977							0.951374	1.90161				
0.755465	2.29517	0.69513	2.56979							0.953147	1.90388				
0.757604	2.29675	0.697524	2.56976							0.954922	1.90612				
0.759745	2.29834	0.699918	2.56971							0.956699	1.90837				
0.761887	2.29995	0.702312	2.56969							0.958478	1.91063				
0.764031	2.30148	0.704706	2.56967							0.960259	1.91286				
0.766176	2.30302	0.707101	2.56967							0.962042	1.91515				
0.768322	2.30455	0.709495	2.56966							0.963828	1.91739				
0.77047	2.30609	0.711889	2.56963							0.965615	1.91961				
0.772619	2.30759	0.714283	2.56957							0.967405	1.92186				
0.77477	2.30907	0.716677	2.56958							0.969196	1.92411				
0.776922	2.31059	0.719071	2.56958							0.97099	1.92634				
0.779075	2.31207	0.721465	2.56955							0.972786	1.92855				
0.78123	2.31351	0.723859	2.5695							0.974584	1.9308				
0.783386	2.31497	0.726253	2.56947							0.976384	1.93298				
0.785544	2.31639	0.728647	2.56949							0.978186	1.93521				
0.787703	2.31779	0.731041	2.56947							0.97999	1.93745				
0.789863	2.31927	0.733435	2.56942							0.981796	1.93964				
0.792024	2.32066	0.735829	2.56939							0.983604	1.94183				
0.794187	2.32202	0.738223	2.56938							0.985414	1.94403				
0.796351	2.32343	0.740617	2.56937							0.987226	1.94622				
0.798517	2.32479	0.74301	2.56937							0.989041	1.94838				
0.800683	2.32614	0.745404	2.56933							0.990857	1.95056				
0.802851	2.3275	0.747798	2.56931							0.992675	1.95279				
0.80502	2.32881	0.750192	2.5693							0.994496	1.95496				
0.80719	2.33016	0.752586	2.56926							0.996318	1.95711				
0.809362	2.33149	0.75498	2.56924							0.998143	1.95925				
0.811535	2.33278	0.757373	2.56923							0.999969	1.96141				
0.813709	2.33408	0.759767	2.56919							1.0018	1.96253				
0.815884	2.33536	0.762161	2.56917												
0.818061	2.33662	0.764554	2.5692												
0.820238	2.33791	0.766948	2.56917												
0.822417	2.33917	0.769342	2.56912												
0.824597	2.34039	0.771735	2.5691												
0.826778	2.34163	0.774129	2.56909												
0.82896	2.34286	0.776523	2.56908												
0.831144	2.34411	0.778916	2.56904												
0.833328	2.34531	0.78131	2.56902												
0.835514	2.3465	0.783703	2.56905												
0.837701	2.34768	0.786097	2.56899												
0.839889	2.34886	0.78849	2.56896												
0.842078	2.35003	0.790884	2.56898												
0.844268	2.35121	0.793277	2.56895												
0.846459	2.35234	0.795671	2.56891												
0.848651	2.3535	0.798064	2.56888												
0.850844	2.35462	0.800458	2.5689												
0.853039	2.35573	0.802851	2.56888												
0.855234	2.35688	0.805244	2.56883												
0.85743	2.358	0.807638	2.56881												
0.859628	2.35911	0.810031	2.56879												
0.861826	2.36017	0.812424	2.56879												
0.864026	2.36126	0.814818	2.56879												
0.866226	2.36235	0.817211	2.56875												
0.868428	2.36341	0.819604	2.56873												
0.87063	2.36448	0.821998	2.56872												
0.872834	2.36554	0.824391	2.56871												
0.875038	2.36654	0.826784	2.56867												
0.877244	2.36759	0.829177	2.56866												
0.87945	2.36866	0.831571	2.56865												
0.881657	2.36968	0.833964	2.5686												
0.883866	2.37066	0.836357	2.56862												
0.886075	2.37166	0.83875	2.56859												
0.888285	2.37268	0.841143	2.56858												
0.890496	2.37366	0.843536	2.56857												
0.892708	2.37467	0.845929	2.56853												
0.894921	2.37564	0.848322	2.56851												
0.897135	2.37661	0.850716	2.5685												
0.89935	2.37757	0.853109	2.56846												
0.901565	2.37852	0.855502	2.56844												
0.903782	2.37948	0.857895	2.56846												
0.905999	2.38039	0.860288	2.56844												
0.908217	2.38133	0.862681	2.56839												
0.910436	2.38227	0.865074	2.56837												
0.912656	2.38322	0.867466	2.56836												
0.914877	2.38413	0.869859	2.56835												
0.917099	2.38503	0.872252	2.56835												
0.919321	2.38592	0.874645	2.56834												
0.921545	2.3868	0.877038	2.56831												
0.923769	2.38772	0.879431	2.56829												
0.925994	2.38861	0.881824	2.56828												
0.92822	2.38947	0.884217	2.56824												
0.930447	2.39033	0.886609	2.56822												
0.932674	2.3912	0.889002	2.56821												
0.934902	2.39204	0.891395	2.5682												
0.937131	2.3929	0.893788	2.56816												
0.939361	2.39377	0.896181	2.56814												
0.941592	2.39461	0.898573	2.56817												
0.943823	2.39543	0.900966	2.56815												
0.946055	2.39624	0.903359	2.5681												
0.948288	2.39709	0.905751	2.56807												
0.950522	2.39788	0.908144	2.56806												
0.952757	2.39868	0.910537	2.56806												
0.954992	2.39951	0.912929	2.56805												
0.957228	2.40034	0.915322	2.56801												
0.959465	2.40111	0.917715	2.568												
0.961702	2.40187	0.920107	2.56799												
0.96394	2.40269	0.9225	2.56798												
0.966179	2.40346	0.924892	2.56794												
0.968419	2.40421	0.927285	2.56792												
0.970659	2.40499	0.929677	2.56795												
0.9729	2.40575	0.93207	2.56789												
0.975142	2.40649	0.934462	2.56786												
0.977384	2.40727	0.936855	2.56788												
0.979628	2.40802	0.939247	2.56786												
0.981872	2.40873	0.94164	2.56784												
0.984116	2.40948	0.944032	2.56784												
0.986361	2.41023	0.946425	2.5678												
0.988607	2.41093	0.948817	2.56778												
0.990854	2.41165	0.951209	2.56777												
0.993101	2.41237	0.953602	2.56773												
0.995349	2.4131	0.955994	2.5677												
0.997598	2.41379	0.958386	2.56773												
0.999847	2.41447	0.960779	2.56771												
1.0021	2.41482	0.963171	2.56766												
		0.965563	2.56767												
		0.967956	2.56768												
		0.970348	2.56761												
		0.97274	2.56761												
		0.975132	2.56761												
		0.977525	2.56757												
		0.979917	2.56756												
		0.982309	2.56755												
		0.984701	2.56754												
		0.987093	2.5675												
		0.989485	2.56748												
		0.991877	2.56747												
		0.99427	2.56747												
		0.996662	2.56747												
		0.999054	2.56743												
		1.00145	2.56739												
