Sym0		Asym0		Sym1		Sym2		Sym3		Asym1		Asym2	
392  Points		402  Points		217  Points		143  Points		125  Points		323  Points		164  Points	
Freq (MHz)	Vph (m/ms)	Freq (MHz)	Vph (m/ms)	Freq (MHz)	Vph (m/ms)	Freq (MHz)	Vph (m/ms)	Freq (MHz)	Vph (m/ms)	Freq (MHz)	Vph (m/ms)	Freq (MHz)	Vph (m/ms)
0.00459746	7.44712	0.000411542	0.210549	0.381875	558.87	0.444283	6005.88	0.763767	1879.74	0.191008	291.596	0.572829	1166.2
0.0109306	7.44657	0.000844817	0.301169	0.38185	248.954	0.444365	480.658	0.763801	607.719	0.191296	127.06	0.572871	426.971
0.0172617	7.4456	0.00142839	0.390735	0.381807	160.132	0.444584	250.469	0.763871	362.479	0.191809	81.4103	0.572954	261.357
0.0235899	7.4442	0.00215833	0.478973	0.381748	118.011	0.444941	169.467	0.763975	258.286	0.192544	60.0464	0.573076	188.342
0.0299139	7.44234	0.0030298	0.565611	0.381674	93.4246	0.445433	128.144	0.764115	200.64	0.193498	47.6936	0.573238	147.239
0.0362326	7.44006	0.00403733	0.650427	0.381588	77.3089	0.446059	103.098	0.76429	164.049	0.194666	39.666	0.57344	120.882
0.0425447	7.4373	0.00517491	0.733227	0.381493	65.9292	0.446816	86.3065	0.7645	138.762	0.196041	34.0459	0.573681	102.547
0.0488492	7.43409	0.00643597	0.813832	0.381392	57.4653	0.4477	74.275	0.764746	120.244	0.197619	29.903	0.573962	89.0579
0.0551447	7.43041	0.0078138	0.892114	0.38129	50.924	0.448709	65.2372	0.765026	106.1	0.19939	26.7309	0.574282	78.7191
0.06143	7.42626	0.00930138	0.96796	0.381189	45.7174	0.449838	58.2041	0.765341	94.944	0.201349	24.2306	0.574641	70.5441
0.0677039	7.42162	0.0108918	1.0413	0.381094	41.4753	0.451085	52.5792	0.765691	85.9218	0.203487	22.2142	0.57504	63.9191
0.073965	7.41649	0.0125779	1.11208	0.38101	37.953	0.452445	47.981	0.766076	78.4753	0.205796	20.5576	0.575478	58.4426
0.0802117	7.41085	0.0143531	1.18027	0.380938	34.9821	0.453915	44.1544	0.766496	72.2256	0.208269	19.1754	0.575954	53.8406
0.0864428	7.40469	0.0162106	1.24588	0.380885	32.4433	0.455491	40.9221	0.76695	66.9063	0.210896	18.0072	0.576469	49.9198
0.0926567	7.39798	0.0181441	1.30892	0.380853	30.2492	0.457169	38.1572	0.767439	62.3247	0.213671	17.0089	0.577023	46.54
0.0988518	7.39073	0.0201474	1.36942	0.380847	28.3346	0.458947	35.7665	0.767963	58.3378	0.216584	16.1476	0.577616	43.5971
0.105026	7.3829	0.0222148	1.42742	0.38087	26.65	0.460819	33.6801	0.768521	54.8372	0.21963	15.3982	0.578247	41.0119
0.111179	7.37448	0.0243408	1.48298	0.380927	25.1568	0.462784	31.8442	0.769113	51.7395	0.222799	14.7414	0.578915	38.7235
0.117307	7.36544	0.0265203	1.53617	0.38102	23.8247	0.464838	30.2171	0.76974	48.9793	0.226086	14.1619	0.579622	36.6838
0.123409	7.35577	0.0287487	1.58706	0.381153	22.6296	0.466978	28.7658	0.770401	46.5045	0.229483	13.6476	0.580367	34.8547
0.129483	7.34544	0.0310213	1.63572	0.38133	21.5518	0.469202	27.4639	0.771096	44.2735	0.232984	13.1887	0.581149	33.2056
0.135527	7.33441	0.0333341	1.68223	0.381553	20.5754	0.471507	26.29	0.771825	42.252	0.236583	12.7773	0.581968	31.7113
0.141538	7.32267	0.0356833	1.72667	0.381828	19.6872	0.47389	25.2266	0.772588	40.4122	0.240273	12.4067	0.582825	30.3514
0.147514	7.31019	0.0380655	1.76913	0.382156	18.8764	0.47635	24.2592	0.773385	38.7308	0.244049	12.0715	0.583718	29.1086
0.153452	7.29692	0.0404774	1.80969	0.382541	18.1336	0.478884	23.3757	0.774215	37.1884	0.247907	11.7673	0.584648	27.9688
0.15935	7.28283	0.0429161	1.84844	0.382987	17.4512	0.48149	22.566	0.775079	35.7686	0.25184	11.4901	0.585615	26.9197
0.165205	7.2679	0.0453789	1.88544	0.383497	16.8224	0.484166	21.8216	0.775976	34.4575	0.255844	11.2368	0.586618	25.9512
0.171013	7.25207	0.0478635	1.92079	0.384075	16.2418	0.48691	21.1351	0.776906	33.2433	0.259915	11.0045	0.587657	25.0545
0.176772	7.23531	0.0503674	1.95457	0.384724	15.7044	0.489721	20.5003	0.77787	32.1158	0.264047	10.7909	0.588732	24.222
0.182477	7.21758	0.0528888	1.98683	0.385447	15.206	0.492597	19.9118	0.778866	31.066	0.268238	10.5939	0.589843	23.4472
0.188126	7.19884	0.0554256	2.01767	0.38625	14.743	0.495536	19.3648	0.779896	30.0864	0.272484	10.4118	0.590989	22.7245
0.193714	7.17903	0.0579763	2.04714	0.387134	14.3122	0.498538	18.8554	0.780958	29.1703	0.27678	10.2431	0.59217	22.0488
0.199238	7.15811	0.0602092	2.07176	0.388106	13.9107	0.5016	18.38	0.782052	28.3118	0.281123	10.0863	0.593387	21.4159
0.204693	7.13603	0.0621193	2.09201	0.389168	13.5361	0.504722	17.9354	0.783179	27.5057	0.285509	9.9404	0.594638	20.8219
0.210074	7.11275	0.0637032	2.10825	0.390324	13.1862	0.507902	17.519	0.784339	26.7474	0.289937	9.80422	0.595924	20.2635
0.215379	7.08821	0.064958	2.12079	0.39158	12.8592	0.511139	17.1281	0.785531	26.033	0.293825	9.69279	0.597245	19.7376
0.2206	7.06238	0.065882	2.12983	0.39294	12.5532	0.514432	16.7608	0.786754	25.3588	0.297161	9.6027	0.5986	19.2415
0.225735	7.0352	0.066474	2.13555	0.394407	12.2668	0.517779	16.415	0.78801	24.7215	0.299934	9.53137	0.599989	18.7729
0.230778	7.00664	0.0673257	2.14367	0.395987	11.9985	0.52118	16.089	0.789297	24.1184	0.302134	9.47689	0.601413	18.3297
0.235724	6.97666	0.0682524	2.15236	0.397684	11.7472	0.524634	15.7812	0.790616	23.5467	0.303757	9.43786	0.60287	17.9099
0.240569	6.94522	0.0695142	2.16396	0.399502	11.5117	0.528139	15.4904	0.791966	23.0042	0.304797	9.41333	0.604362	17.5117
0.245308	6.91231	0.0711124	2.17828	0.401445	11.291	0.531695	15.2151	0.793348	22.4888	0.306296	9.37866	0.605887	17.1336
0.249936	6.87789	0.0730485	2.1951	0.403517	11.0841	0.535301	14.9543	0.794761	21.9985	0.307927	9.34173	0.607446	16.7743
0.25445	6.84197	0.0753238	2.21416	0.405722	10.8902	0.538956	14.707	0.796206	21.5315	0.310152	9.29276	0.609039	16.4323
0.258845	6.80454	0.0779397	2.23517	0.408063	10.7086	0.542659	14.4722	0.797681	21.0864	0.312974	9.23278	0.610665	16.1066
0.263119	6.76562	0.0805601	2.25531	0.410542	10.5385	0.54641	14.249	0.799187	20.6617	0.316399	9.16303	0.612325	15.796
0.267268	6.72523	0.0831845	2.27462	0.413163	10.3791	0.550206	14.0367	0.800724	20.256	0.320432	9.08482	0.614019	15.4997
0.271291	6.68341	0.0858122	2.29315	0.415925	10.23	0.554049	13.8345	0.802291	19.8682	0.325078	8.99955	0.615747	15.2166
0.275185	6.64022	0.0884428	2.31092	0.418831	10.0903	0.557936	13.6419	0.803889	19.4971	0.329743	8.91868	0.617508	14.946
0.278951	6.59572	0.0910757	2.32798	0.42148	9.97602	0.561868	13.4581	0.805518	19.1418	0.334423	8.84186	0.619304	14.6871
0.282587	6.54998	0.0937107	2.34437	0.423823	9.88368	0.565843	13.2827	0.807177	18.8012	0.339116	8.76877	0.621133	14.4392
0.286096	6.50311	0.0963472	2.36011	0.42582	9.81071	0.569861	13.1152	0.808866	18.4746	0.343821	8.69911	0.622997	14.2018
0.289478	6.45519	0.0989851	2.37524	0.427436	9.7551	0.573921	12.9551	0.810585	18.161	0.348535	8.63261	0.624895	13.9741
0.292736	6.40634	0.101624	2.38979	0.428646	9.71535	0.578022	12.8019	0.812335	17.8599	0.353256	8.56904	0.626827	13.7557
0.295873	6.35667	0.104264	2.40378	0.429429	9.69041	0.582165	12.6552	0.814115	17.5705	0.357983	8.50817	0.628794	13.546
0.298892	6.3063	0.106904	2.41725	0.430567	9.65521	0.586348	12.5148	0.815924	17.2921	0.362713	8.44979	0.630796	13.3446
0.301798	6.25537	0.109544	2.43022	0.431822	9.61783	0.59057	12.3802	0.817764	17.0242	0.367445	8.39371	0.632833	13.1511
0.304596	6.20399	0.112185	2.44271	0.433555	9.5684	0.594831	12.2511	0.819633	16.7663	0.372177	8.33977	0.634906	12.965
0.30729	6.15228	0.114825	2.45474	0.435792	9.50814	0.599131	12.1272	0.821533	16.5178	0.376907	8.2878	0.637014	12.786
0.309886	6.10037	0.117465	2.46634	0.438564	9.4385	0.603468	12.0082	0.823462	16.2782	0.381632	8.23765	0.639159	12.6137
0.312389	6.04837	0.120105	2.47753	0.441905	9.36108	0.607843	11.894	0.825421	16.0471	0.386353	8.18919	0.64134	12.4478
0.314804	5.9964	0.122745	2.48832	0.445853	9.27758	0.612255	11.7842	0.82741	15.8241	0.391065	8.1423	0.643558	12.288
0.317138	5.94455	0.125384	2.49873	0.44992	9.19939	0.616703	11.6786	0.829429	15.6089	0.395769	8.09685	0.645814	12.134
0.319396	5.89292	0.128022	2.50879	0.454099	9.12613	0.621187	11.5771	0.831478	15.4009	0.400462	8.05274	0.648107	11.9856
0.321583	5.8416	0.13066	2.5185	0.458385	9.05743	0.625706	11.4794	0.833558	15.2	0.405142	8.00987	0.650438	11.8425
0.323704	5.79067	0.133297	2.52789	0.46277	8.99295	0.63026	11.3852	0.835667	15.0057	0.409809	7.96814	0.652809	11.7044
0.325765	5.74019	0.135933	2.53696	0.467248	8.93235	0.634848	11.2946	0.837806	14.8178	0.414459	7.92746	0.655218	11.5711
0.327769	5.69024	0.138568	2.54574	0.471814	8.87532	0.63947	11.2072	0.839975	14.636	0.419092	7.88776	0.657667	11.4425
0.329723	5.64087	0.141203	2.55423	0.47646	8.82158	0.644125	11.123	0.842175	14.4601	0.423706	7.84895	0.660156	11.3183
0.33163	5.59212	0.143836	2.56244	0.481181	8.77087	0.648813	11.0418	0.844405	14.2897	0.428299	7.81097	0.662686	11.1984
0.333494	5.54405	0.146469	2.5704	0.48597	8.72293	0.653533	10.9634	0.846666	14.1246	0.432869	7.77374	0.665257	11.0826
0.335319	5.49667	0.149101	2.5781	0.490821	8.67753	0.658285	10.8878	0.848958	13.9647	0.437416	7.73722	0.66787	10.9706
0.337109	5.45003	0.151731	2.58556	0.495728	8.63446	0.663068	10.8148	0.85128	13.8097	0.441937	7.70133	0.670525	10.8625
0.338868	5.40415	0.154361	2.5928	0.500687	8.59352	0.667883	10.7443	0.853634	13.6594	0.446432	7.66603	0.673223	10.758
0.340597	5.35904	0.15699	2.59981	0.505691	8.55452	0.672727	10.6761	0.856019	13.5137	0.450897	7.63126	0.675964	10.6569
0.3423	5.31472	0.159618	2.60661	0.510735	8.51731	0.677602	10.6103	0.858436	13.3723	0.455333	7.59697	0.678748	10.5592
0.343981	5.2712	0.162244	2.61321	0.515815	8.48172	0.682506	10.5466	0.860885	13.2351	0.459737	7.56313	0.681211	10.4768
0.34564	5.22848	0.16487	2.61962	0.520926	8.44762	0.687439	10.485	0.863365	13.1019	0.464108	7.52968	0.683337	10.4083
0.347281	5.18658	0.167495	2.62584	0.526063	8.41487	0.69176	10.433	0.865878	12.9726	0.468445	7.4966	0.685113	10.353
0.348906	5.14549	0.170119	2.63188	0.531223	8.38335	0.695461	10.3898	0.868424	12.8471	0.472746	7.46384	0.68653	10.31
0.350517	5.10521	0.172742	2.63775	0.536402	8.35296	0.698533	10.3549	0.871003	12.7251	0.47701	7.43137	0.687578	10.2789
0.35191	5.07076	0.175364	2.64346	0.541595	8.32359	0.70097	10.3278	0.873616	12.6066	0.481235	7.39916	0.688252	10.2591
0.353091	5.04188	0.177985	2.649	0.5468	8.29515	0.702765	10.3081	0.876263	12.4915	0.485421	7.36718	0.689225	10.231
0.354064	5.01833	0.180605	2.6544	0.552013	8.26756	0.703916	10.2956	0.878943	12.3796	0.489567	7.33541	0.690288	10.2008
0.35483	4.99992	0.183224	2.65964	0.55723	8.24074	0.705572	10.2778	0.881659	12.2709	0.493671	7.30382	0.691744	10.1603
0.355393	4.9865	0.185842	2.66475	0.56245	8.21461	0.707376	10.2587	0.88441	12.1652	0.497731	7.27239	0.6936	10.11
0.355752	4.97796	0.188459	2.66972	0.567669	8.18911	0.709835	10.2331	0.887197	12.0624	0.501748	7.24109	0.695867	10.0505
0.356268	4.96576	0.191075	2.67456	0.572885	8.16418	0.712954	10.2012	0.89002	11.9624	0.505721	7.20992	0.698559	9.98249
0.356828	4.9526	0.193691	2.67927	0.578095	8.13977	0.716738	10.1634	0.89288	11.8652	0.509647	7.17886	0.701691	9.90684
0.357588	4.93486	0.196306	2.68386	0.583297	8.11581	0.721194	10.1203	0.895778	11.7707	0.513528	7.14788	0.70487	9.83363
0.358548	4.91268	0.198919	2.68834	0.588488	8.09228	0.726331	10.0722	0.898714	11.6788	0.517361	7.11699	0.708094	9.76277
0.359705	4.88624	0.201532	2.6927	0.593666	8.06912	0.731492	10.0255	0.901689	11.5893	0.521147	7.08616	0.711364	9.69418
0.36106	4.85576	0.204145	2.69696	0.59883	8.04629	0.736676	9.98019	0.904703	11.5023	0.524886	7.0554	0.71468	9.62778
0.362612	4.82147	0.206756	2.70111	0.603977	8.02375	0.741882	9.93623	0.907758	11.4177	0.528575	7.02469	0.718042	9.56349
0.364161	4.78792	0.209367	2.70515	0.609106	8.00148	0.74711	9.89355	0.910853	11.3354	0.532216	6.99402	0.721448	9.50123
0.365708	4.75509	0.211977	2.7091	0.614216	7.97945	0.752359	9.8521	0.913991	11.2553	0.535809	6.9634	0.7249	9.44094
0.367254	4.72296	0.214586	2.71296	0.619303	7.95761	0.757628	9.81181	0.917171	11.1774	0.539352	6.93282	0.728396	9.38254
0.3688	4.69153	0.217194	2.71672	0.624367	7.93596	0.762916	9.77265	0.920395	11.1016	0.542846	6.90227	0.731936	9.32597
0.370346	4.66077	0.219802	2.7204	0.629407	7.91445	0.768222	9.73457	0.923663	11.0279	0.546292	6.87177	0.735519	9.27116
0.371894	4.63068	0.222409	2.72399	0.63442	7.89308	0.773546	9.69751	0.926549	10.9653	0.549688	6.8413	0.739145	9.21804
0.373443	4.60124	0.225015	2.7275	0.639407	7.87182	0.778886	9.66144	0.929036	10.9131	0.553036	6.81087	0.742813	9.16655
0.374994	4.57244	0.227621	2.73093	0.644364	7.85065	0.784241	9.62631	0.931112	10.8708	0.556336	6.78049	0.746521	9.11663
0.376548	4.54426	0.230225	2.73428	0.649292	7.82956	0.78961	9.59208	0.932767	10.8379	0.559588	6.75015	0.75027	9.06822
0.378105	4.51669	0.23283	2.73756	0.654189	7.80853	0.794993	9.5587	0.933991	10.8139	0.562792	6.71986	0.754057	9.02126
0.379666	4.48972	0.235434	2.74077	0.659055	7.78754	0.800387	9.52614	0.934777	10.7987	0.56595	6.68963	0.757883	8.97569
0.381231	4.46333	0.238037	2.7439	0.663887	7.76659	0.805792	9.49436	0.935912	10.777	0.569062	6.65946	0.761745	8.93147
0.382799	4.43751	0.240639	2.74697	0.668686	7.74566	0.811206	9.46332	0.937152	10.7537	0.572128	6.62936	0.765643	8.88854
0.384372	4.41224	0.243241	2.74997	0.67345	7.72474	0.816628	9.43298	0.938848	10.7223	0.57515	6.59933	0.769576	8.84684
0.38595	4.38752	0.245842	2.75291	0.678178	7.70382	0.822057	9.40331	0.94101	10.6833	0.578127	6.56939	0.773542	8.80633
0.387533	4.36333	0.248443	2.75579	0.682871	7.6829	0.827492	9.37427	0.94365	10.637	0.581061	6.53953	0.77754	8.76695
0.389122	4.33965	0.251043	2.75861	0.687526	7.66196	0.832929	9.34583	0.946784	10.5839	0.583953	6.50976	0.781568	8.72867
0.390715	4.31648	0.253643	2.76137	0.692144	7.641	0.83837	9.31795	0.950428	10.5245	0.586804	6.4801	0.785625	8.69142
0.392315	4.29381	0.256242	2.76407	0.696724	7.62001	0.843811	9.29059	0.954127	10.4669	0.589614	6.45055	0.78971	8.65518
0.39392	4.27161	0.258841	2.76672	0.701266	7.59899	0.849251	9.26374	0.95788	10.4109	0.592384	6.42111	0.793822	8.61989
0.395531	4.24989	0.261439	2.76931	0.705768	7.57794	0.854688	9.23735	0.961689	10.3566	0.595117	6.3918	0.797958	8.58551
0.397148	4.22862	0.264037	2.77186	0.710231	7.55685	0.860121	9.2114	0.965556	10.3039	0.597811	6.36262	0.802118	8.55201
0.398772	4.2078	0.266634	2.77435	0.714653	7.53571	0.865549	9.18586	0.96948	10.2527	0.600469	6.33358	0.8063	8.51934
0.400402	4.18742	0.269231	2.7768	0.719036	7.51453	0.870969	9.16069	0.973464	10.2031	0.603092	6.30468	0.810502	8.48747
0.402038	4.16747	0.271827	2.7792	0.723378	7.4933	0.87638	9.13588	0.977508	10.1549	0.60568	6.27594	0.814724	8.45636
0.403681	4.14793	0.274423	2.78155	0.727679	7.47203	0.88178	9.11139	0.981614	10.1083	0.608235	6.24735	0.818962	8.42597
0.405331	4.12879	0.277019	2.78386	0.731939	7.4507	0.887167	9.08719	0.985783	10.063	0.610757	6.21893	0.823217	8.39628
0.406987	4.11005	0.279614	2.78612	0.736158	7.42932	0.892541	9.06328	0.990015	10.0193	0.613248	6.19068	0.827487	8.36724
0.40865	4.0917	0.282208	2.78834	0.740335	7.4079	0.897898	9.03961	0.994311	9.97686	0.615708	6.16261	0.831769	8.33883
0.410319	4.07373	0.284802	2.79053	0.744472	7.38642	0.903239	9.01617	0.998672	9.93583	0.618139	6.13471	0.836064	8.31101
0.411995	4.05612	0.287396	2.79267	0.748566	7.3649	0.908561	8.99294	1.0031	9.89614	0.620542	6.10701	0.840368	8.28377
0.413679	4.03887	0.28999	2.79477	0.75262	7.34333	0.913862	8.96991			0.622917	6.0795	0.844682	8.25706
0.415369	4.02198	0.292583	2.79684	0.756631	7.32172	0.919142	8.94704			0.625266	6.05218	0.849003	8.23087
0.417066	4.00542	0.295175	2.79886	0.760602	7.30006	0.9244	8.92433			0.627589	6.02506	0.85333	8.20516
0.41877	3.9892	0.297768	2.80086	0.764531	7.27835	0.929634	8.90177			0.629887	5.99815	0.857662	8.17992
0.42048	3.97331	0.30036	2.80281	0.76842	7.25662	0.934843	8.87933			0.632161	5.97145	0.861997	8.15511
0.422198	3.95773	0.302951	2.80474	0.772267	7.23484	0.940026	8.85702			0.634413	5.94495	0.866334	8.13072
0.423923	3.94246	0.305542	2.80663	0.776074	7.21303	0.945183	8.83481			0.636642	5.91867	0.870673	8.10673
0.425654	3.9275	0.308133	2.80848	0.77984	7.19119	0.950314	8.8127			0.638851	5.89261	0.87501	8.08311
0.427392	3.91283	0.310724	2.81031	0.783566	7.16932	0.955417	8.79069			0.641038	5.86676	0.879347	8.05984
0.429137	3.89845	0.313314	2.81211	0.787253	7.14743	0.960492	8.76877			0.643207	5.84114	0.88368	8.03691
0.430889	3.88436	0.315904	2.81387	0.7909	7.12552	0.96554	8.74693			0.645356	5.81574	0.888009	8.01429
0.432648	3.87053	0.318494	2.81561	0.794508	7.10359	0.970559	8.72518			0.647487	5.79056	0.892334	7.99197
0.434414	3.85698	0.321083	2.81731	0.798077	7.08165	0.975551	8.70351			0.6496	5.76561	0.896651	7.96993
0.436186	3.84369	0.323672	2.81899	0.801608	7.05971	0.980516	8.68193			0.651697	5.74088	0.900962	7.94816
0.437965	3.83066	0.326261	2.82065	0.805101	7.03775	0.985453	8.66042			0.653778	5.71638	0.905264	7.92664
0.439751	3.81788	0.328849	2.82227	0.808557	7.0158	0.990364	8.63901			0.655843	5.69211	0.909557	7.90535
0.441543	3.80534	0.331437	2.82387	0.811975	6.99385	0.995248	8.61768			0.657894	5.66807	0.913839	7.88429
0.443342	3.79304	0.334025	2.82545	0.815358	6.97191	1.00011	8.59644			0.659931	5.64425	0.91811	7.86343
0.445148	3.78098	0.336613	2.827	0.818704	6.94998					0.661953	5.62067	0.922368	7.84277
0.44696	3.76914	0.3392	2.82852	0.822015	6.92806					0.663963	5.59731	0.926614	7.8223
0.448779	3.75753	0.341787	2.83002	0.825291	6.90617					0.665961	5.57418	0.930845	7.802
0.450604	3.74613	0.344374	2.8315	0.828533	6.8843					0.667946	5.55128	0.935061	7.78186
0.452436	3.73495	0.346961	2.83296	0.831741	6.86246					0.66992	5.52861	0.939261	7.76188
0.454274	3.72398	0.349547	2.83439	0.834916	6.84065					0.671883	5.50616	0.943444	7.74203
0.456118	3.71321	0.352133	2.83581	0.838058	6.81888					0.673836	5.48394	0.947611	7.72232
0.457969	3.70264	0.354719	2.8372	0.841168	6.79714					0.675779	5.46195	0.951759	7.70274
0.459825	3.69226	0.357305	2.83857	0.844246	6.77545					0.677712	5.44018	0.955888	7.68327
0.461688	3.68207	0.35989	2.83992	0.847294	6.75381					0.679637	5.41863	0.959998	7.66391
0.463558	3.67207	0.362475	2.84125	0.850311	6.73222					0.681552	5.3973	0.964087	7.64465
0.465433	3.66225	0.36506	2.84256	0.853299	6.71069					0.68346	5.3762	0.968156	7.62549
0.467314	3.65261	0.367645	2.84385	0.856257	6.68921					0.685359	5.35531	0.972204	7.60642
0.469201	3.64314	0.37023	2.84513	0.859187	6.6678					0.687251	5.33464	0.97623	7.58743
0.471095	3.63384	0.372814	2.84638	0.862089	6.64645					0.689136	5.31419	0.980233	7.56851
0.472994	3.62471	0.375398	2.84762	0.864964	6.62517					0.691015	5.29395	0.984214	7.54967
0.474899	3.61574	0.377982	2.84884	0.867811	6.60396					0.692886	5.27393	0.988172	7.53089
0.476809	3.60693	0.380566	2.85005	0.870633	6.58282					0.694752	5.25412	0.992106	7.51218
0.478726	3.59828	0.383149	2.85123	0.873428	6.56176					0.696612	5.23451	0.996015	7.49353
0.480648	3.58978	0.385733	2.8524	0.876199	6.54078					0.698466	5.21512	0.999901	7.47493
0.482576	3.58143	0.388316	2.85356	0.878945	6.51988					0.700316	5.19593	1.00376	7.45638
0.484509	3.57322	0.390899	2.8547	0.881667	6.49907					0.70216	5.17694		
0.486448	3.56516	0.393481	2.85582	0.884365	6.47835					0.704	5.15816		
0.488392	3.55723	0.396064	2.85693	0.887041	6.45771					0.705835	5.13958		
0.490342	3.54945	0.398646	2.85802	0.889694	6.43717					0.707666	5.1212		
0.492297	3.54179	0.401229	2.8591	0.892325	6.41672					0.709494	5.10302		
0.494257	3.53427	0.403811	2.86017	0.894935	6.39637					0.711318	5.08503		
0.496223	3.52688	0.406393	2.86122	0.897523	6.37611					0.713138	5.06723		
0.498194	3.51961	0.408974	2.86226	0.900092	6.35595					0.714955	5.04963		
0.50017	3.51246	0.411556	2.86328	0.90264	6.3359					0.716769	5.03221		
0.502151	3.50544	0.414137	2.86429	0.90517	6.31594					0.718581	5.01498		
0.504137	3.49853	0.416718	2.86529	0.90768	6.29609					0.72039	4.99794		
0.506129	3.49174	0.419299	2.86627	0.910171	6.27635					0.722196	4.98108		
0.508125	3.48507	0.42188	2.86724	0.912645	6.25671					0.724	4.9644		
0.510126	3.4785	0.424461	2.8682	0.915101	6.23718					0.725803	4.9479		
0.512132	3.47204	0.427042	2.86915	0.91754	6.21776					0.727603	4.93158		
0.514143	3.46569	0.429622	2.87009	0.919962	6.19844					0.729402	4.91544		
0.516158	3.45944	0.432202	2.87101	0.922367	6.17924					0.731199	4.89947		
0.518179	3.4533	0.434783	2.87193	0.924757	6.16015					0.732995	4.88367		
0.520204	3.44725	0.437363	2.87283	0.927131	6.14117					0.734789	4.86804		
0.522233	3.44131	0.439942	2.87372	0.92949	6.12231					0.736583	4.85258		
0.524267	3.43546	0.442522	2.8746	0.931834	6.10355					0.738376	4.83729		
0.526306	3.4297	0.445102	2.87547	0.934164	6.08491					0.740167	4.82216		
0.528349	3.42404	0.447681	2.87633	0.936479	6.06639					0.741958	4.80719		
0.530397	3.41847	0.45026	2.87718	0.938781	6.04798					0.743749	4.79238		
0.532449	3.41298	0.45284	2.87802	0.94107	6.02969					0.745539	4.77773		
0.534505	3.40759	0.455419	2.87885	0.943345	6.01151					0.747329	4.76324		
0.536565	3.40227	0.457997	2.87967	0.945608	5.99344					0.749119	4.7489		
0.53863	3.39705	0.460576	2.88048	0.947859	5.97549					0.750908	4.73472		
0.540699	3.3919	0.463155	2.88128	0.950097	5.95766					0.752698	4.72069		
0.542773	3.38684	0.465733	2.88207	0.952324	5.93995					0.754487	4.70681		
0.54485	3.38185	0.468312	2.88285	0.954539	5.92234					0.756277	4.69307		
0.546931	3.37694	0.47089	2.88363	0.956743	5.90486					0.758067	4.67948		
0.549017	3.37211	0.473468	2.88439	0.958937	5.88749					0.759858	4.66604		
0.551106	3.36735	0.476046	2.88515	0.961119	5.87024					0.761649	4.65273		
0.5532	3.36267	0.478624	2.8859	0.963292	5.8531					0.76344	4.63957		
0.555297	3.35806	0.481202	2.88664	0.965454	5.83608					0.765233	4.62655		
0.557398	3.35352	0.483779	2.88737	0.967607	5.81917					0.767026	4.61367		
0.559503	3.34904	0.486357	2.88809	0.96975	5.80238					0.768819	4.60092		
0.561612	3.34464	0.488934	2.88881	0.971883	5.78571					0.770614	4.5883		
0.563724	3.3403	0.491511	2.88951	0.974008	5.76914					0.772409	4.57582		
0.565841	3.33603	0.494089	2.89021	0.976124	5.7527					0.774206	4.56347		
0.567961	3.33182	0.496666	2.8909	0.978231	5.73636					0.776004	4.55125		
0.570084	3.32767	0.499243	2.89159	0.98033	5.72014					0.777802	4.53916		
0.572211	3.32359	0.501819	2.89227	0.982421	5.70403					0.779602	4.52719		
0.574342	3.31957	0.504396	2.89294	0.984504	5.68804					0.781403	4.51535		
0.576476	3.3156	0.506973	2.8936	0.986579	5.67216					0.783206	4.50363		
0.578614	3.3117	0.509549	2.89425	0.988647	5.65639					0.78501	4.49204		
0.580755	3.30785	0.512126	2.8949	0.990707	5.64073					0.786815	4.48056		
0.582899	3.30406	0.514702	2.89555	0.992761	5.62518					0.788622	4.4692		
0.585047	3.30032	0.517278	2.89618	0.994807	5.60974					0.79043	4.45796		
0.587199	3.29664	0.519854	2.89681	0.996847	5.59441					0.79224	4.44684		
0.589353	3.29301	0.52243	2.89743	0.99888	5.57919					0.794051	4.43583		
0.591511	3.28944	0.525006	2.89805	1.00091	5.56408					0.795864	4.42493		
0.593672	3.28591	0.527582	2.89866							0.797679	4.41415		
0.595836	3.28244	0.530158	2.89926							0.799495	4.40348		
0.598004	3.27902	0.532733	2.89986							0.801314	4.39291		
0.600174	3.27564	0.535309	2.90045							0.803134	4.38246		
0.602348	3.27231	0.537884	2.90103							0.804955	4.37211		
0.604524	3.26903	0.540459	2.90161							0.806779	4.36186		
0.606704	3.2658	0.543035	2.90219							0.808605	4.35172		
0.608887	3.26261	0.54561	2.90275							0.810432	4.34168		
0.611073	3.25947	0.548185	2.90332							0.812262	4.33175		
0.613261	3.25637	0.550759	2.90387							0.814093	4.32191		
0.615453	3.25332	0.553334	2.90442							0.815927	4.31217		
0.617647	3.2503	0.555909	2.90497							0.817763	4.30254		
0.619844	3.24733	0.558484	2.90551							0.8196	4.29299		
0.622045	3.2444	0.561058	2.90605							0.82144	4.28355		
0.624248	3.24151	0.563633	2.90658							0.823282	4.2742		
0.626453	3.23866	0.566207	2.9071							0.825126	4.26494		
0.628662	3.23585	0.568781	2.90762							0.826972	4.25577		
0.630873	3.23308	0.571355	2.90814							0.82882	4.24669		
0.633087	3.23034	0.573929	2.90865							0.830671	4.23771		
0.635303	3.22765	0.576503	2.90915							0.832524	4.22881		
0.637522	3.22498	0.579077	2.90965							0.834379	4.22		
0.639744	3.22236	0.581651	2.91015							0.836236	4.21128		
0.641968	3.21977	0.584225	2.91064							0.838095	4.20265		
0.644195	3.21721	0.586798	2.91113							0.839957	4.19409		
0.646424	3.21469	0.589372	2.91161							0.841821	4.18563		
0.648656	3.2122	0.591945	2.91208							0.843688	4.17724		
0.65089	3.20975	0.594519	2.91256							0.845556	4.16894		
0.653127	3.20733	0.597092	2.91303							0.847428	4.16072		
0.655366	3.20494	0.599665	2.91349							0.849301	4.15257		
0.657608	3.20258	0.602238	2.91395							0.851177	4.14451		
0.659851	3.20025	0.604811	2.91441							0.853055	4.13652		
0.662098	3.19795	0.607384	2.91486							0.854935	4.12862		
0.664346	3.19569	0.609957	2.91531							0.856818	4.12078		
0.666597	3.19345	0.61253	2.91575							0.858704	4.11303		
0.66885	3.19124	0.615103	2.91619							0.860591	4.10534		
0.671106	3.18906	0.617675	2.91663							0.862481	4.09773		
0.673363	3.18691	0.620248	2.91706							0.864374	4.0902		
0.675623	3.18478	0.62282	2.91749							0.866269	4.08273		
0.677885	3.18269	0.625393	2.91791							0.868166	4.07534		
0.680149	3.18062	0.627965	2.91833							0.870066	4.06801		
0.682416	3.17857	0.630537	2.91875							0.871968	4.06076		
0.684684	3.17655	0.63311	2.91917							0.873873	4.05358		
0.686955	3.17456	0.635682	2.91958							0.87578	4.04646		
0.689227	3.17259	0.638254	2.91998							0.877689	4.03941		
0.691502	3.17065	0.640826	2.92039							0.879601	4.03242		
0.693779	3.16873	0.643397	2.92078							0.881516	4.0255		
0.696058	3.16684	0.645969	2.92118							0.883433	4.01865		
0.698338	3.16497	0.648541	2.92157							0.885352	4.01186		
0.700621	3.16312	0.651113	2.92196							0.887274	4.00513		
0.702906	3.1613	0.653684	2.92235							0.889198	3.99846		
0.705192	3.1595	0.656256	2.92273							0.891125	3.99186		
0.707481	3.15772	0.658827	2.92311							0.893054	3.98532		
0.709771	3.15596	0.661398	2.92349							0.894986	3.97884		
0.712064	3.15422	0.66397	2.92386							0.89692	3.97242		
0.714358	3.15251	0.666541	2.92423							0.898856	3.96605		
0.716654	3.15082	0.669112	2.9246							0.900795	3.95975		
0.718952	3.14914	0.671683	2.92496							0.902737	3.9535		
0.721252	3.14749	0.674254	2.92532							0.904681	3.94731		
0.723553	3.14586	0.676825	2.92568							0.906627	3.94118		
0.725857	3.14425	0.679396	2.92604							0.908576	3.9351		
0.728162	3.14265	0.681966	2.92639							0.910527	3.92908		
0.730469	3.14108	0.684537	2.92674							0.912481	3.92311		
0.732777	3.13952	0.687108	2.92709							0.914437	3.9172		
0.735087	3.13799	0.689678	2.92743							0.916395	3.91134		
0.737399	3.13647	0.692249	2.92777							0.918356	3.90553		
0.739713	3.13497	0.694819	2.92811							0.92032	3.89977		
0.742028	3.13349	0.697389	2.92844							0.922285	3.89407		
0.744345	3.13202	0.699959	2.92878							0.924254	3.88842		
0.746664	3.13057	0.70253	2.92911							0.926224	3.88281		
0.748984	3.12914	0.7051	2.92943							0.928197	3.87726		
0.751306	3.12773	0.70767	2.92976							0.930173	3.87176		
0.753629	3.12633	0.71024	2.93008							0.932151	3.8663		
0.755954	3.12495	0.71281	2.9304							0.934131	3.8609		
0.758281	3.12359	0.715379	2.93072							0.936114	3.85554		
0.760609	3.12224	0.717949	2.93103							0.938099	3.85022		
0.762938	3.1209	0.720519	2.93135							0.940086	3.84496		
0.765269	3.11959	0.723088	2.93166							0.942076	3.83974		
0.767602	3.11828	0.725658	2.93196							0.944068	3.83457		
0.769936	3.117	0.728227	2.93227							0.946063	3.82944		
0.772272	3.11572	0.730797	2.93257							0.94806	3.82436		
0.774609	3.11447	0.733366	2.93287							0.950059	3.81932		
0.776947	3.11322	0.735936	2.93317							0.952061	3.81432		
0.779287	3.11199	0.738505	2.93347							0.954065	3.80937		
0.781629	3.11078	0.741074	2.93376							0.956071	3.80446		
0.783971	3.10957	0.743643	2.93405							0.95808	3.7996		
0.786315	3.10839	0.746212	2.93434							0.960091	3.79477		
0.788661	3.10721	0.748781	2.93463							0.962104	3.78999		
0.791008	3.10605	0.75135	2.93491							0.96412	3.78525		
0.793356	3.1049	0.753919	2.9352							0.966138	3.78055		
0.795706	3.10376	0.756487	2.93548							0.968158	3.77588		
0.798057	3.10264	0.759056	2.93576							0.97018	3.77126		
0.800409	3.10153	0.761625	2.93603							0.972205	3.76668		
0.802762	3.10043	0.764193	2.93631							0.974232	3.76214		
0.805117	3.09935	0.766762	2.93658							0.976262	3.75763		
0.807473	3.09827	0.76933	2.93685							0.978293	3.75316		
0.809831	3.09721	0.771899	2.93712							0.980327	3.74874		
0.812189	3.09616	0.774467	2.93738							0.982363	3.74434		
0.814549	3.09512	0.777035	2.93765							0.984401	3.73999		
0.816911	3.09409	0.779603	2.93791							0.986442	3.73567		
0.819273	3.09308	0.782171	2.93817							0.988485	3.73139		
0.821637	3.09207	0.784739	2.93843							0.99053	3.72714		
0.824001	3.09108	0.787307	2.93869							0.992577	3.72293		
0.826367	3.0901	0.789875	2.93894							0.994626	3.71875		
0.828735	3.08912	0.792443	2.93919							0.996678	3.71461		
0.831103	3.08816	0.795011	2.93944							0.998732	3.7105		
0.833473	3.08721	0.797579	2.93969							1.00079	3.70643		
0.835843	3.08627	0.800146	2.93994										
0.838215	3.08534	0.802714	2.94019										
0.840588	3.08441	0.805281	2.94043										
0.842962	3.0835	0.807849	2.94067										
0.845338	3.0826	0.810416	2.94092										
0.847714	3.08171	0.812984	2.94115										
0.850091	3.08082	0.815551	2.94139										
0.85247	3.07995	0.818118	2.94163										
0.854849	3.07909	0.820685	2.94186										
0.85723	3.07823	0.823252	2.94209										
0.859612	3.07739	0.825819	2.94232										
0.861995	3.07655	0.828386	2.94255										
0.864379	3.07572	0.830953	2.94278										
0.866763	3.0749	0.83352	2.94301										
0.869149	3.07409	0.836087	2.94323										
0.871536	3.07329	0.838654	2.94345										
0.873924	3.07249	0.84122	2.94367										
0.876313	3.07171	0.843787	2.94389										
0.878703	3.07093	0.846353	2.94411										
0.881094	3.07016	0.84892	2.94433										
0.883486	3.0694	0.851486	2.94454										
0.885879	3.06864	0.854053	2.94476										
0.888272	3.06789	0.856619	2.94497										
0.890667	3.06716	0.859185	2.94518										
0.893063	3.06642	0.861751	2.94539										
0.895459	3.0657	0.864317	2.9456										
0.897857	3.06498	0.866883	2.9458										
0.900255	3.06427	0.869449	2.94601										
0.902655	3.06357	0.872015	2.94621										
0.905055	3.06288	0.874581	2.94642										
0.907456	3.06219	0.877147	2.94662										
0.909858	3.06151	0.879713	2.94682										
0.912261	3.06083	0.882278	2.94701										
0.914665	3.06017	0.884844	2.94721										
0.91707	3.05951	0.88741	2.94741										
0.919475	3.05885	0.889975	2.9476										
0.921881	3.0582	0.892541	2.94779										
0.924289	3.05756	0.895106	2.94799										
0.926697	3.05693	0.897671	2.94818										
0.929106	3.0563	0.900237	2.94837										
0.931515	3.05568	0.902802	2.94855										
0.936337	3.05445	0.905367	2.94874										
0.938749	3.05385	0.907932	2.94893										
0.941162	3.05325	0.910497	2.94911										
0.943576	3.05266	0.913062	2.94929										
0.945991	3.05207	0.915627	2.94948										
0.948406	3.05149	0.918192	2.94966										
0.950822	3.05091	0.920757	2.94984										
0.953239	3.05035	0.923321	2.95001										
0.955657	3.04978	0.925886	2.95019										
0.958075	3.04922	0.928451	2.95037										
0.960494	3.04867	0.931015	2.95054										
0.962914	3.04812	0.93358	2.95072										
0.965335	3.04758	0.936144	2.95089										
0.967756	3.04704	0.938709	2.95106										
0.970178	3.04651	0.941273	2.95123										
0.972601	3.04598	0.943837	2.9514										
0.975025	3.04546	0.946402	2.95157										
0.977449	3.04494	0.948966	2.95174										
0.979874	3.04443	0.95153	2.9519										
0.982299	3.04392	0.954094	2.95207										
0.984726	3.04342	0.956658	2.95223										
0.987153	3.04292	0.959222	2.9524										
0.98958	3.04243	0.961786	2.95256										
0.992009	3.04194	0.96435	2.95272										
0.994438	3.04146	0.966913	2.95288										
0.996867	3.04098	0.969477	2.95304										
0.999298	3.0405	0.972041	2.9532										
1.00173	3.04003	0.974604	2.95335										
		0.977168	2.95351										
		0.979731	2.95367										
		0.982295	2.95382										
		0.984858	2.95397										
		0.987421	2.95412										
		0.989985	2.95428										
		0.992548	2.95443										
		0.995111	2.95458										
		0.997674	2.95472										
		1.00024	2.95487										
