Sym0		Sym1		Sym2		Sym3		Sym4		Sym5		Sym6		Sym7		Asym1		Asym2		Asym3		Asym4		Asym5		Asym6		Asym7	
314  Points		313  Points		302  Points		297  Points		290  Points		228  Points		186  Points		122  Points		311  Points		309  Points		295  Points		268  Points		219  Points		185  Points		118  Points	
Freq (MHz)	Vph (m/ms)	Freq (MHz)	Vph (m/ms)	Freq (MHz)	Vph (m/ms)	Freq (MHz)	Vph (m/ms)	Freq (MHz)	Vph (m/ms)	Freq (MHz)	Vph (m/ms)	Freq (MHz)	Vph (m/ms)	Freq (MHz)	Vph (m/ms)	Freq (MHz)	Vph (m/ms)	Freq (MHz)	Vph (m/ms)	Freq (MHz)	Vph (m/ms)	Freq (MHz)	Vph (m/ms)	Freq (MHz)	Vph (m/ms)	Freq (MHz)	Vph (m/ms)	Freq (MHz)	Vph (m/ms)
2.20706	2.47887	2.20109	2.4789	0.443241	153.333	0.866026	734.062	1.29904	4708.29	1.32361	638.399	1.73205	827.234	2.16506	1237.01	0.216506	3183.08	2.20486	2.51393	0.882416	359.952	1.08253	1339.86	1.51554	3018.26	1.76471	4738.06	1.94856	1065.12
2.19993	2.4789	2.19396	2.47895	0.447216	77.3305	0.866034	212.667	1.29893	409.967	1.32396	266.616	1.73206	347.366	2.16502	466.326	0.216832	73.2417	2.19828	2.51472	0.882639	165.166	1.08256	292.55	1.51554	446.457	1.76476	540.522	1.94857	412.668
2.1928	2.47896	2.18685	2.47901	0.451684	52.0635	0.866051	124.348	1.29865	214.269	1.32458	168.559	1.73207	219.841	2.16494	287.311	0.217772	37.2071	2.19177	2.5156	0.883028	107.21	1.08262	164.209	1.51553	241.055	1.7649	286.631	1.9486	255.911
2.18569	2.47902	2.17974	2.47909	0.45636	39.4498	0.866077	87.8625	1.29823	144.999	1.32546	123.29	1.73208	160.807	2.16483	207.604	0.21931	25.0771	2.18534	2.51657	0.883581	79.3951	1.0827	114.145	1.51552	165.097	1.76512	195.043	1.94864	185.464
2.17859	2.4791	2.17265	2.47918	0.461164	31.891	0.866113	67.9322	1.29767	109.547	1.32656	97.2319	1.7321	126.767	2.16468	162.512	0.221422	19.0259	2.17895	2.51761	0.884295	63.0676	1.08283	87.4811	1.51549	125.538	1.76542	147.828	1.94869	145.432
2.1715	2.47919	2.16557	2.47928	0.466064	26.8577	0.866159	55.3735	1.29701	88.0029	1.32785	80.3021	1.73212	104.621	2.16451	133.508	0.224074	15.4211	2.17262	2.5187	0.885167	52.3338	1.08298	70.9209	1.51547	101.271	1.7658	119.031	1.94875	119.616
2.16442	2.4793	2.15851	2.4794	0.471045	23.2666	0.866217	46.7351	1.29628	73.5236	1.32932	68.4223	1.73215	89.0629	2.16431	113.284	0.227228	13.0419	2.16632	2.51985	0.886193	44.743	1.08317	59.637	1.51544	84.8653	1.76627	99.6355	1.94883	101.585
2.15736	2.47942	2.15145	2.47954	0.476096	20.5763	0.866287	40.4295	1.29549	63.123	1.33094	59.6283	1.73218	77.5335	2.16408	98.3781	0.230353	11.5503	2.16005	2.52104	0.887371	39.0933	1.0834	51.455	1.5154	73.0333	1.76681	85.6855	1.94892	88.2793
2.15031	2.47956	2.14441	2.47969	0.481209	18.4864	0.866369	35.6244	1.29466	55.2904	1.3327	52.8574	1.73222	68.6475	2.16383	86.9355	0.233273	10.5591	2.15382	2.52228	0.888695	34.7265	1.08366	45.251	1.51536	64.0963	1.76744	75.1711	1.94902	78.057
2.14327	2.47972	2.13738	2.47986	0.48638	16.8164	0.866466	31.8413	1.29382	49.1793	1.33458	47.4845	1.73227	61.5894	2.16356	77.8748	0.235851	9.8811	2.14761	2.52356	0.89016	31.2515	1.08396	40.3856	1.51531	57.1076	1.76815	66.9634	1.94914	69.9576
2.13624	2.47989	2.13037	2.48004	0.491602	15.4517	0.866579	28.7857	1.29297	44.2787	1.33657	43.118	1.73231	55.8477	2.16327	70.5223	0.237989	9.41641	2.14143	2.52487	0.891761	28.4216	1.08429	36.4681	1.51527	51.4926	1.76894	60.379	1.94927	63.3822
2.12923	2.48007	2.12337	2.48024	0.496872	14.3158	0.86671	26.2663	1.29211	40.2614	1.33867	39.4998	1.73237	51.0858	2.16297	64.4365	0.239613	9.10839	2.13527	2.52623	0.893492	26.0731	1.08467	33.2464	1.51521	46.8826	1.7698	54.9804	1.94941	57.9378
2.12223	2.48028	2.11638	2.48046	0.502183	13.3558	0.866859	24.1536	1.29127	36.9087	1.34086	36.4532	1.73243	47.0724	2.16266	59.316	0.240676	8.92448	2.12912	2.52761	0.895346	24.0936	1.08509	30.5507	1.51516	43.0298	1.77075	50.4743	1.94957	53.3557
2.11525	2.4805	2.10941	2.4807	0.507534	12.5339	0.86703	22.3566	1.29044	34.0683	1.34314	33.8532	1.73249	43.6441	2.16234	54.9481	0.242232	8.67642	2.123	2.52903	0.897318	22.4029	1.08555	28.262	1.5151	39.762	1.77177	46.6566	1.94974	49.4462
2.10827	2.48074	2.10245	2.48095	0.512918	11.8224	0.867224	20.8095	1.28963	31.6314	1.34551	31.6084	1.73257	40.6816	2.16201	51.1781	0.243962	8.42659	2.1169	2.53048	0.899401	20.9426	1.08605	26.295	1.51504	36.9552	1.77286	43.3811	1.94993	46.0714
2.10132	2.48099	2.0955	2.48122	0.518333	11.2005	0.867443	19.4638	1.28884	29.5179	1.34796	29.6512	1.73265	38.0961	2.16168	47.8912	0.246376	8.11612	2.11082	2.53196	0.901589	19.6688	1.0866	24.5866	1.51498	34.5183	1.77403	40.5404	1.95013	43.1288
2.09437	2.48127	2.08857	2.48151	0.523774	10.6522	0.867689	18.2828	1.28807	27.6675	1.35048	27.9297	1.73273	35.8199	2.16135	45.0002	0.249523	7.7653	2.10475	2.53347	0.903873	18.5482	1.08721	23.089	1.51492	32.3827	1.77527	38.0535	1.95035	40.5403
2.08744	2.48156	2.08165	2.48182	0.528534	10.2249	0.867965	17.238	1.28733	26.0341	1.35309	26.4041	1.73282	33.8008	2.16102	42.4376	0.253461	7.39345	2.0987	2.53501	0.906248	17.5549	1.08786	21.7659	1.51486	30.4959	1.77659	35.8585	1.95059	38.2458
2.08053	2.48188	2.07475	2.48215	0.532603	9.89242	0.868274	16.3074	1.28662	24.5818	1.35577	25.0428	1.73293	31.9974	2.16069	40.1505	0.258247	7.01711	2.09266	2.53659	0.908705	16.6686	1.08856	20.5885	1.5148	28.8167	1.77798	33.9069	1.95084	36.1978
2.07363	2.48221	2.06786	2.48251	0.535975	9.63701	0.868618	15.4733	1.28594	23.2821	1.35851	23.8209	1.73303	30.377	2.16037	38.0968	0.263936	6.64911	2.08664	2.53819	0.911239	15.8729	1.08933	19.5343	1.51474	27.3127	1.77943	32.1606	1.95112	34.3589
2.06674	2.48256	2.06099	2.48288	0.538645	9.44639	0.869	14.7215	1.28528	22.1122	1.36133	22.7181	1.73315	28.9132	2.16004	36.2425	0.26981	6.33546	2.08063	2.53981	0.913841	15.1547	1.09015	18.585	1.51468	25.9578	1.78095	30.589	1.95141	32.6984
2.05987	2.48294	2.05413	2.48327	0.54061	9.31215	0.869424	14.0407	1.28466	21.0538	1.36422	21.718	1.73328	27.5842	2.15973	34.56	0.275846	6.06524	2.07464	2.54147	0.916505	14.5032	1.09103	17.726	1.51463	24.731	1.78254	29.1673	1.95172	31.1919
2.05302	2.48334	2.04729	2.48368	0.541869	9.22872	0.869891	13.4213	1.28406	20.0916	1.36718	20.8069	1.73341	26.3724	2.15942	33.0264	0.282022	5.83023	2.06866	2.54315	0.919222	13.9095	1.09198	16.9451	1.51457	23.6148	1.78419	27.875	1.95205	29.8187
2.04618	2.48375	2.04046	2.48412	0.543678	9.11206	0.870405	12.8555	1.2835	19.2133	1.3702	19.9736	1.73356	25.2629	2.15912	31.6228	0.288318	5.62409	2.06269	2.54486	0.921987	13.3663	1.093	16.2323	1.51453	22.5951	1.78591	26.6955	1.9524	28.5621
2.03936	2.48419	2.03365	2.48458	0.545647	8.9894	0.87097	12.3368	1.28297	18.4082	1.37328	19.2087	1.73371	24.2432	2.15882	30.3335	0.294717	5.44187	2.05673	2.5466	0.924793	12.8674	1.09409	15.5793	1.51449	21.6598	1.78769	25.6145	1.95277	27.4078
2.03255	2.48465	2.02686	2.48506	0.548325	8.82917	0.87159	11.8597	1.28247	17.6678	1.37643	18.504	1.73388	23.303	2.15854	29.145	0.301202	5.27964	2.05078	2.54836	0.927631	12.4076	1.09525	14.9789	1.51445	20.7989	1.78952	24.6205	1.95317	26.3439
2.02576	2.48514	2.02008	2.48557	0.551714	8.63664	0.872266	11.4195	1.28199	16.9845	1.37963	17.8529	1.73405	22.4333	2.15826	28.0459	0.307761	5.13429	2.04484	2.55015	0.930495	11.9823	1.0965	14.4253	1.51442	20.0038	1.79141	23.7032	1.95359	25.3602
2.01898	2.48565	2.01332	2.48609	0.555813	8.41768	0.873004	11.0121	1.28156	16.3521	1.3829	17.2496	1.73424	21.6265	2.158	27.0267	0.314378	5.00326	2.03891	2.55196	0.933379	11.5878	1.09782	13.9133	1.5144	19.2674	1.79336	22.8543	1.95404	24.448
2.01222	2.48618	2.00658	2.48665	0.560622	8.17832	0.873807	10.6343	1.28115	15.765	1.38622	16.6889	1.73444	20.876	2.15774	26.0788	0.321044	4.88449	2.03299	2.55379	0.936276	11.2209	1.09923	13.4385	1.51438	18.5834	1.79536	22.0664	1.95451	23.5998
2.00548	2.48674	1.99985	2.48723	0.566138	7.92441	0.874563	10.3267	1.28077	15.2187	1.38961	16.1667	1.73466	20.1762	2.1575	25.195	0.327746	4.77627	2.02707	2.55564	0.93918	10.8785	1.10073	12.9972	1.51438	17.9463	1.79741	21.3332	1.95501	22.8092
1.99876	2.48732	1.99314	2.48783	0.571647	7.69016	0.87525	10.0791	1.28043	14.7091	1.39304	15.679	1.73488	19.522	2.15727	24.3692	0.334475	4.67717	2.02116	2.55752	0.942083	10.5584	1.10232	12.5861	1.51438	17.3516	1.79951	20.6492	1.95553	22.0706
1.99205	2.48793	1.98645	2.48846	0.577145	7.47333	0.87585	9.88375	1.28012	14.2326	1.39653	15.2227	1.73512	18.9093	2.15705	23.5957	0.34122	4.58601	2.01525	2.55941	0.944609	10.2959	1.104	12.2023	1.5144	16.7952	1.80166	20.0097	1.95609	21.379
1.98536	2.48857	1.97977	2.48912	0.582627	7.27196	0.876344	9.73499	1.27983	13.7861	1.40008	14.7949	1.73538	18.3341	2.15684	22.8698	0.347973	4.50177	2.00935	2.56132	0.946757	10.0831	1.10579	11.8434	1.51443	16.2735	1.80385	19.4105	1.95668	20.7301
1.97869	2.48923	1.97311	2.4898	0.588092	7.0844	0.87672	9.62867	1.27958	13.3669	1.40368	14.393	1.73565	17.7933	2.15664	22.1873	0.354726	4.4236	2.00344	2.56324	0.948526	9.91438	1.10767	11.5071	1.51447	15.7833	1.80608	18.8479	1.95731	20.1201
1.97203	2.48991	1.96647	2.49051	0.593533	6.9092	0.876966	9.56194	1.27937	12.9727	1.40732	14.0147	1.73594	17.2837	2.15646	21.5443	0.36147	4.35076	1.99753	2.56518	0.949921	9.78526	1.10966	11.1915	1.51452	15.322	1.80835	18.3186	1.95796	19.5457
1.96539	2.49063	1.95985	2.49125	0.598948	6.74512	0.877326	9.46777	1.27918	12.6012	1.41102	13.6581	1.73624	16.8028	2.15629	20.9375	0.368198	4.28264	1.99162	2.56712	0.950943	9.69265	1.11176	10.8948	1.51459	14.8871	1.81066	17.8198	1.95866	19.0039
1.95877	2.49137	1.95324	2.49202	0.604332	6.59106	0.877729	9.36768	1.27903	12.2506	1.41476	13.3213	1.73657	16.3483	2.15613	20.364	0.374902	4.21869	1.98571	2.56907	0.951596	9.63438	1.11396	10.6155	1.51468	14.4763	1.813	17.349	1.95939	18.492
1.95217	2.49214	1.94666	2.49281	0.609681	6.44605	0.878293	9.23523	1.27891	11.9193	1.41855	13.0029	1.73691	15.9181	2.15598	19.8212	0.381574	4.15842	1.97978	2.57103	0.952532	9.55195	1.11597	10.3853	1.51478	14.0878	1.81537	16.9038	1.96016	18.0078
1.94559	2.49294	1.94009	2.49364	0.614992	6.30925	0.879036	9.07352	1.27882	11.6056	1.42238	12.7012	1.73727	15.5103	2.15585	19.3065	0.388209	4.10144	1.97384	2.57298	0.953547	9.46409	1.11776	10.1979	1.51489	13.7199	1.81777	16.4822	1.96098	17.5489
1.93902	2.49377	1.93354	2.49449	0.62026	6.17992	0.87998	8.88617	1.27876	11.3082	1.42625	12.4152	1.73765	15.1231	2.15573	18.818	0.394798	4.04737	1.96789	2.57493	0.954922	9.34739	1.11928	10.0489	1.51503	13.3708	1.82019	16.0824	1.96183	17.1136
1.93248	2.49463	1.92701	2.49538	0.625482	6.05738	0.881151	8.67714	1.27874	11.026	1.43017	12.1435	1.73805	14.7552	2.15562	18.3537	0.401336	3.9959	1.96192	2.57688	0.956651	9.20424	1.12051	9.93469	1.51518	13.0393	1.82264	15.7027	1.96274	16.7001
1.92595	2.49552	1.9205	2.49629	0.630654	5.94105	0.882584	8.45055	1.27875	10.7578	1.43412	11.8852	1.73848	14.4051	2.15553	17.9117	0.407815	3.94675	1.95593	2.5788	0.958727	9.03737	1.12144	9.85265	1.51536	12.7241	1.8251	15.3417	1.96369	16.3069
1.91944	2.49645	1.914	2.49724	0.635772	5.83039	0.884116	8.23709	1.27879	10.5347	1.43811	11.6393	1.73892	14.0715	2.15545	17.4907	0.414231	3.89968	1.94992	2.58071	0.961138	8.84983	1.12204	9.80099	1.51555	12.424	1.82758	14.9979	1.9647	15.9326
1.91295	2.4974	1.90753	2.49822	0.640832	5.72494	0.885751	8.03577	1.27884	10.3519	1.44214	11.4049	1.7394	13.7534	2.15538	17.089	0.420576	3.85445	1.94387	2.5826	0.963872	8.64476	1.12291	9.72785	1.51577	12.138	1.83008	14.6701	1.96575	15.5758
1.90648	2.49838	1.90107	2.49923	0.645831	5.62427	0.887492	7.84568	1.2789	10.2056	1.4462	11.1812	1.73989	13.4497	2.15532	16.7055	0.426845	3.81088	1.93779	2.58445	0.966566	8.44973	1.12387	9.64983	1.51601	11.8651	1.83258	14.3573	1.96687	15.2354
1.90002	2.4994	1.89463	2.50028	0.650766	5.52799	0.889343	7.66603	1.27896	10.0929	1.4503	10.9676	1.74042	13.1595	2.15528	16.3389	0.433032	3.7688	1.93166	2.58626	0.969219	8.26396	1.12521	9.54612	1.51627	11.6044	1.83509	14.0584	1.96804	14.9104
1.89359	2.50045	1.88822	2.50136	0.655634	5.43578	0.891307	7.49606	1.279	10.0117	1.45442	10.7634	1.74097	12.882	2.15526	15.9881	0.439133	3.72805	1.9255	2.58803	0.971829	8.08678	1.12693	9.41877	1.51656	11.3553	1.8376	13.7724	1.96927	14.5998
1.88717	2.50154	1.88182	2.50247	0.660431	5.34732	0.893388	7.33512	1.27903	9.96036	1.45804	10.5926	1.74154	12.6162	2.15524	15.6521	0.445143	3.68849	1.91928	2.58974	0.974396	7.91756	1.12907	9.2702	1.51688	11.1168	1.84012	13.4986	1.97057	14.3027
1.88078	2.50265	1.87544	2.50362	0.665155	5.26233	0.895587	7.18261	1.27908	9.88756	1.46115	10.452	1.74215	12.3616	2.15524	15.3301	0.451057	3.65002	1.91302	2.5914	0.976917	7.75576	1.13167	9.10312	1.51722	10.8885	1.84262	13.2362	1.97193	14.0183
1.8744	2.50381	1.86908	2.5048	0.669803	5.18056	0.897909	7.03796	1.27914	9.80967	1.46372	10.339	1.74279	12.1175	2.15526	15.0211	0.456873	3.61253	1.90669	2.59299	0.979393	7.60088	1.13475	8.92039	1.51754	10.6973	1.84512	12.9843	1.97336	13.7458
1.86805	2.50499	1.86274	2.50602	0.674375	5.10178	0.900354	6.90068	1.27923	9.70575	1.46576	10.2517	1.74347	11.8831	2.15528	14.7245	0.462587	3.57592	1.9003	2.59451	0.981825	7.45246	1.13795	8.74665	1.51783	10.5397	1.84761	12.7425	1.97486	13.4846
1.86171	2.50622	1.85642	2.50727	0.678867	5.02579	0.902925	6.77029	1.27935	9.57755	1.46727	10.1886	1.74417	11.6581	2.15532	14.4395	0.468197	3.54014	1.89385	2.59595	0.984213	7.31009	1.14126	8.58131	1.51808	10.413	1.85009	12.51	1.97643	13.234
1.85539	2.50748	1.85012	2.50856	0.683279	4.95241	0.905623	6.64637	1.27951	9.42714	1.46824	10.1487	1.74491	11.4419	2.15538	14.1653	0.473702	3.5051	1.88733	2.59731	0.986559	7.17341	1.14468	8.42382	1.51829	10.315	1.85254	12.2863	1.97809	12.9934
1.84909	2.50877	1.84383	2.50988	0.68761	4.88146	0.90845	6.52853	1.27973	9.25685	1.46962	10.092	1.74569	11.2339	2.15545	13.9015	0.479101	3.47077	1.88074	2.59858	0.988864	7.04206	1.14821	8.27366	1.51845	10.2442	1.85498	12.0709	1.97982	12.7623
1.84281	2.5101	1.83757	2.51125	0.69186	4.8128	0.911406	6.4164	1.28002	9.06917	1.47114	10.0312	1.7465	11.0337	2.15553	13.6475	0.484394	3.43709	1.87408	2.59977	0.991131	6.91575	1.15184	8.13038	1.51855	10.1994	1.85739	11.8633	1.98163	12.5401
1.83656	2.51147	1.83133	2.51265	0.696027	4.74629	0.914491	6.30963	1.28034	8.88929	1.4732	9.94998	1.74724	10.8654	2.15563	13.4027	0.489582	3.40404	1.86735	2.60088	0.993362	6.7942	1.15557	7.99352	1.5187	10.1357	1.85978	11.6631	1.98352	12.3265
1.83032	2.51288	1.82511	2.51409	0.700114	4.68181	0.917704	6.20791	1.28071	8.71677	1.47582	9.84945	1.7479	10.7262	2.15575	13.1666	0.494667	3.37159	1.86056	2.6019	0.995561	6.67714	1.15941	7.8627	1.51887	10.0674	1.86213	11.4698	1.9855	12.1209
1.8241	2.51433	1.8189	2.51557	0.70412	4.61925	0.921046	6.11095	1.28111	8.55118	1.47899	9.73107	1.74846	10.6139	2.15588	12.9388	0.499652	3.33972	1.8537	2.60283	0.99773	6.56434	1.16333	7.73754	1.5191	9.97609	1.86445	11.2831	1.98757	11.923
1.8179	2.51581	1.81272	2.51708	0.708046	4.55851	0.924514	6.01846	1.28155	8.39212	1.48272	9.59649	1.74892	10.5269	2.15602	12.7188	0.50454	3.30843	1.84678	2.60369	0.999873	6.45559	1.16735	7.6177	1.51941	9.86303	1.86674	11.1026	1.98973	11.7324
1.81172	2.51733	1.80655	2.51864	0.711895	4.4995	0.928107	5.93019	1.28204	8.23925	1.48702	9.44745	1.74926	10.4639	2.15618	12.5064	0.509335	3.2777	1.83979	2.60446	1.00199	6.35068	1.17145	7.50285	1.5198	9.72985	1.86871	10.9501	1.99197	11.5486
1.80555	2.5189	1.80041	2.52023	0.715669	4.44214	0.931823	5.84589	1.28257	8.09223	1.49133	9.30387	1.74948	10.424	2.15635	12.301	0.514042	3.24755	1.83275	2.60516	1.0041	6.24943	1.17563	7.3927	1.52028	9.57837	1.87036	10.8235	1.99431	11.3715
1.79941	2.5205	1.79428	2.52187	0.71937	4.38636	0.935659	5.76533	1.28314	7.95074	1.49566	9.16546	1.7498	10.3672	2.15654	12.1024	0.518667	3.21796	1.82566	2.6058	1.00618	6.15168	1.1799	7.28696	1.52087	9.41056	1.87171	10.7211	1.99673	11.2006
1.79329	2.52214	1.78817	2.52354	0.723001	4.3321	0.939612	5.68831	1.28376	7.81452	1.49999	9.03192	1.75016	10.3062	2.15675	11.9102	0.523215	3.18895	1.81852	2.60636	1.00826	6.05726	1.18423	7.18539	1.52149	9.24889	1.87276	10.6415	1.99893	11.0566
1.78718	2.52382	1.78208	2.52525	0.726564	4.27928	0.943678	5.61461	1.28443	7.68328	1.50433	8.903	1.75065	10.2245	2.15697	11.7242	0.527692	3.16052	1.81133	2.60687	1.01033	5.96603	1.18864	7.08773	1.52215	9.09303	1.87353	10.5837	2.00085	10.9372
1.78109	2.52554	1.77601	2.527	0.730065	4.22787	0.947853	5.54404	1.28514	7.55678	1.50868	8.77845	1.75129	10.1232	2.1572	11.544	0.532105	3.13268	1.8041	2.60732	1.0124	5.87785	1.19311	6.99376	1.52285	8.94269	1.87402	10.5471	2.00248	10.8408
1.77502	2.52729	1.76994	2.52877	0.733505	4.17782	0.952134	5.47643	1.2859	7.43479	1.51303	8.65803	1.75209	10.0036	2.15746	11.3693	0.536462	3.10545	1.79684	2.60772	1.01447	5.7926	1.19764	6.90328	1.5236	8.79762	1.87472	10.4949	2.00379	10.766
1.76895	2.52906	1.76386	2.53054	0.736889	4.12906	0.956516	5.4116	1.2867	7.3171	1.51737	8.54154	1.75306	9.86712	2.15769	11.2215	0.540767	3.07882	1.78953	2.60807	1.01655	5.71016	1.20223	6.81609	1.52438	8.65755	1.87548	10.4388	2.00477	10.7118
1.76286	2.53082	1.75896	2.53403	0.74022	4.08158	0.960994	5.34939	1.28756	7.20349	1.52172	8.42877	1.75422	9.71549	2.1579	11.0986	0.54503	3.05281	1.7822	2.60837	1.01864	5.63041	1.20687	6.73199	1.52521	8.52225	1.8765	10.3634	2.0054	10.6775
1.75778	2.53406	1.75057	2.5325	0.743504	4.03533	0.965563	5.28966	1.28847	7.0938	1.52606	8.31952	1.75544	9.56893	2.15808	10.999	0.549255	3.02743	1.77483	2.60864	1.02074	5.55327	1.21156	6.65084	1.52608	8.3915	1.87778	10.2697	2.00632	10.6286
1.74934	2.53244	1.74291	2.53201	0.746745	3.99027	0.970218	5.23225	1.28944	6.98783	1.5304	8.21364	1.75671	9.42721	2.15823	10.9215	0.553451	3.00268	1.76744	2.60887	1.02287	5.47862	1.21629	6.57245	1.527	8.2651	1.8793	10.1586	2.00733	10.5761
1.74165	2.53191	1.73516	2.53139	0.749945	3.94638	0.974954	5.17704	1.29046	6.88542	1.53472	8.11093	1.75803	9.29013	2.15834	10.8653	0.557622	2.97858	1.76003	2.60906	1.02502	5.40639	1.22106	6.49669	1.52797	8.14285	1.88105	10.0314	2.00872	10.5056
1.7339	2.53128	1.72739	2.53073	0.753111	3.90362	0.979765	5.12388	1.29153	6.78643	1.53903	8.01126	1.75942	9.15748	2.15841	10.8296	0.561777	2.95511	1.75259	2.60922	1.0272	5.33648	1.22586	6.4234	1.52898	8.02457	1.88302	9.88941	2.0105	10.4182
1.72612	2.53062	1.71961	2.53006	0.756245	3.86197	0.984646	5.07268	1.29267	6.69069	1.54333	7.91447	1.76087	9.02908	2.15852	10.7788	0.565919	2.93229	1.74513	2.60935	1.02942	5.26882	1.2307	6.35247	1.53005	7.91009	1.88495	9.75141	2.01271	10.3148
1.71835	2.52995	1.71183	2.52938	0.759353	3.82139	0.989591	5.0233	1.29386	6.59809	1.54761	7.82042	1.76238	8.90475	2.15863	10.724	0.570057	2.91011	1.73765	2.60946	1.03167	5.20333	1.23557	6.28376	1.53117	7.79925	1.88684	9.61726	2.01536	10.1966
1.71057	2.52927	1.70405	2.52869	0.762439	3.78187	0.994595	4.97565	1.29512	6.50849	1.55187	7.72898	1.76395	8.78433	2.15879	10.6505	0.574194	2.88858	1.73016	2.60954	1.03397	5.13994	1.24045	6.21715	1.53234	7.6919	1.88868	9.4868	2.01849	10.0652
1.70279	2.52858	1.69628	2.528	0.765506	3.74338	0.999653	4.92961	1.29643	6.42176	1.55611	7.64003	1.76559	8.66766	2.15901	10.559	0.578337	2.86769	1.72265	2.60959	1.03632	5.07859	1.24536	6.15255	1.53357	7.58791	1.89049	9.35987	2.0217	9.93783
1.69501	2.52789	1.6885	2.52731	0.768559	3.70589	1.00476	4.88511	1.29782	6.3378	1.56033	7.55345	1.76731	8.55459	2.15927	10.4504	0.582489	2.84744	1.71512	2.60963	1.03872	5.01921	1.25028	6.08984	1.53486	7.48712	1.89225	9.23634	2.025	9.81448
1.68724	2.52719	1.68072	2.52661	0.771602	3.66938	1.0099	4.84204	1.29926	6.2565	1.56451	7.46913	1.76909	8.44498	2.15959	10.326	0.586656	2.82783	1.70758	2.60965	1.04118	4.96175	1.25521	6.02893	1.53621	7.38943	1.89398	9.11606	2.02837	9.69494
1.67946	2.52649	1.67295	2.52591	0.774638	3.63384	1.01509	4.80032	1.30078	6.17776	1.56867	7.38697	1.77095	8.33871	2.15998	10.187	0.590843	2.80884	1.70004	2.60964	1.04371	4.90615	1.26016	5.96973	1.53761	7.29471	1.89567	8.99891	2.03183	9.57902
1.67169	2.52579	1.66518	2.5252	0.777671	3.59923	1.0203	4.75987	1.30237	6.10148	1.57279	7.30687	1.77288	8.23565	2.16039	10.0518	0.595052	2.79049	1.69247	2.60962	1.0463	4.85236	1.2651	5.91215	1.53908	7.20284	1.89732	8.88477	2.03536	9.46658
1.66392	2.52508	1.65741	2.52449	0.780705	3.56554	1.02554	4.72062	1.30403	6.02757	1.57688	7.22873	1.77489	8.13567	2.16081	9.92027	0.599289	2.77274	1.6849	2.60959	1.04897	4.80034	1.27005	5.85611	1.54062	7.11373	1.89894	8.77353	2.03897	9.35747
1.65615	2.52437	1.64964	2.52378	0.783743	3.53275	1.0308	4.68249	1.30576	5.95595	1.58094	7.15247	1.77698	8.03867	2.16126	9.79228	0.603556	2.75561	1.67732	2.60954	1.05171	4.75003	1.27499	5.80154	1.54222	7.02726	1.90054	8.66508	2.04264	9.25154
1.64838	2.52366	1.64188	2.52306	0.786788	3.50083	1.03608	4.64542	1.30757	5.88654	1.58495	7.078	1.77915	7.94453	2.16172	9.66769	0.607858	2.73908	1.66974	2.60948	1.05454	4.70139	1.27993	5.74836	1.54389	6.94335	1.9021	8.55933	2.04639	9.14866
1.64062	2.52295	1.63411	2.52235	0.789844	3.46977	1.04137	4.60935	1.30946	5.81926	1.58892	7.00525	1.7814	7.85317	2.16221	9.54637	0.612197	2.72314	1.66214	2.6094	1.05746	4.65438	1.28486	5.6965	1.54563	6.86191	1.90363	8.45618	2.05021	9.0487
1.63285	2.52223	1.62636	2.52163	0.792914	3.43955	1.04666	4.57421	1.31142	5.75403	1.59285	6.93415	1.78374	7.76447	2.16272	9.42821	0.616578	2.70778	1.65454	2.60932	1.06047	4.60897	1.28978	5.6459	1.54744	6.78284	1.90515	8.35553	2.05408	8.95153
1.62509	2.52151	1.6186	2.52091	0.796	3.41015	1.05195	4.53995	1.31347	5.6908	1.59674	6.86462	1.78617	7.67834	2.16324	9.31307	0.621002	2.69301	1.64693	2.60922	1.06359	4.56512	1.29468	5.5965	1.54932	6.70607	1.90664	8.25732	2.05802	8.85705
1.61734	2.52079	1.61085	2.52019	0.799105	3.38155	1.05724	4.50651	1.3156	5.62949	1.60057	6.79661	1.78868	7.59471	2.16379	9.20086	0.625474	2.6788	1.63931	2.60911	1.06681	4.52279	1.29957	5.54825	1.55128	6.63151	1.90811	8.16145	2.06202	8.76513
1.60959	2.52007	1.6031	2.51946	0.802231	3.35373	1.06252	4.47385	1.31782	5.57004	1.60436	6.73004	1.79128	7.51347	2.16436	9.09147	0.629996	2.66515	1.63169	2.60899	1.07014	4.48195	1.30443	5.50108	1.55331	6.55911	1.90956	8.06784	2.06607	8.67568
1.60184	2.51934	1.59535	2.51874	0.805382	3.32668	1.06778	4.44192	1.32013	5.5124	1.60811	6.66487	1.79397	7.43454	2.16496	8.98479	0.634572	2.65206	1.62407	2.60887	1.07359	4.44257	1.30927	5.45495	1.55542	6.48877	1.91099	7.97643	2.07017	8.5886
1.59409	2.51862	1.58761	2.51801	0.80856	3.30037	1.07303	4.41068	1.32252	5.4565	1.6118	6.60104	1.79674	7.35786	2.16557	8.88074	0.639207	2.63952	1.61644	2.60873	1.07715	4.40461	1.31408	5.40981	1.55761	6.42044	1.91242	7.88715	2.07432	8.50378
1.58635	2.51789	1.57987	2.51728	0.811767	3.2748	1.07825	4.38008	1.32501	5.40229	1.61544	6.53849	1.79961	7.28333	2.16621	8.77923	0.643902	2.62752	1.60881	2.60859	1.08085	4.36805	1.31887	5.36561	1.55989	6.35405	1.91383	7.79993	2.07852	8.42114
1.57861	2.51716	1.57213	2.51656	0.815005	3.24994	1.08345	4.35008	1.32759	5.34973	1.61903	6.47719	1.80257	7.21089	2.16687	8.68016	0.648664	2.61607	1.60117	2.60845	1.08467	4.33285	1.32362	5.32231	1.56224	6.28954	1.91523	7.7147	2.08277	8.3406
1.57087	2.51644	1.5644	2.51583	0.818276	3.22577	1.08862	4.32066	1.33027	5.29875	1.62257	6.41709	1.80562	7.14046	2.16756	8.58346	0.653496	2.60517	1.59353	2.60829	1.08863	4.299	1.32834	5.27988	1.56468	6.22685	1.91663	7.6314	2.08705	8.26206
1.56314	2.51571	1.55667	2.5151	0.821582	3.20229	1.09376	4.29177	1.33304	5.24931	1.62605	6.35814	1.80876	7.07198	2.16827	8.48904	0.658405	2.59482	1.58589	2.60814	1.09273	4.26644	1.33302	5.23827	1.5672	6.16591	1.91802	7.54999	2.09138	8.18545
1.55542	2.51498	1.54895	2.51437	0.824926	3.17948	1.09885	4.26338	1.33591	5.20137	1.62949	6.30032	1.81198	7.00538	2.16901	8.39684	0.663397	2.58503	1.57825	2.60797	1.09697	4.23516	1.33767	5.19745	1.56981	6.10669	1.9194	7.47039	2.09574	8.1107
1.54769	2.51425	1.54123	2.51364	0.828308	3.15732	1.10391	4.23547	1.33888	5.15488	1.63287	6.24358	1.8153	6.94058	2.16977	8.30678	0.668481	2.57581	1.57061	2.60781	1.10135	4.20513	1.34228	5.15739	1.57251	6.04912	1.92079	7.39257	2.10013	8.03774
1.53998	2.51353	1.53352	2.51292	0.831732	3.13579	1.10892	4.20801	1.34195	5.1098	1.63621	6.18789	1.8187	6.87754	2.17057	8.2188	0.673665	2.56717	1.56296	2.60764	1.10588	4.17631	1.34684	5.11805	1.57529	5.99314	1.92218	7.31646	2.10456	7.96649
1.53226	2.5128	1.52581	2.51219	0.835198	3.11489	1.11389	4.18097	1.34512	5.06608	1.63949	6.13323	1.82219	6.81618	2.17138	8.13282	0.678959	2.55914	1.55532	2.60747	1.11056	4.14866	1.35137	5.07941	1.57817	5.93872	1.92357	7.24202	2.10902	7.89689
1.52455	2.51208	1.5181	2.51147	0.838708	3.0946	1.11881	4.15433	1.3484	5.02368	1.64273	6.07956	1.82577	6.75645	2.17223	8.04879	0.684378	2.55174	1.54767	2.60729	1.11539	4.12216	1.35585	5.04144	1.58113	5.88581	1.92496	7.16919	2.1135	7.82888
1.51685	2.51135	1.51041	2.51075	0.842265	3.07491	1.12368	4.12807	1.35177	4.98256	1.64592	6.02686	1.82943	6.69829	2.1731	7.96665	0.689934	2.54501	1.54003	2.60712	1.12037	4.09677	1.36028	5.00411	1.58418	5.83434	1.92636	7.09795	2.118	7.7624
1.50915	2.51063	1.50271	2.51003	0.845869	3.0558	1.12849	4.10217	1.35525	4.94269	1.64907	5.97511	1.83316	6.64163	2.17401	7.88633	0.695643	2.53898	1.53239	2.60695	1.1255	4.07245	1.36467	4.96741	1.58732	5.78429	1.92777	7.02824	2.12253	7.6974
1.50146	2.50992	1.49503	2.50932	0.849523	3.03726	1.13326	4.07661	1.35883	4.90402	1.65218	5.92427	1.83698	6.58644	2.17494	7.8078	0.701518	2.53367	1.52475	2.60678	1.13077	4.04917	1.36902	4.93132	1.59055	5.7356	1.92919	6.96001	2.12708	7.63381
1.49378	2.5092	1.48735	2.50861	0.853228	3.01928	1.13796	4.05138	1.36252	4.86651	1.65525	5.87434	1.84087	6.53265	2.1759	7.73098	0.707572	2.52912	1.51711	2.60661	1.1362	4.02687	1.37332	4.8958	1.59387	5.68823	1.93062	6.89324	2.13164	7.5716
1.4861	2.50849	1.47967	2.5079	0.856985	3.00185	1.14261	4.02646	1.3663	4.83014	1.65827	5.82529	1.84484	6.48021	2.1769	7.65584	0.713814	2.52532	1.50948	2.60645	1.14176	4.00554	1.37758	4.86086	1.59727	5.64215	1.93207	6.82788	2.13622	7.51069
1.47843	2.50778	1.47201	2.5072	0.860798	2.98497	1.1472	4.00184	1.37019	4.79486	1.66127	5.77711	1.84888	6.42907	2.17793	7.58232	0.720246	2.52227	1.50185	2.60629	1.14747	3.98511	1.38179	4.82646	1.60077	5.5973	1.93352	6.76389	2.14081	7.45106
1.47076	2.50708	1.46435	2.5065	0.864667	2.96861	1.15173	3.97752	1.37418	4.76063	1.66423	5.72977	1.85299	6.37919	2.17899	7.51039	0.726865	2.51992	1.49422	2.60614	1.15331	3.96556	1.38596	4.7926	1.60435	5.55364	1.935	6.70124	2.14541	7.39265
1.4631	2.50639	1.4567	2.50581	0.868595	2.95277	1.1562	3.95347	1.37827	4.72742	1.66716	5.68327	1.85716	6.33052	2.18008	7.43999	0.733658	2.51822	1.48661	2.606	1.15928	3.94684	1.39009	4.75927	1.60801	5.51114	1.93649	6.6399	2.15002	7.33542
1.45545	2.5057	1.44905	2.50512	0.872583	2.93744	1.16061	3.92969	1.38245	4.69519	1.67006	5.63758	1.86139	6.283	2.18121	7.37108	0.740611	2.51709	1.479	2.60588	1.16538	3.92891	1.39417	4.72645	1.61176	5.46976	1.938	6.57983	2.15464	7.27933
1.44781	2.50501	1.44142	2.50445	0.876634	2.92262	1.16497	3.90618	1.38673	4.66391	1.67294	5.59269	1.86568	6.2366	2.18238	7.30363	0.747704	2.51646	1.4714	2.60577	1.17159	3.91172	1.39822	4.69414	1.61559	5.42946	1.93954	6.521	2.15926	7.22434
1.44018	2.50434	1.43379	2.50378	0.880749	2.9083	1.16926	3.88293	1.39111	4.63355	1.6758	5.5486	1.87003	6.19127	2.18358	7.23759	0.754917	2.51624	1.46381	2.60567	1.17792	3.89524	1.40223	4.66232	1.6195	5.3902	1.94109	6.46337	2.16388	7.1704
1.43255	2.50367	1.42617	2.50312	0.884932	2.89446	1.17351	3.85994	1.39557	4.60406	1.67865	5.50528	1.87443	6.14698	2.18482	7.17292	0.762233	2.51637	1.45623	2.6056	1.18436	3.87942	1.4062	4.63099	1.62348	5.35195	1.94267	6.40692	2.16849	7.11748
1.42493	2.50301	1.41856	2.50247	0.889185	2.88112	1.17769	3.8372	1.40013	4.57543	1.68147	5.46274	1.87889	6.10368	2.18609	7.1096	0.769635	2.51677	1.44867	2.60555	1.1909	3.86423	1.41014	4.60014	1.62754	5.31466	1.94428	6.35163	2.17311	7.06555
1.41733	2.50236	1.41096	2.50183	0.89351	2.86825	1.18182	3.8147	1.40477	4.5476	1.68429	5.42094	1.88338	6.06134	2.18741	7.04759	0.777107	2.51739	1.44112	2.60554	1.19753	3.84962	1.41405	4.56977	1.63168	5.27831	1.94591	6.29746	2.17772	7.01456
1.40973	2.50173	1.40338	2.5012	0.897911	2.85586	1.1859	3.79246	1.40949	4.52055	1.6871	5.3799	1.88792	6.01991	2.18877	6.98684	0.784638	2.5182	1.4336	2.60556	1.20425	3.83556	1.41793	4.53987	1.63589	5.24286	1.94757	6.24438	2.18232	6.96449
1.40214	2.5011	1.3958	2.50059	0.902392	2.84395	1.18992	3.77045	1.41429	4.49426	1.6899	5.33958	1.8925	5.97936	2.19016	6.92734	0.792217	2.51914	1.4261	2.60562	1.21105	3.82201	1.42178	4.51044	1.64016	5.20828	1.94926	6.19238	2.18691	6.91531
1.39457	2.50049	1.38823	2.49999	0.906954	2.83251	1.1939	3.7487	1.41916	4.46867	1.6927	5.3	1.89712	5.93967	2.1916	6.86906	0.799837	2.52018	1.41862	2.60574	1.21793	3.80893	1.42561	4.48148	1.6445	5.17453	1.95099	6.14142	2.19148	6.86697
1.387	2.49989	1.38068	2.4994	0.911604	2.82154	1.19783	3.72719	1.42411	4.44378	1.6955	5.26113	1.90177	5.90078	2.19309	6.81195	0.80749	2.52132	1.41118	2.60592	1.22487	3.79629	1.42943	4.45299	1.6489	5.14158	1.95274	6.09149	2.19605	6.81946
1.37945	2.49931	1.37314	2.49884	0.916344	2.81104	1.20171	3.70592	1.42912	4.41954	1.69831	5.22297	1.90645	5.86269	2.19462	6.756	0.81517	2.52252	1.40378	2.60617	1.23186	3.78405	1.43323	4.42496	1.65336	5.1094	1.95453	6.04255	2.20059	6.77275
1.37191	2.49875	1.36561	2.49829	0.921178	2.80102	1.20556	3.68489	1.4342	4.39592	1.70113	5.1855	1.91115	5.82534	2.19619	6.70118	0.822874	2.52377	1.39642	2.6065	1.23891	3.77219	1.43702	4.39739	1.65787	5.07796	1.95636	5.9946		
1.36439	2.4982	1.35809	2.49776	0.926112	2.79147	1.20936	3.66412	1.43934	4.3729	1.70396	5.14873	1.91588	5.78872	2.19781	6.64746	0.830596	2.52505	1.38911	2.60693	1.24601	3.76067	1.44081	4.3703	1.66244	5.04723	1.95823	5.9476		
1.35687	2.49767	1.35059	2.49725	0.931149	2.7824	1.21312	3.64358	1.44453	4.35044	1.7068	5.11264	1.92063	5.75279	2.19948	6.59481	0.838335	2.52636	1.38186	2.60748	1.25314	3.74947	1.44459	4.34367	1.66705	5.01718	1.96013	5.90153		
1.34938	2.49716	1.34311	2.49676	0.936295	2.7738	1.21684	3.6233	1.44978	4.32853	1.70967	5.07722	1.92539	5.71753	2.2012	6.54321	0.846087	2.52769	1.37468	2.60817	1.2603	3.73854	1.44838	4.3175	1.67171	4.98779	1.96208	5.85639		
1.34189	2.49668	1.33564	2.4963	0.941553	2.76568	1.22054	3.60326	1.45507	4.30713	1.71255	5.04247	1.93017	5.68291			0.853851	2.52903	1.36758	2.60902	1.26749	3.72787	1.45218	4.29182	1.67641	4.95902	1.96406	5.81214		
1.33443	2.49622	1.32819	2.49586	0.946928	2.75803	1.2242	3.58347	1.4604	4.28621	1.71546	5.00838	1.93496	5.64891			0.861624	2.53038	1.36057	2.61005	1.27469	3.71743	1.45599	4.2666	1.68115	4.93085	1.96609	5.76877		
1.32698	2.49579	1.32075	2.49545	0.952423	2.75086	1.22783	3.56393	1.46577	4.26576	1.71839	4.97494	1.93976	5.6155			0.869405	2.53172	1.35366	2.61128	1.2819	3.70719	1.45981	4.24187	1.68593	4.90326	1.96817	5.72626		
1.31954	2.49539	1.31333	2.49507	0.95804	2.74416	1.23144	3.54464	1.47117	4.24574	1.72136	4.94215	1.94457	5.58266			0.877193	2.53306	1.34686	2.61275	1.28912	3.69713	1.46367	4.21761	1.69074	4.87621	1.97029	5.6846		
1.31213	2.49501	1.30594	2.49473	0.963781	2.73792	1.23502	3.52561	1.4766	4.22614	1.72436	4.90999	1.94937	5.55037			0.884986	2.5344	1.34019	2.61446	1.29633	3.68722	1.46755	4.19385	1.69557	4.8497	1.97246	5.64376		
1.30474	2.49467	1.29856	2.49442	0.969646	2.73213	1.23859	3.50682	1.48206	4.20692	1.7274	4.87847	1.95418	5.5186			0.892784	2.53573	1.33363	2.61645	1.30352	3.67743	1.47147	4.17057	1.70043	4.82369	1.97468	5.60374		
1.29736	2.49437	1.2912	2.49414	0.975635	2.72678	1.24213	3.48829	1.48753	4.18807	1.73049	4.84757	1.95898	5.48734			0.900585	2.53704	1.32721	2.61871	1.3107	3.66775	1.47543	4.1478	1.70531	4.79816	1.97695	5.56451		
1.29001	2.4941	1.28387	2.49391	0.981746	2.72186	1.24566	3.47	1.49302	4.16957	1.73361	4.81729	1.96378	5.45657			0.90839	2.53834	1.32092	2.62126	1.31785	3.65815	1.47944	4.12552	1.7102	4.77309	1.97928	5.52606		
1.28268	2.49387	1.27655	2.49372	0.987973	2.71733	1.24917	3.45197	1.49852	4.15139	1.73678	4.78763	1.96857	5.42626			0.916197	2.53963	1.31476	2.6241	1.32497	3.64861	1.48351	4.10376	1.71511	4.74846	1.98166	5.48838		
1.27537	2.49369	1.26927	2.49357	0.994314	2.71319	1.25267	3.43419	1.50402	4.13352	1.74	4.75856	1.97334	5.3964			0.924005	2.54091	1.30873	2.62722	1.33204	3.63911	1.48763	4.08251	1.72003	4.72425	1.98409	5.45145		
1.26808	2.49355	1.262	2.49347	1.00076	2.70939	1.25616	3.41667	1.50953	4.11593	1.74328	4.7301	1.97811	5.36698			0.931815	2.54216	1.30281	2.63061	1.33907	3.62962	1.49183	4.06179	1.72496	4.70044	1.98658	5.41526		
1.26083	2.49346	1.25477	2.49342	1.00731	2.70593	1.25964	3.39939	1.51503	4.09861	1.74661	4.70223	1.98286	5.33797			0.939626	2.5434	1.297	2.63427	1.34603	3.62012	1.4961	4.04159	1.72989	4.67701	1.98913	5.37979		
1.25359	2.49342	1.24756	2.49343	1.01395	2.70277	1.26312	3.38237	1.52052	4.08153	1.75	4.67495	1.98759	5.30937			0.947437	2.54462	1.2913	2.63818	1.35294	3.6106	1.50046	4.02194	1.73482	4.65395	1.99174	5.34504		
1.24639	2.49343	1.24038	2.49349	1.02068	2.69989	1.26659	3.3656	1.52601	4.06469	1.75345	4.64825	1.9923	5.28115			0.955248	2.54582	1.28569	2.64234	1.35977	3.60103	1.50491	4.00282	1.73975	4.63124	1.99441	5.31098		
1.23921	2.49351	1.23323	2.49361	1.02748	2.69725	1.27006	3.34907	1.53147	4.04807	1.75696	4.62213	1.99699	5.2533			0.963059	2.54701	1.28016	2.64672	1.36652	3.59141	1.50945	3.98425	1.74468	4.60886	1.99715	5.27761		
1.23207	2.49364	1.22611	2.4938	1.03436	2.69485	1.27352	3.3328	1.53692	4.03165	1.76054	4.59657	2.00166	5.22581			0.97087	2.54817	1.27472	2.65131	1.37319	3.5817	1.5141	3.96624	1.7496	4.58681	1.99995	5.24492		
1.22495	2.49384	1.21902	2.49406	1.0413	2.69264	1.27699	3.31677	1.54235	4.01541	1.76419	4.57157	2.0063	5.19867			0.978679	2.54931	1.26935	2.65612	1.37976	3.5719	1.51886	3.94878	1.7545	4.56505	2.00281	5.21288		
1.21787	2.49411	1.21196	2.49438	1.04831	2.69063	1.28046	3.30098	1.54774	3.99934	1.76791	4.54713	2.01091	5.17186			0.986487	2.55044	1.26405	2.66113	1.38623	3.56198	1.52373	3.93189	1.75939	4.54359	2.00574	5.1815		
1.21082	2.49444	1.20494	2.49479	1.05536	2.68877	1.28394	3.28544	1.55311	3.98343	1.77171	4.52324	2.01549	5.14537			0.994294	2.55154	1.25881	2.66634	1.3926	3.55195	1.52873	3.91556	1.76427	4.5224	2.00873	5.15075		
1.2038	2.49486	1.19796	2.49527	1.06246	2.68707	1.28742	3.27015	1.55844	3.96767	1.77558	4.49989	2.02005	5.1192			1.0021	2.55262	1.25363	2.67174	1.39886	3.54178	1.53386	3.8998	1.76913	4.50148	2.0118	5.12063		
1.19682	2.49535	1.19101	2.49583	1.06961	2.68549	1.29091	3.25509	1.56374	3.95205	1.77952	4.47707	2.02457	5.09333			1.0099	2.55368	1.2485	2.67732	1.405	3.53147	1.53911	3.8846	1.77397	4.48082	2.01493	5.09112		
1.18988	2.49593	1.1841	2.49648	1.07679	2.68404	1.2944	3.24027	1.56899	3.93655	1.78355	4.45478	2.02906	5.06775			1.0177	2.55472	1.24343	2.68309	1.41103	3.52101	1.54451	3.86997	1.77879	4.46039	2.01814	5.06222		
1.18298	2.4966	1.17722	2.49722	1.08401	2.68269	1.29791	3.22569	1.5742	3.92117	1.78765	4.43301	2.03352	5.04246			1.0255	2.55574	1.23841	2.68904	1.41693	3.51041	1.55005	3.85589	1.78358	4.4402	2.02141	5.03391		
1.17611	2.49735	1.17039	2.49806	1.09126	2.68143	1.30143	3.21135	1.57936	3.90589	1.79184	4.41175	2.03795	5.01745			1.0333	2.55674	1.23344	2.69517	1.42271	3.49965	1.55572	3.84237	1.78834	4.42024	2.02475	5.00618		
1.16929	2.4982	1.1636	2.49899	1.09854	2.68026	1.30495	3.19724	1.58448	3.89071	1.79611	4.391	2.04234	4.9927			1.04109	2.55772	1.22851	2.70148	1.42837	3.48874	1.56154	3.82938	1.79308	4.40049	2.02817	4.97902		
1.1625	2.49915	1.15685	2.50002	1.10584	2.67917	1.3085	3.18336	1.58954	3.87562	1.80047	4.37073	2.0467	4.96822			1.04888	2.55867	1.22363	2.70797	1.4339	3.47769	1.5675	3.81693	1.79779	4.38094	2.03166	4.95242		
1.15576	2.5002	1.15014	2.50115	1.11316	2.67814	1.31205	3.1697	1.59456	3.86061	1.8049	4.35095	2.05102	4.944			1.05667	2.5596	1.21879	2.71463	1.43931	3.46649	1.57361	3.80499	1.80247	4.3616	2.03522	4.92636		
1.14905	2.50135	1.14347	2.5024	1.1205	2.67717	1.31562	3.15628	1.59951	3.84568	1.80942	4.33164	2.05531	4.92003			1.06445	2.56051	1.21399	2.72148	1.44461	3.45517	1.57985	3.79356	1.80711	4.34245	2.03885	4.90084		
1.14239	2.50261	1.13685	2.50375	1.12786	2.67626	1.31921	3.14307	1.60442	3.83083	1.81403	4.3128	2.05956	4.89631			1.07223	2.5614	1.20923	2.7285	1.44978	3.44372	1.58623	3.7826	1.81173	4.3235	2.04256	4.87584		
1.13578	2.50398	1.13027	2.50522	1.13524	2.6754	1.32282	3.13009	1.60926	3.81605	1.81871	4.29441	2.06378	4.87283			1.08	2.56227	1.20451	2.73571	1.45484	3.43216	1.59274	3.77212	1.81631	4.30472	2.04633	4.85136		
1.12921	2.50547	1.12373	2.5068	1.14263	2.67459	1.32644	3.11733	1.61405	3.80133	1.82348	4.27647	2.06796	4.8496			1.08777	2.56311	1.19983	2.74309	1.45979	3.42049	1.59938	3.76207	1.82086	4.28612	2.05018	4.82738		
1.12268	2.50707	1.11724	2.5085	1.15003	2.67381	1.33008	3.10478	1.61878	3.78667	1.82833	4.25896	2.07212	4.8266			1.09553	2.56393	1.19518	2.75066	1.46464	3.40875	1.60615	3.75245	1.82538	4.2677	2.05409	4.80388		
1.11619	2.50879	1.11079	2.51033	1.15745	2.67307	1.33375	3.09245	1.62345	3.77208	1.83327	4.24186	2.07624	4.80383			1.10329	2.56472	1.19058	2.75842	1.46938	3.39693	1.61303	3.74323	1.82987	4.24945	2.05808	4.78086		
1.10975	2.51064	1.10439	2.51227	1.16487	2.67237	1.33743	3.08033	1.62807	3.75755	1.83828	4.22518	2.08033	4.7813			1.11104	2.56549	1.186	2.76636	1.47404	3.38505	1.62002	3.73439	1.83432	4.23137	2.06214	4.75831		
1.10335	2.5126	1.09802	2.51434	1.1723	2.67169	1.34113	3.06842	1.63262	3.74308	1.84336	4.20889	2.08439	4.759			1.11878	2.56623	1.18146	2.77449	1.4786	3.37313	1.62712	3.72591	1.83874	4.21345	2.06626	4.73621		
1.09699	2.51469	1.0917	2.51654	1.17974	2.67104	1.34486	3.05672	1.63712	3.72866	1.84853	4.19298	2.08843	4.73693			1.12652	2.56695	1.17696	2.78281	1.48309	3.36118	1.63432	3.71777	1.84313	4.19571	2.07045	4.71455		
1.09068	2.51691	1.08542	2.51886	1.18719	2.67041	1.34861	3.04522	1.64156	3.71431	1.85376	4.17745	2.09244	4.71509			1.13425	2.56763	1.17248	2.79133	1.48749	3.34921	1.6416	3.70993	1.84749	4.17812	2.0747	4.69332		
1.08441	2.51925	1.07919	2.52131	1.19464	2.66981	1.35238	3.03392	1.64595	3.70002	1.85906	4.16227	2.09642	4.69347			1.14197	2.56829	1.16804	2.80004	1.49183	3.33724	1.64897	3.70239	1.85183	4.1607	2.07901	4.67251		
1.07818	2.52172	1.07299	2.52388	1.2021	2.66922	1.35617	3.02282	1.65028	3.68579	1.86444	4.14744	2.10038	4.67209			1.14968	2.56892	1.16364	2.80894	1.4961	3.32528	1.65642	3.69512	1.85613	4.14345	2.08339	4.65211		
1.07198	2.52431	1.06683	2.52658	1.20956	2.66865	1.35999	3.01192	1.65456	3.67162	1.86987	4.13294	2.10433	4.65094			1.15738	2.56952	1.15926	2.81805	1.50031	3.31335	1.66394	3.68809	1.86041	4.12637	2.08783	4.6321		
1.06583	2.52703	1.0607	2.5294	1.21703	2.6681	1.36384	3.00121	1.65878	3.65752	1.87537	4.11876	2.10825	4.63001			1.16507	2.57008	1.15491	2.82736	1.50447	3.30144	1.67153	3.6813	1.86467	4.10945	2.09232	4.61247		
1.05971	2.52988	1.05462	2.53235	1.2245	2.66756	1.36771	2.99069	1.66296	3.64349	1.88092	4.10488	2.11216	4.60932			1.17274	2.57061	1.15059	2.83688	1.50858	3.28958	1.67917	3.67472	1.86891	4.0927	2.09687	4.5932		
1.05363	2.53284	1.04856	2.53542	1.23197	2.66703	1.37161	2.98037	1.66709	3.62953	1.88653	4.0913	2.11606	4.58886			1.1804	2.5711	1.1463	2.8466	1.51265	3.27777	1.68686	3.66833	1.87313	4.07613	2.10147	4.5743		
1.04758	2.53593	1.04253	2.53861	1.23944	2.66651	1.37554	2.97023	1.67116	3.61564	1.89219	4.07799	2.11995	4.56863			1.18804	2.57154	1.14204	2.85653	1.51667	3.26602	1.69459	3.66212	1.87734	4.05973	2.10612	4.55574		
1.04156	2.53913	1.03654	2.54191	1.24692	2.666	1.37949	2.96028	1.6752	3.60183	1.8979	4.06495	2.12383	4.54864			1.19567	2.57194	1.1378	2.86667	1.52066	3.25434	1.70236	3.65606	1.88154	4.04351	2.11082	4.53751		
1.03556	2.54245	1.03056	2.54531	1.25439	2.6655	1.38347	2.95051	1.67919	3.5881	1.90365	4.05216	2.1277	4.52889			1.20327	2.57229	1.13359	2.87703	1.52462	3.24274	1.71017	3.65014	1.88572	4.02747	2.11556	4.51961		
1.0296	2.54588	1.02461	2.54883	1.26187	2.665	1.38748	2.94092	1.68314	3.57445	1.90944	4.03961	2.13158	4.50937			1.21085	2.57259	1.1294	2.8876	1.52855	3.23122	1.71799	3.64434	1.88991	4.01163	2.12035	4.50202		
1.02365	2.54941	1.01868	2.55243	1.26934	2.6645	1.39152	2.93151	1.68705	3.56088	1.91526	4.02729	2.13545	4.4901			1.2184	2.57282	1.12524	2.89839	1.53246	3.2198	1.72584	3.63866	1.89409	3.99597	2.12518	4.48472		
1.01772	2.55303	1.01276	2.55613	1.27681	2.66401	1.39559	2.92228	1.69093	3.5474	1.92111	4.01517	2.13933	4.47107			1.22592	2.57299	1.1211	2.9094	1.53635	3.20846	1.73369	3.63306	1.89828	3.98052	2.13004	4.46771		
1.0118	2.55674	1.00686	2.55991	1.28428	2.66352	1.39969	2.91322	1.69477	3.53401	1.927	4.00326	2.14322	4.45228			1.23341	2.57308	1.11698	2.92063	1.54021	3.19723	1.74155	3.62754	1.90248	3.96527	2.13493	4.45097		
1.0059	2.56053	1.00095	2.56375	1.29174	2.66303	1.40383	2.90434	1.69857	3.52071	1.9329	3.99154	2.14713	4.43375			1.24085	2.57309	1.11288	2.93209	1.54407	3.1861	1.74941	3.62209	1.90669	3.95023	2.13986	4.4345		
0.999992	2.56438	0.995047	2.56765	1.29921	2.66254	1.40799	2.89562	1.70235	3.50751	1.93882	3.97999	2.15104	4.41546			1.24825	2.573	1.1088	2.94377	1.54791	3.17508	1.75725	3.61667	1.91092	3.93541	2.14481	4.41829		
0.994086	2.56829	0.989135	2.57159	1.30667	2.66204	1.41219	2.88708	1.7061	3.49441	1.94475	3.96861	2.15498	4.39742			1.2556	2.57281	1.10473	2.95568	1.55174	3.16416	1.76508	3.61129	1.91517	3.92082	2.14979	4.40231		
0.988173	2.57223	0.983211	2.57556	1.31412	2.66154	1.41642	2.8787	1.70982	3.4814	1.95069	3.95738	2.15893	4.37965			1.26289	2.57249	1.10069	2.96782	1.55557	3.15336	1.77289	3.60592	1.91946	3.90647	2.1548	4.38657		
0.982246	2.5762	0.977267	2.57953	1.32156	2.66103	1.42068	2.87049	1.71351	3.4685	1.95664	3.94628	2.16291	4.36213			1.27011	2.57205	1.09665	2.98019	1.55939	3.14268	1.78067	3.60056	1.92379	3.89236	2.15981	4.37105		
0.976298	2.58017	0.971296	2.58349	1.329	2.66052	1.42498	2.86245	1.71719	3.4557	1.96259	3.93532	2.16692	4.34487			1.27725	2.57145	1.09263	2.99278	1.56321	3.13212	1.7884	3.59517	1.92816	3.8785	2.16485	4.35575		
0.970322	2.58413	0.96529	2.58743	1.33644	2.66	1.42931	2.85457	1.72084	3.44301	1.96853	3.92448	2.17096	4.32787			1.28432	2.5707	1.08862	3.0056	1.56702	3.12167	1.79609	3.58976	1.93258	3.86492	2.1699	4.34064		
0.964311	2.58806	0.959243	2.59131	1.34386	2.65946	1.43368	2.84686	1.72447	3.43043	1.97447	3.91374	2.17504	4.31114			1.29129	2.56977	1.08461	3.01866	1.57084	3.11135	1.80373	3.5843	1.93707	3.85161	2.17496	4.32573		
0.958256	2.59193	0.953147	2.59512	1.35127	2.65891	1.43809	2.8393	1.72809	3.41796	1.98039	3.9031	2.17916	4.29468			1.29816	2.56866	1.08062	3.03194	1.57466	3.10114	1.8113	3.57877	1.94162	3.83858	2.18002	4.311		
0.952151	2.59573	0.946995	2.59883	1.35868	2.65835	1.44254	2.83191	1.73169	3.4056	1.98629	3.89255	2.18332	4.27849			1.30493	2.56737	1.07662	3.04545	1.57848	3.09106	1.81879	3.57316	1.94625	3.82586	2.18509	4.29645		
0.94599	2.59943	0.940782	2.60244	1.36607	2.65777	1.44703	2.82468	1.73528	3.39335	1.99218	3.88207	2.18752	4.26257			1.31161	2.5659	1.07263	3.05919	1.58231	3.08111	1.82621	3.56745	1.95097	3.81346	2.19016	4.28206		
0.939766	2.60301	0.934501	2.60592	1.37345	2.65717	1.45155	2.81761	1.73885	3.38122	1.99803	3.87166	2.19178	4.24692			1.31818	2.56425	1.06864	3.07315	1.58614	3.07127	1.83353	3.56163	1.95579	3.80138	2.19522	4.26783		
0.933474	2.60647	0.928149	2.60925	1.38081	2.65655	1.45612	2.8107	1.74242	3.3692	2.00386	3.86131	2.19609	4.23156			1.32466	2.56244	1.06464	3.08733	1.58998	3.06156	1.84075	3.55568	1.96071	3.78963	2.20028	4.25375		
0.92711	2.60978	0.921724	2.61243	1.38815	2.6559	1.46074	2.80395	1.74597	3.3573	2.00966	3.85101	2.20045	4.21646			1.33106	2.56049	1.06063	3.10173	1.59383	3.05198	1.84786	3.54959	1.96574	3.77824				
0.920672	2.61293	0.915222	2.61544	1.39548	2.65523	1.4654	2.79737	1.74952	3.34552	2.01541	3.84076					1.33738	2.55841	1.05662	3.11635	1.59769	3.04252	1.85486	3.54333	1.9709	3.76721				
0.914159	2.61592	0.908646	2.61829	1.40279	2.65452	1.47011	2.79094	1.75307	3.33385	2.02113	3.83054					1.34363	2.55623	1.05259	3.13117	1.60156	3.03319	1.86172	3.5369	1.97619	3.75655				
0.90757	2.61874	0.901995	2.62097	1.41007	2.65378	1.47486	2.78468	1.7566	3.3223	2.0268	3.82034					1.34983	2.55397	1.04854	3.1462	1.60545	3.02397	1.86845	3.53029	1.98161	3.74627				
0.900907	2.62139	0.895272	2.62349	1.41733	2.653	1.47967	2.77859	1.76014	3.31087	2.03242	3.81017					1.35599	2.55166	1.04447	3.16143	1.60934	3.01489	1.87504	3.52348	1.98719	3.73638				
0.894172	2.62388	0.88848	2.62584	1.42456	2.65217	1.48453	2.77266	1.76367	3.29956	2.03799	3.80001					1.36211	2.54931	1.04037	3.17684	1.61325	3.00592	1.88147	3.51646	1.99292	3.72688				
0.88737	2.62621	0.881622	2.62804	1.43176	2.6513	1.48945	2.7669	1.7672	3.28837	2.04351	3.78985					1.36821	2.54693	1.03625	3.19244	1.61718	2.99708	1.88776	3.50924	1.9988	3.71777				
0.880502	2.62838	0.874704	2.63009	1.43893	2.65038	1.49443	2.76131	1.77073	3.27731	2.04897	3.77971					1.37429	2.54455	1.03209	3.20822	1.62111	2.98836	1.89389	3.5018	2.00485	3.70907				
0.873574	2.63041	0.867728	2.63201	1.44606	2.6494	1.49947	2.7559	1.77426	3.26636	2.05437	3.76956					1.38036	2.54217	1.02789	3.22415	1.62507	2.97976	1.89986	3.49415	2.01106	3.70075				
0.86659	2.63231	0.860701	2.6338	1.45315	2.64835	1.50458	2.75066	1.7778	3.25553	2.05971	3.7594					1.38643	2.53981	1.02365	3.24024	1.62904	2.97128	1.90567	3.4863	2.01743	3.69282				
0.859554	2.63408	0.853625	2.63548	1.4602	2.64724	1.50976	2.74561	1.78133	3.24482	2.06499	3.74924					1.39249	2.53747	1.01936	3.25648	1.63303	2.96292	1.91133	3.47824	2.02397	3.68527				
0.852471	2.63574	0.846506	2.63705	1.46719	2.64605	1.51501	2.74074	1.78487	3.23423	2.0702	3.73907					1.39856	2.53517	1.01501	3.27284	1.63703	2.95468	1.91683	3.46999	2.03066	3.67809				
0.845345	2.63729	0.839346	2.63852	1.47414	2.64477	1.52034	2.73606	1.78842	3.22375	2.07535	3.72889					1.40463	2.5329	1.01061	3.28932	1.64105	2.94656	1.92219	3.46156	2.03751	3.67126				
0.83818	2.63875	0.832151	2.6399	1.48103	2.64341	1.52575	2.73158	1.79197	3.2134	2.08043	3.71869					1.41072	2.53068	1.00614	3.30591	1.6451	2.93856	1.9274	3.45295	2.0445	3.66476				
0.830978	2.64012	0.824923	2.64121	1.48785	2.64196	1.53125	2.7273	1.79553	3.20317	2.08544	3.70847					1.41682	2.5285	1.00161	3.32258	1.64916	2.93067	1.93247	3.4442	2.05164	3.65859				
0.823745	2.64141	0.817665	2.64244	1.49461	2.6404	1.53683	2.72322	1.79909	3.19305	2.09039	3.69824					1.42293	2.52637	0.996997	3.33933	1.65324	2.92289	1.93741	3.4353	2.05891	3.65272				
0.816483	2.64264	0.810381	2.64361	1.50131	2.63875	1.54251	2.71934	1.80267	3.18305	2.09526	3.688					1.42907	2.5243	0.992309	3.35615	1.65734	2.91523	1.94224	3.42628	2.06631	3.64713				
0.809195	2.6438	0.803072	2.64473	1.50793	2.63698	1.54828	2.71567	1.80625	3.17317	2.10007	3.67774					1.43522	2.52228	0.987539	3.37301	1.66145	2.90769	1.94695	3.41715	2.07383	3.64181				
0.801882	2.6449	0.795742	2.64579	1.51448	2.63511	1.55416	2.71221	1.80984	3.16341	2.10481	3.66746					1.44139	2.52031	0.982682	3.38991	1.66559	2.90025	1.95155	3.40792	2.08146	3.63673				
0.794549	2.64596	0.788392	2.64681	1.52096	2.63313	1.56013	2.70896	1.81344	3.15376	2.10949	3.65718					1.44758	2.5184	0.977734	3.40683	1.66976	2.89293	1.95605	3.39862	2.08919	3.63189				
0.787196	2.64697	0.781025	2.64779	1.52736	2.63104	1.5662	2.70592	1.81706	3.14423	2.1141	3.64688					1.4538	2.51655	0.972692	3.42377	1.67394	2.88571	1.96046	3.38925	2.09702	3.62725				
0.779826	2.64794	0.773642	2.64873	1.53369	2.62884	1.57238	2.70308	1.82068	3.13481	2.11864	3.63658					1.46004	2.51476	0.967553	3.44072	1.67814	2.87861	1.96479	3.37984	2.10493	3.62281				
0.772441	2.64888	0.766245	2.64964	1.53995	2.62655	1.57865	2.70044	1.82432	3.1255	2.12313	3.62627					1.4663	2.51302	0.962316	3.45766	1.68237	2.87161	1.96905	3.37039	2.11292	3.61854				
0.765041	2.64979	0.758835	2.65053	1.54614	2.62416	1.58502	2.69798	1.82797	3.11631	2.12755	3.61596					1.47258	2.51134	0.956979	3.47459	1.68662	2.86472	1.97323	3.36091	2.12098	3.61444				
0.757629	2.65067	0.751413	2.65139	1.55226	2.62168	1.59149	2.69571	1.83163	3.10723	2.13192	3.60565					1.47889	2.50973	0.951542	3.49152	1.69089	2.85793	1.97735	3.35142	2.1291	3.61048				
0.750206	2.65153	0.743981	2.65224	1.55833	2.61913	1.59804	2.69362	1.8353	3.09826	2.13622	3.59535					1.48523	2.50817	0.946003	3.50843	1.69518	2.85125	1.98142	3.34193	2.13727	3.60666				
0.742773	2.65238	0.736541	2.65307	1.56434	2.6165	1.60468	2.69168	1.83899	3.0894	2.14047	3.58505					1.49159	2.50666	0.940365	3.52534	1.6995	2.84467	1.98543	3.33244	2.1455	3.60295				
0.735331	2.65321	0.729092	2.65389	1.57029	2.61382	1.61139	2.6899	1.84269	3.08065	2.14467	3.57476					1.49798	2.50522	0.934629	3.54225	1.70384	2.8382	1.9894	3.32297	2.15376	3.59935				
0.727881	2.65402	0.721636	2.6547	1.57621	2.6111	1.61819	2.68826	1.84641	3.07201	2.14882	3.56449					1.50439	2.50383	0.928797	3.55916	1.70821	2.83183	1.99333	3.31352	2.16207	3.59584				
0.720424	2.65483	0.714174	2.65551	1.58208	2.60833	1.62504	2.68674	1.85014	3.06348	2.15292	3.55424					1.51082	2.5025	0.922872	3.57609	1.7126	2.82556	1.99722	3.3041	2.1704	3.59242				
0.712961	2.65564	0.706707	2.65631	1.58792	2.60553	1.63197	2.68534	1.85389	3.05505	2.15697	3.54401					1.51729	2.50122	0.916858	3.59306	1.71701	2.81938	2.00108	3.29471	2.17875	3.58906				
0.705493	2.65644	0.699235	2.65711	1.59373	2.60271	1.63895	2.68405	1.85765	3.04673	2.16098	3.5338					1.52378	2.49999	0.910759	3.61008	1.72145	2.81331	2.0049	3.28537	2.18713	3.58577				
0.69802	2.65725	0.691759	2.65792	1.59952	2.59988	1.64598	2.68286	1.86143	3.03851	2.16495	3.52362					1.53029	2.49883	0.904581	3.62718	1.72592	2.80734	2.00871	3.27607	2.19551	3.58252				
0.690544	2.65805	0.684281	2.65873	1.60528	2.59704	1.65305	2.68175	1.86523	3.0304	2.16887	3.51347					1.53683	2.49771	0.898327	3.64437	1.73041	2.80146	2.01249	3.26683	2.2039	3.57932				
0.683065	2.65887	0.6768	2.65956	1.61104	2.59421	1.66018	2.68072	1.86904	3.0224	2.17276	3.50336					1.5434	2.49664	0.892004	3.66169	1.73492	2.79568	2.01625	3.25764						
0.675584	2.65969	0.669317	2.66039	1.61677	2.59138	1.66734	2.67977	1.87287	3.01449	2.17662	3.49328					1.54999	2.49563	0.885618	3.67916	1.73947	2.79	2.01999	3.24851						
0.668101	2.66053	0.661834	2.66124	1.62251	2.58857	1.67453	2.67888	1.87672	3.00669	2.18044	3.48324					1.55661	2.49467	0.879176	3.69682	1.74404	2.78441	2.02372	3.23944						
0.660618	2.66138	0.65435	2.66211	1.62823	2.58577	1.68176	2.67805	1.88059	2.99898	2.18423	3.47325					1.56325	2.49375	0.872683	3.71469	1.74863	2.77892	2.02744	3.23043						
0.653134	2.66226	0.646867	2.66301	1.63395	2.58299	1.68902	2.67727	1.88447	2.99138	2.18799	3.4633					1.56992	2.49289	0.866147	3.73283	1.75326	2.77352	2.03115	3.22149						
0.645651	2.66315	0.639385	2.66393	1.63968	2.58024	1.6963	2.67654	1.88837	2.98387	2.19173	3.45341					1.57661	2.49207	0.859575	3.75127	1.75791	2.76821	2.03485	3.21262						
0.638169	2.66408	0.631905	2.66488	1.6454	2.57752	1.7036	2.67586	1.89229	2.97646	2.19544	3.44356					1.58333	2.4913	0.852973	3.77005	1.76259	2.763	2.03854	3.20382						
0.630689	2.66503	0.624427	2.66586	1.65113	2.57482	1.71093	2.67521	1.89623	2.96915	2.19913	3.43376					1.59007	2.49057	0.84635	3.78922	1.7673	2.75787	2.04223	3.1951						
0.623212	2.66602	0.616953	2.66688	1.65687	2.57217	1.71827	2.6746	1.90019	2.96193	2.20279	3.42402					1.59684	2.48989	0.839711	3.80882	1.77204	2.75285	2.04592	3.18644						
0.615739	2.66705	0.609483	2.66795	1.66261	2.56954	1.72563	2.67401	1.90417	2.95481							1.60363	2.48924	0.833066	3.82891	1.77681	2.74791	2.0496	3.17787						
0.60827	2.66813	0.602019	2.66907	1.66836	2.56696	1.73301	2.67346	1.90817	2.94778							1.61044	2.48865	0.826421	3.84955	1.78162	2.74307	2.05329	3.16937						
0.600807	2.66926	0.594561	2.67025	1.67412	2.56441	1.7404	2.67293	1.91218	2.94085							1.61727	2.48809	0.819784	3.87079	1.78645	2.73831	2.05697	3.16094						
0.59335	2.67045	0.587111	2.67149	1.6799	2.56191	1.7478	2.67243	1.91622	2.93401							1.62413	2.48757	0.813163	3.89269	1.79132	2.73366	2.06066	3.15259						
0.585901	2.6717	0.579669	2.67281	1.68568	2.55944	1.75521	2.67195	1.92028	2.92725							1.63101	2.48709	0.806565	3.91532	1.79622	2.72909	2.06435	3.14433						
0.57846	2.67303	0.572237	2.67421	1.69148	2.55702	1.76264	2.67149	1.92436	2.92059							1.63791	2.48665	0.799999	3.93875	1.80115	2.72461	2.06804	3.13614						
0.57103	2.67444	0.564817	2.6757	1.6973	2.55464	1.77007	2.67104	1.92845	2.91402							1.64484	2.48624	0.793473	3.96305	1.80613	2.72023	2.07174	3.12802						
0.563612	2.67595	0.55741	2.6773	1.70313	2.5523	1.77751	2.67061	1.93257	2.90754							1.65178	2.48587	0.786994	3.98831	1.81114	2.71595	2.07545	3.11999						
0.556207	2.67757	0.550018	2.67901	1.70897	2.55001	1.78495	2.67019	1.93672	2.90114							1.65875	2.48553	0.780571	4.01461	1.81619	2.71176	2.07916	3.11204						
0.548818	2.6793	0.542643	2.68086	1.71484	2.54776	1.7924	2.66979	1.94088	2.89484							1.66574	2.48523	0.774214	4.04204	1.82127	2.70766	2.08288	3.10417						
0.541447	2.68118	0.535289	2.68286	1.72072	2.54555	1.79986	2.66939	1.94506	2.88862							1.67274	2.48496	0.767929	4.0707	1.82641	2.70366	2.0866	3.09637						
0.534096	2.68321	0.527957	2.68504	1.72661	2.5434	1.80732	2.66901	1.94927	2.88248							1.67977	2.48472	0.761726	4.1007	1.83158	2.69977	2.09034	3.08866						
0.526768	2.68542	0.520651	2.68742	1.73253	2.54129	1.81479	2.66864	1.9535	2.87643							1.68682	2.48451	0.755614	4.13214	1.8368	2.69597	2.09408	3.08103						
0.519467	2.68783	0.513376	2.69003	1.73848	2.53923	1.82226	2.66827	1.95775	2.87046							1.69388	2.48434	0.749602	4.16514	1.84207	2.69228	2.09784	3.07347						
0.512197	2.69048	0.506135	2.6929	1.74446	2.53725	1.82973	2.66791	1.96202	2.86458							1.70096	2.48419	0.743698	4.19984	1.8474	2.68869	2.1016	3.06599						
0.504962	2.6934	0.498935	2.69609	1.75051	2.53538	1.8372	2.66755	1.96632	2.85878							1.70806	2.48406	0.737912	4.23636	1.85277	2.68521	2.10538	3.05859						
0.497769	2.69663	0.491781	2.69962	1.75577	2.5324	1.84467	2.6672	1.97063	2.85306							1.71518	2.48397	0.732252	4.27486	1.85821	2.68184	2.10917	3.05127						
0.490623	2.70023	0.484681	2.70357	1.76438	2.53424	1.85215	2.66686	1.97498	2.84742							1.72232	2.4839	0.726728	4.31547	1.8637	2.67859	2.11297	3.04403						
0.483532	2.70426	0.477643	2.70801	1.7721	2.5348	1.85962	2.66651	1.97934	2.84187							1.72947	2.48385	0.721346	4.35838	1.86926	2.67545	2.11678	3.03687						
0.476506	2.70878	0.470678	2.71301	1.77987	2.53542	1.86709	2.66617	1.98373	2.83639							1.73664	2.48383	0.716117	4.40374	1.87488	2.67244	2.1206	3.02978						
0.469554	2.71389	0.463799	2.71869	1.78765	2.53606	1.87457	2.66583	1.98815	2.831							1.74382	2.48383	0.711047	4.45175	1.88058	2.66955	2.12444	3.02277						
0.46269	2.71968	0.457018	2.72515	1.79544	2.5367	1.88204	2.66549	1.99259	2.82568							1.75103	2.48385	0.706145	4.5026	1.88635	2.66679	2.12829	3.01583						
0.455927	2.72628	0.450353	2.73253	1.80324	2.53735	1.8895	2.66515	1.99706	2.82044							1.75824	2.4839	0.701416	4.55648	1.89219	2.66416	2.13215	3.00898						
0.449282	2.73383	0.443822	2.74101	1.81104	2.53799	1.89697	2.6648	2.00155	2.81529							1.76547	2.48396	0.696868	4.61362	1.89812	2.66167	2.13603	3.00219						
0.442775	2.7425	0.437446	2.75077	1.81883	2.53863	1.90443	2.66446	2.00606	2.81021							1.77272	2.48405	0.692505	4.67425	1.90414	2.65932	2.13992	2.99548						
0.436425	2.75249	0.431246	2.76202	1.82663	2.53926	1.91188	2.66411	2.01061	2.80521							1.77998	2.48415	0.688332	4.7386	1.91023	2.6571	2.14382	2.98885						
0.430257	2.76401	0.425248	2.77501	1.83444	2.53989	1.91933	2.66375	2.01518	2.80029							1.78725	2.48428	0.684354	4.80693	1.91642	2.65502	2.14774	2.98229						
0.424294	2.7773	0.419474	2.78999	1.84224	2.54052	1.92678	2.66339	2.01978	2.79544							1.79454	2.48442	0.680573	4.87951	1.9227	2.65309	2.15168	2.9758						
0.418558	2.79264	0.413946	2.80724	1.85004	2.54115	1.93421	2.66302	2.02441	2.79068							1.80184	2.48457	0.67699	4.95661	1.92906	2.65129	2.15563	2.96939						
0.413073	2.81027	0.408685	2.82701	1.85785	2.54177	1.94164	2.66265	2.02907	2.78599							1.80915	2.48475	0.673607	5.03855	1.93551	2.64962	2.1596	2.96305						
0.407857	2.83049	0.403706	2.84959	1.86565	2.54239	1.94906	2.66226	2.03376	2.78138							1.81648	2.48494	0.670425	5.12564	1.94205	2.64809	2.16358	2.95678						
0.402924	2.85354	0.399019	2.8752	1.87346	2.543	1.95648	2.66187	2.03848	2.77685							1.82382	2.48514	0.667441	5.21822	1.94867	2.64668	2.16758	2.95058						
0.398285	2.87967	0.39463	2.9041	1.88126	2.54361	1.96387	2.66146	2.04323	2.7724							1.83117	2.48536	0.664654	5.31667	1.95537	2.64538	2.17159	2.94445						
0.393944	2.90912	0.390538	2.9365	1.88907	2.54421	1.97126	2.66104	2.04801	2.76803							1.83853	2.48559	0.662063	5.42138	1.96215	2.64421	2.17562	2.93839						
0.389901	2.94211	0.386741	2.9726	1.89688	2.54482	1.97864	2.66061	2.05283	2.76374							1.8459	2.48584	0.659663	5.53277	1.969	2.64313	2.17967	2.9324						
0.386151	2.97883	0.383232	3.0126	1.90468	2.54541	1.98599	2.66016	2.05769	2.75953							1.85328	2.4861	0.657451	5.65131	1.97591	2.64215	2.18373	2.92648						
0.382688	3.01949	0.380004	3.05673	1.91249	2.546	1.99333	2.65969	2.06258	2.75541							1.86068	2.48637	0.655421	5.77752	1.98289	2.64127	2.18781	2.92062						
0.379505	3.0643	0.377048	3.1052	1.9203	2.54659	2.00066	2.65919	2.06752	2.75136							1.86808	2.48665	0.65357	5.91194	1.98992	2.64046	2.19191	2.91484						
0.376592	3.11351	0.374356	3.15826	1.92811	2.54717	2.00796	2.65868	2.07249	2.74741							1.8755	2.48695	0.651892	6.05518	1.99701	2.63973	2.19602	2.90912						
0.373943	3.16734	0.37192	3.2162	1.93591	2.54775	2.01524	2.65814	2.07751	2.74354							1.88292	2.48725	0.65038	6.20793	2.00414	2.63907	2.20016	2.90347						
0.371548	3.22609	0.369733	3.27931	1.94372	2.54833	2.02249	2.65756	2.08257	2.73976							1.89035	2.48757	0.649029	6.37093	2.01132	2.63847								
0.369401	3.29008	0.367789	3.34796	1.95153	2.5489	2.02972	2.65696	2.08768	2.73607							1.8978	2.48789	0.647831	6.545	2.01853	2.63792								
0.367495	3.35966	0.366082	3.42254	1.95934	2.54946	2.03691	2.65632	2.09284	2.73247							1.90525	2.48822	0.646782	6.7311	2.02578	2.63743								
0.365827	3.43524	0.364607	3.50349	1.96714	2.55002	2.04408	2.65565	2.09805	2.72897							1.91271	2.48857	0.645873	6.93026	2.03306	2.63697								
0.364389	3.51728	0.36336	3.59133	1.97495	2.55058	2.0512	2.65493	2.10332	2.72557							1.92018	2.48892	0.645098	7.14366	2.04037	2.63656								
0.363179	3.60629	0.362338	3.68661	1.98275	2.55113	2.05829	2.65416	2.10865	2.72227							1.92765	2.48928	0.64445	7.37263	2.0477	2.63619								
0.362193	3.70284	0.361536	3.78999	1.99056	2.55168	2.06533	2.65334	2.11404	2.71908							1.93514	2.48964	0.643922	7.6187	2.05506	2.63584								
0.361426	3.8076	0.360952	3.90219	1.99836	2.55222	2.07232	2.65247	2.1195	2.716							1.94263	2.49002	0.643507	7.88359	2.06244	2.63553								
0.360877	3.92131	0.360582	4.02402	2.00617	2.55276	2.07926	2.65154	2.12503	2.71303							1.95013	2.4904	0.643198	8.16928	2.06983	2.63524								
0.360542	4.04479	0.360424	4.15643	2.01397	2.55329	2.08615	2.65054	2.13064	2.71018							1.95764	2.49078	0.643009	8.43698	2.07724	2.63497								
0.360418	4.17901	0.360475	4.30046	2.02177	2.55381	2.09297	2.64948	2.13632	2.70745							1.96515	2.49117	0.642903	8.68032	2.08467	2.63473								
0.360503	4.32505	0.360732	4.45734	2.02957	2.55434	2.09974	2.64834	2.14209	2.70484							1.97267	2.49157	0.642852	8.89297	2.09211	2.6345								
0.360793	4.48414	0.361193	4.62845	2.03737	2.55485	2.10644	2.64713	2.14794	2.70236							1.9802	2.49197	0.642834	9.06898	2.09956	2.63429								
0.361212	4.63453	0.361853	4.8154	2.04517	2.55536	2.11306	2.64585	2.15387	2.7							1.98773	2.49238	0.642833	9.20308	2.10702	2.63409								
0.361689	4.77221	0.362711	5.02005	2.05297	2.55587	2.11962	2.64448	2.1599	2.69778							1.99527	2.49279	0.64284	9.33014	2.11449	2.6339								
0.362166	4.89322	0.363763	5.24457	2.06077	2.55637	2.12611	2.64304	2.16602	2.69568							2.00282	2.49321	0.64285	9.42068	2.12197	2.63373								
0.362595	4.99381	0.365006	5.4915	2.06856	2.55686	2.13253	2.64152	2.17223	2.69372							2.01037	2.49363	0.642873	9.56583	2.12945	2.63356								
0.36294	5.07071	0.366436	5.76383	2.07635	2.55735	2.13888	2.63992	2.17854	2.69188							2.01792	2.49405	0.642919	9.77076	2.13694	2.6334								
0.36328	5.14375	0.36805	6.06516	2.08414	2.55783	2.14515	2.63825	2.18493	2.69016							2.02548	2.49448	0.642999	10.0432	2.14444	2.63325								
0.363528	5.1959	0.369843	6.39976	2.09193	2.55831	2.15137	2.63651	2.19141	2.68856							2.03305	2.49491	0.643126	10.394	2.15194	2.63311								
0.363936	5.27969	0.371813	6.77283	2.09971	2.55878	2.15752	2.63471	2.19797	2.68708							2.04062	2.49534	0.643316	10.8386	2.15944	2.63297								
0.364529	5.39833	0.373954	7.1907	2.1075	2.55924	2.16361	2.63285	2.20462	2.6857							2.04819	2.49577	0.643581	11.3985	2.16694	2.63283								
0.365344	5.5566	0.375957	7.59745	2.11527	2.55969	2.16965	2.63094									2.05577	2.49621	0.643889	12.0198	2.17445	2.6327								
0.366423	5.76128	0.377762	7.98046	2.12305	2.56014	2.17564	2.62898									2.06335	2.49664	0.644234	12.7126	2.18195	2.63257								
0.367817	6.02187	0.379323	8.32594	2.13082	2.56058	2.18159	2.62699									2.07093	2.49708	0.644608	13.49	2.18946	2.63243								
0.369586	6.35161	0.380598	8.61976	2.13858	2.56101	2.1875	2.62496									2.07851	2.49751	0.645004	14.368	2.19696	2.6323								
0.371532	6.71904	0.38156	8.84855	2.14635	2.56143	2.19337	2.62291									2.0861	2.49795	0.645416	15.3673	2.20447	2.63217								
0.373649	7.13032	0.382462	9.06936	2.1541	2.56184	2.19922	2.62084									2.09369	2.49838	0.645837	16.5147										
0.375936	7.59306	0.383099	9.22916	2.16185	2.56224	2.20505	2.61876									2.10127	2.49881	0.64626	17.8454										
0.378386	8.11674	0.384111	9.48969	2.16959	2.56263											2.10886	2.49924	0.646679	19.407										
0.380995	8.71334	0.385517	9.8669	2.17732	2.56301											2.11645	2.49966	0.647088	21.2652										
0.38376	9.39827	0.387345	10.386	2.18505	2.56338											2.12403	2.50007	0.647481	23.5132										
0.386674	10.1916	0.389628	11.0859	2.19276	2.56372											2.1316	2.50048	0.647852	26.2879										
0.389735	11.12	0.392406	12.0275	2.20046	2.56406											2.13917	2.50087	0.648195	29.7993										
0.392935	12.2198	0.39572	13.3091													2.14674	2.50125	0.648508	34.3862										
0.396271	13.5417	0.399166	14.8717													2.15428	2.50161	0.648784	40.6327										
0.399737	15.1584	0.402736	16.817													2.16181	2.50195	0.649021	49.6398										
0.403327	17.1788	0.406425	19.3023													2.16932	2.50226	0.649214	63.7602										
0.407035	19.7727	0.410225	22.5854													2.17679	2.50254	0.649361	89.08										
0.410852	23.2209	0.414126	27.1188													2.18423	2.50276	0.649461	147.7										
0.414768	28.0235	0.418113	33.7779													2.19161	2.50292	0.649512	431.657										
0.418768	35.1662	0.422162	44.5044													2.19892	2.50301												
0.422822	46.898	0.426211	64.6424													2.20615	2.503												
0.426861	69.7108	0.430071	116.207																										
0.430643	133.291	0.432824	535.394																										
0.432979	1279.62																												
