Sym0		Sym1		Sym2		Sym3		Sym4		Sym5		Sym6		Sym7		Asym1		Asym2		Asym3		Asym4		Asym5		Asym6		Asym7	
311  Points		310  Points		303  Points		293  Points		285  Points		218  Points		177  Points		105  Points		310  Points		304  Points		296  Points		257  Points		217  Points		179  Points		105  Points	
Freq (MHz)	Vph (m/ms)	Freq (MHz)	Vph (m/ms)	Freq (MHz)	Vph (m/ms)	Freq (MHz)	Vph (m/ms)	Freq (MHz)	Vph (m/ms)	Freq (MHz)	Vph (m/ms)	Freq (MHz)	Vph (m/ms)	Freq (MHz)	Vph (m/ms)	Freq (MHz)	Vph (m/ms)	Freq (MHz)	Vph (m/ms)	Freq (MHz)	Vph (m/ms)	Freq (MHz)	Vph (m/ms)	Freq (MHz)	Vph (m/ms)	Freq (MHz)	Vph (m/ms)	Freq (MHz)	Vph (m/ms)
2.20148	2.49768	2.20086	2.49771	0.469745	1019.29	0.866031	413.827	1.29904	52502.9	1.4092	1186.33	1.73205	945.365	2.16506	17934.8	0.216554	192.198	0.649518	595.556	0.939461	9898.04	1.08253	1389.92	1.51554	1108.71	1.87894	715.847	1.94856	11752.3
2.19456	2.49802	2.19394	2.49805	0.470489	140.305	0.86606	173.726	1.29903	445.296	1.40932	345.392	1.73207	366.604	2.16506	718.528	0.217107	54.0176	0.649503	163.066	0.939526	314.497	1.08257	294.873	1.51555	355.812	1.87902	340.571	1.94858	637.148
2.18765	2.49838	2.18704	2.49842	0.472259	75.6122	0.866113	109.945	1.29899	223.59	1.40956	202.151	1.73209	227.395	2.16506	366.608	0.218274	31.5804	0.649472	94.4611	0.939712	159.819	1.08266	164.945	1.51556	211.91	1.87914	223.448	1.94863	327.459
2.18075	2.49876	2.18014	2.4988	0.474852	51.963	0.86619	80.425	1.29892	149.265	1.40994	142.919	1.73213	164.815	2.16506	246.082	0.220033	22.4428	0.649425	66.4848	0.940019	107.157	1.0828	114.507	1.51558	150.888	1.87932	166.279	1.94871	220.362
2.17387	2.49916	2.17326	2.4992	0.478062	39.7366	0.86629	63.4058	1.29884	112.021	1.41043	110.555	1.73218	129.247	2.16506	185.196	0.222356	17.513	0.649364	51.2906	0.940446	80.6225	1.083	87.7011	1.5156	117.154	1.87954	132.412	1.94883	166.06
2.167	2.49958	2.16639	2.49962	0.481723	32.2801	0.866416	52.3353	1.29873	89.6472	1.41106	90.1621	1.73224	106.308	2.16505	148.463	0.225208	14.4465	0.64929	41.747	0.940991	64.6406	1.08324	71.0733	1.51562	95.7479	1.87982	110.014	1.94898	133.235
2.16015	2.50001	2.15954	2.50005	0.485717	27.2634	0.866568	44.5592	1.2986	74.7198	1.41181	76.1381	1.73232	90.286	2.16505	123.89	0.228095	12.5952	0.649204	35.1959	0.941652	53.9636	1.08354	59.753	1.51566	80.9568	1.88015	94.1033	1.94917	111.25
2.15331	2.50047	2.1527	2.50051	0.489963	23.6604	0.866745	38.7978	1.29845	64.0511	1.41268	65.9046	1.7324	78.4622	2.16505	106.296	0.230828	11.3942	0.649109	30.4204	0.942427	46.3286	1.0839	51.5498	1.51569	70.1247	1.88052	82.2191	1.94939	95.4967
2.14648	2.50094	2.14588	2.50098	0.494405	20.9488	0.86695	34.3584	1.29828	56.0459	1.41367	58.1094	1.7325	69.378	2.16504	93.0781	0.233265	10.586	0.649007	26.7848	0.943314	40.5993	1.0843	45.333	1.51574	61.8499	1.88095	73.0052	1.94964	83.6555
2.13967	2.50143	2.13907	2.50148	0.499004	18.8352	0.867182	30.8331	1.29809	49.8173	1.41477	51.9753	1.73262	62.1802	2.16504	82.7837	0.235298	10.0383	0.648902	23.9245	0.944307	36.1427	1.08477	40.4596	1.51579	55.3223	1.88142	65.6529	1.94993	74.4304
2.13287	2.50195	2.13227	2.50199	0.503732	17.1421	0.867444	27.9663	1.29789	44.8328	1.416	47.0234	1.73274	56.3367	2.16504	74.5396	0.236849	9.67795	0.648795	21.6155	0.945406	32.5781	1.08529	36.5374	1.51584	50.0416	1.88193	59.6502	1.95026	67.041
2.12609	2.50248	2.12549	2.50253	0.508567	15.7558	0.867736	25.5894	1.29767	40.7535	1.41733	42.9429	1.73288	51.4981	2.16503	67.7887	0.237867	9.46385	0.648691	19.7124	0.946604	29.6628	1.08587	33.313	1.51591	45.6817	1.88249	54.657	1.95063	60.9894
2.11932	2.50304	2.11872	2.50309	0.513494	14.6001	0.868059	23.587	1.29744	37.3532	1.41878	39.523	1.73303	47.4259	2.16503	62.1592	0.239362	9.17634	0.648594	18.117	0.9479	27.2349	1.08651	30.616	1.51598	42.021	1.8831	50.4386	1.95103	55.9427
2.11257	2.50361	2.11197	2.50366	0.518498	13.6221	0.868416	21.8773	1.29721	34.4755	1.42033	36.6159	1.73319	43.9514	2.16503	57.3929	0.241028	8.88823	0.648506	16.7604	0.949287	25.182	1.08722	28.3271	1.51605	38.904	1.88374	46.8279	1.95148	51.6701
2.10583	2.50421	2.10523	2.50426	0.52357	12.7839	0.868807	20.4006	1.29696	32.0084	1.42199	34.1149	1.73337	40.9521	2.16502	53.3056	0.24336	8.5322	0.648433	15.5929	0.950761	23.4238	1.08799	26.3606	1.51614	36.2179	1.88443	43.7025	1.95196	48.0064
2.0991	2.50483	2.09851	2.50489	0.528702	12.0576	0.869234	19.1125	1.29671	29.87	1.42375	31.9407	1.73356	38.3369	2.16502	49.7617	0.246414	8.13263	0.648378	14.5776	0.952317	21.9014	1.08883	24.6532	1.51623	33.8792	1.88515	40.9709	1.95249	44.8303
2.09239	2.50547	2.0918	2.50553	0.533884	11.4223	0.869699	17.9793	1.29646	27.9987	1.42561	30.0335	1.73377	36.0363	2.16502	46.6597	0.250249	7.71231	0.648346	13.6868	0.95395	20.5706	1.08974	23.1571	1.51633	31.8246	1.88591	38.5632	1.95306	42.0507
2.0857	2.50614	2.08511	2.5062	0.538437	10.9303	0.870205	16.9747	1.29621	26.3474	1.42757	28.3474	1.73399	33.997	2.16503	43.9218	0.254932	7.29029	0.648341	12.8991	0.955656	19.3975	1.09072	21.8358	1.51644	30.0053	1.8867	36.425	1.95368	39.598
2.07902	2.50682	2.07843	2.50689	0.542342	10.5494	0.870751	16.0782	1.29596	24.8796	1.42962	26.8462	1.73423	32.1769	2.16503	41.4874	0.260522	6.881	0.648369	12.1977	0.957427	18.3558	1.09177	20.6605	1.51655	28.3832	1.88752	34.5136	1.95435	37.4179
2.07236	2.50754	2.07177	2.5076	0.545585	10.258	0.871342	15.2734	1.29571	23.5662	1.43177	25.5013	1.73448	30.5424	2.16504	39.3088	0.266319	6.53485	0.648434	11.5693	0.959259	17.4246	1.0929	19.6086	1.51668	26.9278	1.88838	32.7947	1.95506	35.4674
2.06571	2.50827	2.06512	2.50834	0.548158	10.0411	0.871979	14.547	1.29547	22.3842	1.434	24.2897	1.73474	29.0666	2.16505	37.3476	0.272294	6.23869	0.648525	11.073	0.961145	16.5874	1.09411	18.6619	1.51682	25.6148	1.88926	31.2407	1.95583	33.7123
2.05908	2.50903	2.05849	2.5091	0.550055	9.88872	0.872665	13.8883	1.29523	21.3148	1.43632	23.1926	1.73503	27.7275	2.16506	35.5729	0.278427	5.98272	0.64863	10.6829	0.963081	15.8305	1.09541	17.8055	1.51696	24.4242	1.89016	29.8289	1.95664	32.1247
2.05246	2.50982	2.05188	2.50989	0.551271	9.79417	0.873401	13.2883	1.29501	20.3428	1.43872	22.1948	1.73532	26.507	2.16508	33.9592	0.284696	5.75947	0.648738	10.3809	0.96506	15.1431	1.09679	17.0273	1.51712	23.3398	1.89109	28.5407	1.95752	30.682
2.04586	2.51062	2.04528	2.5107	0.55302	9.66211	0.874191	12.7397	1.29479	19.4554	1.4412	21.2834	1.73564	25.39	2.16509	32.4857	0.291084	5.56315	0.648838	10.1542	0.967076	14.5159	1.09825	16.3174	1.51729	22.3479	1.89203	27.3606	1.95844	29.3652
2.03928	2.51146	2.0387	2.51153	0.554925	9.52351	0.875036	12.2362	1.29458	18.6421	1.44376	20.4477	1.73597	24.364	2.16512	31.1348	0.297572	5.38924	0.64892	9.9939	0.969124	13.9414	1.09981	15.6672	1.51746	21.4373	1.893	26.2755	1.95943	28.1588
2.03271	2.51232	2.03213	2.5124	0.55752	9.34278	0.875941	11.7727	1.29439	17.894	1.44639	19.6789	1.73632	23.4182	2.16514	29.8919	0.304147	5.23412	0.648977	9.89403	0.971197	13.4131	1.10146	15.0698	1.51765	20.5983	1.89397	25.2744	1.96048	27.0494
2.02616	2.51321	2.02558	2.51329	0.56081	9.12617	0.876906	11.3446	1.29422	17.2037	1.4491	18.9692	1.73669	22.5437	2.16518	28.7444	0.310795	5.09492	0.649063	9.75402	0.973292	12.9257	1.10321	14.5192	1.51786	19.8228	1.89496	24.3478	1.96159	26.0261
2.01963	2.51412	2.01905	2.5142	0.564796	8.88052	0.8778	10.9976	1.29406	16.5647	1.45188	18.3123	1.73707	21.7327	2.16521	27.6819	0.317504	4.96927	0.649165	9.60642	0.975401	12.4745	1.10506	14.0101	1.51807	19.104	1.89596	23.4877	1.96276	25.0792
2.01311	2.51506	2.01253	2.51515	0.569483	8.61286	0.878603	10.7191	1.29391	15.9715	1.45473	17.7024	1.73748	20.9786	2.16525	26.6953	0.324262	4.85525	0.649316	9.41296	0.97752	12.0556	1.10701	13.5384	1.5183	18.4358	1.89697	22.6872	1.964	24.2006
2.0066	2.51603	2.00603	2.51612	0.57487	8.32994	0.879295	10.4999	1.29379	15.4194	1.45764	17.1347	1.7379	20.2756	2.1653	25.7766	0.33106	4.75126	0.64953	9.17961	0.979645	11.6657	1.10906	13.1001	1.51855	17.8131	1.89798	21.9403	1.96531	23.3833
2.00012	2.51702	1.99954	2.51711	0.580264	8.06987	0.879861	10.3333	1.29369	14.9044	1.46062	16.6051	1.73835	19.6188	2.16535	24.9192	0.337888	4.65598	0.649823	8.91309	0.98177	11.3017	1.11121	12.6919	1.5188	17.2315	1.899	21.2418	1.96669	22.6212
1.99365	2.51805	1.99307	2.51814	0.58566	7.82994	0.880288	10.2144	1.29361	14.4229	1.46366	16.11	1.73882	19.0037	2.16541	24.1171	0.344737	4.56828	0.65022	8.6205	0.983619	11.0037	1.11348	12.311	1.51908	16.687	1.90001	20.5871	1.96814	21.909
1.98719	2.5191	1.98662	2.5192	0.591053	7.60786	0.880566	10.1398	1.29355	13.9716	1.46676	15.646	1.7393	18.4265	2.16548	23.3651	0.3516	4.48722	0.650749	8.30888	0.98519	10.7626	1.11585	11.9549	1.51937	16.1762	1.90102	19.9721	1.96966	21.2419
1.98076	2.52018	1.98019	2.52028	0.596441	7.40163	0.880973	10.0347	1.29351	13.548	1.46992	15.2104	1.73981	17.8839	2.16555	22.6587	0.358467	4.412	0.651362	8.0205	0.986486	10.5715	1.11833	11.6214	1.51967	15.6961	1.90203	19.3934	1.97125	20.6161
1.97434	2.52129	1.97377	2.52139	0.601819	7.20958	0.881425	9.92309	1.2935	13.1495	1.47313	14.8006	1.74035	17.3728	2.16563	21.9939	0.365332	4.34192	0.652065	7.75303	0.987508	10.4255	1.12092	11.3084	1.51999	15.244	1.90304	18.8478	1.97293	20.0277
1.96793	2.52243	1.96737	2.52254	0.607182	7.03023	0.882054	9.77557	1.29351	12.774	1.4764	14.4145	1.7409	16.8907	2.16571	21.3671	0.372188	4.2764	0.652865	7.50444	0.988257	10.3209	1.12327	11.0511	1.52034	14.8176	1.90404	18.3325	1.97467	19.4736
1.96155	2.5236	1.96098	2.52371	0.612528	6.86231	0.882877	9.59573	1.29355	12.4196	1.47972	14.0501	1.74148	16.4351	2.16581	20.7752	0.379028	4.21491	0.653766	7.27299	0.988735	10.2551	1.12534	10.8422	1.52069	14.4147	1.90503	17.845	1.9765	18.9511
1.95518	2.5248	1.95461	2.52491	0.617852	6.70468	0.883913	9.38774	1.29362	12.0847	1.48308	13.7057	1.74209	16.004	2.16591	20.2152	0.385846	4.15701	0.654774	7.05713	0.989421	10.162	1.1271	10.6764	1.52107	14.0335	1.90601	17.3832	1.9784	18.4574
1.94882	2.52603	1.94826	2.52614	0.62315	6.55638	0.885185	9.15615	1.29371	11.7676	1.4865	13.3796	1.74272	15.5954	2.16602	19.6849	0.392635	4.10231	0.655896	6.8555	0.990166	10.0629	1.12851	10.5494	1.52147	13.6723	1.90698	16.9451	1.98038	17.9904
1.94249	2.5273	1.94193	2.52741	0.628418	6.41654	0.886726	8.90563	1.29384	11.467	1.48995	13.0704	1.74338	15.2076	2.16614	19.1817	0.399389	4.05047	0.657138	6.66692	0.991174	9.93134	1.12957	10.4583	1.52189	13.3296	1.90794	16.5288	1.98244	17.548
1.93617	2.52859	1.93561	2.52871	0.633654	6.2844	0.888354	8.67012	1.29397	11.2176	1.49346	12.7769	1.74407	14.8392	2.16626	18.7038	0.406102	4.00118	0.658504	6.49032	0.992443	9.77012	1.13026	10.401	1.52233	13.004	1.90889	16.1328	1.98457	17.1284
1.92986	2.52991	1.92931	2.53003	0.638852	6.15926	0.890074	8.44841	1.2941	11.0136	1.497	12.498	1.74479	14.4887	2.1664	18.2492	0.412768	3.95417	0.660001	6.32477	0.993969	9.58244	1.13125	10.3199	1.52279	12.6943	1.90983	15.7556	1.98679	16.7298
1.92358	2.53127	1.92302	2.53139	0.64401	6.04054	0.891888	8.23942	1.29422	10.8505	1.50058	12.2325	1.74553	14.1549	2.16655	17.8163	0.419383	3.90922	0.661635	6.16941	0.995744	9.37182	1.13235	10.2335	1.52328	12.3994	1.91076	15.3958	1.98908	16.3509
1.91731	2.53266	1.91675	2.53278	0.649123	5.92768	0.8938	8.04219	1.29433	10.7251	1.50419	11.9795	1.74631	13.8367	2.1667	17.4037	0.425939	3.8661	0.663411	6.02351	0.99776	9.14192	1.13386	10.1187	1.52379	12.1182	1.91167	15.0524	1.99145	15.9901
1.91105	2.53408	1.9105	2.53421	0.654189	5.82021	0.895813	7.85584	1.29441	10.6347	1.50785	11.7382	1.74712	13.533	2.16687	17.0098	0.432433	3.82463	0.665333	5.88638	0.999754	8.9237	1.13581	9.97782	1.52432	11.8499	1.91258	14.7242	1.99389	15.6464
1.90481	2.53553	1.90426	2.53566	0.659205	5.7177	0.897929	7.6796	1.29446	10.5777	1.51153	11.5077	1.74796	13.2428	2.16705	16.6335	0.438859	3.78464	0.667409	5.75741	1.00172	8.71625	1.13822	9.81374	1.52488	11.5935	1.91347	14.4102	1.99641	15.3185
1.89859	2.53702	1.89804	2.53715	0.664166	5.61974	0.900151	7.51275	1.29454	10.4968	1.51476	11.3152	1.74884	12.9653	2.16724	16.2737	0.445212	3.74598	0.669642	5.63604	1.00367	8.5188	1.14112	9.62947	1.52539	11.3793	1.91435	14.1095	1.999	15.0053
1.89238	2.53853	1.89183	2.53866	0.669071	5.52599	0.902482	7.35466	1.29463	10.4104	1.51754	11.1569	1.74975	12.6997	2.16744	15.9292	0.451487	3.70853	0.672037	5.52177	1.0056	8.33061	1.14454	9.42825	1.52583	11.2031	1.91523	13.8213	2.00167	14.7061
1.88617	2.54006	1.88562	2.54019	0.673916	5.43614	0.904923	7.20473	1.29476	10.2951	1.51985	11.0297	1.7507	12.4454	2.16765	15.5991	0.457682	3.67217	0.674598	5.41414	1.0075	8.15105	1.14807	9.2372	1.52622	11.0616	1.91609	13.5448	2.00441	14.4197
1.87991	2.54153	1.87934	2.54164	0.678699	5.3499	0.907478	7.06243	1.29494	10.1531	1.52168	10.9316	1.75169	12.2015	2.16787	15.2826	0.463791	3.63678	0.677329	5.31273	1.00938	7.97954	1.15169	9.05562	1.52653	10.9523	1.91695	13.2793	2.00722	14.1456
1.8729	2.54199	1.87223	2.54196	0.683417	5.267	0.910147	6.92726	1.29517	9.98668	1.52302	10.8607	1.75272	11.9675	2.1681	14.9788	0.469812	3.60229	0.680234	5.21715	1.01124	7.81554	1.15541	8.88285	1.52676	10.8734	1.91779	13.0242	2.0101	13.8829
1.86521	2.54153	1.86452	2.54148	0.688069	5.18722	0.912933	6.79879	1.29547	9.79852	1.52389	10.8158	1.75379	11.7429	2.16835	14.6871	0.475741	3.56861	0.683314	5.12704	1.01308	7.65857	1.15923	8.7183	1.52691	10.8235	1.91863	12.7789	2.01304	13.6309
1.85746	2.54098	1.85677	2.54093	0.692653	5.11035	0.915836	6.67659	1.29584	9.5915	1.52514	10.7521	1.75475	11.5544	2.16861	14.4066	0.481577	3.53567	0.686574	5.04207	1.01491	7.5082	1.16313	8.56142	1.52713	10.7526	1.91947	12.5428	2.01606	13.3891
1.8497	2.54042	1.84901	2.54037	0.697167	5.03618	0.918858	6.56029	1.29625	9.39341	1.52649	10.6839	1.7556	11.3987	2.16888	14.1367	0.487317	3.50342	0.690013	4.96192	1.01672	7.36403	1.16712	8.4117	1.52737	10.6767	1.9203	12.3154	2.01913	13.1568
1.84194	2.53985	1.84125	2.5398	0.701611	4.96455	0.921998	6.44952	1.29669	9.20371	1.52834	10.5927	1.75632	11.2733	2.16917	13.877	0.492962	3.4718	0.693633	4.88632	1.01852	7.22568	1.17119	8.26868	1.52771	10.5752	1.92112	12.0963	2.02228	12.9335
1.83418	2.53927	1.83349	2.53922	0.705983	4.89529	0.925258	6.34396	1.29718	9.02191	1.53069	10.4799	1.75691	11.1763	2.16947	13.6267	0.498509	3.44078	0.697434	4.81499	1.02031	7.09283	1.17535	8.13194	1.52814	10.4496	1.92194	11.885	2.02548	12.7187
1.82641	2.53869	1.82573	2.53864	0.710284	4.82828	0.928636	6.2433	1.2977	8.84754	1.53353	10.3472	1.75734	11.1061	2.16978	13.3855	0.503961	3.41032	0.701415	4.74767	1.02209	6.96516	1.17958	8.00107	1.52868	10.302	1.92265	11.707	2.02874	12.5119
1.81865	2.53811	1.81796	2.53806	0.714514	4.76337	0.932132	6.14726	1.29826	8.68017	1.53689	10.1964	1.75762	11.0616	2.17011	13.1528	0.509317	3.3804	0.705575	4.68411	1.02387	6.8424	1.18388	7.87573	1.52934	10.1342	1.92326	11.5594	2.03206	12.3128
1.81089	2.53752	1.81021	2.53747	0.718672	4.70045	0.935745	6.05558	1.29885	8.51942	1.54075	10.0295	1.75803	10.9984	2.17045	12.9282	0.514579	3.351	0.709911	4.62411	1.02564	6.72428	1.18825	7.75557	1.53012	9.94874	1.92376	11.4403	2.03544	12.1208
1.80314	2.53693	1.80245	2.53688	0.722759	4.63942	0.939474	5.968	1.29949	8.36491	1.54462	9.8689	1.75848	10.9306	2.1708	12.7114	0.51975	3.32209	0.714421	4.56743	1.02742	6.61056	1.19268	7.64028	1.53094	9.7703	1.92415	11.3478	2.03887	11.9357
1.79538	2.53634	1.79469	2.53629	0.726778	4.58017	0.943317	5.88429	1.30017	8.21631	1.5485	9.71419	1.75911	10.8398	2.17117	12.5018	0.524833	3.29369	0.7191	4.51387	1.0292	6.50102	1.19718	7.52957	1.53179	9.59855	1.92444	11.2808	2.04191	11.7796
1.78763	2.53575	1.78694	2.5357	0.730728	4.52263	0.947271	5.80423	1.3009	8.07331	1.55239	9.56504	1.75991	10.7274	2.17156	12.2992	0.529831	3.26577	0.723945	4.46325	1.03098	6.39545	1.20173	7.42317	1.53267	9.43313	1.92463	11.2383	2.04453	11.6503
1.77987	2.53516	1.77919	2.5351	0.734613	4.46671	0.951334	5.72762	1.30166	7.93562	1.55629	9.42116	1.76091	10.5947	2.17196	12.1031	0.534748	3.23835	0.72895	4.41537	1.03278	6.29366	1.20634	7.32083	1.5336	9.27371	1.9249	11.1779	2.04672	11.5459
1.77212	2.53456	1.77143	2.53451	0.738433	4.41234	0.955503	5.65425	1.30247	7.80296	1.56019	9.28224	1.76213	10.4436	2.17232	11.9375	0.53959	3.21142	0.734109	4.37005	1.03458	6.19546	1.211	7.22234	1.53456	9.12	1.92519	11.1129	2.04846	11.4649
1.76437	2.53396	1.76369	2.53391	0.742192	4.35945	0.959775	5.58395	1.30333	7.6751	1.56409	9.14803	1.76356	10.276	2.17264	11.7999	0.544361	3.18498	0.739416	4.32714	1.03641	6.1007	1.21571	7.12745	1.53556	8.97172	1.92558	11.0258	2.04975	11.4061
1.75663	2.53336	1.75594	2.5333	0.745893	4.30799	0.964146	5.51655	1.30423	7.55178	1.56799	9.01827	1.76506	10.1142	2.17291	11.6886	0.549066	3.15905	0.744866	4.28647	1.03825	6.00922	1.22046	7.03599	1.53659	8.82859	1.92609	10.9175	2.05058	11.3689
1.74888	2.53275	1.7482	2.5327	0.749537	4.25791	0.968613	5.45188	1.30518	7.43279	1.57189	8.89274	1.76661	9.95806	2.17313	11.6021	0.553711	3.13362	0.750449	4.2479	1.04011	5.92087	1.22525	6.94775	1.53768	8.69037	1.92669	10.7896	2.05177	11.3159
1.74114	2.53215	1.74046	2.5321	0.753128	4.20915	0.973172	5.38979	1.30618	7.31793	1.57578	8.77121	1.76823	9.80725	2.17329	11.5393	0.558301	3.10871	0.756161	4.21128	1.04199	5.83551	1.23008	6.86256	1.5388	8.55684	1.92741	10.6433	2.05308	11.259
1.7334	2.53154	1.73272	2.53149	0.75667	4.16167	0.977818	5.33014	1.30723	7.20701	1.57966	8.65348	1.7699	9.66154	2.1734	11.4995	0.562844	3.08433	0.761992	4.17647	1.0439	5.75303	1.23494	6.78027	1.53996	8.42777	1.92823	10.4805	2.05486	11.1826
1.72567	2.53094	1.72498	2.53088	0.760166	4.11542	0.982547	5.27278	1.30833	7.09985	1.58353	8.53936	1.77164	9.5207	2.17355	11.4428	0.567343	3.06048	0.767936	4.14336	1.04585	5.6733	1.23983	6.70071	1.54118	8.30297	1.92905	10.3227	2.05713	11.0878
1.71793	2.53033	1.71725	2.53028	0.763618	4.07038	0.987355	5.21759	1.30948	6.99627	1.58738	8.42867	1.77344	9.38452	2.17372	11.3818	0.571806	3.03716	0.773984	4.11182	1.04782	5.59621	1.24475	6.62375	1.54243	8.18224	1.92988	10.1697	2.05991	10.9756
1.7102	2.52972	1.70952	2.52967	0.767032	4.02649	0.992236	5.16445	1.31068	6.89612	1.59122	8.32124	1.77531	9.25279	2.17395	11.2999	0.576238	3.01439	0.780129	4.08175	1.04983	5.52165	1.24969	6.54924	1.54374	8.06541	1.93072	10.0214	2.06319	10.8474
1.70247	2.52911	1.70179	2.52906	0.77041	3.98374	0.997187	5.11324	1.31194	6.79926	1.59503	8.21691	1.77725	9.12533	2.17425	11.198	0.580645	2.99217	0.786363	4.05303	1.05188	5.44953	1.25465	6.47706	1.54509	7.95232	1.93156	9.87743	2.067	10.7046
1.69475	2.5285	1.69406	2.52844	0.773757	3.94208	1.0022	5.06385	1.31325	6.70555	1.59883	8.11553	1.77926	9.00197	2.17462	11.0773	0.585032	2.9705	0.792678	4.02556	1.05398	5.37976	1.25963	6.4071	1.5465	7.84279	1.93241	9.73773	2.07085	10.5663
1.68703	2.52789	1.68634	2.52783	0.777075	3.90149	1.00728	5.01618	1.31462	6.61484	1.6026	8.01697	1.78135	8.88252	2.17507	10.9392	0.589404	2.94939	0.799066	3.99926	1.05612	5.31224	1.26463	6.33924	1.54796	7.7367	1.93326	9.60209	2.07474	10.4322
1.67931	2.52728	1.67863	2.52722	0.780368	3.86194	1.01241	4.97013	1.31605	6.52703	1.60634	7.92108	1.78351	8.76684	2.1756	10.7849	0.593767	2.92883	0.805521	3.97404	1.0583	5.24691	1.26963	6.27338	1.54947	7.63388	1.93413	9.47033	2.07867	10.3021
1.6716	2.52667	1.67091	2.52661	0.783641	3.82341	1.01759	4.92561	1.31753	6.442	1.61006	7.82775	1.78574	8.65478	2.17615	10.6352	0.598126	2.90883	0.812034	3.9498	1.06054	5.18367	1.27465	6.20942	1.55103	7.53423	1.935	9.34229	2.08264	10.1759
1.66388	2.52605	1.6632	2.526	0.786896	3.78586	1.02281	4.88254	1.31908	6.35962	1.61374	7.73686	1.78805	8.54618	2.17672	10.4897	0.602485	2.88938	0.818598	3.92649	1.06284	5.12247	1.27967	6.14726	1.55265	7.43761	1.93588	9.21783	2.08665	10.0534
1.65618	2.52544	1.65549	2.52539	0.790137	3.74928	1.02808	4.84084	1.32069	6.27982	1.61739	7.6483	1.79045	8.44093	2.17731	10.3482	0.606848	2.87049	0.825205	3.90401	1.06519	5.06323	1.28469	6.08681	1.55433	7.3439	1.93678	9.0968	2.09069	9.93443
1.64847	2.52483	1.64779	2.52478	0.793367	3.71364	1.03338	4.80041	1.32237	6.20247	1.62101	7.56196	1.79292	8.33888	2.17791	10.2108	0.61122	2.85215	0.831848	3.88232	1.06761	5.00588	1.28972	6.02801	1.55607	7.25299	1.93768	8.97906	2.09476	9.81884
1.64078	2.52422	1.64009	2.52417	0.79659	3.67891	1.03871	4.7612	1.32411	6.1275	1.62458	7.47776	1.79548	8.23992	2.17854	10.077	0.615605	2.83435	0.838521	3.86133	1.07009	4.95038	1.29474	5.97075	1.55787	7.16478	1.9386	8.8645	2.09887	9.70649
1.63308	2.52362	1.6324	2.52356	0.799809	3.64509	1.04406	4.72314	1.32591	6.05482	1.62812	7.39559	1.79812	8.14394	2.17919	9.94694	0.620007	2.8171	0.845216	3.841	1.07264	4.89665	1.29975	5.91498	1.55974	7.07918	1.93953	8.75298	2.10301	9.59724
1.62539	2.52301	1.62471	2.52296	0.803026	3.61213	1.04944	4.68615	1.32779	5.98434	1.63162	7.31537	1.80084	8.05081	2.17985	9.82033	0.624428	2.80038	0.851926	3.82127	1.07526	4.84466	1.30476	5.86062	1.56166	6.99608	1.94047	8.6444	2.10717	9.49098
1.6177	2.5224	1.61702	2.52235	0.806246	3.58004	1.05484	4.65019	1.32974	5.91599	1.63508	7.23703	1.80365	7.96043	2.18054	9.69706	0.628872	2.7842	0.858644	3.80207	1.07796	4.79435	1.30976	5.80761	1.56365	6.91539	1.94143	8.53863	2.11137	9.38758
1.61002	2.5218	1.60934	2.52175	0.80947	3.54877	1.06025	4.61518	1.33175	5.84969	1.6385	7.16048	1.80655	7.87271	2.18125	9.57702	0.633342	2.76853	0.865364	3.78337	1.08074	4.74566	1.31474	5.75588	1.56571	6.83704	1.9424	8.43559	2.11559	9.28692
1.60235	2.5212	1.60167	2.52115	0.812701	3.51832	1.06566	4.58108	1.33385	5.78537	1.64187	7.08565	1.80953	7.78754	2.18198	9.46009	0.637842	2.75339	0.872079	3.76512	1.08361	4.69857	1.31971	5.70538	1.56784	6.76094	1.94339	8.33517	2.11984	9.18889
1.59468	2.52061	1.594	2.52055	0.815942	3.48867	1.07108	4.54783	1.33601	5.72297	1.6452	7.01249	1.8126	7.70483	2.18273	9.34615	0.642374	2.73876	0.878783	3.74726	1.08656	4.65302	1.32465	5.65604	1.57004	6.68701	1.94439	8.23728	2.12411	9.09339
1.58701	2.52001	1.58633	2.51996	0.819195	3.45979	1.0765	4.51539	1.33825	5.66242	1.64849	6.94092	1.81575	7.62449	2.1835	9.23508	0.64694	2.72463	0.885469	3.72977	1.08961	4.60897	1.32958	5.60782	1.57231	6.61518	1.94541	8.14183	2.12841	9.00033
1.57935	2.51942	1.57868	2.51937	0.822463	3.43167	1.08192	4.4837	1.34058	5.60366	1.65173	6.87089	1.81899	7.54643	2.1843	9.1268	0.651544	2.71099	0.89213	3.71259	1.09275	4.5664	1.33448	5.56067	1.57465	6.54538	1.94644	8.04873	2.13272	8.9096
1.5717	2.51884	1.57102	2.51878	0.825749	3.40429	1.08733	4.45274	1.34298	5.54663	1.65493	6.80234	1.82231	7.47057	2.18512	9.0212	0.656188	2.69784	0.89876	3.6957	1.09599	4.52526	1.33936	5.51453	1.57707	6.47755	1.9475	7.9579	2.13706	8.82112
1.56406	2.51825	1.56338	2.5182	0.829053	3.37764	1.09272	4.42244	1.34546	5.49128	1.65808	6.73523	1.82572	7.39684	2.18597	8.9182	0.660875	2.68518	0.905354	3.67906	1.09934	4.48551	1.34422	5.46937	1.57956	6.41162	1.94857	7.86927	2.14141	8.73481
1.55641	2.51768	1.55574	2.51763	0.832379	3.35169	1.0981	4.39279	1.34802	5.43756	1.66119	6.6695	1.82921	7.32514	2.18684	8.81769	0.665606	2.67299	0.911904	3.66263	1.1028	4.44713	1.34904	5.42514	1.58213	6.34753	1.94966	7.78276	2.14578	8.65057
1.54878	2.51711	1.5481	2.51706	0.835728	3.32644	1.10346	4.36374	1.35068	5.38542	1.66426	6.60511	1.83279	7.25541	2.18773	8.7196	0.670385	2.66127	0.918407	3.64638	1.10637	4.41009	1.35383	5.38181	1.58478	6.28522	1.95077	7.6983	2.15017	8.56834
1.54116	2.51654	1.54048	2.51649	0.839102	3.30185	1.10879	4.33525	1.35341	5.33481	1.66728	6.54202	1.83644	7.18757	2.18865	8.62384	0.675215	2.65002	0.924855	3.63029	1.11006	4.37435	1.35858	5.33933	1.58751	6.22463	1.9519	7.61583	2.15457	8.48803
1.53354	2.51599	1.53286	2.51594	0.842503	3.27793	1.1141	4.3073	1.35624	5.28567	1.67027	6.48019	1.84017	7.12156	2.18959	8.53034	0.680099	2.63922	0.931243	3.61433	1.11386	4.33988	1.36331	5.29766	1.59032	6.16571	1.95305	7.53528	2.15898	8.40959
1.52593	2.51544	1.52525	2.51539	0.845933	3.25464	1.11938	4.27985	1.35915	5.23798	1.67322	6.41958	1.84398	7.05731	2.19057	8.43903	0.685039	2.62889	0.937566	3.59848	1.11779	4.30666	1.36799	5.25679	1.59321	6.10841	1.95422	7.45659	2.1634	8.33293
1.51832	2.51489	1.51765	2.51485	0.849393	3.23199	1.12463	4.25288	1.36215	5.19168	1.67613	6.36016	1.84787	6.99474	2.19156	8.34983	0.69004	2.61901	0.943821	3.58271	1.12185	4.27466	1.37264	5.21667	1.59618	6.05267	1.95541	7.3797	2.16783	8.258
1.51073	2.51436	1.51005	2.51431	0.852885	3.20995	1.12984	4.22636	1.36524	5.14673	1.679	6.3019	1.85183	6.93381	2.19259	8.26268	0.695106	2.60958	0.950001	3.567	1.12604	4.24385	1.37725	5.17727	1.59923	5.99846	1.95663	7.30455	2.17227	8.18473
1.50314	2.51384	1.50247	2.51379	0.85641	3.1885	1.13502	4.20026	1.36843	5.10309	1.68184	6.24476	1.85586	6.87444	2.19364	8.17751	0.70024	2.60062	0.956104	3.55135	1.13036	4.2142	1.38182	5.13858	1.60237	5.94571	1.95787	7.2311	2.17672	8.11306
1.49556	2.51332	1.49489	2.51328	0.85997	3.16764	1.14015	4.17458	1.37171	5.06073	1.68465	6.18872	1.85995	6.81658	2.19473	8.09427	0.705449	2.59212	0.962125	3.53572	1.13482	4.18567	1.38635	5.10056	1.60558	5.89439	1.95914	7.15929	2.18117	8.04294
1.488	2.51282	1.48733	2.51278	0.863565	3.14736	1.14524	4.14927	1.37508	5.0196	1.68742	6.13375	1.86412	6.76018	2.19584	8.01289	0.710739	2.58409	0.968062	3.52012	1.13941	4.15825	1.39084	5.06319	1.60889	5.84445	1.96043	7.08907	2.18562	7.97431
1.48044	2.51233	1.47977	2.51229	0.867198	3.12763	1.15028	4.12433	1.37855	4.97968	1.69017	6.07982	1.86834	6.70517	2.19698	7.93332	0.716117	2.57655	0.973912	3.50454	1.14414	4.13191	1.39528	5.02645	1.61227	5.79585	1.96174	7.0204	2.19008	7.90712
1.47289	2.51185	1.47223	2.51181	0.87087	3.10844	1.15528	4.09973	1.38211	4.94092	1.6929	6.02691	1.87263	6.65151	2.19815	7.8555	0.72159	2.5695	0.979673	3.48895	1.14902	4.1066	1.39969	4.99032	1.61574	5.74854	1.96308	6.95322	2.19453	7.84131
1.46536	2.51139	1.46469	2.51135	0.874582	3.08979	1.16023	4.07547	1.38576	4.90328	1.6956	5.975	1.87697	6.59914	2.19935	7.77939	0.727169	2.56297	0.985345	3.47337	1.15403	4.08231	1.40405	4.95477	1.61929	5.70248	1.96445	6.88751	2.19898	7.77684
1.45783	2.51094	1.45717	2.5109	0.878334	3.07166	1.16513	4.05152	1.38951	4.86674	1.69828	5.92407	1.88137	6.54802	2.20059	7.70493	0.732862	2.55697	0.990926	3.45779	1.15917	4.05899	1.40837	4.9198	1.62292	5.65764	1.96585	6.8232	2.20343	7.71367
1.45032	2.51051	1.44966	2.51047	0.882129	3.05404	1.16998	4.02787	1.39336	4.83126	1.70095	5.87409	1.88583	6.4981			0.738681	2.55152	0.996416	3.4422	1.16446	4.03661	1.41265	4.88539	1.62663	5.61397	1.96727	6.76028		
1.44282	2.5101	1.44216	2.51006	0.885968	3.03691	1.17478	4.00451	1.39729	4.7968	1.70359	5.82505	1.89033	6.44933			0.744637	2.54665	1.00182	3.42662	1.16988	4.01515	1.41689	4.85152	1.63042	5.57144	1.96872	6.69869		
1.43533	2.5097	1.43467	2.50966	0.889851	3.02028	1.17953	3.98143	1.40132	4.76334	1.70623	5.77692	1.89488	6.40168			0.750738	2.54236	1.00713	3.41104	1.17544	3.99457	1.42109	4.81818	1.63429	5.53	1.97021	6.6384		
1.42786	2.50932	1.4272	2.50929	0.89378	3.00412	1.18422	3.95862	1.40545	4.73084	1.70885	5.72969	1.89947	6.35509			0.756992	2.53868	1.01235	3.39547	1.18113	3.97482	1.42525	4.78536	1.63824	5.48963	1.97172	6.57938		
1.4204	2.50897	1.41974	2.50894	0.897755	2.98843	1.18886	3.93608	1.40966	4.69927	1.71147	5.68334	1.9041	6.30953			0.763403	2.53558	1.01749	3.37991	1.18694	3.95588	1.42937	4.75304	1.64226	5.45028	1.97327	6.52159		
1.41296	2.50864	1.4123	2.50861	0.901779	2.9732	1.19345	3.91379	1.41396	4.66859	1.71408	5.63786	1.90877	6.26496			0.76997	2.53306	1.02255	3.36438	1.19288	3.93771	1.43346	4.72123	1.64636	5.41193	1.97484	6.465		
1.40553	2.50833	1.40487	2.5083	0.905853	2.95841	1.19798	3.89174	1.41835	4.63879	1.71668	5.59322	1.91348	6.22134			0.776689	2.53108	1.02752	3.34889	1.19894	3.92028	1.43752	4.6899	1.65053	5.37453	1.97645	6.40958		
1.39812	2.50804	1.39746	2.50802	0.909977	2.94407	1.20247	3.86994	1.42283	4.60982	1.71929	5.54942	1.91822	6.17864			0.783552	2.5296	1.03242	3.33343	1.20511	3.90354	1.44154	4.65906	1.65476	5.33805	1.9781	6.3553		
1.39072	2.50779	1.39006	2.50777	0.914153	2.93016	1.2069	3.84838	1.42739	4.58166	1.7219	5.50643	1.92298	6.13683			0.790545	2.52856	1.03725	3.31804	1.21139	3.88746	1.44553	4.62869	1.65907	5.30247	1.97978	6.30213		
1.38334	2.50756	1.38269	2.50754	0.918382	2.91668	1.21128	3.82706	1.43203	4.55428	1.72451	5.46424	1.92778	6.09586			0.797656	2.52792	1.04201	3.30271	1.21777	3.87201	1.4495	4.5988	1.66344	5.26774	1.98149	6.25004		
1.37598	2.50737	1.37533	2.50735	0.922667	2.90361	1.21561	3.80597	1.43675	4.52764	1.72713	5.42284	1.9326	6.05571			0.80487	2.52761	1.04671	3.28745	1.22426	3.85715	1.45344	4.56937	1.66787	5.23384	1.98324	6.19901		
1.36864	2.50721	1.36799	2.50719	0.927008	2.89096	1.2199	3.7851	1.44155	4.50173	1.72976	5.38221	1.93744	6.01635			0.812172	2.52758	1.05135	3.27229	1.23083	3.84285	1.45736	4.5404	1.67237	5.20074	1.98503	6.14901		
1.36132	2.50708	1.36067	2.50707	0.931407	2.87871	1.22414	3.76447	1.44642	4.47651	1.7324	5.34235	1.9423	5.97775			0.81955	2.52779	1.05593	3.25722	1.23749	3.82906	1.46126	4.51189	1.67692	5.1684	1.98686	6.10002		
1.35402	2.50699	1.35337	2.50698	0.935867	2.86686	1.22833	3.74406	1.45136	4.45195	1.73506	5.30323	1.94717	5.93987			0.826993	2.52819	1.06046	3.24227	1.24423	3.81577	1.46514	4.48383	1.68153	5.13681	1.98873	6.052		
1.34674	2.50694	1.3461	2.50694	0.940388	2.85541	1.23248	3.72388	1.45637	4.42802	1.73773	5.26486	1.95206	5.9027			0.83449	2.52875	1.06494	3.22743	1.25105	3.80294	1.46901	4.45623	1.68618	5.10592	1.99063	6.00495		
1.33948	2.50693	1.33884	2.50693	0.944973	2.84436	1.23659	3.70393	1.46145	4.40471	1.74042	5.2272	1.95696	5.86621			0.842033	2.52944	1.06938	3.21272	1.25793	3.79053	1.47287	4.42909	1.69089	5.07572	1.99258	5.95883		
1.33225	2.50696	1.33161	2.50697	0.949625	2.83369	1.24066	3.6842	1.46658	4.38198	1.74313	5.19026	1.96187	5.83037			0.849615	2.53023	1.07378	3.19816	1.26487	3.77852	1.47673	4.40239	1.69564	5.04617	1.99457	5.91364		
1.32504	2.50704	1.3244	2.50705	0.954346	2.82341	1.24469	3.66469	1.47177	4.35981	1.74587	5.15401	1.96678	5.79516			0.857229	2.5311	1.07815	3.18374	1.27187	3.76688	1.48058	4.37614	1.70044	5.01726	1.99661	5.86933		
1.31786	2.50717	1.31722	2.50719	0.959139	2.81351	1.24869	3.64541	1.47701	4.33818	1.74863	5.11846	1.9717	5.76056			0.864871	2.53204	1.08248	3.16947	1.27892	3.75557	1.48444	4.35035	1.70528	4.98895	1.99869	5.82591		
1.3107	2.50735	1.31007	2.50737	0.964007	2.804	1.25265	3.62636	1.48231	4.31705	1.75142	5.08359	1.97662	5.72654			0.872537	2.53303	1.08679	3.15537	1.28601	3.74458	1.4883	4.325	1.71015	4.96122	2.00081	5.78334		
1.30357	2.50759	1.30294	2.50761	0.968952	2.79487	1.25658	3.60753	1.48765	4.29641	1.75424	5.04939	1.98154	5.69308			0.880222	2.53406	1.09108	3.14143	1.29313	3.73388	1.49217	4.3001	1.71506	4.93405	2.00298	5.74161		
1.29647	2.50788	1.29584	2.50791	0.973978	2.78612	1.26048	3.58893	1.49303	4.27623	1.7571	5.01584	1.98645	5.66016			0.887924	2.53513	1.09535	3.12767	1.30028	3.72344	1.49606	4.27566	1.71999	4.90742	2.0052	5.7007		
1.28939	2.50823	1.28877	2.50826	0.979088	2.77775	1.26436	3.57056	1.49845	4.25649	1.75999	4.98295	1.99136	5.62776			0.89564	2.53621	1.0996	3.11408	1.30746	3.71323	1.49996	4.25167	1.72496	4.8813	2.00747	5.6606		
1.28235	2.50864	1.28173	2.50868	0.984287	2.76977	1.26821	3.55241	1.5039	4.23717	1.76291	4.95069	1.99626	5.59587			0.903369	2.53732	1.10383	3.10068	1.31465	3.70323	1.50389	4.22814	1.72995	4.85568	2.00978	5.62128		
1.27534	2.50912	1.27472	2.50916	0.989578	2.76218	1.27204	3.53449	1.50939	4.21824	1.76588	4.91907	2.00115	5.56446			0.911108	2.53843	1.10806	3.08747	1.32186	3.69343	1.50784	4.20507	1.73496	4.83052	2.01215	5.58274		
1.26835	2.50966	1.26774	2.50971	0.994964	2.75497	1.27584	3.5168	1.5149	4.19969	1.76889	4.88806	2.00603	5.53351			0.918856	2.53955	1.11228	3.07445	1.32906	3.68379	1.51183	4.18246	1.73999	4.80582	2.01457	5.54495		
1.2614	2.51028	1.26079	2.51034	1.00045	2.74815	1.27963	3.49934	1.52043	4.1815	1.77194	4.85768	2.01089	5.50302			0.926611	2.54067	1.11649	3.06162	1.33627	3.6743	1.51586	4.16031	1.74503	4.78156	2.01704	5.50791		
1.25449	2.51096	1.25387	2.51103	1.00603	2.74171	1.2834	3.48211	1.52598	4.16365	1.77504	4.82789	2.01574	5.47297			0.934373	2.5418	1.12071	3.04899	1.34346	3.66494	1.51993	4.13863	1.75009	4.75771	2.01957	5.47159		
1.2476	2.51173	1.24699	2.5118	1.01173	2.73565	1.28715	3.4651	1.53155	4.14611	1.77819	4.7987	2.02057	5.44333			0.94214	2.54292	1.12492	3.03655	1.35064	3.65568	1.52405	4.11742	1.75516	4.73425	2.02215	5.43599		
1.24075	2.51257	1.24015	2.51265	1.01752	2.72997	1.29089	3.44832	1.53712	4.12888	1.78139	4.77011	2.02538	5.4141			0.949911	2.54403	1.12913	3.02431	1.3578	3.6465	1.52823	4.09668	1.76023	4.71118	2.02479	5.40109		
1.23394	2.51349	1.23333	2.51358	1.02343	2.72467	1.29462	3.43177	1.54271	4.11192	1.78465	4.74209	2.03017	5.38525			0.957687	2.54514	1.13335	3.01227	1.36493	3.63739	1.53246	4.07642	1.76531	4.68848	2.02749	5.36687		
1.22716	2.5145	1.22656	2.51459	1.02944	2.71974	1.29834	3.41544	1.54829	4.09524	1.78795	4.71464	2.03493	5.35679			0.965466	2.54624	1.13757	3.00043	1.37202	3.62833	1.53676	4.05665	1.77039	4.66612	2.03024	5.33333		
1.22041	2.51559	1.21982	2.51569	1.03556	2.71516	1.30206	3.39934	1.55388	4.07881	1.79132	4.68776	2.03967	5.32869			0.973247	2.54733	1.1418	2.98879	1.37907	3.61929	1.54113	4.03736	1.77547	4.6441	2.03306	5.30045		
1.21371	2.51677	1.21311	2.51688	1.04178	2.71092	1.30576	3.38347	1.55946	4.06261	1.79474	4.66144	2.04438	5.30094			0.98103	2.54841	1.14605	2.97735	1.38607	3.61026	1.54558	4.01856	1.78054	4.6224	2.03593	5.26821		
1.20704	2.51804	1.20645	2.51815	1.04811	2.70701	1.30946	3.36782	1.56503	4.04663	1.79823	4.63567	2.04906	5.27354			0.988815	2.54948	1.1503	2.9661	1.39302	3.60123	1.55011	4.00026	1.78561	4.601	2.03887	5.23662		
1.2004	2.5194	1.19981	2.51952	1.05454	2.70341	1.31316	3.3524	1.57059	4.03086	1.80178	4.61045	2.05372	5.24646			0.996601	2.55053	1.15456	2.95506	1.39991	3.59218	1.55473	3.98245	1.79067	4.5799	2.04187	5.20564		
1.1938	2.52085	1.19322	2.52099	1.06106	2.70011	1.31686	3.33719	1.57613	4.01528	1.8054	4.58576	2.05834	5.21971			1.00439	2.55157	1.15884	2.94422	1.40673	3.58308	1.55944	3.96515	1.79571	4.55908	2.04493	5.17529		
1.18724	2.52241	1.18666	2.52255	1.06767	2.69707	1.32056	3.32221	1.58166	3.99989	1.80908	4.5616	2.06294	5.19326			1.01218	2.5526	1.16313	2.93357	1.41348	3.57394	1.56426	3.94835	1.80075	4.53854	2.04805	5.14553		
1.18072	2.52406	1.18014	2.52421	1.07436	2.69429	1.32426	3.30745	1.58716	3.98466	1.81283	4.53796	2.0675	5.16712			1.01996	2.55361	1.16744	2.92311	1.42014	3.56472	1.56918	3.93206	1.80576	4.51825	2.05124	5.11636		
1.17423	2.5258	1.17366	2.52596	1.08113	2.69174	1.32796	3.29291	1.59264	3.96959	1.81665	4.51483	2.07203	5.14127			1.02775	2.55461	1.17177	2.91285	1.42673	3.55543	1.57421	3.91628	1.81077	4.4982	2.0545	5.08778		
1.16778	2.52765	1.16721	2.52782	1.08797	2.68941	1.33167	3.27858	1.59809	3.95467	1.82054	4.49221	2.07652	5.11571			1.03554	2.55559	1.17612	2.90278	1.43322	3.54605	1.57935	3.901	1.81575	4.4784	2.05782	5.05976		
1.16136	2.5296	1.16079	2.52977	1.09488	2.68727	1.33538	3.26447	1.60351	3.93988	1.82451	4.47009	2.08098	5.09042			1.04332	2.55656	1.18048	2.89291	1.43961	3.53656	1.58461	3.88623	1.82071	4.45883	2.06121	5.0323		
1.15498	2.53165	1.15441	2.53183	1.10184	2.6853	1.3391	3.25058	1.6089	3.92522	1.82855	4.44847	2.08541	5.06541			1.05111	2.55751	1.18487	2.88322	1.44591	3.52697	1.59	3.87197	1.82565	4.43947	2.06467	5.00539		
1.14863	2.53379	1.14807	2.53399	1.10887	2.68349	1.34282	3.23689	1.61425	3.91068	1.83266	4.42732	2.0898	5.04066			1.0589	2.55844	1.18928	2.87372	1.45211	3.51727	1.59551	3.85821	1.83056	4.42033	2.06819	4.97902		
1.14231	2.53604	1.14175	2.53625	1.11593	2.68183	1.34656	3.22342	1.61956	3.89624	1.83685	4.40666	2.09415	5.01617			1.06668	2.55936	1.19371	2.8644	1.4582	3.50745	1.60114	3.84495	1.83545	4.4014	2.07178	4.95317		
1.13603	2.53839	1.13547	2.5386	1.12305	2.6803	1.3503	3.21016	1.62484	3.88191	1.84112	4.38646	2.09848	4.99194			1.07446	2.56027	1.19816	2.85527	1.46418	3.49751	1.60691	3.83218	1.84031	4.38266	2.07544	4.92784		
1.12977	2.54084	1.12922	2.54106	1.1302	2.67888	1.35405	3.1971	1.63006	3.86768	1.84547	4.36672	2.10276	4.96796			1.08224	2.56115	1.20264	2.84631	1.47006	3.48744	1.6128	3.81988	1.84515	4.36411	2.07916	4.90301		
1.12355	2.54338	1.123	2.54361	1.13739	2.67756	1.35782	3.18424	1.63525	3.85353	1.84989	4.34743	2.10702	4.94422			1.09002	2.56202	1.20714	2.83754	1.47582	3.47726	1.61882	3.80806	1.84996	4.34575	2.08295	4.87867		
1.11735	2.54603	1.1168	2.54626	1.14462	2.67634	1.3616	3.17159	1.64039	3.83947	1.85439	4.32859	2.11124	4.92073			1.0978	2.56288	1.21166	2.82894	1.48148	3.46696	1.62498	3.7967	1.85473	4.32757	2.08681	4.85482		
1.11118	2.54876	1.11063	2.549	1.15187	2.67521	1.36539	3.15914	1.64548	3.82549	1.85897	4.31017	2.11543	4.89747			1.10557	2.56371	1.21621	2.82052	1.48702	3.45654	1.63125	3.78578	1.85948	4.30957	2.09074	4.83144		
1.10503	2.55158	1.10448	2.55184	1.15915	2.67415	1.3692	3.14689	1.65052	3.81158	1.86363	4.29218	2.11959	4.87445			1.11334	2.56453	1.22079	2.81227	1.49247	3.44602	1.63765	3.77529	1.8642	4.29174	2.09473	4.80853		
1.0989	2.55449	1.09836	2.55475	1.16645	2.67316	1.37302	3.13483	1.65551	3.79774	1.86836	4.27461	2.12371	4.85167			1.12111	2.56534	1.22539	2.80419	1.4978	3.4354	1.64418	3.76522	1.86889	4.27408	2.09879	4.78606		
1.09279	2.55748	1.09225	2.55775	1.17378	2.67223	1.37686	3.12297	1.66046	3.78397	1.87317	4.25744	2.12781	4.82912			1.12888	2.56612	1.23002	2.79628	1.50304	3.4247	1.65082	3.75555	1.87355	4.25658	2.10291	4.76404		
1.08669	2.56054	1.08615	2.56082	1.18112	2.67136	1.38071	3.1113	1.66535	3.77027	1.87806	4.24066	2.13188	4.8068			1.13664	2.56689	1.23468	2.78853	1.50818	3.41391	1.65757	3.74626	1.87819	4.23924	2.10709	4.74245		
1.08061	2.56368	1.08007	2.56396	1.18848	2.67054	1.38458	3.09981	1.67019	3.75662	1.88302	4.22427	2.13592	4.78471			1.1444	2.56764	1.23937	2.78095	1.51323	3.40305	1.66443	3.73733	1.88279	4.22207	2.11134	4.72127		
1.07453	2.56687	1.07399	2.56716	1.19586	2.66976	1.38847	3.08852	1.67498	3.74305	1.88805	4.20825	2.13994	4.76285			1.15215	2.56837	1.24408	2.77353	1.51818	3.39213	1.67139	3.72874	1.88736	4.20505	2.11565	4.70051		
1.06846	2.57012	1.06792	2.57041	1.20325	2.66903	1.39238	3.07741	1.67972	3.72953	1.89315	4.1926	2.14393	4.74122			1.1599	2.56909	1.24883	2.76627	1.52305	3.38116	1.67845	3.72048	1.89191	4.18819	2.12002	4.68014		
1.06238	2.57341	1.06184	2.57371	1.21065	2.66833	1.3963	3.06648	1.6844	3.71607	1.89832	4.17729	2.14791	4.71982			1.16765	2.56978	1.2536	2.75917	1.52784	3.37015	1.6856	3.71253	1.89643	4.17149	2.12445	4.66016		
1.0563	2.57674	1.05576	2.57704	1.21807	2.66766	1.40025	3.05573	1.68904	3.70267	1.90356	4.16233	2.15186	4.69864			1.17539	2.57046	1.25841	2.75222	1.53256	3.35912	1.69283	3.70486	1.90093	4.15495	2.12894	4.64055		
1.05021	2.58008	1.04967	2.58038	1.22549	2.66703	1.40421	3.04516	1.69363	3.68934	1.90887	4.1477	2.1558	4.6777			1.18313	2.57112	1.26325	2.74543	1.5372	3.34807	1.70015	3.69747	1.90541	4.13857	2.13348	4.62132		
1.0441	2.58344	1.04356	2.58373	1.23293	2.66643	1.4082	3.03477	1.69817	3.67607	1.91423	4.13338	2.15972	4.65698			1.19086	2.57175	1.26811	2.73879	1.54178	3.33702	1.70754	3.69032	1.90986	4.12234	2.13807	4.60243		
1.03797	2.58678	1.03742	2.58708	1.24037	2.66585	1.4122	3.02455	1.70266	3.66285	1.91966	4.11937	2.16363	4.63649			1.19859	2.57237	1.27301	2.73231	1.5463	3.32598	1.71499	3.68341	1.91429	4.10627	2.14272	4.58389		
1.03181	2.5901	1.03126	2.59039	1.24782	2.66529	1.41623	3.01451	1.70711	3.64971	1.92515	4.10566	2.16753	4.61623			1.20631	2.57297	1.27795	2.72597	1.55076	3.31495	1.72251	3.67672	1.91871	4.09037	2.14741	4.56568		
1.02562	2.59338	1.02507	2.59367	1.25527	2.66475	1.42028	3.00463	1.71151	3.63662	1.93069	4.09223	2.17142	4.5962			1.21402	2.57354	1.28291	2.71978	1.55517	3.30395	1.73009	3.67022	1.92311	4.07463	2.15216	4.5478		
1.01938	2.59661	1.01883	2.5969	1.26274	2.66423	1.42435	2.99492	1.71586	3.62361	1.93628	4.07907	2.1753	4.5764			1.22173	2.57409	1.28791	2.71374	1.55953	3.29298	1.73771	3.66391	1.9275	4.05905	2.15694	4.53023		
1.0131	2.59977	1.01254	2.60005	1.2702	2.66373	1.42845	2.98537	1.72017	3.61066	1.94192	4.06617	2.17918	4.55683			1.22942	2.57462	1.29295	2.70785	1.56385	3.28205	1.74537	3.65777	1.93188	4.04364	2.16178	4.51296		
1.00677	2.60284	1.00621	2.60311	1.27768	2.66325	1.43257	2.97599	1.72445	3.59779	1.9476	4.05353	2.18306	4.5375			1.23711	2.57512	1.29802	2.7021	1.56813	3.27118	1.75308	3.65177	1.93625	4.0284	2.16665	4.49598		
1.00038	2.60582	0.999816	2.60608	1.28515	2.66278	1.43671	2.96677	1.72868	3.58498	1.95333	4.04112	2.18694	4.5184			1.24479	2.57559	1.30312	2.69649	1.57237	3.26036	1.76081	3.64592	1.94062	4.01334	2.17156	4.47928		
0.993938	2.60868	0.993364	2.60893	1.29263	2.66232	1.44088	2.95771	1.73287	3.57226	1.95909	4.02893	2.19083	4.49954			1.25246	2.57604	1.30827	2.69103	1.57658	3.2496	1.76857	3.64018	1.94499	3.99846	2.1765	4.46286		
0.987429	2.61142	0.986849	2.61166	1.30011	2.66187	1.44507	2.9488	1.73703	3.55961	1.96489	4.01697	2.19472	4.48092			1.26011	2.57645	1.31345	2.68572	1.58077	3.23891	1.77635	3.63455	1.94936	3.98376	2.18148	4.44669		
0.980856	2.61404	0.98027	2.61426	1.3076	2.66143	1.44929	2.94005	1.74116	3.54703	1.97072	4.0052	2.19862	4.46253			1.26775	2.57684	1.31868	2.68055	1.58493	3.2283	1.78414	3.62902	1.95374	3.96925	2.18649	4.43078		
0.974219	2.61652	0.973627	2.61673	1.31508	2.661	1.45353	2.93146	1.74525	3.53454	1.97658	3.99363	2.20254	4.44438			1.27538	2.57718	1.32394	2.67552	1.58906	3.21776	1.79194	3.62356	1.95814	3.95493	2.19153	4.41511		
0.967517	2.61886	0.96692	2.61906	1.32257	2.66057	1.45779	2.92301	1.74931	3.52213	1.98246	3.98225					1.28298	2.57749	1.32925	2.67064	1.59318	3.20731	1.79974	3.61818	1.96254	3.94082	2.19659	4.39967		
0.960752	2.62107	0.960149	2.62126	1.33005	2.66015	1.46209	2.91471	1.75334	3.50981	1.98837	3.97103					1.29057	2.57776	1.33461	2.66591	1.59728	3.19695	1.80754	3.61284	1.96698	3.9269	2.20167	4.38445		
0.953926	2.62315	0.953318	2.62333	1.33754	2.65974	1.46641	2.90657	1.75735	3.49758	1.99429	3.95998					1.29814	2.57798	1.34002	2.66134	1.60136	3.18668	1.81532	3.60754	1.97143	3.9132				
0.947042	2.6251	0.946429	2.62526	1.34503	2.65933	1.47075	2.89856	1.76133	3.48543	2.00022	3.94908					1.30568	2.57815	1.34547	2.65691	1.60543	3.1765	1.82309	3.60227	1.97592	3.89972				
0.940103	2.62692	0.939485	2.62708	1.35251	2.65893	1.47513	2.8907	1.76528	3.47338	2.00616	3.93832					1.3132	2.57826	1.35099	2.65264	1.6095	3.16642	1.83083	3.59701	1.98045	3.88647				
0.933112	2.62864	0.932489	2.62878	1.36	2.65852	1.47953	2.88299	1.76922	3.46142	2.01211	3.92769					1.32068	2.57831	1.35656	2.64854	1.61355	3.15644	1.83854	3.59175	1.98502	3.87345				
0.926073	2.63024	0.925446	2.63037	1.36748	2.65812	1.48396	2.87541	1.77313	3.44955	2.01806	3.91718					1.32813	2.5783	1.36219	2.6446	1.6176	3.14655	1.84621	3.58647	1.98963	3.86067				
0.918989	2.63174	0.918359	2.63187	1.37496	2.65771	1.48842	2.86798	1.77702	3.43778	2.024	3.90679					1.33554	2.5782	1.36789	2.64084	1.62165	3.13678	1.85384	3.58116	1.99431	3.84815				
0.911864	2.63315	0.91123	2.63327	1.38243	2.65731	1.4929	2.86068	1.7809	3.4261	2.02994	3.8965					1.3429	2.57801	1.37366	2.63726	1.62569	3.1271	1.86141	3.57582	1.99905	3.83588				
0.904702	2.63447	0.904065	2.63458	1.38991	2.6569	1.49742	2.85352	1.78476	3.41453	2.03587	3.8863					1.35021	2.57773	1.37952	2.63387	1.62974	3.11753	1.86893	3.57041	2.00386	3.82389				
0.897505	2.63571	0.896865	2.63582	1.39738	2.65649	1.50197	2.8465	1.7886	3.40305	2.04179	3.8762					1.35746	2.57734	1.38545	2.63068	1.63378	3.10807	1.87637	3.56494	2.00875	3.81217				
0.890277	2.63688	0.889635	2.63698	1.40484	2.65608	1.50655	2.83961	1.79243	3.39168	2.04769	3.86617					1.36464	2.57683	1.39149	2.6277	1.63783	3.09872	1.88374	3.55938	2.01372	3.80074				
0.88302	2.63799	0.882376	2.63809	1.4123	2.65566	1.51116	2.83285	1.79625	3.3804	2.05357	3.85621					1.37175	2.57619	1.39761	2.62493	1.64188	3.08947	1.89103	3.55373	2.01878	3.78962				
0.875738	2.63904	0.875091	2.63913	1.41975	2.65523	1.5158	2.82623	1.80006	3.36924	2.05942	3.84631					1.37879	2.57541	1.40385	2.62239	1.64593	3.08033	1.89823	3.54796	2.02395	3.77879				
0.868432	2.64003	0.867783	2.64012	1.4272	2.6548	1.52047	2.81974	1.80386	3.35817	2.06525	3.83647					1.38574	2.57449	1.41019	2.62008	1.64999	3.0713	1.90532	3.54208	2.02922	3.76829				
0.861105	2.64098	0.860454	2.64106	1.43464	2.65435	1.52518	2.81337	1.80766	3.34721	2.07105	3.82668					1.39261	2.57341	1.41664	2.618	1.65405	3.06238	1.91231	3.53606	2.03461	3.75811				
0.853758	2.64189	0.853106	2.64196	1.44207	2.6539	1.52992	2.80714	1.81145	3.33635	2.07681	3.81693					1.39939	2.5722	1.42321	2.61616	1.65813	3.05357	1.91919	3.5299	2.04012	3.74825				
0.846394	2.64275	0.84574	2.64283	1.44949	2.65343	1.5347	2.80104	1.81523	3.3256	2.08254	3.80722					1.40608	2.57083	1.42989	2.61453	1.66221	3.04487	1.92595	3.52358	2.04575	3.73874				
0.839014	2.64358	0.838359	2.64366	1.4569	2.65295	1.53951	2.79507	1.819	3.31495	2.08823	3.79754					1.4127	2.56934	1.43668	2.61312	1.6663	3.03628	1.93258	3.5171	2.05152	3.72956				
0.831619	2.64439	0.830963	2.64446	1.4643	2.65246	1.54436	2.78923	1.82278	3.30441	2.09387	3.78788					1.41923	2.56772	1.44357	2.61191	1.6704	3.02779	1.93908	3.51046	2.05742	3.72073				
0.824212	2.64516	0.823554	2.64523	1.47169	2.65194	1.54925	2.78352	1.82655	3.29398	2.09947	3.77824					1.4257	2.566	1.45055	2.61089	1.67451	3.01941	1.94545	3.50364	2.06347	3.71225				
0.816793	2.64591	0.816134	2.64598	1.47906	2.65141	1.55418	2.77794	1.83032	3.28365	2.10503	3.76862					1.43212	2.56419	1.45762	2.61002	1.67864	3.01114	1.95169	3.49666	2.06966	3.7041				
0.809363	2.64664	0.808704	2.64671	1.48642	2.65085	1.55915	2.77249	1.83409	3.27343	2.11053	3.75901					1.43848	2.56231	1.46477	2.60931	1.68277	3.00298	1.95779	3.4895	2.07599	3.6963				
0.801924	2.64736	0.801264	2.64742	1.49376	2.65027	1.56416	2.76717	1.83787	3.26332	2.11599	3.74941					1.44479	2.56037	1.47198	2.60872	1.68692	2.99493	1.96374	3.48217	2.08246	3.68883				
0.794476	2.64805	0.793815	2.64812	1.50108	2.64967	1.56922	2.76198	1.84164	3.25331	2.12139	3.73981					1.45108	2.55839	1.47926	2.60824	1.69108	2.98698	1.96957	3.47467	2.08908	3.68169				
0.78702	2.64874	0.786359	2.6488	1.50839	2.64903	1.57432	2.75693	1.84542	3.24341	2.12673	3.73021					1.45734	2.55639	1.48658	2.60786	1.69526	2.97913	1.97525	3.46701	2.09583	3.67486				
0.779558	2.64942	0.778896	2.64948	1.51566	2.64836	1.57947	2.75201	1.8492	3.23361	2.13203	3.72062					1.46357	2.55437	1.49396	2.60756	1.69945	2.97139	1.98081	3.4592	2.10272	3.66834				
0.772089	2.65009	0.771427	2.65014	1.52292	2.64765	1.58467	2.74723	1.85298	3.22392	2.13726	3.71102					1.4698	2.55235	1.50137	2.60734	1.70365	2.96376	1.98624	3.45125	2.10975	3.66211				
0.764615	2.65075	0.763952	2.65081	1.53015	2.64691	1.58993	2.74258	1.85677	3.21434	2.14244	3.70142					1.47602	2.55034	1.50881	2.60717	1.70787	2.95622	1.99155	3.44316	2.1169	3.65617				
0.757137	2.65141	0.756473	2.65147	1.53734	2.64612	1.59524	2.73808	1.86056	3.20486	2.14756	3.69182					1.48223	2.54834	1.51629	2.60705	1.71211	2.94879	1.99673	3.43495	2.12417	3.65049				
0.749654	2.65207	0.74899	2.65213	1.54451	2.64528	1.60061	2.73373	1.86436	3.19548	2.15262	3.68221					1.48845	2.54637	1.52379	2.60698	1.71636	2.94146	2.00181	3.42664	2.13155	3.64506				
0.742168	2.65273	0.741504	2.65279	1.55164	2.64439	1.60604	2.72952	1.86817	3.18621	2.15762	3.6726					1.49467	2.54442	1.53131	2.60695	1.72063	2.93423	2.00678	3.41822	2.13904	3.63987				
0.734679	2.65339	0.734015	2.65345	1.55873	2.64344	1.61154	2.72546	1.87198	3.17704	2.16257	3.66299					1.5009	2.5425	1.53885	2.60695	1.72492	2.92711	2.01165	3.40972	2.14664	3.63489				
0.727187	2.65406	0.726523	2.65412	1.56578	2.64244	1.6171	2.72155	1.8758	3.16798	2.16746	3.65337					1.50713	2.54061	1.5464	2.60697	1.72922	2.92007	2.01643	3.40115	2.15432	3.63013				
0.719694	2.65474	0.71903	2.6548	1.57278	2.64136	1.62273	2.71781	1.87964	3.15902	2.17229	3.64375					1.51338	2.53876	1.55397	2.60702	1.73354	2.91314	2.02113	3.39252	2.1621	3.62556				
0.7122	2.65543	0.711535	2.65549	1.57973	2.64022	1.62844	2.71422	1.88348	3.15016	2.17707	3.63413					1.51964	2.53695	1.56155	2.60709	1.73788	2.90631	2.02574	3.38383	2.16995	3.62116				
0.704705	2.65613	0.70404	2.65619	1.58664	2.639	1.63423	2.71079	1.88732	3.1414	2.18179	3.62451					1.52591	2.53519	1.56915	2.60717	1.74224	2.89957	2.03028	3.37511	2.17787	3.61693				
0.697209	2.65684	0.696545	2.65691	1.59349	2.6377	1.64009	2.70753	1.89118	3.13274	2.18645	3.61489					1.5322	2.53346	1.57675	2.60727	1.74661	2.89292	2.03475	3.36636	2.18586	3.61284				
0.689715	2.65757	0.68905	2.65764	1.60028	2.63631	1.64604	2.70444	1.89505	3.12418	2.19107	3.60527					1.53851	2.53178	1.58435	2.60738	1.75101	2.88637	2.03916	3.35758	2.19392	3.6089				
0.68222	2.65833	0.681556	2.65839	1.60701	2.63485	1.65208	2.70151	1.89893	3.11572	2.19563	3.59567					1.54484	2.53015	1.59197	2.6075	1.75542	2.87992	2.04352	3.3488	2.20202	3.60507				
0.674728	2.6591	0.674064	2.65917	1.61367	2.63329	1.6582	2.69876	1.90283	3.10736	2.20014	3.58607					1.55118	2.52856	1.59959	2.60763	1.75986	2.87355	2.04782	3.34002						
0.667238	2.6599	0.666574	2.65997	1.62028	2.63165	1.6644	2.69617	1.90673	3.0991							1.55754	2.52702	1.60721	2.60776	1.76431	2.86728	2.05207	3.33124						
0.65975	2.66073	0.659086	2.66081	1.62682	2.62992	1.67069	2.69374	1.91065	3.09093							1.56393	2.52552	1.61484	2.6079	1.76878	2.8611	2.05628	3.32248						
0.652266	2.6616	0.651602	2.66168	1.6333	2.6281	1.67707	2.69147	1.91458	3.08286							1.57033	2.52407	1.62247	2.60804	1.77327	2.85501	2.06045	3.31373						
0.644786	2.6625	0.644123	2.66258	1.63972	2.6262	1.68353	2.68936	1.91852	3.07489							1.57675	2.52267	1.63011	2.60818	1.77778	2.849	2.06459	3.30501						
0.63731	2.66344	0.636648	2.66353	1.64607	2.62423	1.69008	2.68739	1.92247	3.06701							1.5832	2.52132	1.63774	2.60833	1.78231	2.84309	2.0687	3.29632						
0.629841	2.66444	0.629179	2.66453	1.65237	2.62218	1.6967	2.68557	1.92644	3.05922							1.58967	2.52001	1.64538	2.60848	1.78687	2.83726	2.07277	3.28766						
0.622378	2.66548	0.621716	2.66557	1.65862	2.62006	1.70339	2.68388	1.93042	3.05153							1.59615	2.51874	1.65302	2.60863	1.79144	2.83152	2.07683	3.27905						
0.614922	2.66658	0.614261	2.66668	1.66481	2.61789	1.71016	2.68231	1.93442	3.04393							1.60266	2.51752	1.66066	2.60877	1.79604	2.82586	2.08086	3.27047						
0.607475	2.66775	0.606815	2.66786	1.67096	2.61566	1.71699	2.68086	1.93843	3.03642							1.60919	2.51635	1.6683	2.60892	1.80065	2.82029	2.08487	3.26195						
0.600038	2.66899	0.599379	2.66911	1.67707	2.61339	1.72388	2.67953	1.94245	3.029							1.61575	2.51522	1.67594	2.60906	1.80529	2.8148	2.08886	3.25347						
0.592613	2.67032	0.591955	2.67044	1.68314	2.61109	1.73083	2.67829	1.94649	3.02167							1.62232	2.51414	1.68357	2.6092	1.80995	2.80939	2.09284	3.24505						
0.5852	2.67174	0.584543	2.67187	1.68918	2.60875	1.73783	2.67714	1.95055	3.01443							1.62892	2.5131	1.69121	2.60934	1.81463	2.80407	2.0968	3.23668						
0.577802	2.67326	0.577146	2.67341	1.69519	2.60639	1.74488	2.67607	1.95462	3.00728							1.63554	2.5121	1.69885	2.60948	1.81933	2.79882	2.10076	3.22837						
0.57042	2.67491	0.569766	2.67506	1.70118	2.60401	1.75198	2.67508	1.95871	3.00021							1.64218	2.51114	1.70648	2.60961	1.82405	2.79366	2.1047	3.22012						
0.563057	2.67669	0.562405	2.67685	1.70715	2.60163	1.75911	2.67417	1.96281	2.99323							1.64884	2.51023	1.71411	2.60973	1.8288	2.78858	2.10864	3.21193						
0.555716	2.67862	0.555066	2.6788	1.7131	2.59924	1.76628	2.67331	1.96693	2.98634							1.65553	2.50935	1.72174	2.60985	1.83357	2.78357	2.11257	3.2038						
0.548399	2.68073	0.547751	2.68092	1.71903	2.59685	1.77348	2.67251	1.97106	2.97953							1.66223	2.50852	1.72936	2.60997	1.83836	2.77865	2.11649	3.19573						
0.54111	2.68303	0.540465	2.68325	1.72496	2.59446	1.78071	2.67176	1.97521	2.97281							1.66896	2.50772	1.73699	2.61008	1.84318	2.7738	2.12042	3.18773						
0.533853	2.68557	0.533211	2.68581	1.73088	2.59209	1.78797	2.67107	1.97938	2.96617							1.67571	2.50697	1.7446	2.61018	1.84802	2.76903	2.12434	3.1798						
0.526634	2.68837	0.525995	2.68863	1.73679	2.58972	1.79526	2.67041	1.98356	2.95961							1.68248	2.50625	1.75222	2.61028	1.85288	2.76434	2.12826	3.17194						
0.519456	2.69147	0.518822	2.69176	1.7427	2.58738	1.80257	2.66979	1.98776	2.95313							1.68927	2.50557	1.75983	2.61037	1.85777	2.75972	2.13218	3.16414						
0.512328	2.69492	0.511699	2.69525	1.74861	2.58505	1.80989	2.66921	1.99198	2.94674							1.69608	2.50492	1.76743	2.61045	1.86268	2.75518	2.1361	3.15641						
0.505256	2.69879	0.504632	2.69915	1.75452	2.58275	1.81724	2.66866	1.99622	2.94042							1.70291	2.50431	1.77503	2.61052	1.86762	2.75071	2.14002	3.14875						
0.498251	2.70313	0.497633	2.70354	1.76044	2.58047	1.8246	2.66813	2.00047	2.93418							1.70976	2.50374	1.78263	2.61058	1.87258	2.74632	2.14395	3.14115						
0.491321	2.70803	0.49071	2.70849	1.76636	2.57821	1.83198	2.66764	2.00474	2.92803							1.71663	2.50319	1.79021	2.61063	1.87757	2.742	2.14788	3.13363						
0.484479	2.71358	0.483877	2.71411	1.77228	2.57599	1.83937	2.66717	2.00903	2.92194							1.72352	2.50269	1.79779	2.61067	1.88258	2.73776	2.15181	3.12618						
0.47774	2.7199	0.477147	2.7205	1.77822	2.57379	1.84677	2.66672	2.01333	2.91594							1.73043	2.50221	1.80536	2.6107	1.88762	2.73359	2.15575	3.11879						
0.471118	2.72711	0.470537	2.7278	1.78416	2.57162	1.85418	2.66629	2.01766	2.91001							1.73736	2.50176	1.81293	2.61072	1.89269	2.7295	2.15969	3.11148						
0.464632	2.73536	0.464064	2.73615	1.79011	2.56948	1.86161	2.66587	2.022	2.90416							1.7443	2.50135	1.82048	2.61073	1.89779	2.72548	2.16364	3.10424						
0.458301	2.74483	0.457747	2.74573	1.79607	2.56738	1.86904	2.66548	2.02636	2.89838							1.75127	2.50096	1.82803	2.61072	1.90291	2.72153	2.1676	3.09706						
0.452144	2.7557	0.451608	2.75674	1.80204	2.56531	1.87648	2.6651	2.03074	2.89268							1.75825	2.50061	1.83556	2.61069	1.90807	2.71766	2.17157	3.08996						
0.446184	2.76817	0.445665	2.76936	1.80802	2.56327	1.88393	2.66473	2.03514	2.88705							1.76525	2.50028	1.84308	2.61065	1.91325	2.71387	2.17554	3.08292						
0.440438	2.78245	0.43994	2.78382	1.81402	2.56127	1.89139	2.66437	2.03956	2.88149							1.77227	2.49998	1.85059	2.61059	1.91847	2.71015	2.17952	3.07596						
0.434926	2.79877	0.434449	2.80032	1.82002	2.5593	1.89885	2.66403	2.04399	2.876							1.77931	2.49971	1.85809	2.61051	1.92372	2.7065	2.18351	3.06906						
0.429661	2.81733	0.429206	2.81909	1.82605	2.55737	1.90631	2.66369	2.04845	2.87059							1.78636	2.49946	1.86557	2.61042	1.929	2.70293	2.18752	3.06224						
0.424655	2.83834	0.424223	2.84032	1.83208	2.55547	1.91378	2.66336	2.05292	2.86525							1.79343	2.49924	1.87304	2.6103	1.93431	2.69944	2.19153	3.05548						
0.419913	2.86198	0.419506	2.86421	1.83813	2.5536	1.92126	2.66305	2.05741	2.85997							1.80052	2.49904	1.88048	2.61015	1.93966	2.69602	2.19555	3.04879						
0.41544	2.88843	0.415056	2.89092	1.8442	2.55178	1.92873	2.66274	2.06193	2.85477							1.80762	2.49887	1.88791	2.60998	1.94505	2.69269	2.19958	3.04217						
0.411232	2.91785	0.410872	2.92061	1.85028	2.54998	1.93621	2.66243	2.06646	2.84963							1.81474	2.49872	1.89532	2.60979	1.95048	2.68943	2.20362	3.03561						
0.407287	2.95041	0.406949	2.95346	1.85638	2.54823	1.9437	2.66213	2.07101	2.84456							1.82188	2.49859	1.9027	2.60956	1.95595	2.68626								
0.403598	2.98626	0.403283	2.9896	1.86249	2.54652	1.95118	2.66184	2.07558	2.83956							1.82902	2.49848	1.91006	2.6093	1.96146	2.68317								
0.400159	3.02557	0.399866	3.02923	1.86864	2.54486	1.95867	2.66155	2.08018	2.83463							1.83619	2.49839	1.91739	2.609	1.96702	2.68017								
0.396963	3.06852	0.396691	3.07251	1.87488	2.54334	1.96615	2.66126	2.08479	2.82976							1.84337	2.49833	1.92469	2.60867	1.97262	2.67725								
0.394004	3.1153	0.393753	3.11964	1.88196	2.54296	1.97364	2.66097	2.08942	2.82496							1.85056	2.49828	1.93196	2.6083	1.97827	2.67442								
0.391276	3.16613	0.391045	3.17084	1.88967	2.54343	1.98113	2.66069	2.09408	2.82022							1.85776	2.49826	1.93919	2.60788	1.98398	2.67169								
0.388772	3.22127	0.388561	3.22638	1.89742	2.54397	1.98861	2.66041	2.09876	2.81555							1.86498	2.49825	1.94638	2.60741	1.98974	2.66905								
0.386489	3.28099	0.386297	3.28651	1.90519	2.54451	1.9961	2.66013	2.10345	2.81095							1.87222	2.49826	1.95354	2.60689	1.99555	2.66651								
0.384422	3.34559	0.384249	3.35156	1.91296	2.54506	2.00358	2.65985	2.10817	2.80641							1.87946	2.49828	1.96065	2.60632	2.00143	2.66406								
0.382567	3.41542	0.382413	3.42188	1.92073	2.54561	2.01106	2.65957	2.11291	2.80193							1.88672	2.49832	1.96771	2.60569	2.00737	2.66173								
0.380922	3.49088	0.380787	3.49786	1.92851	2.54615	2.01854	2.65929	2.11768	2.79752							1.89399	2.49838	1.97472	2.605	2.01338	2.65949								
0.379484	3.5724	0.379367	3.57993	1.93629	2.5467	2.02602	2.659	2.12246	2.79316							1.90128	2.49846	1.98168	2.60425	2.01946	2.65737								
0.37825	3.66045	0.378151	3.6686	1.94407	2.54724	2.03349	2.65872	2.12727	2.78888							1.90857	2.49855	1.98859	2.60343	2.02561	2.65535								
0.377219	3.7556	0.377137	3.7644	1.95185	2.54777	2.04096	2.65843	2.1321	2.78465							1.91588	2.49865	1.99544	2.60254	2.03183	2.65345								
0.376388	3.85844	0.376324	3.86795	1.95963	2.54831	2.04842	2.65813	2.13696	2.78049							1.92319	2.49877	2.00223	2.60158	2.03813	2.65165								
0.375755	3.96965	0.375708	3.97995	1.96741	2.54884	2.05588	2.65784	2.14184	2.77639							1.93052	2.4989	2.00896	2.60056	2.0445	2.64997								
0.375319	4.09002	0.375289	4.10117	1.97519	2.54937	2.06333	2.65753	2.14675	2.77236							1.93786	2.49904	2.01564	2.59946	2.05095	2.6484								
0.375077	4.22042	0.375065	4.2325	1.98297	2.54989	2.07077	2.65722	2.15168	2.76839							1.94521	2.4992	2.02225	2.5983	2.05747	2.64694								
0.375027	4.36182	0.375032	4.37493	1.99075	2.55041	2.07821	2.6569	2.15664	2.76448							1.95257	2.49936	2.02881	2.59708	2.06407	2.64558								
0.375168	4.51537	0.37519	4.52961	1.99854	2.55093	2.08564	2.65658	2.16162	2.76063							1.95994	2.49954	2.03532	2.59579	2.07074	2.64433								
0.375497	4.68233	0.375535	4.69783	2.00632	2.55145	2.09306	2.65624	2.16663	2.75684							1.96732	2.49973	2.04177	2.59445	2.07748	2.64318								
0.375935	4.83991	0.376066	4.88109	2.0141	2.55196	2.10047	2.65589	2.17167	2.75312							1.97471	2.49993	2.04817	2.59305	2.08429	2.64212								
0.376418	4.98401	0.376779	5.0811	2.02189	2.55247	2.10787	2.65554	2.17674	2.74947							1.98211	2.50015	2.05453	2.59161	2.09116	2.64114								
0.376893	5.11052	0.377672	5.29987	2.02967	2.55297	2.11525	2.65516	2.18184	2.74588							1.98951	2.50037	2.06084	2.59012	2.0981	2.64025								
0.377317	5.21563	0.378742	5.53974	2.03746	2.55347	2.12262	2.65478	2.18697	2.74235							1.99693	2.5006	2.06712	2.5886	2.10508	2.63944								
0.377655	5.29593	0.379984	5.80344	2.04524	2.55397	2.12998	2.65437	2.19213	2.73889							2.00435	2.50084	2.07336	2.58705	2.11212	2.6387								
0.377986	5.37217	0.381396	6.09423	2.05303	2.55447	2.13732	2.65395	2.19733	2.7355							2.01179	2.50108	2.07957	2.58546	2.11921	2.63802								
0.378228	5.42659	0.382974	6.41597	2.06081	2.55496	2.14464	2.65351	2.20256	2.73218							2.01923	2.50134	2.08575	2.58386	2.12634	2.6374								
0.378623	5.51399	0.384713	6.77332	2.0686	2.55545	2.15194	2.65305									2.02668	2.5016	2.09191	2.58224	2.13352	2.63684								
0.379197	5.63769	0.386608	7.17192	2.07638	2.55593	2.15921	2.65256									2.03413	2.50187	2.09805	2.5806	2.14073	2.63632								
0.37998	5.80262	0.388655	7.6187	2.08417	2.55641	2.16647	2.65205									2.0416	2.50215	2.10418	2.57896	2.14797	2.63586								
0.381013	6.01578	0.390558	8.05396	2.09195	2.55689	2.17369	2.65151									2.04907	2.50244	2.11029	2.57731	2.15524	2.63543								
0.382341	6.28696	0.392265	8.4642	2.09974	2.55736	2.18089	2.65093									2.05655	2.50273	2.11638	2.57566	2.16255	2.63504								
0.384018	6.62986	0.393733	8.8346	2.10752	2.55783	2.18805	2.65032									2.06403	2.50303	2.12247	2.57401	2.16987	2.63468								
0.385853	7.01168	0.39493	9.14988	2.1153	2.5583	2.19518	2.64968									2.07152	2.50333	2.12856	2.57237	2.17722	2.63435								
0.387842	7.43882	0.395829	9.39558	2.12309	2.55876	2.20228	2.64899									2.07902	2.50364	2.13464	2.57073	2.18459	2.63405								
0.389979	7.91914	0.39667	9.63285	2.13087	2.55922											2.08653	2.50396	2.14071	2.5691	2.19198	2.63377								
0.392258	8.46249	0.397263	9.80467	2.13865	2.55967											2.09404	2.50428	2.14679	2.56748	2.19939	2.63352								
0.394674	9.08129	0.398202	10.085	2.14643	2.56012											2.10155	2.5046	2.15286	2.56587	2.20681	2.63328								
0.397218	9.7915	0.399503	10.4912	2.15421	2.56057											2.10907	2.50493	2.15894	2.56427										
0.399883	10.614	0.401187	11.0511	2.16199	2.56101											2.1166	2.50527	2.16502	2.56269										
0.402659	11.5764	0.403276	11.8075	2.16977	2.56145											2.12414	2.5056	2.17111	2.56112										
0.405535	12.7166	0.405795	12.8279	2.17755	2.56188											2.13167	2.50595	2.1772	2.55958										
0.408497	14.0872	0.408764	14.2222	2.18533	2.56231											2.13922	2.50629	2.1833	2.55805										
0.411528	15.7642	0.411799	15.9311	2.1931	2.56274											2.14676	2.50664	2.1894	2.55653										
0.414605	17.8611	0.414879	18.0726	2.20088	2.56316											2.15432	2.50699	2.19552	2.55504										
0.417699	20.5557	0.417972	20.8321													2.16187	2.50734	2.20164	2.55357										
0.420767	24.1434	0.421036	24.5197													2.16943	2.5077												
0.42375	29.153	0.424008	29.6948													2.177	2.50806												
0.426563	36.6372	0.4268	37.4834													2.18456	2.50842												
0.429082	49.0355	0.429285	50.5403													2.19213	2.50878												
0.431134	73.5981	0.431287	76.9955													2.19971	2.50914												
0.432509	145.848	0.432592	159.688													2.20728	2.5095												
0.433012	5931.31																												
