Sym0		Sym1		Sym2		Sym3		Sym4		Sym5		Sym6		Sym7		Asym1		Asym2		Asym3		Asym4		Asym5		Asym6		Asym7	
313  Points		313  Points		312  Points		296  Points		289  Points		226  Points		185  Points		118  Points		310  Points		308  Points		295  Points		265  Points		218  Points		184  Points		116  Points	
Freq (MHz)	Vph (m/ms)	Freq (MHz)	Vph (m/ms)	Freq (MHz)	Vph (m/ms)	Freq (MHz)	Vph (m/ms)	Freq (MHz)	Vph (m/ms)	Freq (MHz)	Vph (m/ms)	Freq (MHz)	Vph (m/ms)	Freq (MHz)	Vph (m/ms)	Freq (MHz)	Vph (m/ms)	Freq (MHz)	Vph (m/ms)	Freq (MHz)	Vph (m/ms)	Freq (MHz)	Vph (m/ms)	Freq (MHz)	Vph (m/ms)	Freq (MHz)	Vph (m/ms)	Freq (MHz)	Vph (m/ms)
2.203	2.48245	2.2038	2.48244	0.447962	190.811	0.866025	5769.59	1.29902	656.223	1.34112	1081.06	1.73205	7901.26	2.16506	891.356	0.21675	84.6083	0.649517	793.069	0.894103	459.551	1.08254	440.679	1.51554	854.001	1.78815	889.906	1.94856	41619.1
2.19591	2.48256	2.19671	2.48254	0.450935	86.054	0.866032	284.638	1.2989	266.605	1.34131	324.535	1.73205	556.629	2.16503	406.852	0.217607	39.8966	0.649485	174.994	0.894286	184.843	1.08259	202.391	1.51554	324.728	1.78825	364.811	1.94856	662.937
2.18884	2.48268	2.18964	2.48266	0.454855	55.9298	0.866051	145.922	1.29869	167.26	1.34171	190.977	1.73206	288.477	2.16499	263.576	0.219066	26.2456	0.649411	98.3369	0.894625	115.726	1.08268	131.369	1.51553	200.478	1.78842	229.451	1.94859	334.133
2.18178	2.48281	2.18257	2.48279	0.459204	41.6509	0.866083	98.1116	1.29839	121.835	1.34231	135.341	1.73208	194.689	2.16493	194.927	0.221102	19.6724	0.649296	68.3728	0.895118	84.2621	1.0828	97.2518	1.51552	144.998	1.78867	167.372	1.94862	223.358
2.17472	2.48296	2.17552	2.48294	0.46379	33.3241	0.866127	73.9017	1.29802	95.7986	1.3431	104.844	1.7321	146.924	2.16485	154.645	0.223684	15.8286	0.649143	52.3972	0.895763	66.2767	1.08295	77.2081	1.51551	113.568	1.78899	131.744	1.94868	167.748
2.16769	2.48312	2.16848	2.4831	0.468531	27.8721	0.866185	59.2771	1.29757	78.9185	1.34408	85.5941	1.73213	117.98	2.16475	128.158	0.226774	13.3207	0.648954	42.467	0.896558	54.6416	1.08315	64.02	1.5155	93.3361	1.78939	108.634	1.94874	134.311
2.16066	2.4833	2.16145	2.48328	0.473388	24.0268	0.866257	49.4864	1.29706	67.0859	1.34522	72.3417	1.73216	98.5638	2.16464	109.415	0.229849	11.7601	0.64873	35.6958	0.8975	46.5015	1.08338	54.6848	1.51548	79.2223	1.78987	92.432	1.94883	111.991
2.15365	2.4835	2.15444	2.48347	0.478339	21.1701	0.866344	42.4732	1.29651	58.3307	1.34653	62.6646	1.73221	84.6361	2.16451	95.4529	0.23273	10.7281	0.648477	30.7826	0.898585	40.4897	1.08365	47.73	1.51546	68.816	1.79043	80.4445	1.94893	96.0339
2.14665	2.48371	2.14744	2.48368	0.483368	18.9649	0.866447	37.2027	1.29591	51.5903	1.34799	55.2898	1.73225	74.1579	2.16437	84.6492	0.235279	10.0245	0.648196	27.0546	0.899809	35.8698	1.08397	42.3485	1.51544	60.8259	1.79106	71.2175	1.94904	84.0588
2.13966	2.48394	2.14045	2.48391	0.488465	17.2116	0.866567	33.0974	1.29529	46.2409	1.34958	49.4845	1.73231	65.989	2.16422	76.041	0.237394	9.54343	0.647893	24.129	0.901168	32.21	1.08432	38.0612	1.51542	54.4979	1.79176	63.8966	1.94917	74.7407
2.13269	2.48419	2.13347	2.48416	0.493623	15.7846	0.866705	29.8095	1.29464	41.8921	1.35131	44.7969	1.73237	59.4418	2.16405	69.0208	0.239004	9.22502	0.647572	21.7717	0.902656	29.2403	1.08472	34.5657	1.5154	49.3624	1.79254	57.9472	1.94931	67.2837
2.12573	2.48445	2.12651	2.48442	0.498834	14.6008	0.866863	27.1172	1.29399	38.2873	1.35316	40.9333	1.73244	54.0771	2.16388	63.186	0.240056	9.03509	0.647238	19.8319	0.904269	26.783	1.08516	31.6614	1.51537	45.1113	1.7934	53.0174	1.94948	61.1811
2.11878	2.48473	2.11957	2.4847	0.504094	13.6031	0.867043	24.8723	1.29332	35.2506	1.35513	37.6946	1.73251	49.6012	2.16369	58.2599	0.2416	8.77916	0.646896	18.2077	0.906001	24.7168	1.08564	29.2104	1.51535	41.5342	1.79432	48.8662	1.94966	56.0947
2.11185	2.48503	2.11263	2.485	0.509396	12.7509	0.867245	22.972	1.29265	32.6578	1.3572	34.941	1.7326	45.81	2.1635	54.0455	0.243317	8.52166	0.646552	16.828	0.907846	22.9557	1.08618	27.1146	1.51532	38.4826	1.79532	45.3231	1.94985	51.7904
2.10493	2.48535	2.10571	2.48531	0.514738	12.0147	0.867472	21.3428	1.29199	30.4182	1.35938	32.5715	1.73269	42.5577	2.1633	50.3989	0.245714	8.20203	0.646211	15.6416	0.909798	21.4372	1.08676	25.3022	1.5153	35.8486	1.79638	42.2639	1.95007	48.1006
2.09803	2.48569	2.09881	2.48565	0.520112	11.3724	0.867726	19.9307	1.29133	28.4643	1.36165	30.5114	1.73279	39.7371	2.1631	47.2127	0.248842	7.84138	0.645879	14.6106	0.911851	20.1146	1.0874	23.7197	1.51527	33.5521	1.79752	39.596	1.9503	44.9027
2.09114	2.48605	2.09192	2.48601	0.525517	10.807	0.868009	18.6951	1.29068	26.7449	1.36402	28.704	1.73289	37.2675	2.16289	44.4047	0.252759	7.45971	0.645563	13.7066	0.913998	18.9527	1.08808	22.3261	1.51525	31.5321	1.79872	37.2491	1.95055	42.1046
2.08427	2.48643	2.08504	2.48638	0.530248	10.367	0.868323	17.6051	1.29005	25.2202	1.36647	27.1058	1.73301	35.0874	2.16268	41.9115	0.257523	7.07408	0.645269	12.9077	0.916232	17.924	1.08883	21.0897	1.51523	29.7415	1.79999	35.1688	1.95083	39.6357
2.07741	2.48683	2.07818	2.48678	0.534293	10.0249	0.86867	16.6365	1.28944	23.859	1.36901	25.6826	1.73314	33.1487	2.16246	39.683	0.263192	6.69765	0.645003	12.1967	0.918547	17.0069	1.08964	19.9856	1.51521	28.1434	1.80132	33.3123	1.95112	37.4413
2.07056	2.48725	2.07134	2.4872	0.537647	9.76239	0.869054	15.7703	1.28884	22.6365	1.37164	24.4074	1.73327	31.4134	2.16225	37.6791	0.269051	6.37733	0.644771	11.56	0.920936	16.1844	1.0905	18.9938	1.5152	26.7082	1.80272	31.6453	1.95143	35.4781
2.06374	2.48769	2.06451	2.48764	0.540303	9.56658	0.869476	14.9911	1.28827	21.5325	1.37433	23.2583	1.73341	29.8511	2.16203	35.8675	0.275076	6.10179	0.644581	10.9868	0.923393	15.4426	1.09144	18.0983	1.51519	25.4124	1.80418	30.1406	1.95177	33.7114
2.05692	2.48815	2.05769	2.4881	0.542259	9.42874	0.869939	14.2866	1.28772	20.5307	1.37711	22.2177	1.73357	28.4373	2.16182	34.2218	0.281244	5.86246	0.644455	10.5322	0.925909	14.7702	1.09244	17.2858	1.51519	24.2365	1.8057	28.7755	1.95212	32.1133
2.05013	2.48864	2.05089	2.48858	0.543511	9.34311	0.870447	13.6467	1.28719	19.6176	1.37996	21.271	1.73373	27.1517	2.16161	32.7202	0.287535	5.65278	0.644379	10.1737	0.928479	14.158	1.09351	16.5455	1.51519	23.1648	1.80728	27.5316	1.95251	30.6606
2.04335	2.48914	2.04411	2.48908	0.545312	9.22339	0.871002	13.063	1.28669	18.782	1.38288	20.4062	1.73391	25.9777	2.1614	31.3447	0.293933	5.46764	0.64434	9.89549	0.931095	13.5981	1.09465	15.8683	1.51519	22.1839	1.80891	26.3935	1.95291	29.3346
2.03658	2.48967	2.03734	2.48961	0.547272	9.09757	0.871607	12.5286	1.28621	18.0145	1.38586	19.6131	1.73409	24.9013	2.1612	30.08	0.30042	5.303	0.644327	9.68629	0.933751	13.0842	1.09587	15.2467	1.51521	21.2828	1.8106	25.3483	1.95334	28.1193
2.02983	2.49023	2.03059	2.49017	0.549938	8.93327	0.872266	12.0376	1.28576	17.307	1.38892	18.8834	1.73429	23.911	2.161	28.9132	0.306984	5.15562	0.644326	9.53816	0.936439	12.6107	1.09717	14.6743	1.51523	20.4521	1.81234	24.3853	1.9538	27.0016
2.0231	2.49081	2.02386	2.49074	0.553314	8.73595	0.872982	11.585	1.28534	16.653	1.39204	18.2097	1.7345	22.9969	2.1608	27.8335	0.31361	5.0229	0.644331	9.44578	0.939154	12.1731	1.09856	14.1456	1.51525	19.684	1.81413	23.495	1.95429	25.9702
2.01638	2.49141	2.01714	2.49134	0.557398	8.51168	0.873758	11.1667	1.28495	16.0465	1.39522	17.5859	1.73473	22.1504	2.16061	26.8314	0.320286	4.90271	0.644344	9.31617	0.941888	11.7674	1.10003	13.6559	1.51529	18.9716	1.81598	22.6696	1.9548	25.0155
2.00968	2.49204	2.01044	2.49197	0.562191	8.26668	0.874598	10.779	1.28458	15.4827	1.39846	17.0067	1.73496	21.3643	2.16043	25.8988	0.327002	4.79329	0.644367	9.1794	0.944635	11.3901	1.10159	13.2012	1.51534	18.3092	1.81786	21.9023	1.95534	24.1293
2.003	2.4927	2.00376	2.49262	0.56769	8.00699	0.875385	10.4636	1.28425	14.9572	1.40176	16.4676	1.73521	20.6325	2.16026	25.0289	0.333748	4.69318	0.644413	8.99994	0.94739	11.0383	1.10324	12.7782	1.5154	17.6916	1.8198	21.1872	1.95592	23.3046
1.99634	2.49338	1.99709	2.4933	0.573184	7.76759	0.876098	10.2099	1.28394	14.4663	1.40512	15.9646	1.73548	19.9496	2.16009	24.2154	0.340513	4.60117	0.644499	8.78318	0.950145	10.7095	1.105	12.3836	1.51546	17.1144	1.82177	20.5192	1.95653	22.5352
1.98969	2.49408	1.99044	2.494	0.57867	7.54614	0.876718	10.0099	1.28367	14.0068	1.40854	15.4942	1.73576	19.3107	2.15993	23.4532	0.34729	4.51622	0.644644	8.53523	0.952543	10.4399	1.10685	12.0148	1.51554	16.574	1.82378	19.8938	1.95717	21.8158
1.98306	2.49482	1.98381	2.49473	0.584144	7.34064	0.877228	9.85756	1.28342	13.5756	1.412	15.0534	1.73606	18.7119	2.15978	22.7374	0.354069	4.43746	0.644876	8.26255	0.954582	10.2216	1.1088	11.6697	1.51564	16.0668	1.82583	19.307	1.95785	21.1418
1.97644	2.49558	1.97719	2.49549	0.589601	7.14935	0.877615	9.74874	1.28321	13.1704	1.41553	14.6395	1.73637	18.1494	2.15964	22.0641	0.360842	4.36414	0.64523	7.97166	0.956262	10.0484	1.11086	11.3459	1.51574	15.5899	1.82792	18.7554	1.95857	20.5089
1.96985	2.49637	1.97059	2.49628	0.595038	6.97079	0.877868	9.68046	1.28303	12.7889	1.4191	14.2502	1.7367	17.6201	2.15951	21.4295	0.367602	4.29563	0.645684	7.70203	0.957586	9.9159	1.11302	11.0418	1.51587	15.1407	1.83003	18.2358	1.95933	19.9137
1.96327	2.49718	1.96401	2.49709	0.600451	6.80366	0.878239	9.58411	1.28288	12.429	1.42272	13.8833	1.73705	17.1212	2.15939	20.8304	0.374342	4.23137	0.646246	7.45163	0.958557	9.8209	1.1153	10.7558	1.516	14.7169	1.83217	17.7457	1.96013	19.3529
1.95671	2.49803	1.95745	2.49793	0.605836	6.64683	0.878651	9.48172	1.28276	12.0891	1.42639	13.537	1.73741	16.6501	2.15928	20.2639	0.381054	4.17087	0.646921	7.21866	0.959177	9.76113	1.11737	10.52	1.51616	14.3164	1.83434	17.2825	1.96097	18.8237
1.95017	2.49891	1.95091	2.49881	0.611189	6.49931	0.87923	9.34627	1.28267	11.7675	1.43011	13.2097	1.7378	16.2046	2.15918	19.7274	0.387731	4.11372	0.647718	7.00157	0.960066	9.67659	1.11921	10.3284	1.51632	13.9373	1.83653	16.8442	1.96186	18.3234
1.94364	2.49981	1.94438	2.49971	0.616506	6.36022	0.87999	9.18094	1.28262	11.4628	1.43387	12.8998	1.7382	15.7827	2.15909	19.2187	0.394367	4.05954	0.648642	6.79898	0.96103	9.58649	1.12077	10.176	1.51651	13.578	1.83874	16.4286	1.9628	17.85
1.93714	2.50075	1.93787	2.50064	0.621783	6.22879	0.880953	8.98946	1.2826	11.1738	1.43767	12.606	1.73863	15.3826	2.15901	18.7356	0.400956	4.00803	0.6497	6.60967	0.962337	9.46685	1.12204	10.0592	1.51672	13.2371	1.84097	16.0341	1.96378	17.4012
1.93065	2.50171	1.93138	2.5016	0.627017	6.10434	0.882145	8.77591	1.28261	10.8993	1.44152	12.327	1.73908	15.0026	2.15894	18.2763	0.40749	3.95888	0.6509	6.43259	0.963979	9.32011	1.12299	9.97528	1.51694	12.9131	1.84321	15.6591	1.96482	16.9753
1.92418	2.50271	1.92491	2.5026	0.632203	5.98626	0.883599	8.54451	1.28265	10.671	1.4454	12.0619	1.73955	14.6414	2.15889	17.839	0.413963	3.91184	0.652246	6.26676	0.965952	9.14911	1.1236	9.92247	1.51719	12.6048	1.84546	15.3022	1.96592	16.5707
1.91773	2.50374	1.91846	2.50362	0.637338	5.874	0.88515	8.32661	1.2827	10.4841	1.44932	11.8096	1.74004	14.2974	2.15884	17.4223	0.420371	3.8667	0.653746	6.11133	0.968244	8.95698	1.1245	9.84772	1.51746	12.3112	1.84772	14.9621	1.96707	16.1858
1.9113	2.5048	1.91202	2.50468	0.642419	5.76709	0.886801	8.12116	1.28276	10.3345	1.45328	11.5692	1.74056	13.9697	2.15881	17.0246	0.426707	3.82326	0.655406	5.96555	0.970843	8.74698	1.12548	9.76799	1.51775	12.0312	1.84998	14.6375	1.96828	15.8193
1.90488	2.50589	1.90561	2.50577	0.647441	5.66508	0.888555	7.92724	1.28282	10.2193	1.45727	11.3398	1.74111	13.657	2.15879	16.6448	0.432965	3.78134	0.657232	5.82871	0.973406	8.54732	1.12685	9.66203	1.51806	11.764	1.85224	14.3275	1.96956	15.4699
1.89849	2.50702	1.89921	2.50689	0.652402	5.56758	0.890416	7.74401	1.28287	10.1362	1.4613	11.1208	1.74168	13.3584	2.15879	16.2816	0.439141	3.74078	0.659229	5.7002	0.975931	8.35724	1.12861	9.53194	1.5184	11.5086	1.85449	14.031	1.97089	15.1365
1.89211	2.50818	1.89283	2.50805	0.657299	5.47424	0.892387	7.5707	1.2829	10.0838	1.46535	10.9115	1.74228	13.073	2.15879	15.9341	0.44523	3.70144	0.661402	5.57944	0.978417	8.17601	1.13081	9.38023	1.51877	11.2644	1.85674	13.7472	1.9723	14.8181
1.88576	2.50938	1.88647	2.50924	0.662128	5.38474	0.894471	7.40663	1.28295	10.0094	1.46891	10.7365	1.74291	12.7999	2.15881	15.6012	0.451227	3.66321	0.663756	5.46593	0.980863	8.00301	1.13346	9.20966	1.51916	11.0307	1.85898	13.4752	1.97378	14.5138
1.87942	2.51061	1.88013	2.51047	0.666887	5.2988	0.896672	7.25118	1.28301	9.92986	1.47196	10.5924	1.74357	12.5384	2.15885	15.282	0.457129	3.62598	0.666296	5.35919	0.983267	7.83766	1.1366	9.02317	1.51952	10.835	1.8612	13.2143	1.97533	14.2227
1.8731	2.51187	1.87381	2.51173	0.671574	5.21616	0.89899	7.10377	1.28309	9.82371	1.47449	10.4767	1.74426	12.2878	2.15889	14.9756	0.462933	3.58966	0.669024	5.25879	0.985631	7.67945	1.13986	8.84591	1.51984	10.6738	1.86341	12.9637	1.97695	13.944
1.8668	2.51317	1.86751	2.51302	0.676185	5.13658	0.90143	6.96388	1.28322	9.69279	1.4765	10.3873	1.74498	12.0474	2.15895	14.6815	0.468637	3.55417	0.671943	5.16432	0.987955	7.5279	1.14323	8.67728	1.52013	10.5442	1.8656	12.7229	1.97865	13.677
1.86052	2.5145	1.86123	2.51435	0.680721	5.05986	0.903992	6.83103	1.28338	9.53923	1.47798	10.3227	1.74574	11.8167	2.15902	14.3988	0.474237	3.51944	0.675057	5.07543	0.99024	7.3826	1.14671	8.51668	1.52036	10.444	1.86777	12.4913	1.98043	13.4209
1.85425	2.51588	1.85496	2.51572	0.685179	4.9858	0.906679	6.70479	1.28361	9.36542	1.47893	10.2818	1.74653	11.595	2.15911	14.1268	0.479735	3.48542	0.678366	4.99175	0.992488	7.24316	1.15029	8.3636	1.52053	10.3716	1.86991	12.2683	1.98229	13.1753
1.84801	2.51728	1.84872	2.51712	0.689558	4.91423	0.909492	6.58474	1.2839	9.17393	1.4803	10.2238	1.74736	11.382	2.15921	13.8651	0.485128	3.45206	0.681871	4.91297	0.994699	7.10923	1.15397	8.21755	1.52064	10.3258	1.87202	12.0534	1.98424	12.9395
1.84179	2.51873	1.84249	2.51856	0.693858	4.845	0.912431	6.47052	1.28422	8.99046	1.48179	10.1615	1.74823	11.177	2.15933	13.613	0.490417	3.41932	0.685571	4.83879	0.996878	6.98049	1.15775	8.07809	1.52081	10.2607	1.8741	11.8462	1.98627	12.7129
1.83558	2.52021	1.83628	2.52004	0.698078	4.77797	0.915496	6.36176	1.28459	8.81455	1.48381	10.0784	1.74902	11.0047	2.15946	13.37	0.495604	3.38718	0.689465	4.76891	0.999025	6.85666	1.16163	7.9448	1.52099	10.1909	1.87615	11.6462	1.98839	12.4951
1.82939	2.52173	1.83009	2.52156	0.702219	4.713	0.918689	6.25816	1.285	8.64575	1.48639	9.97543	1.74971	10.8622	2.15961	13.1357	0.500691	3.35561	0.693552	4.70309	1.00114	6.73745	1.1656	7.81729	1.52125	10.0976	1.87817	11.4531	1.99059	12.2857
1.82323	2.52329	1.82392	2.52311	0.706281	4.64999	0.922007	6.1594	1.28545	8.48367	1.4895	9.85426	1.75031	10.7474	2.15977	12.9095	0.505681	3.32461	0.697827	4.64105	1.00324	6.62263	1.16965	7.69522	1.52159	9.98212	1.88015	11.2665	1.99289	12.0841
1.81707	2.52488	1.81777	2.5247	0.710265	4.58884	0.925451	6.06521	1.28594	8.32794	1.49318	9.71652	1.75079	10.6584	2.15994	12.6912	0.510578	3.29415	0.702288	4.58256	1.00531	6.51197	1.17379	7.57825	1.52201	9.84609	1.88185	11.1089	1.99527	11.89
1.81094	2.52651	1.81163	2.52633	0.714173	4.52944	0.929018	5.97532	1.28647	8.1782	1.4974	9.56401	1.75115	10.594	2.16013	12.4802	0.515384	3.26425	0.706929	4.52739	1.00737	6.40527	1.17801	7.46607	1.52253	9.69143	1.88328	10.978	1.99775	11.7031
1.80482	2.52818	1.80551	2.52799	0.718006	4.47172	0.932707	5.88948	1.28705	8.03414	1.50164	9.41712	1.75138	10.5532	2.16034	12.2762	0.520107	3.2349	0.711745	4.47533	1.00941	6.30234	1.18231	7.35841	1.52316	9.52015	1.88444	10.8722	2.00031	11.5228
1.79872	2.52988	1.79941	2.52969	0.721768	4.4156	0.936515	5.80746	1.28767	7.89546	1.5059	9.27554	1.75172	10.4951	2.16056	12.0789	0.52475	3.2061	0.716729	4.42617	1.01144	6.20298	1.18668	7.25499	1.52382	9.35517	1.88535	10.79	2.00296	11.349
1.79262	2.53161	1.79331	2.53141	0.725459	4.36102	0.94044	5.72903	1.28834	7.76189	1.51016	9.13896	1.7521	10.4328	2.1608	11.888	0.52932	3.17786	0.721875	4.37972	1.01346	6.10706	1.19111	7.15557	1.52452	9.19618	1.88601	10.7303	2.00535	11.2025
1.78649	2.5333	1.78719	2.53312	0.729084	4.3079	0.944478	5.65401	1.28905	7.63317	1.51442	9.00713	1.75262	10.3493	2.16105	11.7032	0.533823	3.15019	0.727176	4.33579	1.01548	6.0144	1.19561	7.05992	1.52526	9.04286	1.88643	10.6925	2.00744	11.0812
1.78112	2.53608	1.7819	2.53602	0.732646	4.25621	0.948626	5.58218	1.28981	7.50906	1.5187	8.87978	1.75329	10.2458	2.16132	11.5242	0.538265	3.12309	0.732624	4.29421	1.0175	5.92487	1.20017	6.96783	1.52604	8.89495	1.88703	10.6386	2.0092	10.9832
1.77262	2.53442	1.77348	2.53447	0.736147	4.20587	0.95288	5.51337	1.29063	7.38935	1.52297	8.75668	1.75413	10.1236	2.16157	11.3726	0.542652	3.09658	0.73821	4.25482	1.01953	5.83834	1.20478	6.87909	1.52686	8.75217	1.88768	10.5807	2.01061	10.9072
1.7649	2.53386	1.76578	2.53393	0.739592	4.15686	0.957235	5.4474	1.29149	7.27382	1.52725	8.6376	1.75515	9.9842	2.1618	11.2467	0.546993	3.07066	0.743927	4.21746	1.02156	5.75468	1.20945	6.79352	1.52773	8.6143	1.88856	10.5029	2.01167	10.8521
1.75714	2.53324	1.75802	2.53331	0.742984	4.10912	0.961688	5.38412	1.2924	7.16227	1.53152	8.52235	1.75636	9.82938	2.16199	11.1446	0.551292	3.04535	0.749766	4.18199	1.02361	5.67378	1.21416	6.71094	1.52863	8.48109	1.88966	10.4061	2.01235	10.8172
1.74937	2.53259	1.75025	2.53267	0.746327	4.06262	0.966233	5.32336	1.29336	7.05454	1.53579	8.41072	1.75763	9.67979	2.16214	11.0653	0.555556	3.02064	0.755718	4.14826	1.02568	5.59553	1.21891	6.6312	1.52958	8.35233	1.89096	10.2915	2.01334	10.7675
1.7416	2.53194	1.74247	2.53202	0.749626	4.01733	0.970867	5.26498	1.29438	6.95043	1.54005	8.30253	1.75896	9.5352	2.16226	11.0077	0.559793	2.99655	0.761774	4.11615	1.02777	5.51983	1.2237	6.55413	1.53058	8.22783	1.89247	10.1604	2.01442	10.7141
1.73382	2.53128	1.7347	2.53136	0.752884	3.9732	0.975582	5.20885	1.29545	6.84981	1.5443	8.19761	1.76034	9.39537	2.16234	10.9712	0.564008	2.97308	0.767927	4.08554	1.02989	5.44658	1.22853	6.47959	1.53163	8.10739	1.89416	10.0139	2.01591	10.6425
1.72604	2.53062	1.72692	2.53069	0.756105	3.9302	0.980375	5.15483	1.29658	6.75251	1.54853	8.0958	1.76178	9.2601	2.16245	10.9191	0.568207	2.95023	0.774167	4.05632	1.03203	5.37571	1.23338	6.40746	1.53273	7.99085	1.89582	9.87174	2.01782	10.5536
1.71827	2.52995	1.71915	2.53002	0.759294	3.88832	0.98524	5.10281	1.29777	6.6584	1.55275	7.99694	1.76328	9.1292	2.16257	10.8631	0.572396	2.92801	0.780485	4.02837	1.03422	5.30711	1.23827	6.33759	1.53387	7.87803	1.89744	9.73358	2.02018	10.4485
1.7105	2.52928	1.71138	2.52935	0.762455	3.84752	0.990173	5.05266	1.29902	6.56735	1.55696	7.9009	1.76484	9.00248	2.16274	10.7878	0.57658	2.90641	0.786874	4.00161	1.03644	5.24072	1.24317	6.26988	1.53507	7.76877	1.89903	9.5993	2.023	10.3284
1.70273	2.5286	1.7036	2.52868	0.765592	3.80777	0.995166	5.00428	1.30033	6.47922	1.56114	7.80754	1.76647	8.87978	2.16297	10.6941	0.580766	2.88544	0.793325	3.97593	1.0387	5.17647	1.2481	6.20422	1.53632	7.66294	1.90058	9.46872	2.02631	10.1948
1.69496	2.52792	1.69584	2.528	0.768709	3.76905	1.00022	4.95756	1.3017	6.39391	1.56531	7.71673	1.76817	8.76092	2.16324	10.5831	0.584957	2.86509	0.799829	3.95125	1.04102	5.11427	1.25304	6.14049	1.53763	7.5604	1.90211	9.34171	2.0297	10.0653
1.68719	2.52724	1.68807	2.52732	0.77181	3.73134	1.00532	4.91242	1.30314	6.3113	1.56944	7.62835	1.76994	8.64577	2.16358	10.4558	0.589159	2.84536	0.806379	3.92749	1.04338	5.05408	1.25799	6.0786	1.539	7.46101	1.90361	9.21812	2.03316	9.93994
1.67943	2.52655	1.6803	2.52663	0.774899	3.6946	1.01046	4.86875	1.30465	6.23129	1.57355	7.54228	1.77177	8.53416	2.16399	10.3136	0.593376	2.82624	0.812967	3.90457	1.04581	4.99582	1.26295	6.01846	1.54043	7.36465	1.90508	9.09781	2.0367	9.81839
1.67166	2.52587	1.67254	2.52595	0.777979	3.65883	1.01565	4.82646	1.30622	6.15379	1.57763	7.45843	1.77368	8.42597	2.16442	10.1754	0.597611	2.80773	0.819585	3.88242	1.04829	4.93944	1.26792	5.95998	1.54191	7.2712	1.90652	8.98066	2.04031	9.70052
1.6639	2.52518	1.66478	2.52526	0.781054	3.62399	1.02087	4.78549	1.30786	6.07869	1.58168	7.37669	1.77567	8.32107	2.16486	10.0409	0.60187	2.78983	0.826225	3.86097	1.05084	4.88489	1.27289	5.90307	1.54346	7.18056	1.90795	8.86656	2.04398	9.58617
1.65615	2.52449	1.65702	2.52457	0.784128	3.59007	1.02612	4.74575	1.30957	6.00591	1.58569	7.29697	1.77773	8.21933	2.16533	9.91012	0.606156	2.77252	0.832879	3.84016	1.05347	4.83212	1.27786	5.84767	1.54507	7.09262	1.90935	8.75539	2.04773	9.47519
1.64839	2.52379	1.64927	2.52387	0.787203	3.55705	1.03139	4.70717	1.31136	5.93538	1.58967	7.21918	1.77988	8.12064	2.16581	9.78283	0.610472	2.75581	0.83954	3.81993	1.05617	4.78107	1.28282	5.79369	1.54675	7.00729	1.91073	8.64704	2.05153	9.36742
1.64064	2.5231	1.64151	2.52318	0.790284	3.5249	1.03668	4.66968	1.31322	5.867	1.59361	7.14322	1.7821	8.02488	2.16632	9.65892	0.614821	2.73967	0.846201	3.80022	1.05895	4.7317	1.28777	5.74107	1.5485	6.92446	1.9121	8.54141	2.0554	9.26273
1.63289	2.5224	1.63376	2.52248	0.793373	3.49361	1.04199	4.63322	1.31516	5.80071	1.5975	7.06904	1.78441	7.93195	2.16685	9.53826	0.619208	2.72411	0.852854	3.78098	1.06181	4.68398	1.29272	5.68974	1.55031	6.84405	1.91345	8.43841	2.05932	9.161
1.62514	2.5217	1.62602	2.52178	0.796474	3.46315	1.0473	4.59772	1.31718	5.73643	1.60135	6.99654	1.7868	7.84175	2.16739	9.42072	0.623635	2.70911	0.859491	3.76216	1.06477	4.63785	1.29765	5.63964	1.5522	6.76598	1.91479	8.33795	2.0633	9.0621
1.6174	2.521	1.61827	2.52108	0.799589	3.43351	1.05262	4.56313	1.31928	5.67411	1.60516	6.92565	1.78927	7.75418	2.16796	9.3062	0.628105	2.69466	0.866107	3.74372	1.06783	4.59328	1.30256	5.59071	1.55416	6.69017	1.91611	8.23994	2.06733	8.9659
1.60966	2.5203	1.61053	2.52038	0.80272	3.40467	1.05794	4.5294	1.32147	5.61366	1.60893	6.85632	1.79183	7.66914	2.16855	9.19457	0.632621	2.68077	0.872693	3.72561	1.07098	4.55024	1.30745	5.5429	1.55619	6.61654	1.91743	8.1443	2.07141	8.87231
1.60193	2.5196	1.6028	2.51968	0.805872	3.37661	1.06326	4.49647	1.32374	5.55505	1.61264	6.78848	1.79448	7.58656	2.16917	9.08575	0.637328	2.66802	0.879243	3.70779	1.07424	4.5087	1.31232	5.49615	1.5583	6.54502	1.91874	8.05095	2.07554	8.7812
1.59419	2.5189	1.59507	2.51898	0.809045	3.34932	1.06856	4.4643	1.32609	5.49819	1.61631	6.72207	1.79722	7.50634	2.1698	8.97962	0.641804	2.65461	0.885751	3.69022	1.07762	4.4686	1.31717	5.45042	1.56049	6.47553	1.92004	7.95981	2.07972	8.69249
1.58647	2.5182	1.58734	2.51828	0.812242	3.32276	1.07385	4.43284	1.32854	5.44305	1.61993	6.65704	1.80004	7.4284	2.17046	8.8761	0.646478	2.64233	0.892208	3.67286	1.08111	4.42994	1.32199	5.40565	1.56275	6.40801	1.92134	7.87082	2.08393	8.60608
1.57874	2.5175	1.57961	2.51758	0.815466	3.29694	1.07913	4.40204	1.33107	5.38957	1.6235	6.59333	1.80296	7.35267	2.17115	8.7751	0.651211	2.63058	0.89861	3.65569	1.08472	4.39267	1.32678	5.36181	1.5651	6.34241	1.92264	7.7839	2.08819	8.52187
1.57102	2.5168	1.57189	2.51687	0.818719	3.27183	1.08438	4.37188	1.3337	5.33769	1.62701	6.5309	1.80596	7.27906	2.17186	8.67653	0.656008	2.61935	0.90495	3.63866	1.08845	4.35677	1.33153	5.31886	1.56752	6.27865	1.92394	7.699	2.09249	8.43977
1.56331	2.5161	1.56418	2.51617	0.822002	3.24741	1.0896	4.34231	1.33642	5.28737	1.63048	6.46971	1.80906	7.2075	2.17259	8.58031	0.660874	2.60865	0.911222	3.62176	1.09232	4.3222	1.33625	5.27675	1.57003	6.21668	1.92523	7.61604	2.09682	8.35972
1.5556	2.5154	1.55647	2.51547	0.825319	3.22368	1.0948	4.31329	1.33924	5.23856	1.6339	6.40971	1.81224	7.13792	2.17335	8.48636	0.665813	2.59848	0.917421	3.60495	1.09632	4.28893	1.34094	5.23546	1.57263	6.15644	1.92654	7.53497	2.10119	8.28162
1.54789	2.5147	1.54876	2.51478	0.82867	3.20061	1.09996	4.2848	1.34215	5.19122	1.63727	6.35086	1.81551	7.07026	2.17413	8.39461	0.670832	2.58884	0.923541	3.58822	1.10045	4.25694	1.34559	5.19494	1.57531	6.09788	1.92784	7.45574	2.10558	8.2054
1.54019	2.514	1.54106	2.51408	0.832057	3.17819	1.10509	4.2568	1.34516	5.1453	1.64059	6.29313	1.81887	7.00444	2.17494	8.30498	0.675938	2.57975	0.929578	3.57154	1.10473	4.2262	1.3502	5.15516	1.57807	6.04094	1.92916	7.37828	2.11001	8.131
1.53249	2.51331	1.53336	2.51338	0.835483	3.1564	1.11017	4.22927	1.34827	5.10076	1.64386	6.23648	1.82232	6.94039	2.17578	8.21742	0.681139	2.57122	0.935528	3.55489	1.10915	4.19667	1.35476	5.1161	1.58092	5.98559	1.93048	7.30254	2.11446	8.05833
1.52481	2.51261	1.52567	2.51269	0.838949	3.13523	1.11522	4.20218	1.35148	5.05755	1.64708	6.18089	1.82585	6.87807	2.17664	8.13186	0.686446	2.56326	0.941387	3.53827	1.11372	4.16833	1.35929	5.07772	1.58386	5.93175	1.93181	7.22848	2.11893	7.98734
1.51712	2.51192	1.51799	2.512	0.842456	3.11467	1.12021	4.1755	1.35478	5.01564	1.65026	6.12632	1.82946	6.8174	2.17754	8.04822	0.691869	2.55591	0.947152	3.52165	1.11843	4.14113	1.36377	5.04001	1.58689	5.87939	1.93315	7.15605	2.12343	7.91797
1.50944	2.51124	1.51031	2.51132	0.846007	3.0947	1.12516	4.14922	1.35819	4.97499	1.6534	6.07274	1.83315	6.75832	2.17846	7.96647	0.697421	2.54918	0.952822	3.50503	1.12329	4.11505	1.36821	5.00294	1.59	5.82847	1.9345	7.08519	2.12795	7.85015
1.50177	2.51056	1.50264	2.51063	0.849602	3.07532	1.13006	4.12331	1.3617	4.93556	1.65649	6.02014	1.83693	6.70078	2.17941	7.88653	0.703116	2.54311	0.958394	3.48841	1.12829	4.09005	1.3726	4.96648	1.5932	5.77893	1.93586	7.01587	2.13249	7.78382
1.49411	2.50988	1.49497	2.50996	0.853244	3.0565	1.13491	4.09775	1.36532	4.8973	1.65954	5.96849	1.84078	6.64472	2.18039	7.80836	0.708968	2.53772	0.963867	3.47179	1.13345	4.0661	1.37696	4.93062	1.59649	5.73074	1.93725	6.94804	2.13704	7.71894
1.48645	2.50921	1.48731	2.50928	0.856934	3.03824	1.13971	4.07253	1.36903	4.86019	1.66256	5.91777	1.84471	6.59009	2.18141	7.73189	0.714988	2.53305	0.969242	3.45515	1.13875	4.04316	1.38126	4.89534	1.59987	5.68384	1.93864	6.88166	2.14161	7.65545
1.4788	2.50854	1.47966	2.50862	0.860674	3.02052	1.14445	4.04764	1.37284	4.82419	1.66553	5.86796	1.84871	6.53683	2.18245	7.6571	0.721187	2.52909	0.974519	3.43851	1.14419	4.02118	1.38552	4.86062	1.60333	5.63821	1.94006	6.8167	2.14618	7.59331
1.47116	2.50788	1.47202	2.50795	0.864464	3.00333	1.14913	4.02305	1.37675	4.78926	1.66848	5.81903	1.85278	6.4849	2.18353	7.58392	0.727569	2.52585	0.9797	3.42186	1.14977	4.00014	1.38974	4.82644	1.60688	5.59379	1.94149	6.7531	2.15077	7.53245
1.46352	2.50723	1.46438	2.5073	0.868308	2.98667	1.15376	3.99876	1.38077	4.75537	1.67139	5.77098	1.85691	6.43424	2.18464	7.5123	0.734131	2.52329	0.984786	3.40522	1.15549	3.97999	1.39392	4.7928	1.61051	5.55055	1.94295	6.69085	2.15536	7.47284
1.45589	2.50658	1.45675	2.50665	0.872206	2.97053	1.15833	3.97475	1.38487	4.72248	1.67428	5.72378	1.86111	6.3848	2.18579	7.44222	0.740866	2.52138	0.98978	3.3886	1.16135	3.96069	1.39805	4.75968	1.61423	5.50844	1.94443	6.6299	2.15996	7.41443
1.44827	2.50594	1.44913	2.50602	0.87616	2.95489	1.16284	3.95102	1.38908	4.69055	1.67714	5.67741	1.86538	6.33655	2.18697	7.37362	0.747762	2.52004	0.994685	3.372	1.16733	3.94221	1.40215	4.72707	1.61803	5.46744	1.94593	6.57021	2.16456	7.35717
1.44067	2.50532	1.44152	2.50539	0.880172	2.93974	1.1673	3.92756	1.39338	4.65955	1.67997	5.63188	1.8697	6.28943	2.18818	7.30646	0.7548	2.5192	0.999504	3.35544	1.17343	3.92449	1.4062	4.69496	1.62191	5.4275	1.94745	6.51177	2.16917	7.30104
1.43307	2.5047	1.43392	2.50477	0.884244	2.92508	1.1717	3.90436	1.39777	4.62946	1.68279	5.58715	1.87407	6.2434	2.18943	7.24071	0.761963	2.51879	1.00424	3.33892	1.17966	3.90751	1.41022	4.66334	1.62587	5.38858	1.949	6.45453	2.17377	7.24598
1.42548	2.50409	1.42633	2.50416	0.888378	2.91091	1.17604	3.88142	1.40225	4.60023	1.6856	5.54322	1.8785	6.19843	2.19072	7.17633	0.769234	2.51874	1.0089	3.32246	1.18599	3.89121	1.41421	4.63221	1.6299	5.35066	1.95058	6.39846	2.17837	7.19197
1.4179	2.5035	1.41875	2.50357	0.892577	2.8972	1.18033	3.85873	1.40681	4.57183	1.68839	5.50007	1.88298	6.15446	2.19205	7.11328	0.776594	2.51899	1.01349	3.30608	1.19243	3.87556	1.41816	4.60156	1.63401	5.31368	1.95218	6.34354	2.18296	7.13896
1.41033	2.50292	1.41118	2.50298	0.896842	2.88397	1.18456	3.83629	1.41147	4.54423	1.69116	5.4577	1.8875	6.11146	2.19342	7.05153	0.78403	2.51947	1.01801	3.28978	1.19897	3.86053	1.42208	4.57138	1.63818	5.27763	1.95382	6.28974	2.18754	7.08692
1.40277	2.50235	1.40362	2.50242	0.901176	2.8712	1.18874	3.81409	1.4162	4.51739	1.69394	5.41609	1.89207	6.0694	2.19483	6.99105	0.791529	2.52014	1.02247	3.27359	1.20561	3.84607	1.42597	4.54167	1.64243	5.24246	1.95549	6.23703	2.19212	7.03581
1.39522	2.5018	1.39608	2.50186	0.905581	2.85889	1.19286	3.79214	1.42101	4.4913	1.6967	5.37523	1.89667	6.02824	2.19628	6.9318	0.79908	2.52097	1.02687	3.2575	1.21233	3.83214	1.42985	4.51243	1.64675	5.20815	1.95719	6.18538	2.19668	6.9856
1.38769	2.50127	1.38854	2.50133	0.910062	2.84704	1.19694	3.77043	1.42589	4.46591	1.69947	5.3351	1.90131	5.98794	2.19777	6.87376	0.806674	2.52191	1.03121	3.24154	1.21912	3.81872	1.4337	4.48365	1.65112	5.17466	1.95892	6.13478	2.20123	6.93627
1.38017	2.50075	1.38102	2.50081	0.914621	2.83564	1.20097	3.74896	1.43085	4.4412	1.70224	5.29571	1.90598	5.94847	2.19931	6.81689	0.814304	2.52295	1.03551	3.22572	1.226	3.80576	1.43753	4.45534	1.65556	5.14196	1.96069	6.08519		
1.37267	2.50025	1.37351	2.50031	0.919261	2.8247	1.20495	3.72773	1.43587	4.41713	1.70501	5.25704	1.91069	5.9098	2.20089	6.76117	0.821965	2.52407	1.03976	3.21004	1.23293	3.79323	1.44135	4.42748	1.66006	5.11001	1.96249	6.0366		
1.36517	2.49978	1.36602	2.49983	0.923986	2.8142	1.20888	3.70674	1.44096	4.39368	1.7078	5.21907	1.91542	5.87189			0.82965	2.52524	1.04397	3.19452	1.23993	3.7811	1.44516	4.40009	1.66461	5.0788	1.96433	5.98898		
1.3577	2.49932	1.35854	2.49937	0.9288	2.80416	1.21278	3.68599	1.4461	4.37082	1.71059	5.18181	1.92017	5.83473			0.837356	2.52645	1.04815	3.17917	1.24697	3.76934	1.44896	4.37316	1.66921	5.04829	1.96621	5.94232		
1.35024	2.4989	1.35108	2.49894	0.933707	2.79457	1.21663	3.66548	1.4513	4.34852	1.7134	5.14523	1.92494	5.79827			0.84508	2.52769	1.0523	3.164	1.25406	3.75791	1.45277	4.34669	1.67386	5.01845	1.96814	5.89658		
1.34279	2.49849	1.34363	2.49854	0.938712	2.78544	1.22045	3.64521	1.45655	4.32676	1.71623	5.10935	1.92973	5.76249			0.852819	2.52896	1.05642	3.14901	1.26119	3.74679	1.45657	4.32069	1.67855	4.98925	1.9701	5.85175		
1.33537	2.49812	1.3362	2.49816	0.943818	2.77676	1.22423	3.62518	1.46185	4.3055	1.71908	5.07413	1.93454	5.72737			0.86057	2.53024	1.06052	3.13421	1.26835	3.73596	1.46039	4.29516	1.68329	4.96068	1.97211	5.80781		
1.32796	2.49777	1.32879	2.49781	0.949031	2.76853	1.22798	3.6054	1.46719	4.28473	1.72195	5.03958	1.93936	5.69289			0.868332	2.53154	1.06461	3.1196	1.27553	3.72537	1.46422	4.27009	1.68806	4.93269	1.97416	5.76475		
1.32057	2.49746	1.3214	2.4975	0.954353	2.76077	1.23169	3.58585	1.47257	4.26441	1.72485	5.00569	1.94418	5.659			0.876102	2.53283	1.06867	3.1052	1.28273	3.71502	1.46806	4.2455	1.69287	4.90528	1.97625	5.72254		
1.3132	2.49718	1.31403	2.49721	0.95979	2.75345	1.23538	3.56656	1.47798	4.24453	1.72778	4.97245	1.94901	5.6257			0.88388	2.53413	1.07273	3.09101	1.28994	3.70486	1.47193	4.22138	1.6977	4.87841	1.9784	5.68116		
1.30585	2.49694	1.30668	2.49697	0.965343	2.74659	1.23904	3.54751	1.48342	4.22505	1.73074	4.93986	1.95385	5.59296			0.891664	2.53542	1.07678	3.07703	1.29715	3.69488	1.47583	4.19774	1.70257	4.85206	1.98059	5.64061		
1.29852	2.49674	1.29935	2.49676	0.971015	2.74018	1.24268	3.5287	1.48889	4.20597	1.73374	4.90789	1.95868	5.56076			0.899453	2.5367	1.08082	3.06326	1.30436	3.68505	1.47977	4.17458	1.70746	4.8262	1.98284	5.60086		
1.29121	2.49658	1.29204	2.4966	0.976808	2.73421	1.2463	3.51014	1.49437	4.18725	1.73677	4.87656	1.96352	5.52907			0.907247	2.53798	1.08486	3.04971	1.31156	3.67535	1.48374	4.15192	1.71237	4.80083	1.98513	5.5619		
1.28393	2.49646	1.28475	2.49647	0.982722	2.72867	1.2499	3.49183	1.49987	4.16887	1.73985	4.84585	1.96834	5.49789			0.915044	2.53924	1.0889	3.03637	1.31874	3.66575	1.48776	4.12974	1.71729	4.77591	1.98748	5.52372		
1.27668	2.49639	1.2775	2.4964	0.988755	2.72355	1.25348	3.47376	1.50538	4.15082	1.74298	4.81576	1.97316	5.46718			0.922843	2.5405	1.09294	3.02326	1.32589	3.65624	1.49184	4.10807	1.72223	4.75143	1.98988	5.48629		
1.26945	2.49637	1.27026	2.49637	0.994906	2.71883	1.25704	3.45594	1.5109	4.13308	1.74615	4.78627	1.97797	5.43693			0.930645	2.54174	1.09699	3.01037	1.33301	3.64679	1.49597	4.08691	1.72718	4.72737	1.99234	5.44961		
1.26224	2.49641	1.26305	2.4964	1.00117	2.71449	1.26059	3.43836	1.51642	4.11562	1.74937	4.75738	1.98277	5.40713			0.938449	2.54296	1.10104	2.99771	1.34009	3.63738	1.50017	4.06625	1.73214	4.7037	1.99486	5.41366		
1.25507	2.4965	1.25588	2.49648	1.00754	2.71051	1.26414	3.42103	1.52195	4.09843	1.75264	4.72909	1.98756	5.37776			0.946254	2.54417	1.10511	2.98526	1.34713	3.62799	1.50445	4.04611	1.7371	4.68041	1.99743	5.37842		
1.24792	2.49664	1.24873	2.49662	1.01402	2.70687	1.26767	3.40395	1.52746	4.08149	1.75598	4.70138	1.99232	5.3488			0.95406	2.54536	1.10918	2.97304	1.35411	3.6186	1.5088	4.0265	1.74207	4.65749	2.00006	5.34389		
1.2408	2.49686	1.24161	2.49683	1.02059	2.70355	1.2712	3.38712	1.53297	4.06478	1.75937	4.67426	1.99707	5.32023			0.961866	2.54653	1.11327	2.96104	1.36102	3.60919	1.51324	4.00742	1.74703	4.63492	2.00276	5.31006		
1.23372	2.49713	1.23452	2.4971	1.02726	2.70051	1.27472	3.37052	1.53846	4.04829	1.76282	4.64771	2.0018	5.29205			0.969672	2.54769	1.11737	2.94926	1.36787	3.59974	1.51778	3.98887	1.75199	4.61267	2.00551	5.2769		
1.22666	2.49748	1.22746	2.49744	1.034	2.69773	1.27824	3.35418	1.54393	4.03201	1.76633	4.62173	2.0065	5.26423			0.977478	2.54883	1.12149	2.9377	1.37464	3.59023	1.52241	3.97086	1.75694	4.59075	2.00833	5.2444		
1.21965	2.4979	1.22044	2.49785	1.04083	2.69519	1.28176	3.33807	1.54938	4.01591	1.76991	4.59632	2.01118	5.23677			0.985283	2.54995	1.12563	2.92637	1.38133	3.58065	1.52715	3.9534	1.76188	4.56912	2.01122	5.21256		
1.21266	2.49839	1.21345	2.49833	1.04772	2.69287	1.28527	3.32221	1.55481	3.99999	1.77356	4.57145	2.01584	5.20965			0.993087	2.55105	1.12978	2.91525	1.38793	3.57099	1.532	3.93649	1.76681	4.54779	2.01417	5.18137		
1.20571	2.49897	1.20649	2.4989	1.05468	2.69075	1.28879	3.30658	1.56021	3.98423	1.77728	4.54714	2.02046	5.18287			1.00089	2.55213	1.13396	2.90434	1.39444	3.56122	1.53698	3.92013	1.77172	4.52673	2.01719	5.1508		
1.1988	2.49962	1.19958	2.49955	1.06169	2.6888	1.29232	3.2912	1.56557	3.96862	1.78107	4.52337	2.02506	5.1564			1.00869	2.5532	1.13815	2.89365	1.40084	3.55133	1.54207	3.90432	1.77662	4.50594	2.02027	5.12086		
1.19192	2.50037	1.1927	2.50028	1.06875	2.68701	1.29585	3.27605	1.5709	3.95315	1.78494	4.50013	2.02963	5.13025			1.01649	2.55424	1.14237	2.88318	1.40713	3.54133	1.54729	3.88907	1.78149	4.48541	2.02342	5.09152		
1.18509	2.5012	1.18586	2.50111	1.07587	2.68536	1.29938	3.26114	1.5762	3.9378	1.78888	4.47742	2.03417	5.10439			1.02429	2.55526	1.14661	2.87291	1.41332	3.53119	1.55265	3.87436	1.78635	4.46511	2.02664	5.06278		
1.17829	2.50213	1.17905	2.50202	1.08302	2.68383	1.30292	3.24646	1.58145	3.92258	1.7929	4.45523	2.03867	5.07883			1.03209	2.55627	1.15088	2.86285	1.41939	3.52091	1.55814	3.8602	1.79118	4.44505	2.02994	5.03462		
1.17153	2.50316	1.17229	2.50304	1.09021	2.68242	1.30647	3.23201	1.58666	3.90746	1.797	4.43355	2.04314	5.05356			1.03988	2.55725	1.15517	2.853	1.42534	3.51048	1.56377	3.84658	1.79599	4.42521	2.0333	5.00704		
1.16481	2.50428	1.16557	2.50415	1.09743	2.68112	1.31003	3.21779	1.59182	3.89244	1.80118	4.41237	2.04758	5.02855			1.04767	2.55821	1.15949	2.84335	1.43117	3.49992	1.56954	3.8335	1.80077	4.40559	2.03673	4.98002		
1.15814	2.50551	1.15889	2.50537	1.10468	2.6799	1.3136	3.20381	1.59693	3.87752	1.80544	4.39169	2.05198	5.00382			1.05546	2.55915	1.16384	2.8339	1.43689	3.48921	1.57545	3.82094	1.80552	4.38618	2.04023	4.95355		
1.1515	2.50685	1.15225	2.50669	1.11196	2.67876	1.31719	3.19004	1.60199	3.86269	1.80979	4.3715	2.05635	4.97935			1.06324	2.56008	1.16821	2.82466	1.44248	3.47835	1.5815	3.80888	1.81024	4.36697	2.04381	4.92762		
1.14491	2.50829	1.14565	2.50812	1.11927	2.6777	1.32079	3.1765	1.607	3.84793	1.81421	4.35178	2.06068	4.95514			1.07103	2.56098	1.17261	2.81561	1.44795	3.46737	1.58768	3.79733	1.81493	4.34795	2.04745	4.90222		
1.13836	2.50984	1.1391	2.50966	1.12659	2.6767	1.3244	3.16319	1.61196	3.83325	1.81872	4.33253	2.06498	4.93118			1.0788	2.56186	1.17704	2.80675	1.45331	3.45625	1.594	3.78625	1.8196	4.32912	2.05117	4.87734		
1.13185	2.51151	1.13259	2.51131	1.13394	2.67577	1.32802	3.15009	1.61686	3.81865	1.82331	4.31374	2.06925	4.90747			1.08658	2.56272	1.1815	2.79809	1.45855	3.44501	1.60045	3.77563	1.82423	4.31047	2.05495	4.85296		
1.12539	2.51329	1.12612	2.51308	1.1413	2.67488	1.33167	3.1372	1.62171	3.80411	1.82798	4.2954	2.07348	4.884			1.09435	2.56355	1.18599	2.78962	1.46367	3.43367	1.60703	3.76546	1.82882	4.292	2.05881	4.82908		
1.11896	2.51519	1.11969	2.51497	1.14868	2.67405	1.33533	3.12454	1.6265	3.78964	1.83273	4.2775	2.07768	4.86077			1.10211	2.56437	1.19051	2.78133	1.46869	3.42222	1.61374	3.75572	1.83339	4.27371	2.06273	4.80569		
1.11258	2.51721	1.1133	2.51698	1.15607	2.67326	1.33901	3.11208	1.63124	3.77523	1.83757	4.26002	2.08184	4.83778			1.10987	2.56516	1.19507	2.77324	1.47361	3.41069	1.62056	3.74637	1.83792	4.25558	2.06673	4.78277		
1.10624	2.51935	1.10695	2.5191	1.16348	2.6725	1.3427	3.09984	1.63592	3.76088	1.84248	4.24296	2.08597	4.81502			1.11763	2.56593	1.19966	2.76532	1.47843	3.39909	1.62749	3.73741	1.84243	4.23763	2.07079	4.7603		
1.09993	2.5216	1.10064	2.52134	1.17089	2.67179	1.34642	3.0878	1.64054	3.74659	1.84747	4.2263	2.09008	4.79249			1.12538	2.56667	1.20428	2.75759	1.48315	3.38743	1.63453	3.72881	1.8469	4.21984	2.07492	4.73829		
1.09367	2.52398	1.09438	2.52371	1.17832	2.6711	1.35016	3.07596	1.6451	3.73236	1.85254	4.21004	2.09415	4.7702			1.13312	2.56739	1.20893	2.75003	1.48779	3.37572	1.64167	3.72055	1.85134	4.20221	2.07911	4.71671		
1.08745	2.52648	1.08815	2.52619	1.18575	2.67044	1.35392	3.06433	1.64961	3.71819	1.85768	4.19415	2.0982	4.74813			1.14085	2.56809	1.21363	2.74266	1.49235	3.36397	1.64891	3.7126	1.85575	4.18475	2.08337	4.69556		
1.08126	2.5291	1.08196	2.5288	1.1932	2.66981	1.3577	3.0529	1.65407	3.70409	1.86289	4.17863	2.10222	4.72629			1.14858	2.56876	1.21835	2.73546	1.49683	3.35221	1.65623	3.70496	1.86013	4.16746	2.08769	4.67482		
1.07511	2.53184	1.0758	2.53152	1.20064	2.66921	1.3615	3.04167	1.65847	3.69004	1.86817	4.16347	2.10622	4.70468			1.1563	2.5694	1.22311	2.72843	1.50123	3.34044	1.66363	3.69759	1.86449	4.15032	2.09208	4.65449		
1.06899	2.53469	1.06968	2.53437	1.2081	2.66862	1.36532	3.03063	1.66282	3.67606	1.87352	4.14865	2.11019	4.6833			1.16401	2.57001	1.22792	2.72158	1.50558	3.32868	1.6711	3.69047	1.86882	4.13335	2.09652	4.63454		
1.0629	2.53766	1.06359	2.53732	1.21556	2.66805	1.36917	3.01978	1.66712	3.66214	1.87894	4.13416	2.11414	4.66215			1.17171	2.5706	1.23275	2.7149	1.50986	3.31694	1.67864	3.68359	1.87313	4.11655	2.10101	4.61498		
1.05684	2.54075	1.05752	2.54039	1.22302	2.6675	1.37304	3.00913	1.67136	3.64829	1.88441	4.11999	2.11808	4.64122			1.1794	2.57115	1.23763	2.70839	1.51408	3.30522	1.68624	3.67693	1.87742	4.09991	2.10557	4.59578		
1.05081	2.54394	1.05149	2.54357	1.23049	2.66696	1.37694	2.99866	1.67556	3.6345	1.88995	4.10612	2.122	4.62053			1.18708	2.57167	1.24255	2.70206	1.51826	3.29354	1.69389	3.67047	1.88169	4.08344	2.11017	4.57693		
1.0448	2.54723	1.04548	2.54685	1.23796	2.66644	1.38086	2.98838	1.67971	3.62079	1.89554	4.09254	2.12591	4.60006			1.19474	2.57215	1.24752	2.69589	1.52239	3.28191	1.70159	3.66419	1.88595	4.06715	2.11483	4.55843		
1.03882	2.55062	1.03949	2.55023	1.24544	2.66593	1.38481	2.97828	1.68382	3.60715	1.90118	4.07924	2.1298	4.57983			1.20238	2.57259	1.25252	2.6899	1.52648	3.27034	1.70933	3.65807	1.89019	4.05103	2.11953	4.54026		
1.03285	2.55411	1.03352	2.55371	1.25291	2.66543	1.38879	2.96837	1.68788	3.59359	1.90686	4.06621	2.13369	4.55983			1.21001	2.57299	1.25757	2.68407	1.53054	3.25883	1.71711	3.6521	1.89442	4.03509	2.12428	4.52242		
1.02689	2.55768	1.02756	2.55727	1.26039	2.66493	1.39279	2.95863	1.6919	3.5801	1.91259	4.05343	2.13758	4.54007			1.21762	2.57335	1.26267	2.67842	1.53456	3.24739	1.72491	3.64626	1.89865	4.01933	2.12907	4.50487		
1.02095	2.56132	1.02162	2.5609	1.26787	2.66445	1.39682	2.94907	1.69589	3.5667	1.91837	4.04089	2.14146	4.52054			1.22521	2.57365	1.26782	2.67295	1.53855	3.23603	1.73273	3.64054	1.90288	4.00376	2.1339	4.48763		
1.01501	2.56503	1.01568	2.56461	1.27534	2.66397	1.40088	2.93968	1.69983	3.55338	1.92417	4.02858	2.14534	4.50125			1.23277	2.5739	1.27303	2.66765	1.54252	3.22476	1.74057	3.63491	1.9071	3.98838	2.13877	4.47068		
1.00906	2.56879	1.00974	2.56836	1.28282	2.66349	1.40496	2.93047	1.70374	3.54015	1.93001	4.01648	2.14922	4.4822			1.24031	2.57409	1.27829	2.66253	1.54646	3.21357	1.74841	3.62937	1.91134	3.9732	2.14367	4.454		
1.00312	2.57259	1.00379	2.57216	1.29029	2.66302	1.40908	2.92143	1.70762	3.52701	1.93588	4.00458	2.15312	4.4634			1.24781	2.5742	1.2836	2.6576	1.55039	3.20248	1.75626	3.6239	1.91558	3.95822	2.14861	4.43758		
0.997157	2.57642	0.99783	2.57598	1.29777	2.66255	1.41322	2.91255	1.71146	3.51396	1.94177	3.99288	2.15702	4.44483			1.25528	2.57424	1.28899	2.65285	1.5543	3.19149	1.7641	3.61849	1.91984	3.94346	2.15357	4.42142		
0.991177	2.58025	0.991854	2.57982	1.30524	2.66207	1.4174	2.90385	1.71528	3.501	1.94768	3.98135	2.16094	4.42652			1.2627	2.5742	1.29444	2.64831	1.5582	3.1806	1.77193	3.61311	1.92413	3.92891	2.15856	4.4055		
0.985173	2.58408	0.985852	2.58365	1.3127	2.6616	1.4216	2.89531	1.71907	3.48814	1.95361	3.96999	2.16487	4.40845			1.27007	2.57405	1.29996	2.64396	1.56208	3.16982	1.77974	3.60776	1.92844	3.91459	2.16357	4.38981		
0.979135	2.58787	0.979819	2.58745	1.32017	2.66113	1.42584	2.88693	1.72283	3.47538	1.95954	3.95879	2.16882	4.39064			1.2774	2.5738	1.30557	2.63984	1.56596	3.15915	1.78753	3.60242	1.93278	3.90051	2.1686	4.37435		
0.973058	2.59162	0.973746	2.5912	1.32763	2.66065	1.43011	2.87872	1.72657	3.46272	1.96549	3.94773	2.17279	4.37308			1.28465	2.57343	1.31126	2.63593	1.56983	3.14859	1.79528	3.59707	1.93716	3.88667	2.17365	4.3591		
0.966933	2.59531	0.967628	2.5949	1.33508	2.66017	1.43441	2.87066	1.73029	3.45016	1.97143	3.9368	2.1768	4.35577			1.29184	2.57292	1.31705	2.63226	1.5737	3.13814	1.80299	3.59171	1.9416	3.87308	2.17872	4.34406		
0.960756	2.5989	0.961457	2.5985	1.34253	2.65968	1.43875	2.86277	1.73399	3.43771	1.97738	3.92599	2.18083	4.33873			1.29895	2.57226	1.32294	2.62884	1.57757	3.1278	1.81065	3.5863	1.94608	3.85976	2.18379	4.3292		
0.954519	2.60239	0.955227	2.60201	1.34997	2.65918	1.44312	2.85503	1.73767	3.42537	1.98332	3.9153	2.18489	4.32194			1.30598	2.57145	1.32894	2.62567	1.58143	3.11759	1.81825	3.58085	1.95063	3.84672	2.18887	4.31454		
0.948218	2.60576	0.948933	2.60539	1.3574	2.65868	1.44752	2.84745	1.74133	3.41313	1.98925	3.90471	2.18899	4.30542			1.31292	2.57047	1.33506	2.62277	1.5853	3.10749	1.82579	3.57533	1.95525	3.83395	2.19396	4.30005		
0.941848	2.609	0.942571	2.60864	1.36483	2.65816	1.45196	2.84003	1.74498	3.401	1.99516	3.89421	2.19313	4.28916			1.31976	2.56931	1.3413	2.62015	1.58916	3.09751	1.83325	3.56972	1.95995	3.82149	2.19905	4.28573		
0.935407	2.61208	0.936138	2.61174	1.37224	2.65763	1.45644	2.83276	1.74862	3.38898	2.00106	3.88379	2.19732	4.27317			1.3265	2.56797	1.34767	2.61779	1.59304	3.08765	1.84063	3.56401	1.96473	3.80934	2.20414	4.27157		
0.928893	2.61502	0.929633	2.61469	1.37964	2.65708	1.46096	2.82564	1.75224	3.37707	2.00693	3.87345	2.20155	4.25745			1.33314	2.56647	1.35416	2.61571	1.59691	3.07791	1.84792	3.55819	1.96961	3.7975				
0.922306	2.61779	0.923054	2.61748	1.38703	2.65652	1.46551	2.81868	1.75586	3.36528	2.01278	3.86317					1.3397	2.5648	1.36079	2.6139	1.6008	3.06829	1.8551	3.55224	1.9746	3.786				
0.915647	2.6204	0.916403	2.62011	1.39441	2.65593	1.4701	2.81187	1.75947	3.3536	2.0186	3.85294					1.34616	2.56298	1.36753	2.61233	1.60469	3.0588	1.86218	3.54615	1.9797	3.77484				
0.908918	2.62285	0.909681	2.62258	1.40178	2.65533	1.47474	2.80522	1.76307	3.34204	2.02438	3.84277					1.35255	2.56104	1.37438	2.611	1.60859	3.04942	1.86913	3.5399	1.98492	3.76404				
0.902121	2.62515	0.902892	2.6249	1.40912	2.6547	1.47942	2.79872	1.76666	3.33059	2.03013	3.83263					1.35886	2.55899	1.38134	2.60988	1.6125	3.04016	1.87596	3.53347	1.99027	3.7536				
0.89526	2.6273	0.896038	2.62706	1.41645	2.65404	1.48414	2.79238	1.77025	3.31925	2.03583	3.82253					1.36512	2.55685	1.38839	2.60895	1.61643	3.03103	1.88266	3.52687	1.99576	3.74353				
0.888339	2.62931	0.889123	2.62909	1.42376	2.65336	1.48891	2.78619	1.77383	3.30804	2.04149	3.81245					1.37134	2.55464	1.39553	2.60818	1.62036	3.02201	1.88921	3.52007	2.00139	3.73384				
0.881362	2.63119	0.882153	2.63098	1.43104	2.65263	1.49373	2.78016	1.77742	3.29694	2.0471	3.80239					1.37751	2.55239	1.40274	2.60756	1.62431	3.01312	1.89562	3.51308	2.00718	3.72453				
0.874334	2.63294	0.87513	2.63275	1.4383	2.65187	1.4986	2.77428	1.781	3.28595	2.05267	3.79235					1.38365	2.5501	1.41001	2.60706	1.62827	3.00434	1.90188	3.50588	2.01312	3.71561				
0.867259	2.63458	0.86806	2.6344	1.44554	2.65107	1.50352	2.76857	1.78458	3.27508	2.05817	3.78231					1.38977	2.5478	1.41734	2.60668	1.63224	2.99569	1.90798	3.49849	2.01921	3.70707				
0.860139	2.63612	0.860945	2.63595	1.45274	2.65022	1.50849	2.76301	1.78817	3.26433	2.06363	3.77228					1.39588	2.5455	1.42472	2.60638	1.63623	2.98715	1.91394	3.49089	2.02547	3.69891				
0.852981	2.63756	0.853791	2.6374	1.45991	2.64932	1.51353	2.75762	1.79175	3.2537	2.06902	3.76225					1.40198	2.54321	1.43214	2.60616	1.64023	2.97873	1.91973	3.48309	2.03188	3.69112				
0.845786	2.63891	0.846601	2.63877	1.46704	2.64837	1.51862	2.7524	1.79534	3.24318	2.07436	3.75222					1.40808	2.54094	1.43959	2.606	1.64425	2.97043	1.92538	3.4751	2.03845	3.6837				
0.838559	2.64019	0.839377	2.64005	1.47414	2.64735	1.52378	2.74735	1.79893	3.23278	2.07963	3.74217					1.41418	2.53869	1.44708	2.60591	1.64829	2.96224	1.93088	3.46693	2.04517	3.67663				
0.831303	2.6414	0.832124	2.64127	1.48119	2.64626	1.52901	2.74247	1.80253	3.22249	2.08484	3.73213					1.42028	2.53648	1.45458	2.60586	1.65234	2.95417	1.93624	3.45858	2.05204	3.66991				
0.82402	2.64255	0.824843	2.64242	1.48819	2.64511	1.5343	2.73776	1.80614	3.21233	2.08999	3.72207					1.42639	2.5343	1.46212	2.60584	1.65641	2.94621	1.94146	3.45008	2.05906	3.66351				
0.816713	2.64363	0.817539	2.64351	1.49514	2.64387	1.53968	2.73324	1.80975	3.20227	2.09507	3.71199					1.43251	2.53217	1.46967	2.60587	1.6605	2.93836	1.94654	3.44143	2.06622	3.65742				
0.809384	2.64467	0.810212	2.64456	1.50204	2.64255	1.54513	2.72891	1.81336	3.19233	2.10008	3.70191					1.43865	2.53008	1.47723	2.60592	1.66461	2.93063	1.95151	3.43264	2.0735	3.65162				
0.802035	2.64567	0.802866	2.64556	1.50887	2.64113	1.55066	2.72477	1.81699	3.18251	2.10503	3.69181					1.4448	2.52804	1.48481	2.60599	1.66873	2.92301	1.95635	3.42375	2.08091	3.64609				
0.794669	2.64662	0.795502	2.64651	1.51565	2.63963	1.55628	2.72081	1.82062	3.1728	2.10992	3.6817					1.45097	2.52605	1.4924	2.60608	1.67288	2.9155	1.96108	3.41474	2.08844	3.64083				
0.787287	2.64754	0.788122	2.64744	1.52235	2.63802	1.56199	2.71706	1.82426	3.1632	2.11474	3.67158					1.45716	2.52411	1.5	2.60619	1.67704	2.9081	1.96571	3.40565	2.09607	3.6358				
0.779891	2.64843	0.780727	2.64833	1.52899	2.63631	1.5678	2.7135	1.82792	3.15372	2.11949	3.66145					1.46337	2.52223	1.50761	2.60632	1.68123	2.9008	1.97025	3.39649	2.1038	3.631				
0.772482	2.64929	0.773319	2.64919	1.53556	2.6345	1.5737	2.71014	1.83158	3.14435	2.12418	3.65131					1.4696	2.5204	1.51523	2.60645	1.68543	2.89362	1.9747	3.38727	2.11163	3.62639				
0.765061	2.65013	0.7659	2.65004	1.54206	2.63258	1.57969	2.70698	1.83525	3.13509	2.12881	3.64116					1.47585	2.51862	1.52286	2.6066	1.68966	2.88654	1.97907	3.378	2.11954	3.62198				
0.75763	2.65095	0.75847	2.65086	1.54849	2.63056	1.58579	2.70402	1.83894	3.12593	2.13338	3.63101					1.48212	2.5169	1.53048	2.60675	1.69391	2.87957	1.98336	3.3687	2.12752	3.61774				
0.75019	2.65175	0.751031	2.65166	1.55484	2.62844	1.59198	2.70126	1.84263	3.11689	2.13788	3.62085					1.48841	2.51524	1.53812	2.60691	1.69817	2.8727	1.98759	3.35938	2.13557	3.61366				
0.742741	2.65255	0.743583	2.65246	1.56113	2.62622	1.59827	2.69868	1.84634	3.10796	2.14233	3.61069					1.49473	2.51363	1.54575	2.60707	1.70246	2.86593	1.99176	3.35004	2.14368	3.60972				
0.735286	2.65333	0.736128	2.65324	1.56734	2.62392	1.60465	2.69629	1.85007	3.09914	2.14672	3.60054					1.50107	2.51208	1.55339	2.60724	1.70678	2.85927	1.99587	3.34071	2.15185	3.60591				
0.727824	2.6541	0.728667	2.65402	1.5735	2.62153	1.61112	2.69407	1.8538	3.09042	2.15106	3.5904					1.50744	2.51058	1.56103	2.6074	1.71111	2.85271	1.99993	3.33138	2.16006	3.60221				
0.720356	2.65487	0.7212	2.65479	1.5796	2.61907	1.61768	2.69202	1.85755	3.08182	2.15534	3.58026					1.51383	2.50913	1.56868	2.60757	1.71547	2.84625	2.00394	3.32206	2.16832	3.59862				
0.712884	2.65564	0.713728	2.65556	1.58564	2.61654	1.62432	2.69013	1.86132	3.07331	2.15957	3.57013					1.52025	2.50775	1.57632	2.60774	1.71985	2.83988	2.00792	3.31277	2.17661	3.59512				
0.705407	2.65642	0.706252	2.65633	1.59164	2.61396	1.63104	2.68838	1.8651	3.06491	2.16376	3.56003					1.52669	2.50641	1.58396	2.6079	1.72425	2.83362	2.01186	3.30351	2.18493	3.5917				
0.697928	2.65719	0.698772	2.6571	1.59759	2.61132	1.63784	2.68676	1.86889	3.05662	2.16789	3.54994					1.53316	2.50513	1.59161	2.60807	1.72868	2.82746	2.01577	3.29428	2.19327	3.58835				
0.690445	2.65798	0.69129	2.65789	1.6035	2.60866	1.6447	2.68528	1.8727	3.04843	2.17198	3.53987					1.53965	2.5039	1.59925	2.60823	1.73313	2.82139	2.01965	3.28509	2.20163	3.58506				
0.682961	2.65877	0.683806	2.65868	1.60938	2.60596	1.65162	2.6839	1.87652	3.04034	2.17603	3.52983					1.54616	2.50273	1.60689	2.60838	1.7376	2.81541	2.0235	3.27594						
0.675475	2.65958	0.676321	2.65948	1.61523	2.60324	1.6586	2.68263	1.88037	3.03235	2.18004	3.51981					1.5527	2.5016	1.61453	2.60854	1.7421	2.80954	2.02734	3.26685						
0.667989	2.6604	0.668835	2.66031	1.62106	2.60051	1.66563	2.68146	1.88422	3.02447	2.18401	3.50983					1.55927	2.50053	1.62217	2.60869	1.74662	2.80375	2.03115	3.25781						
0.660503	2.66124	0.661348	2.66114	1.62687	2.59777	1.6727	2.68037	1.8881	3.01668	2.18794	3.49989					1.56586	2.4995	1.6298	2.60883	1.75117	2.79806	2.03495	3.24883						
0.653017	2.66211	0.653863	2.66201	1.63266	2.59504	1.67982	2.67936	1.89199	3.00899	2.19184	3.48998					1.57247	2.49853	1.63743	2.60897	1.75575	2.79246	2.03873	3.2399						
0.645533	2.663	0.646378	2.66289	1.63844	2.59231	1.68698	2.67843	1.8959	3.0014	2.19571	3.48011					1.57911	2.4976	1.64506	2.6091	1.76035	2.78696	2.0425	3.23104						
0.638051	2.66392	0.638896	2.66381	1.64421	2.58959	1.69418	2.67755	1.89982	2.9939	2.19955	3.47028					1.58578	2.49671	1.65269	2.60922	1.76497	2.78154	2.04626	3.22225						
0.630572	2.66487	0.631416	2.66476	1.64998	2.58689	1.7014	2.67673	1.90376	2.9865	2.20336	3.4605					1.59247	2.49588	1.66031	2.60933	1.76962	2.77622	2.05001	3.21352						
0.623096	2.66587	0.62394	2.66575	1.65574	2.58421	1.70866	2.67597	1.90773	2.9792							1.59918	2.49509	1.66792	2.60944	1.7743	2.77098	2.05376	3.20486						
0.615625	2.66691	0.616469	2.66679	1.66151	2.58155	1.71594	2.67525	1.9117	2.97199							1.60591	2.49434	1.67553	2.60954	1.77901	2.76584	2.0575	3.19627						
0.608159	2.66799	0.609002	2.66787	1.66727	2.57891	1.72324	2.67458	1.9157	2.96487							1.61267	2.49363	1.68314	2.60962	1.78374	2.76078	2.06123	3.18775						
0.6007	2.66914	0.601542	2.66901	1.67304	2.57631	1.73056	2.67394	1.91972	2.95785							1.61945	2.49297	1.69073	2.6097	1.7885	2.75582	2.06497	3.17931						
0.593248	2.67035	0.594089	2.67021	1.67882	2.57374	1.73791	2.67334	1.92375	2.95091							1.62626	2.49235	1.69832	2.60976	1.79329	2.75094	2.0687	3.17094						
0.585804	2.67162	0.586644	2.67148	1.6846	2.5712	1.74527	2.67277	1.92781	2.94407							1.63309	2.49177	1.70591	2.60981	1.79811	2.74615	2.07244	3.16264						
0.578371	2.67298	0.57921	2.67283	1.69039	2.5687	1.75264	2.67222	1.93188	2.93732							1.63994	2.49122	1.71348	2.60985	1.80297	2.74145	2.07618	3.15442						
0.570948	2.67443	0.571786	2.67426	1.69619	2.56623	1.76003	2.67171	1.93598	2.93065							1.64681	2.49072	1.72104	2.60987	1.80785	2.73683	2.07992	3.14627						
0.563539	2.67598	0.564375	2.6758	1.702	2.56381	1.76743	2.67121	1.94009	2.92408							1.6537	2.49025	1.7286	2.60988	1.81276	2.73231	2.08366	3.13821						
0.556145	2.67765	0.556979	2.67746	1.70782	2.56142	1.77484	2.67074	1.94422	2.91759							1.66061	2.48982	1.73614	2.60987	1.81771	2.72787	2.08741	3.13021						
0.548768	2.67945	0.5496	2.67924	1.71366	2.55907	1.78227	2.67029	1.94838	2.91118							1.66755	2.48942	1.74367	2.60984	1.82269	2.72352	2.09116	3.1223						
0.541411	2.68139	0.54224	2.68116	1.71951	2.55676	1.7897	2.66985	1.95255	2.90487							1.67451	2.48905	1.75119	2.6098	1.8277	2.71926	2.09492	3.11446						
0.534075	2.6835	0.534903	2.68326	1.72537	2.55449	1.79714	2.66943	1.95674	2.89863							1.68148	2.48872	1.75869	2.60973	1.83275	2.71509	2.09869	3.1067						
0.526766	2.68581	0.52759	2.68554	1.73125	2.55227	1.80458	2.66902	1.96096	2.89248							1.68848	2.48842	1.76618	2.60964	1.83784	2.71101	2.10246	3.09902						
0.519486	2.68834	0.520306	2.68804	1.73715	2.55008	1.81203	2.66863	1.9652	2.88642							1.69549	2.48816	1.77365	2.60952	1.84297	2.70702	2.10624	3.09141						
0.51224	2.69112	0.513056	2.6908	1.74306	2.54794	1.81949	2.66824	1.96945	2.88043							1.70253	2.48792	1.7811	2.60938	1.84813	2.70313	2.11003	3.08389						
0.505033	2.6942	0.505844	2.69384	1.74899	2.54585	1.82695	2.66787	1.97373	2.87453							1.70958	2.48771	1.78852	2.6092	1.85334	2.69933	2.11383	3.07643						
0.497871	2.69762	0.498677	2.69722	1.75494	2.5438	1.83442	2.66751	1.97803	2.86871							1.71665	2.48753	1.79593	2.609	1.8586	2.69562	2.11764	3.06906						
0.490761	2.70144	0.491561	2.70098	1.76091	2.54179	1.84189	2.66715	1.98236	2.86297							1.72374	2.48738	1.80331	2.60876	1.86389	2.69201	2.12146	3.06176						
0.483713	2.70572	0.484505	2.70521	1.7669	2.53984	1.84936	2.6668	1.9867	2.85731							1.73085	2.48725	1.81067	2.60849	1.86924	2.68851	2.1253	3.05454						
0.476735	2.71054	0.477519	2.70997	1.77294	2.53797	1.85684	2.66646	1.99107	2.85172							1.73797	2.48715	1.81799	2.60817	1.87464	2.6851	2.12914	3.04739						
0.469839	2.716	0.470614	2.71535	1.77916	2.53637	1.86431	2.66612	1.99546	2.84622							1.74511	2.48707	1.82528	2.60781	1.88009	2.6818	2.13299	3.04032						
0.46304	2.72221	0.463802	2.72147	1.78466	2.53377	1.87179	2.66578	1.99987	2.8408							1.75227	2.48702	1.83254	2.6074	1.8856	2.67861	2.13686	3.03333						
0.456352	2.72931	0.457101	2.72846	1.79393	2.53651	1.87926	2.66545	2.00431	2.83545							1.75944	2.48699	1.83976	2.60694	1.89117	2.67553	2.14074	3.02641						
0.449793	2.73743	0.450527	2.73646	1.79692	2.53039	1.88674	2.66512	2.00877	2.83018							1.76663	2.48698	1.84693	2.60643	1.89681	2.67256	2.14463	3.01956						
0.443384	2.74678	0.444099	2.74566	1.80302	2.52868	1.89422	2.66479	2.01325	2.82498							1.77383	2.48699	1.85406	2.60585	1.90251	2.66971	2.14853	3.01279						
0.437145	2.75755	0.43784	2.75625	1.80913	2.527	1.90169	2.66447	2.01776	2.81986							1.78105	2.48703	1.86114	2.60521	1.90828	2.66699	2.15245	3.00609						
0.431101	2.76996	0.431773	2.76846	1.81526	2.52536	1.90916	2.66414	2.02229	2.81482							1.78828	2.48708	1.86817	2.6045	1.91412	2.66438	2.15638	2.99947						
0.425273	2.78426	0.425919	2.78254	1.82141	2.52375	1.91663	2.66381	2.02685	2.80985							1.79553	2.48716	1.87514	2.60372	1.92005	2.66191	2.16033	2.99291						
0.419684	2.8007	0.420302	2.79873	1.82757	2.52219	1.9241	2.66348	2.03143	2.80496							1.80279	2.48725	1.88205	2.60287	1.92605	2.65956	2.16429	2.98643						
0.414353	2.81955	0.414941	2.81729	1.83375	2.52066	1.93156	2.66315	2.03604	2.80014							1.81006	2.48736	1.88891	2.60193	1.93213	2.65735	2.16826	2.98002						
0.409295	2.84106	0.409853	2.83849	1.83995	2.51916	1.93902	2.66281	2.04068	2.79539							1.81735	2.48749	1.89569	2.60092	1.9383	2.65527	2.17225	2.97368						
0.404523	2.86546	0.405047	2.86255	1.84617	2.51771	1.94647	2.66247	2.04534	2.79073							1.82465	2.48763	1.90241	2.59982	1.94455	2.65332	2.17626	2.96741						
0.40004	2.89298	0.400532	2.88971	1.85241	2.51629	1.95392	2.66212	2.05004	2.78613							1.83196	2.48779	1.90907	2.59864	1.95089	2.65151	2.18027	2.96122						
0.39585	2.92383	0.396308	2.92018	1.85867	2.51491	1.96136	2.66177	2.05476	2.78161							1.83929	2.48796	1.91565	2.59738	1.95732	2.64983	2.18431	2.95509						
0.391948	2.95821	0.392374	2.95415	1.86494	2.51356	1.96879	2.66141	2.05951	2.77717							1.84663	2.48815	1.92217	2.59604	1.96383	2.64827	2.18836	2.94902						
0.388329	2.99631	0.388724	2.99182	1.87124	2.51225	1.97621	2.66104	2.06429	2.7728							1.85397	2.48836	1.92863	2.59463	1.97042	2.64683	2.19242	2.94303						
0.384986	3.03833	0.38535	3.03339	1.87755	2.51098	1.98363	2.66066	2.0691	2.76851							1.86133	2.48857	1.93502	2.59314	1.97709	2.64552	2.19651	2.93711						
0.381912	3.08448	0.382246	3.07906	1.88388	2.50974	1.99103	2.66027	2.07394	2.76429							1.8687	2.4888	1.94136	2.59158	1.98384	2.64431	2.2006	2.93125						
0.379098	3.13499	0.379403	3.12906	1.89024	2.50853	1.99842	2.65986	2.07882	2.76015							1.87609	2.48904	1.94764	2.58997	1.99065	2.64321								
0.376536	3.19011	0.376813	3.18365	1.89661	2.50736	2.0058	2.65944	2.08373	2.75609							1.88348	2.4893	1.95387	2.5883	1.99754	2.6422								
0.37422	3.25014	0.37447	3.2431	1.903	2.50622	2.01316	2.65901	2.08868	2.7521							1.89088	2.48956	1.96006	2.58658	2.00449	2.64129								
0.372144	3.31539	0.372367	3.30775	1.9094	2.50512	2.02051	2.65855	2.09367	2.7482							1.89829	2.48984	1.9662	2.58482	2.0115	2.64046								
0.370302	3.38624	0.370498	3.37794	1.91583	2.50405	2.02784	2.65808	2.0987	2.74438							1.90571	2.49013	1.97231	2.58303	2.01856	2.6397								
0.368689	3.46309	0.368859	3.45409	1.92228	2.50301	2.03515	2.65758	2.10376	2.74064							1.91314	2.49042	1.97838	2.5812	2.02567	2.63902								
0.367301	3.5464	0.367446	3.53666	1.92874	2.502	2.04243	2.65706	2.10887	2.73699							1.92058	2.49073	1.98443	2.57936	2.03282	2.6384								
0.366135	3.63671	0.366255	3.62614	1.93522	2.50103	2.04969	2.65651	2.11403	2.73342							1.92803	2.49104	1.99045	2.57749	2.04001	2.63783								
0.365187	3.73459	0.365283	3.72314	1.94172	2.50008	2.05693	2.65593	2.11924	2.72994							1.93549	2.49137	1.99645	2.57562	2.04724	2.63732								
0.364454	3.8407	0.364526	3.82828	1.94824	2.49917	2.06414	2.65532	2.12449	2.72655							1.94295	2.4917	2.00243	2.57373	2.05451	2.63685								
0.363934	3.9558	0.363982	3.94233	1.95478	2.49829	2.07131	2.65467	2.12981	2.72326							1.95042	2.49204	2.0084	2.57185	2.0618	2.63642								
0.363624	4.08073	0.363648	4.0661	1.96133	2.49743	2.07845	2.65398	2.13517	2.72006							1.95791	2.49239	2.01436	2.56996	2.06912	2.63603								
0.363521	4.21644	0.363522	4.20054	1.96791	2.49661	2.08555	2.65325	2.1406	2.71697							1.96539	2.49274	2.02032	2.56808	2.07647	2.63568								
0.363623	4.36404	0.363601	4.34674	1.9745	2.49581	2.0926	2.65247	2.1461	2.71398							1.97289	2.4931	2.02626	2.5662	2.08383	2.63535								
0.363927	4.52476	0.363882	4.5059	1.9811	2.49504	2.09961	2.65163	2.15166	2.7111							1.98039	2.49347	2.03221	2.56433	2.09122	2.63505								
0.364354	4.67663	0.364363	4.67946	1.98773	2.4943	2.10658	2.65074	2.15729	2.70832							1.9879	2.49384	2.03815	2.56248	2.09862	2.63478								
0.364837	4.81564	0.365041	4.86904	1.99437	2.49358	2.11348	2.64979	2.163	2.70567							1.99542	2.49422	2.04409	2.56064	2.10604	2.63452								
0.365317	4.93778	0.365912	5.07652	2.00103	2.49289	2.12034	2.64877	2.16879	2.70313							2.00294	2.4946	2.05004	2.55882	2.11347	2.63429								
0.365748	5.0393	0.366975	5.30411	2.00771	2.49223	2.12713	2.64769	2.17466	2.7007							2.01047	2.49499	2.05599	2.55701	2.12092	2.63407								
0.366094	5.1169	0.368224	5.55438	2.01441	2.4916	2.13386	2.64654	2.18061	2.69841							2.018	2.49539	2.06194	2.55522	2.12837	2.63387								
0.366434	5.19059	0.369658	5.83039	2.02112	2.49098	2.14052	2.64531	2.18665	2.69623							2.02555	2.49578	2.0679	2.55346	2.13584	2.63368								
0.366682	5.24321	0.371273	6.13578	2.02784	2.4904	2.14711	2.64401	2.19278	2.69418							2.03309	2.49619	2.07387	2.55171	2.14331	2.6335								
0.36709	5.32774	0.373064	6.47489	2.03459	2.48984	2.15364	2.64263	2.199	2.69225							2.04064	2.49659	2.07984	2.54999	2.15079	2.63333								
0.367683	5.44742	0.375027	6.853	2.04135	2.4893	2.1601	2.64118	2.20531	2.69044							2.0482	2.497	2.08583	2.54829	2.15828	2.63317								
0.368495	5.60705	0.37716	7.27657	2.04812	2.48878	2.16648	2.63966									2.05576	2.49741	2.09182	2.54661	2.16577	2.63302								
0.36957	5.81348	0.379152	7.68892	2.05492	2.48829	2.17281	2.63806									2.06332	2.49782	2.09783	2.54496	2.17326	2.63288								
0.370957	6.07623	0.380947	8.07728	2.06172	2.48782	2.17906	2.6364									2.07089	2.49824	2.10385	2.54334	2.18076	2.63274								
0.372715	6.40866	0.382497	8.42764	2.06855	2.48737	2.18526	2.63468									2.07847	2.49865	2.10988	2.54174	2.18827	2.63261								
0.374647	6.77902	0.383764	8.72565	2.07539	2.48695	2.1914	2.6329									2.08604	2.49907	2.11592	2.54017	2.19577	2.63247								
0.376748	7.19354	0.384718	8.95775	2.08224	2.48654	2.19749	2.63107									2.09362	2.49949	2.12198	2.53862	2.20328	2.63235								
0.379015	7.65985	0.385613	9.18177	2.08911	2.48616	2.20352	2.62919									2.1012	2.49991	2.12805	2.53711										
0.381442	8.18752	0.386245	9.34391	2.096	2.48579											2.10879	2.50033	2.13413	2.53562										
0.384025	8.78862	0.387248	9.60829	2.10289	2.48545											2.11637	2.50075	2.14023	2.53416										
0.38676	9.47866	0.388641	9.99114	2.10981	2.48512											2.12396	2.50116	2.14635	2.53273										
0.389641	10.2778	0.390452	10.5181	2.11673	2.48482											2.13154	2.50157	2.15248	2.53132										
0.392664	11.2131	0.392712	11.229	2.12368	2.48453											2.13913	2.50198	2.15863	2.52995										
0.395821	12.321	0.395458	12.1858	2.13063	2.48426											2.14671	2.50239	2.1648	2.52861										
0.399108	13.6525	0.398731	13.4889	2.1376	2.48401											2.1543	2.50279	2.171	2.52731										
0.402517	15.2811	0.402127	15.0792	2.14458	2.48378											2.16187	2.50318	2.17721	2.52603										
0.406041	17.3163	0.405637	17.0615	2.15158	2.48356											2.16944	2.50356	2.18344	2.52479										
0.409668	19.9294	0.409253	19.5978	2.15859	2.48336											2.177	2.50392	2.18971	2.52359										
0.413385	23.4034	0.412961	22.9549	2.16561	2.48317											2.18455	2.50427	2.196	2.52243										
0.417172	28.2427	0.416742	27.6031	2.17265	2.483											2.19208	2.5046	2.20232	2.52132										
0.420996	35.4418	0.420564	34.4579	2.17969	2.48285											2.19959	2.5049												
0.424791	47.2723	0.424368	45.5687	2.18675	2.48271											2.20707	2.50517												
0.428411	70.3053	0.42802	66.6673	2.19383	2.48259																								
0.43147	134.788	0.431176	122.224	2.20091	2.48248																								
0.432997	1402.94	0.432945	681.5																										
