Sym0		Sym1		Sym2		Sym3		Sym4		Sym5		Sym6		Sym7		Asym1		Asym2		Asym3		Asym4		Asym5		Asym6		Asym7	
312  Points		312  Points		303  Points		294  Points		286  Points		220  Points		179  Points		108  Points		310  Points		305  Points		295  Points		258  Points		217  Points		181  Points		107  Points	
Freq (MHz)	Vph (m/ms)	Freq (MHz)	Vph (m/ms)	Freq (MHz)	Vph (m/ms)	Freq (MHz)	Vph (m/ms)	Freq (MHz)	Vph (m/ms)	Freq (MHz)	Vph (m/ms)	Freq (MHz)	Vph (m/ms)	Freq (MHz)	Vph (m/ms)	Freq (MHz)	Vph (m/ms)	Freq (MHz)	Vph (m/ms)	Freq (MHz)	Vph (m/ms)	Freq (MHz)	Vph (m/ms)	Freq (MHz)	Vph (m/ms)	Freq (MHz)	Vph (m/ms)	Freq (MHz)	Vph (m/ms)
2.20529	2.4936	2.20504	2.49361	0.464221	532.606	0.866025	7151.81	1.29904	1108.47	1.39251	778.815	1.73205	2903.99	2.16506	1055.46	0.216586	147.974	0.649515	376.106	0.928322	1721.98	1.08254	593.027	1.51555	535.326	1.85664	1711.37	1.94856	1487.12
2.19832	2.49388	2.19807	2.49389	0.46527	123.608	0.866037	287.379	1.299	319.606	1.39266	297.548	1.73206	496.447	2.16506	437.936	0.217211	49.8631	0.649491	140.6	0.928411	270.549	1.08259	229.464	1.51555	264.792	1.8567	466.816	1.94858	463.644
2.19136	2.49417	2.19112	2.49419	0.467439	70.2225	0.866069	146.641	1.29894	186.714	1.39295	183.939	1.73208	271.426	2.16505	276.287	0.218447	30.1364	0.649445	86.4555	0.92863	146.841	1.08269	142.265	1.51556	175.9	1.85681	270.284	1.94864	274.64
2.18442	2.49448	2.18417	2.4945	0.470433	49.265	0.866123	98.4397	1.29884	131.871	1.39338	133.142	1.73211	186.773	2.16504	201.799	0.220272	21.7208	0.649378	62.414	0.928977	100.795	1.08284	103.1	1.51557	131.692	1.85698	190.22	1.94871	195.111
2.17749	2.49481	2.17724	2.49482	0.473997	38.0981	0.866198	74.0911	1.29872	101.926	1.39395	104.354	1.73215	142.372	2.16503	158.946	0.222657	17.0834	0.649292	48.8306	0.929453	76.7572	1.08304	80.8518	1.51559	105.242	1.85722	146.76	1.94882	151.303
2.17058	2.49516	2.17033	2.49517	0.477958	31.1699	0.866296	59.4026	1.29856	83.0584	1.39465	85.8228	1.7322	115.029	2.16501	131.104	0.225566	14.1634	0.649188	40.0998	0.930054	61.9975	1.08328	66.5087	1.51561	87.6406	1.85751	119.475	1.94894	123.565
2.16367	2.49552	2.16343	2.49553	0.482201	26.4561	0.866416	49.5777	1.29837	70.0809	1.39548	72.8984	1.73226	96.4977	2.165	111.562	0.228498	12.387	0.649069	34.0151	0.930778	52.0164	1.08357	56.4942	1.51563	75.0837	1.85786	100.753	1.9491	104.425
2.15678	2.4959	2.15654	2.49592	0.486655	23.0436	0.866559	42.5443	1.29816	60.6072	1.39644	63.373	1.73233	83.1103	2.16498	97.0901	0.231267	11.2291	0.648936	29.5317	0.931624	44.8189	1.08392	49.1066	1.51566	65.6744	1.85827	87.1112	1.94929	90.4222
2.14991	2.4963	2.14966	2.49632	0.491273	20.46	0.866726	37.2611	1.29792	53.3868	1.39753	56.0632	1.73241	72.986	2.16495	85.9412	0.233731	10.4474	0.648793	26.0908	0.932588	39.3848	1.08431	43.4329	1.51569	58.3613	1.85874	76.7293	1.9495	79.7338
2.14305	2.49672	2.1428	2.49674	0.496022	18.4368	0.866919	33.1475	1.29767	47.701	1.39874	50.2778	1.73251	65.0617	2.16493	77.0888	0.235784	9.91644	0.648643	23.3668	0.933667	35.1381	1.08476	38.9393	1.51573	52.514	1.85927	68.5642	1.94974	71.3078
2.1362	2.49716	2.13596	2.49717	0.500879	16.8101	0.867137	29.8541	1.29739	43.1075	1.40007	45.5861	1.73261	58.6906	2.1649	69.8896	0.237349	9.56665	0.648489	21.1567	0.934857	31.7289	1.08526	35.2929	1.51577	47.7321	1.85985	61.9751	1.95001	64.495
2.12937	2.49762	2.12913	2.49763	0.505827	15.474	0.867383	27.1581	1.2971	39.319	1.40152	41.7055	1.73273	53.4569	2.16487	63.92	0.238375	9.35862	0.648335	19.3278	0.936153	28.9326	1.08582	32.2751	1.51582	43.7487	1.86048	56.5461	1.95031	58.8727
2.12255	2.49809	2.12231	2.49811	0.510853	14.3574	0.867657	24.9106	1.29679	36.1409	1.40308	38.4431	1.73286	49.0811	2.16484	58.8897	0.239882	9.07901	0.648184	17.7894	0.937552	26.5981	1.08643	29.7367	1.51587	40.3793	1.86117	51.996	1.95064	54.1543
2.11575	2.49859	2.1155	2.49861	0.515947	13.4104	0.867961	23.0087	1.29648	33.4368	1.40476	35.6627	1.733	45.3682	2.16481	54.5933	0.24156	8.79853	0.648042	16.4774	0.939048	24.6203	1.08711	27.5723	1.51593	37.4921	1.86192	48.1277	1.951	50.1381
2.10896	2.49911	2.10872	2.49913	0.5211	12.5972	0.868297	21.3783	1.29616	31.1079	1.40654	33.2652	1.73316	42.1784	2.16478	50.8811	0.243909	8.45158	0.647913	15.3455	0.940637	22.9235	1.08784	25.7051	1.51599	34.9906	1.86271	44.7988	1.95139	46.6785
2.10218	2.49965	2.10194	2.49967	0.526303	11.8915	0.868665	19.9656	1.29583	29.0812	1.40842	31.177	1.73332	39.4084	2.16475	47.6415	0.24698	8.06167	0.6478	14.3592	0.942314	21.4522	1.08864	24.0783	1.51606	32.8023	1.86356	41.904	1.95182	43.6674
2.09542	2.50021	2.09518	2.50024	0.531552	11.2734	0.869069	18.7297	1.2955	27.3015	1.41041	29.3422	1.7335	36.9806	2.16472	44.7896	0.250836	7.65092	0.647711	13.4921	0.944073	20.1644	1.08951	22.6485	1.51614	30.8719	1.86445	39.3638	1.95228	41.023
2.08868	2.5008	2.08844	2.50082	0.536157	10.794	0.86951	17.6396	1.29517	25.7264	1.41249	27.7176	1.73369	34.8352	2.16469	42.2598	0.255538	7.23789	0.647648	12.7242	0.945908	19.0281	1.09044	21.3822	1.51622	29.1564	1.86539	37.117	1.95278	38.6824
2.08195	2.50141	2.08171	2.50143	0.540104	10.4226	0.869989	16.6711	1.29484	24.3225	1.41467	26.2693	1.7339	32.9257	2.16466	40.0005	0.261148	6.83668	0.647618	12.0394	0.947813	18.018	1.09144	20.2532	1.51632	27.6218	1.86637	35.1155	1.95331	36.5962
2.07524	2.50203	2.075	2.50206	0.543381	10.1382	0.87051	15.805	1.29452	23.0633	1.41693	24.9702	1.73412	31.2153	2.16463	37.9705	0.26696	6.49687	0.647625	11.4252	0.949783	17.1144	1.09252	19.2405	1.51642	26.241	1.86739	33.3214	1.95389	34.7251
2.06854	2.50269	2.0683	2.50271	0.545978	9.92648	0.871073	15.0261	1.2942	21.9277	1.41929	23.7986	1.73435	29.6745	2.16461	36.1365	0.272948	6.20576	0.647667	10.9395	0.951812	16.3013	1.09367	18.3272	1.51652	24.9919	1.86846	31.7041	1.9545	33.0377
2.06186	2.50336	2.06162	2.50339	0.547892	9.77765	0.871682	14.322	1.29389	20.8983	1.42173	22.7368	1.7346	28.2792	2.16458	34.4716	0.27909	5.95386	0.647731	10.5574	0.953894	15.5659	1.09491	17.4996	1.51664	23.8567	1.86957	30.2387	1.95516	31.5082
2.05519	2.50406	2.05496	2.50409	0.549119	9.68526	0.872339	13.6826	1.2936	19.961	1.42425	21.7701	1.73486	27.0098	2.16456	32.9533	0.285366	5.73392	0.647805	10.2614	0.956022	14.8975	1.09622	16.7465	1.51677	22.8204	1.87071	28.9049	1.95586	30.1157
2.04854	2.50479	2.04831	2.50481	0.550884	9.55621	0.873047	13.0994	1.29331	19.1039	1.42686	20.8865	1.73514	25.85	2.16454	31.5631	0.291756	5.54032	0.647879	10.0392	0.958191	14.2873	1.09762	16.0583	1.5169	21.8707	1.87188	27.6857	1.9566	28.8426
2.04191	2.50554	2.04167	2.50557	0.552805	9.42071	0.873808	12.5655	1.29304	18.3173	1.42954	20.0757	1.73543	24.7862	2.16452	30.2855	0.298245	5.36867	0.647942	9.88199	0.960393	13.7281	1.09911	15.4272	1.51705	20.9971	1.87309	26.567	1.95739	27.6743
2.03529	2.50631	2.03506	2.50634	0.555422	9.24399	0.874625	12.075	1.29279	17.5928	1.43229	19.3293	1.73574	23.8071	2.16451	29.1073	0.304818	5.21544	0.647987	9.78401	0.962625	13.2136	1.10069	14.8466	1.51721	20.191	1.87432	25.5369	1.95823	26.5984
2.02869	2.50711	2.02845	2.50714	0.558737	9.03206	0.8755	11.6229	1.29255	16.9235	1.43512	18.6398	1.73606	22.903	2.1645	28.0174	0.311462	5.07781	0.648056	9.64663	0.964878	12.7388	1.10236	14.3108	1.51738	19.4448	1.87559	24.5852	1.95912	25.6046
2.0221	2.50794	2.02187	2.50797	0.562753	8.79162	0.876438	11.2051	1.29233	16.3032	1.43802	18.0012	1.7364	22.0655	2.1645	27.0062	0.318165	4.95349	0.648139	9.50176	0.967149	12.2991	1.10413	13.815	1.51756	18.752	1.87687	23.7033	1.96007	24.6838
2.01553	2.50879	2.0153	2.50882	0.567472	8.52946	0.877307	10.866	1.29213	15.7268	1.44098	17.408	1.73676	21.2876	2.1645	26.0655	0.324914	4.84059	0.648266	9.31183	0.96943	11.8907	1.10599	13.3551	1.51776	18.1073	1.87818	22.8839	1.96107	23.8284
2.00898	2.50967	2.00875	2.5097	0.572893	8.25219	0.878089	10.5938	1.29195	15.1899	1.44401	16.8556	1.73714	20.5632	2.1645	25.1882	0.331701	4.73755	0.648449	9.08265	0.971718	11.5104	1.10796	12.9273	1.51797	17.5057	1.8795	22.1205	1.96213	23.0318
2.00245	2.51058	2.00221	2.51061	0.578318	7.99713	0.878765	10.3794	1.2918	14.6885	1.4471	16.34	1.73754	19.887	2.16451	24.3681	0.338516	4.64307	0.648707	8.8208	0.974007	11.1553	1.11004	12.5287	1.51819	16.9431	1.88084	21.4074	1.96324	22.2882
1.99593	2.51151	1.9957	2.51155	0.583743	7.7617	0.879318	10.2164	1.29167	14.2194	1.45026	15.8576	1.73795	19.2543	2.16453	23.5998	0.345349	4.55604	0.649064	8.53319	0.975998	10.8645	1.11221	12.1564	1.51843	16.4158	1.88219	20.74	1.96442	21.5925
1.98943	2.51248	1.98919	2.51251	0.589163	7.54363	0.879736	10.1001	1.29156	13.7794	1.45347	15.4055	1.73839	18.6611	2.16455	22.8786	0.352193	4.47555	0.649551	8.22675	0.977691	10.6291	1.1145	11.8081	1.51868	15.9207	1.88355	20.1139	1.96567	20.9404
1.98294	2.51347	1.98271	2.5135	0.594574	7.34104	0.880008	10.0271	1.29148	13.3661	1.45673	14.9809	1.73884	18.1039	2.16458	22.2002	0.35904	4.4008	0.650125	7.94303	0.979087	10.4426	1.1169	11.4816	1.51895	15.4549	1.88492	19.5254	1.96698	20.328
1.97647	2.51449	1.97624	2.51453	0.599972	7.15227	0.880406	9.92416	1.29142	12.977	1.46006	14.5813	1.73932	17.5795	2.16462	21.5609	0.365882	4.33111	0.650793	7.67979	0.980187	10.2999	1.1194	11.1751	1.51923	15.0159	1.88629	18.9712	1.96835	19.7518
1.97002	2.51554	1.96979	2.51558	0.605354	6.97589	0.880849	9.81486	1.29139	12.6102	1.46343	14.2047	1.73982	17.085	2.16466	20.9576	0.372712	4.2659	0.65156	7.43507	0.980994	10.1977	1.12167	10.9229	1.51954	14.6014	1.88766	18.4483	1.9698	19.2088
1.96359	2.51662	1.96336	2.51666	0.610716	6.81066	0.881467	9.67036	1.29139	12.2638	1.46685	13.8491	1.74034	16.6181	2.16471	20.3872	0.379524	4.20467	0.652433	7.20715	0.98151	10.1334	1.12368	10.7182	1.51986	14.2096	1.88903	17.9542	1.97132	18.6963
1.95717	2.51773	1.95694	2.51777	0.616053	6.65549	0.882275	9.49416	1.29141	11.9362	1.47033	13.5128	1.74089	16.1766	2.16478	19.8471	0.386311	4.14697	0.653419	6.99454	0.982249	10.0425	1.12538	10.5555	1.5202	13.8385	1.89039	17.4864	1.97292	18.2118
1.95077	2.51887	1.95054	2.51891	0.621362	6.50944	0.883293	9.2903	1.29147	11.6259	1.47384	13.1944	1.74146	15.7583	2.16484	19.335	0.393066	4.09241	0.654522	6.79593	0.98305	9.94568	1.12676	10.431	1.52056	13.4867	1.89175	17.043	1.97459	17.7532
1.94439	2.52004	1.94416	2.52008	0.626638	6.37165	0.884546	9.06321	1.29156	11.3316	1.47741	12.8925	1.74205	15.3616	2.16492	18.8487	0.399783	4.04066	0.655749	6.61015	0.984136	9.81713	1.12779	10.3416	1.52094	13.1526	1.8931	16.622	1.97634	17.3185
1.93802	2.52124	1.9378	2.52128	0.63188	6.24138	0.886065	8.81745	1.29166	11.0873	1.48101	12.6058	1.74267	14.9849	2.16501	18.3864	0.406457	3.99142	0.657106	6.43617	0.985502	9.65955	1.12846	10.2854	1.52134	12.8351	1.89444	16.2218	1.97816	16.906
1.93167	2.52247	1.93145	2.52252	0.637082	6.11797	0.887674	8.58632	1.29176	10.8874	1.48466	12.3331	1.74332	14.6267	2.1651	17.9464	0.413081	3.94443	0.658598	6.27307	0.987144	9.47607	1.12942	10.2058	1.52176	12.5328	1.89577	15.8408	1.98007	16.5141
1.92534	2.52374	1.92512	2.52378	0.64224	6.00082	0.889377	8.36865	1.29186	10.7276	1.48834	12.0736	1.744	14.2856	2.16521	17.5271	0.419649	3.89945	0.660233	6.12003	0.989053	9.27009	1.13049	10.1209	1.52221	12.2448	1.89708	15.4777	1.98206	16.1413
1.91903	2.52504	1.91881	2.52508	0.647353	5.88942	0.891175	8.16339	1.29195	10.6046	1.49206	11.8263	1.7447	13.9606	2.16533	17.127	0.426156	3.85627	0.662015	5.97631	0.99122	9.04519	1.13196	10.0082	1.52268	11.9701	1.89837	15.1311	1.98412	15.7863
1.91273	2.52637	1.91251	2.52641	0.652415	5.78329	0.893074	7.96962	1.29202	10.516	1.49581	11.5903	1.74544	13.6506	2.16545	16.7449	0.432597	3.81471	0.663949	5.84125	0.993362	8.83162	1.13386	9.86996	1.52318	11.7077	1.89965	14.8001	1.98627	15.4479
1.90645	2.52773	1.90623	2.52778	0.657424	5.682	0.895074	7.78649	1.29207	10.4601	1.4996	11.3649	1.7462	13.3545	2.16559	16.3796	0.438967	3.7746	0.666041	5.71424	0.995475	8.62853	1.13621	9.70883	1.5237	11.457	1.90091	14.4836	1.9885	15.125
1.90019	2.52913	1.89997	2.52918	0.662376	5.58518	0.897181	7.61324	1.29214	10.3808	1.50292	11.1766	1.747	13.0714	2.16574	16.03	0.445261	3.73581	0.668297	5.59475	0.997562	8.43513	1.13904	9.52783	1.52417	11.2474	1.90215	14.1805	1.99082	14.8166
1.89395	2.53056	1.89372	2.53061	0.66727	5.49249	0.899395	7.44919	1.29222	10.296	1.50577	11.0217	1.74783	12.8006	2.1659	15.6952	0.451474	3.69819	0.670719	5.48228	0.99962	8.25074	1.14239	9.33012	1.52459	11.0749	1.90338	13.8901	1.99321	14.5218
1.88772	2.53202	1.8875	2.53207	0.672101	5.4036	0.90172	7.29372	1.29233	10.1829	1.50814	10.8973	1.7487	12.5413	2.16607	15.3742	0.457603	3.66163	0.673314	5.37638	1.00165	8.07473	1.14585	9.14236	1.52495	10.9364	1.90458	13.6116	1.99569	14.2398
1.8815	2.53351	1.88128	2.53357	0.676867	5.31825	0.904158	7.14624	1.29249	10.0436	1.51001	10.8012	1.7496	12.2928	2.16625	15.0662	0.463643	3.62604	0.676083	5.27662	1.00366	7.90653	1.14941	8.96387	1.52524	10.8293	1.90576	13.3442	1.99824	13.9697
1.87531	2.53504	1.87509	2.5351	0.681567	5.23617	0.906712	7.00625	1.2927	9.88021	1.5114	10.7318	1.75054	12.0544	2.16645	14.7704	0.469592	3.59133	0.679031	5.18263	1.00564	7.74563	1.15306	8.79401	1.52546	10.752	1.90693	13.0873	2.00088	13.7109
1.86912	2.5366	1.8689	2.53665	0.686198	5.15715	0.909382	6.87327	1.29297	9.6955	1.51229	10.688	1.75152	11.8256	2.16666	14.4862	0.475447	3.55741	0.68216	5.09405	1.00759	7.59156	1.15682	8.63221	1.5256	10.7032	1.90807	12.8402	2.00359	13.4626
1.86294	2.53817	1.86272	2.53823	0.690759	5.08097	0.912171	6.74684	1.29332	9.4922	1.51357	10.6256	1.75254	11.6058	2.16688	14.2128	0.481205	3.52422	0.685471	5.01056	1.00952	7.4439	1.16066	8.47792	1.52581	10.6337	1.9092	12.6025	2.00639	13.2244
1.85671	2.53969	1.85648	2.53974	0.695248	5.00745	0.915079	6.62658	1.2937	9.29761	1.51496	10.5588	1.75346	11.4213	2.16711	13.9497	0.486866	3.49172	0.688967	4.93184	1.01144	7.30226	1.1646	8.33066	1.52604	10.5593	1.91031	12.3736	2.00925	12.9955
1.8498	2.54029	1.84953	2.54028	0.699664	4.93642	0.918107	6.51211	1.29411	9.11121	1.51686	10.4696	1.75427	11.2688	2.16736	13.6962	0.492429	3.45984	0.692647	4.8576	1.01333	7.16629	1.16862	8.18998	1.52635	10.4598	1.9114	12.153	2.01219	12.7755
1.84213	2.53984	1.84185	2.53983	0.704007	4.86772	0.921256	6.40308	1.29457	8.93252	1.51927	10.3591	1.75496	11.1461	2.16762	13.452	0.497894	3.42856	0.696511	4.78758	1.01521	7.03567	1.17272	8.05545	1.52677	10.3367	1.91248	11.9402	2.01521	12.5639
1.83438	2.53929	1.8341	2.53927	0.708276	4.80122	0.924526	6.29917	1.29507	8.76109	1.52219	10.2292	1.75552	11.051	2.1679	13.2165	0.50326	3.39783	0.700558	4.72153	1.01708	6.91009	1.17691	7.92671	1.52728	10.192	1.91354	11.735	2.0183	12.3603
1.82662	2.53871	1.82634	2.53869	0.712471	4.73678	0.927916	6.20008	1.2956	8.59649	1.52563	10.0815	1.75593	10.9822	2.16819	12.9892	0.508531	3.36765	0.704786	4.65919	1.01894	6.78929	1.18117	7.80338	1.5279	10.0274	1.91446	11.5618	2.02145	12.1641
1.81885	2.53812	1.81858	2.5381	0.716594	4.67431	0.931426	6.10553	1.29618	8.43837	1.52959	9.91814	1.7562	10.9386	2.16849	12.7698	0.513708	3.338	0.709191	4.60035	1.02079	6.67301	1.1855	7.68514	1.52865	9.84545	1.91523	11.4183	2.02467	11.9751
1.81109	2.53753	1.81081	2.53751	0.720645	4.61368	0.935054	6.01526	1.29679	8.28635	1.53356	9.76084	1.75659	10.8767	2.16881	12.5577	0.518793	3.30885	0.713771	4.54478	1.02263	6.56102	1.1899	7.57169	1.52943	9.67032	1.91586	11.3024	2.02796	11.7928
1.80332	2.53693	1.80305	2.53691	0.724625	4.55482	0.938799	5.92903	1.29745	8.14012	1.53755	9.6093	1.75703	10.8102	2.16915	12.3528	0.52379	3.28021	0.718521	4.49229	1.02448	6.4531	1.19437	7.46275	1.53024	9.5017	1.91635	11.2124	2.03088	11.6392
1.79556	2.53633	1.79528	2.53631	0.728536	4.49763	0.942658	5.8466	1.29816	7.99936	1.54154	9.46319	1.75762	10.7212	2.1695	12.1546	0.528704	3.25207	0.723436	4.44268	1.02632	6.34906	1.19889	7.35804	1.53109	9.33926	1.91672	11.1471	2.03341	11.5119
1.7878	2.53572	1.78752	2.5357	0.73238	4.44204	0.946629	5.76775	1.29891	7.86381	1.54554	9.32222	1.75839	10.6109	2.16986	11.9628	0.533538	3.22444	0.728511	4.39576	1.02818	6.24871	1.20347	7.25732	1.53198	9.18266	1.91695	11.1058	2.03552	11.4091
1.78004	2.53512	1.77976	2.53509	0.73616	4.38798	0.95071	5.6923	1.2997	7.73319	1.54955	9.18611	1.75935	10.4808	2.17019	11.8006	0.538298	3.19731	0.733738	4.35136	1.03004	6.15187	1.20811	7.16038	1.53291	9.03163	1.91728	11.0469	2.03721	11.3293
1.77228	2.5345	1.772	2.53448	0.739876	4.33539	0.954896	5.62004	1.30054	7.60726	1.55355	9.0546	1.76051	10.3326	2.17049	11.6659	0.542989	3.1707	0.739113	4.30931	1.03191	6.05839	1.21279	7.06699	1.53388	8.88589	1.91764	10.9836	2.03846	11.2715
1.76452	2.53389	1.76424	2.53387	0.743534	4.28421	0.959186	5.55079	1.30142	7.48579	1.55756	8.92743	1.76189	10.1681	2.17073	11.5569	0.547617	3.14461	0.744627	4.26946	1.0338	5.96812	1.21752	6.97696	1.53488	8.74518	1.91813	10.8987	2.03926	11.2349
1.75676	2.53328	1.75649	2.53325	0.747135	4.23439	0.963575	5.48439	1.30236	7.36857	1.56156	8.8044	1.76333	10.0093	2.17094	11.4721	0.552187	3.11905	0.750273	4.23165	1.0357	5.88091	1.22229	6.8901	1.53593	8.60928	1.91874	10.7932	2.04042	11.1827
1.74901	2.53266	1.74873	2.53264	0.750683	4.18587	0.968059	5.42067	1.30334	7.2554	1.56555	8.68528	1.76482	9.85593	2.17109	11.4106	0.556706	3.09402	0.756043	4.19575	1.03763	5.79664	1.2271	6.80624	1.53702	8.47794	1.91948	10.6684	2.04169	11.1267
1.74126	2.53204	1.74098	2.53202	0.754181	4.13863	0.972634	5.35948	1.30438	7.1461	1.56954	8.56988	1.76637	9.70778	2.17118	11.3716	0.561179	3.06954	0.761931	4.16162	1.03958	5.71519	1.23195	6.72522	1.53816	8.35098	1.92034	10.5257	2.04343	11.0516
1.73351	2.53142	1.73323	2.5314	0.757633	4.09261	0.977296	5.30068	1.30546	7.04048	1.57352	8.45801	1.76799	9.56459	2.17133	11.316	0.565613	3.04561	0.767927	4.12914	1.04156	5.63644	1.23683	6.64689	1.53934	8.22818	1.92133	10.3667	2.04564	10.9582
1.72576	2.53079	1.72548	2.53077	0.761043	4.04778	0.982039	5.24414	1.3066	6.9384	1.57748	8.34949	1.76966	9.42615	2.17148	11.2563	0.570014	3.02223	0.774024	4.09818	1.04357	5.56028	1.24173	6.5711	1.54057	8.10938	1.9223	10.2126	2.04835	10.8479
1.71802	2.53017	1.71774	2.53015	0.764414	4.00411	0.98686	5.18972	1.3078	6.83968	1.58142	8.24415	1.7714	9.29225	2.1717	11.176	0.574387	2.99942	0.780214	4.06865	1.04561	5.48662	1.24666	6.49773	1.54185	7.99438	1.92327	10.0632	2.05156	10.7218
1.71027	2.52954	1.71	2.52952	0.767749	3.96156	0.991753	5.13731	1.30905	6.74419	1.58535	8.14185	1.7732	9.16269	2.17198	11.0761	0.578738	2.97717	0.786489	4.04043	1.04769	5.41536	1.25161	6.42665	1.54318	7.88305	1.92424	9.91813	2.0553	10.5813
1.70253	2.52892	1.70226	2.52889	0.771054	3.92011	0.996714	5.08679	1.31035	6.6518	1.58925	8.04244	1.77508	9.0373	2.17232	10.9578	0.583073	2.9555	0.79284	4.01342	1.04982	5.3464	1.25658	6.35775	1.54456	7.77521	1.92521	9.77735	2.05908	10.4453
1.6948	2.52829	1.69452	2.52826	0.77433	3.87971	1.00174	5.03806	1.31172	6.56237	1.59314	7.94578	1.77702	8.9159	2.17274	10.8224	0.587397	2.93439	0.799261	3.98754	1.05199	5.27967	1.26157	6.2909	1.54599	7.67073	1.92618	9.64065	2.06292	10.3134
1.68706	2.52766	1.68679	2.52763	0.777584	3.84035	1.00682	4.99102	1.31314	6.47579	1.59699	7.85174	1.77904	8.79833	2.17324	10.6711	0.591715	2.91386	0.805743	3.96269	1.0542	5.21509	1.26656	6.22602	1.54748	7.56948	1.92715	9.50785	2.06679	10.1855
1.67933	2.52703	1.67906	2.527	0.780816	3.80201	1.01195	4.94555	1.31463	6.39194	1.60082	7.76019	1.78113	8.68444	2.17375	10.5241	0.596032	2.8939	0.812279	3.9388	1.05647	5.15259	1.27157	6.163	1.54902	7.47132	1.92812	9.37879	2.07072	10.0614
1.67161	2.52639	1.67133	2.52637	0.784033	3.76465	1.01714	4.90159	1.31618	6.31071	1.60461	7.67104	1.7833	8.57408	2.17429	10.3814	0.600353	2.87451	0.818861	3.9158	1.0588	5.09209	1.27658	6.10175	1.55062	7.37614	1.92909	9.25333	2.07468	9.94096
1.66388	2.52576	1.66361	2.52574	0.787236	3.72825	1.02236	4.85904	1.31779	6.23201	1.60838	7.58416	1.78554	8.46712	2.17484	10.2425	0.604682	2.85569	0.825482	3.8936	1.06118	5.03353	1.2816	6.04218	1.55228	7.28381	1.93007	9.13132	2.07869	9.824
1.65616	2.52513	1.65589	2.52511	0.79043	3.69279	1.02762	4.81783	1.31947	6.15574	1.61211	7.49945	1.78786	8.36342	2.17542	10.1076	0.609023	2.83743	0.832134	3.87215	1.06363	4.97685	1.28661	5.98421	1.554	7.19425	1.93105	9.01263	2.08274	9.71039
1.64845	2.5245	1.64817	2.52448	0.793617	3.65825	1.03292	4.77787	1.32121	6.08182	1.6158	7.41683	1.79027	8.26287	2.17601	9.97624	0.61338	2.81973	0.83881	3.85138	1.06614	4.922	1.29162	5.92777	1.55579	7.10733	1.93203	8.89712	2.08682	9.59997
1.64073	2.52387	1.64046	2.52384	0.796802	3.6246	1.03825	4.73909	1.32303	6.01014	1.61945	7.33619	1.79275	8.16534	2.17662	9.84846	0.617756	2.80258	0.845503	3.83123	1.06872	4.86891	1.29663	5.87278	1.55763	7.02297	1.93303	8.78468	2.09094	9.49261
1.63302	2.52324	1.63275	2.52321	0.799986	3.59182	1.04359	4.70143	1.32491	5.94065	1.62306	7.25746	1.79532	8.07072	2.17726	9.72406	0.622156	2.78598	0.852206	3.81165	1.07138	4.81754	1.30162	5.81918	1.55955	6.94107	1.93403	8.6752	2.0951	9.3882
1.62532	2.5226	1.62504	2.52258	0.803174	3.5599	1.04896	4.66482	1.32687	5.87325	1.62664	7.18056	1.79798	7.9789	2.17791	9.60294	0.626582	2.76993	0.858913	3.79258	1.07412	4.76783	1.30661	5.76689	1.56153	6.86155	1.93504	8.56855	2.09929	9.28659
1.61762	2.52197	1.61734	2.52195	0.806368	3.52882	1.05434	4.6292	1.3289	5.80788	1.63016	7.10541	1.80072	7.88978	2.17859	9.48495	0.631037	2.7544	0.865615	3.77397	1.07694	4.71975	1.31158	5.71586	1.56357	6.78432	1.93605	8.46464	2.1035	9.1877
1.60992	2.52135	1.60965	2.52132	0.80957	3.49855	1.05973	4.59452	1.33101	5.74447	1.63365	7.03194	1.80354	7.80327	2.17929	9.37	0.635525	2.7394	0.872307	3.75578	1.07984	4.67324	1.31653	5.66603	1.56569	6.70931	1.93708	8.36338	2.10775	9.0914
1.60223	2.52072	1.60196	2.5207	0.812784	3.46907	1.06513	4.56073	1.33319	5.68295	1.63709	6.96009	1.80645	7.71926	2.18001	9.25796	0.640048	2.72493	0.878982	3.73797	1.08284	4.62828	1.32147	5.61735	1.56788	6.63644	1.93812	8.26466	2.11203	8.99759
1.59455	2.5201	1.59427	2.52007	0.816011	3.44038	1.07053	4.52776	1.33545	5.62326	1.64048	6.8898	1.80945	7.63768	2.18075	9.14874	0.644608	2.71096	0.885633	3.72049	1.08593	4.58482	1.32638	5.56975	1.57015	6.56563	1.93918	8.16839	2.11633	8.90617
1.58686	2.51947	1.58659	2.51945	0.819255	3.41244	1.07592	4.49557	1.3378	5.56535	1.64383	6.821	1.81254	7.55842	2.18152	9.04223	0.64921	2.6975	0.892254	3.70331	1.08913	4.54282	1.33127	5.5232	1.57248	6.49683	1.94024	8.0745	2.12066	8.81706
1.57919	2.51885	1.57892	2.51883	0.822518	3.38524	1.08131	4.46413	1.34022	5.50915	1.64713	6.75364	1.81571	7.48141	2.18231	8.93834	0.653855	2.68453	0.898839	3.68638	1.09242	4.50225	1.33614	5.47764	1.5749	6.42996	1.94132	7.9829	2.12501	8.73016
1.57152	2.51824	1.57124	2.51822	0.825801	3.35877	1.08668	4.43337	1.34273	5.45461	1.65039	6.68768	1.81897	7.40656	2.18312	8.83699	0.658546	2.67206	0.905381	3.66968	1.09583	4.46308	1.34097	5.43304	1.57739	6.36497	1.94241	7.89351	2.12938	8.64539
1.56385	2.51762	1.56358	2.5176	0.829107	3.33301	1.09204	4.40328	1.34533	5.40168	1.6536	6.62306	1.82231	7.3338	2.18396	8.73808	0.663285	2.66007	0.911874	3.65317	1.09934	4.42527	1.34578	5.38935	1.57996	6.30179	1.94352	7.80625	2.13378	8.56267
1.5562	2.51702	1.55592	2.51699	0.832438	3.30793	1.09738	4.3738	1.34801	5.35032	1.65677	6.55975	1.82574	7.26305	2.18483	8.64153	0.668077	2.64856	0.918313	3.63682	1.10298	4.3888	1.35055	5.34653	1.58261	6.24036	1.94465	7.72107	2.13819	8.48192
1.54854	2.51641	1.54827	2.51639	0.835796	3.28354	1.1027	4.3449	1.35078	5.30046	1.65989	6.4977	1.82925	7.19424	2.18572	8.54726	0.672923	2.63753	0.924692	3.62061	1.10673	4.35363	1.35529	5.30454	1.58534	6.18064	1.94579	7.63789	2.14261	8.40306
1.5409	2.51581	1.54062	2.51579	0.839182	3.2598	1.10799	4.31656	1.35364	5.25208	1.66297	6.43687	1.83285	7.1273	2.18663	8.4552	0.677828	2.62697	0.931006	3.60451	1.11061	4.31974	1.35999	5.26336	1.58815	6.12256	1.94695	7.55664	2.14706	8.32604
1.53326	2.51522	1.53299	2.5152	0.842599	3.2367	1.11325	4.28873	1.35659	5.20512	1.66601	6.37723	1.83652	7.06216	2.18757	8.36529	0.682795	2.61689	0.93725	3.5885	1.11462	4.28709	1.36465	5.22295	1.59105	6.06608	1.94813	7.47727	2.15151	8.25077
1.52563	2.51463	1.52535	2.51461	0.846048	3.21424	1.11848	4.26139	1.35964	5.15953	1.669	6.31874	1.84028	6.99875	2.18854	8.27744	0.687828	2.60728	0.943418	3.57255	1.11876	4.25566	1.36928	5.18327	1.59402	6.01114	1.94932	7.39972	2.15598	8.17721
1.518	2.51405	1.51773	2.51403	0.849529	3.19238	1.12367	4.23451	1.36277	5.11529	1.67196	6.26138	1.84411	6.93701	2.18954	8.1916	0.692933	2.59814	0.949508	3.55665	1.12303	4.22542	1.37387	5.14431	1.59709	5.9577	1.95054	7.32392	2.16046	8.10527
1.51039	2.51348	1.51011	2.51346	0.853047	3.17113	1.12883	4.20807	1.36601	5.07235	1.67488	6.2051	1.84802	6.87688	2.19057	8.1077	0.698115	2.58949	0.955516	3.54079	1.12744	4.19634	1.37841	5.10603	1.60023	5.90571	1.95178	7.24984	2.16495	8.03492
1.50278	2.51291	1.50251	2.51289	0.8566	3.15047	1.13394	4.18204	1.36933	5.03067	1.67777	6.14989	1.85199	6.8183	2.19162	8.02568	0.70338	2.58132	0.961437	3.52495	1.13198	4.16838	1.38292	5.06841	1.60346	5.85513	1.95304	7.1774	2.16944	7.96608
1.49518	2.51235	1.49491	2.51233	0.860191	3.13037	1.13901	4.1564	1.37275	4.99022	1.68062	6.09573	1.85604	6.76121	2.19271	7.94549	0.708738	2.57366	0.96727	3.50913	1.13667	4.14153	1.38738	5.03142	1.60677	5.8059	1.95432	7.10658	2.17394	7.89871
1.48759	2.51181	1.48732	2.51179	0.863822	3.11084	1.14404	4.13114	1.37627	4.95095	1.68345	6.04257	1.86016	6.70555	2.19382	7.86708	0.714195	2.56652	0.973013	3.4933	1.1415	4.11574	1.3918	4.99506	1.61017	5.758	1.95563	7.03731	2.17844	7.83275
1.48	2.51127	1.47973	2.51125	0.867493	3.09185	1.14902	4.10622	1.37989	4.91283	1.68624	5.99041	1.86434	6.65128	2.19497	7.79038	0.719762	2.55992	0.978664	3.47748	1.14646	4.09099	1.39618	4.95928	1.61365	5.71137	1.95696	6.96956	2.18295	7.76816
1.47243	2.51074	1.47216	2.51073	0.871206	3.0734	1.15395	4.08165	1.3836	4.87583	1.68901	5.93921	1.86859	6.59834	2.19614	7.71535	0.72545	2.55388	0.984223	3.46165	1.15157	4.06724	1.40051	4.92409	1.61722	5.66598	1.95832	6.90327	2.18745	7.70488
1.46487	2.51023	1.4646	2.51021	0.874963	3.05548	1.15882	4.05739	1.3874	4.83991	1.69175	5.88897	1.8729	6.54667	2.19735	7.64195	0.73127	2.54842	0.989689	3.44582	1.15682	4.04446	1.4048	4.88946	1.62086	5.62178	1.9597	6.83841	2.19196	7.64287
1.45732	2.50973	1.45705	2.50971	0.878763	3.03806	1.16365	4.03344	1.3913	4.80503	1.69448	5.83965	1.87726	6.49624	2.1986	7.57012	0.737234	2.54356	0.995064	3.42999	1.16221	4.02262	1.40905	4.85538	1.62459	5.57874	1.96111	6.77495	2.19645	7.58209
1.44978	2.50924	1.44951	2.50923	0.882609	3.02115	1.16843	4.00979	1.3953	4.77117	1.69718	5.79125	1.88167	6.44699	2.19987	7.49983	0.74335	2.53932	1.00035	3.41417	1.16773	4.00168	1.41327	4.82183	1.6284	5.53682	1.96254	6.71283	2.20095	7.52249
1.44225	2.50877	1.44198	2.50876	0.886503	3.00473	1.17315	3.98642	1.39939	4.73829	1.69987	5.74373	1.88614	6.39889	2.20119	7.43102	0.749626	2.5357	1.00554	3.39835	1.17339	3.9816	1.41744	4.7888	1.63228	5.49598	1.96401	6.65202		
1.43473	2.50832	1.43447	2.5083	0.890444	2.98878	1.17781	3.96333	1.40357	4.70636	1.70255	5.6971	1.89066	6.35188			0.756065	2.5327	1.01065	3.38254	1.17918	3.96234	1.42157	4.75628	1.63624	5.45618	1.9655	6.5925		
1.42723	2.50788	1.42696	2.50787	0.894435	2.97331	1.18243	3.9405	1.40785	4.67534	1.70521	5.65132	1.89522	6.30592			0.762665	2.5303	1.01567	3.36676	1.18509	3.94388	1.42566	4.72426	1.64028	5.4174	1.96702	6.53421		
1.41974	2.50746	1.41947	2.50745	0.898477	2.9583	1.18699	3.91793	1.41221	4.64521	1.70787	5.60638	1.89982	6.26099			0.769421	2.52845	1.02062	3.35102	1.19113	3.92617	1.42973	4.69274	1.64439	5.37959	1.96858	6.47714		
1.41226	2.50707	1.412	2.50705	0.902571	2.94375	1.19149	3.89561	1.41666	4.61593	1.71052	5.56228	1.90447	6.21703			0.776321	2.5271	1.02548	3.33532	1.19728	3.90917	1.43375	4.6617	1.64858	5.34272	1.97016	6.42125		
1.4048	2.50669	1.40453	2.50668	0.906718	2.92964	1.19595	3.87354	1.42119	4.58748	1.71317	5.51898	1.90915	6.17401			0.783351	2.5262	1.03027	3.31967	1.20354	3.89286	1.43775	4.63114	1.65283	5.30676	1.97178	6.36651		
1.39735	2.50634	1.39709	2.50632	0.910921	2.91597	1.20035	3.85171	1.42581	4.55981	1.71582	5.47649	1.91386	6.13189			0.790498	2.52569	1.03499	3.30409	1.20991	3.87718	1.44172	4.60105	1.65715	5.27167	1.97344	6.31289		
1.38992	2.50601	1.38966	2.506	0.915181	2.90273	1.2047	3.83011	1.43051	4.53291	1.71848	5.43478	1.91861	6.09065			0.797745	2.52551	1.03965	3.28859	1.21638	3.86212	1.44566	4.57143	1.66154	5.23742	1.97512	6.26036		
1.3825	2.5057	1.38224	2.50569	0.9195	2.88991	1.209	3.80876	1.43529	4.50674	1.72113	5.39384	1.92338	6.05025			0.805079	2.52559	1.04425	3.27318	1.22294	3.84762	1.44957	4.54227	1.66598	5.20399	1.97685	6.2089		
1.37511	2.50543	1.37484	2.50542	0.923879	2.87751	1.21325	3.78763	1.44014	4.48127	1.7238	5.35367	1.92818	6.01065			0.812485	2.52591	1.04879	3.25788	1.22959	3.83366	1.45347	4.51357	1.67049	5.17134	1.97861	6.15848		
1.36773	2.50519	1.36746	2.50518	0.92832	2.86553	1.21745	3.76674	1.44506	4.45648	1.72648	5.31424	1.933	5.97183			0.819954	2.52641	1.05328	3.24268	1.23632	3.8202	1.45735	4.48533	1.67505	5.13944	1.9804	6.10908		
1.36036	2.50497	1.3601	2.50497	0.932826	2.85396	1.22161	3.74608	1.45006	4.43234	1.72917	5.27555	1.93784	5.93376			0.827475	2.52706	1.05772	3.22761	1.24313	3.8072	1.46122	4.45755	1.67966	5.10827	1.98224	6.06066		
1.35302	2.50479	1.35276	2.50479	0.9374	2.84279	1.22572	3.72565	1.45511	4.40881	1.73187	5.23759	1.94269	5.89641			0.835039	2.52783	1.06211	3.21268	1.25001	3.79465	1.46507	4.43022	1.68433	5.07779	1.98412	6.01322		
1.3457	2.50465	1.34544	2.50465	0.942042	2.83203	1.22979	3.70544	1.46023	4.38588	1.7346	5.20033	1.94756	5.85975			0.84264	2.5287	1.06647	3.19788	1.25695	3.7825	1.46892	4.40334	1.68904	5.04798	1.98603	5.96672		
1.3384	2.50455	1.33814	2.50454	0.946757	2.82167	1.23382	3.68547	1.46541	4.36352	1.73734	5.16378	1.95245	5.82375			0.850271	2.52964	1.0708	3.18324	1.26394	3.77073	1.47276	4.37692	1.6938	5.01882	1.98799	5.92115		
1.33112	2.50448	1.33086	2.50448	0.951548	2.81171	1.23781	3.66572	1.47064	4.3417	1.74011	5.12792	1.95734	5.7884			0.857929	2.53065	1.07509	3.16875	1.27099	3.75931	1.47661	4.35094	1.6986	4.99027	1.98999	5.87649		
1.32387	2.50446	1.32361	2.50446	0.956417	2.80215	1.24177	3.6462	1.47591	4.32039	1.7429	5.09275	1.96223	5.75367			0.865609	2.5317	1.07936	3.15443	1.27807	3.7482	1.48046	4.32542	1.70344	4.96231	1.99204	5.83271		
1.31664	2.50449	1.31638	2.50449	0.961368	2.79298	1.24569	3.62691	1.48124	4.29958	1.74572	5.05824	1.96714	5.71953			0.873307	2.53279	1.0836	3.14029	1.2852	3.73739	1.48432	4.30036	1.70831	4.93492	1.99413	5.7898		
1.30943	2.50456	1.30917	2.50456	0.966404	2.78422	1.24958	3.60786	1.48661	4.27923	1.74858	5.0244	1.97204	5.68597			0.881021	2.53391	1.08782	3.12632	1.29235	3.72684	1.48819	4.27575	1.71321	4.90807	1.99627	5.74773		
1.30225	2.50468	1.30199	2.50469	0.971529	2.77585	1.25344	3.58903	1.49202	4.25933	1.75146	4.99121	1.97694	5.65295			0.888749	2.53504	1.09203	3.11254	1.29953	3.71654	1.49209	4.2516	1.71815	4.88175	1.99845	5.7065		
1.29509	2.50486	1.29484	2.50486	0.976747	2.76789	1.25727	3.57043	1.49746	4.23986	1.75438	4.95866	1.98184	5.62047			0.896488	2.53619	1.09622	3.09895	1.30672	3.70645	1.496	4.22791	1.7231	4.85593	2.00068	5.66608		
1.28797	2.50509	1.28772	2.5051	0.982062	2.76032	1.26108	3.55206	1.50293	4.22078	1.75734	4.92675	1.98673	5.5885			0.904236	2.53735	1.10041	3.08555	1.31392	3.69655	1.49994	4.20468	1.72808	4.83059	2.00297	5.62645		
1.28087	2.50538	1.28062	2.50539	0.987478	2.75316	1.26486	3.53393	1.50843	4.20209	1.76034	4.89546	1.99161	5.55703			0.911993	2.53851	1.10459	3.07234	1.32113	3.68683	1.50392	4.18191	1.73308	4.80571	2.0053	5.5876		
1.2738	2.50573	1.27355	2.50575	0.992997	2.7464	1.26863	3.51603	1.51395	4.18376	1.76339	4.8648	1.99649	5.52602			0.919757	2.53968	1.10876	3.05933	1.32834	3.67725	1.50793	4.15962	1.7381	4.78127	2.00769	5.54952		
1.26677	2.50615	1.26652	2.50616	0.998622	2.74004	1.27237	3.49836	1.51949	4.16576	1.76648	4.83474	2.00135	5.49548			0.927526	2.54084	1.11293	3.04653	1.33553	3.6678	1.51199	4.1378	1.74313	4.75725	2.01013	5.51219		
1.25976	2.50663	1.25951	2.50665	1.00436	2.73407	1.2761	3.48092	1.52504	4.14809	1.76961	4.80528	2.00619	5.46538			0.935301	2.54199	1.1171	3.03392	1.34271	3.65846	1.5161	4.11645	1.74817	4.73363	2.01262	5.4756		
1.25279	2.50719	1.25254	2.50721	1.0102	2.7285	1.27981	3.46371	1.5306	4.13072	1.7728	4.77642	2.01102	5.4357			0.943079	2.54314	1.12127	3.02152	1.34987	3.6492	1.52026	4.09559	1.75321	4.7104	2.01517	5.43973		
1.24585	2.50781	1.2456	2.50784	1.01616	2.72331	1.2835	3.44674	1.53617	4.11363	1.77604	4.74815	2.01583	5.40644			0.950861	2.54428	1.12545	3.00933	1.357	3.64001	1.52448	4.07521	1.75826	4.68755	2.01777	5.40456		
1.23894	2.50852	1.23869	2.50854	1.02222	2.71849	1.28719	3.42999	1.54174	4.09682	1.77933	4.72045	2.02062	5.37757			0.958646	2.54541	1.12964	2.99734	1.36409	3.63086	1.52877	4.05532	1.76331	4.66504	2.02044	5.37009		
1.23207	2.5093	1.23182	2.50933	1.0284	2.71404	1.29087	3.41348	1.54731	4.08025	1.78269	4.69333	2.02539	5.34908			0.966433	2.54653	1.13383	2.98555	1.37114	3.62174	1.53313	4.03593	1.76837	4.64287	2.02316	5.3363		
1.22523	2.51016	1.22499	2.5102	1.03468	2.70993	1.29454	3.3972	1.55287	4.06393	1.7861	4.66676	2.03014	5.32097			0.974222	2.54764	1.13804	2.97397	1.37814	3.61263	1.53758	4.01703	1.77341	4.62103	2.02594	5.30318		
1.21843	2.51111	1.21819	2.51115	1.04106	2.70615	1.2982	3.38115	1.55842	4.04782	1.78957	4.64076	2.03486	5.29321			0.982012	2.54873	1.14225	2.96259	1.38508	3.60351	1.5421	3.99864	1.77845	4.5995	2.02878	5.27071		
1.21167	2.51215	1.21143	2.51219	1.04754	2.70267	1.30186	3.36533	1.56396	4.03192	1.7931	4.61531	2.03955	5.26579			0.989804	2.54981	1.14648	2.95142	1.39196	3.59436	1.54672	3.98076	1.78349	4.57827	2.03169	5.23889		
1.20494	2.51327	1.2047	2.51332	1.05412	2.69949	1.30552	3.34973	1.56949	4.01621	1.7967	4.5904	2.04421	5.23871			0.997595	2.55087	1.15072	2.94045	1.39878	3.58518	1.55143	3.96339	1.78851	4.55732	2.03465	5.2077		
1.19825	2.51449	1.19802	2.51454	1.06078	2.69657	1.30917	3.33436	1.57499	4.00069	1.80037	4.56603	2.04884	5.21195			1.00539	2.55192	1.15498	2.92968	1.40551	3.57593	1.55625	3.94653	1.79351	4.53664	2.03768	5.17713		
1.1916	2.5158	1.19136	2.51585	1.06752	2.6939	1.31283	3.31922	1.58047	3.98533	1.8041	4.54218	2.05345	5.18551			1.01318	2.55296	1.15926	2.91911	1.41217	3.56662	1.56117	3.93019	1.7985	4.51622	2.04078	5.14717		
1.18499	2.51721	1.18475	2.51727	1.07433	2.69145	1.31648	3.3043	1.58593	3.97013	1.80791	4.51886	2.05802	5.15937			1.02097	2.55398	1.16356	2.90874	1.41873	3.55722	1.56621	3.91436	1.80348	4.49605	2.04394	5.11781		
1.17841	2.51872	1.17818	2.51878	1.08122	2.68921	1.32014	3.28961	1.59135	3.95507	1.81179	4.49605	2.06256	5.13352			1.02876	2.55498	1.16787	2.89857	1.42521	3.54772	1.57137	3.89906	1.80843	4.47613	2.04717	5.08903		
1.17187	2.52033	1.17164	2.52039	1.08816	2.68716	1.32381	3.27514	1.59675	3.94015	1.81574	4.47374	2.06706	5.10796			1.03655	2.55597	1.17221	2.88859	1.43159	3.53812	1.57664	3.88427	1.81337	4.45643	2.05046	5.06083		
1.16537	2.52204	1.16514	2.5221	1.09517	2.68527	1.32748	3.26088	1.6021	3.92535	1.81977	4.45194	2.07154	5.08268			1.04434	2.55694	1.17656	2.87881	1.43786	3.52841	1.58204	3.87	1.81828	4.43696	2.05382	5.03319		
1.15891	2.52385	1.15868	2.52392	1.10222	2.68353	1.33116	3.24685	1.60742	3.91067	1.82387	4.43062	2.07597	5.05768			1.05213	2.55789	1.18094	2.86921	1.44403	3.51858	1.58757	3.85624	1.82316	4.4177	2.05725	5.00611		
1.15249	2.52577	1.15226	2.52584	1.10932	2.68193	1.33484	3.23303	1.6127	3.8961	1.82805	4.40979	2.08038	5.03294			1.05991	2.55882	1.18534	2.85981	1.4501	3.50862	1.59323	3.84298	1.82802	4.39865	2.06075	4.97957		
1.1461	2.52779	1.14587	2.52786	1.11646	2.68045	1.33854	3.21943	1.61794	3.88163	1.83231	4.38944	2.08475	5.00846			1.0677	2.55974	1.18977	2.85059	1.45605	3.49854	1.59902	3.83023	1.83285	4.37979	2.06432	4.95357		
1.13974	2.52992	1.13952	2.52999	1.12364	2.67909	1.34224	3.20603	1.62314	3.86725	1.83665	4.36955	2.08908	4.98424			1.07548	2.56064	1.19422	2.84156	1.46189	3.48834	1.60494	3.81796	1.83766	4.36113	2.06795	4.92808		
1.13342	2.53215	1.1332	2.53223	1.13086	2.67782	1.34596	3.19285	1.62828	3.85296	1.84106	4.35012	2.09338	4.96026			1.08326	2.56153	1.19869	2.83271	1.46762	3.478	1.61099	3.80617	1.84244	4.34266	2.07165	4.90311		
1.12714	2.53448	1.12692	2.53457	1.1381	2.67664	1.34969	3.17988	1.63338	3.83876	1.84556	4.33114	2.09764	4.93654			1.09104	2.56239	1.20319	2.82404	1.47324	3.46755	1.61718	3.79484	1.84718	4.32436	2.07542	4.87863		
1.12089	2.53692	1.12066	2.53701	1.14537	2.67554	1.35343	3.16711	1.63843	3.82463	1.85013	4.3126	2.10188	4.91305			1.09882	2.56324	1.20772	2.81556	1.47875	3.45698	1.62349	3.78396	1.8519	4.30625	2.07926	4.85464		
1.11466	2.53947	1.11444	2.53956	1.15267	2.67451	1.35719	3.15455	1.64343	3.81057	1.85478	4.29449	2.10608	4.88981			1.10659	2.56407	1.21227	2.80724	1.48415	3.4463	1.62992	3.77352	1.85659	4.2883	2.08317	4.83114		
1.10847	2.54211	1.10825	2.54221	1.15999	2.67355	1.36096	3.14219	1.64838	3.79658	1.85951	4.2768	2.11024	4.8668			1.11436	2.56489	1.21686	2.79911	1.48944	3.43551	1.63648	3.7635	1.86124	4.27053	2.08714	4.8081		
1.10231	2.54486	1.10209	2.54496	1.16732	2.67265	1.36474	3.13003	1.65328	3.78266	1.86432	4.25952	2.11438	4.84403			1.12212	2.56568	1.22147	2.79114	1.49463	3.42464	1.64315	3.75388	1.86587	4.25292	2.09118	4.78551		
1.09617	2.5477	1.09595	2.5478	1.17468	2.67179	1.36855	3.11806	1.65813	3.76881	1.8692	4.24264	2.11849	4.82149			1.12989	2.56646	1.22611	2.78335	1.49972	3.41368	1.64994	3.74464	1.87047	4.23548	2.09528	4.76338		
1.09005	2.55063	1.08984	2.55074	1.18205	2.67099	1.37237	3.1063	1.66292	3.75502	1.87416	4.22615	2.12256	4.79917			1.13765	2.56721	1.23077	2.77572	1.50472	3.40265	1.65684	3.73577	1.87504	4.21819	2.09945	4.74167		
1.08396	2.55365	1.08374	2.55376	1.18944	2.67023	1.3762	3.09472	1.66766	3.74129	1.8792	4.21003	2.12662	4.77709			1.1454	2.56795	1.23547	2.76826	1.50962	3.39156	1.66384	3.72724	1.87958	4.20107	2.10368	4.72039		
1.07788	2.55675	1.07766	2.55687	1.19684	2.66951	1.38006	3.08334	1.67235	3.72762	1.8843	4.19429	2.13064	4.75524			1.15315	2.56867	1.2402	2.76096	1.51444	3.38042	1.67093	3.71904	1.88409	4.18411	2.10798	4.69953		
1.07182	2.55994	1.0716	2.56005	1.20425	2.66882	1.38393	3.07214	1.67699	3.71401	1.88947	4.1789	2.13464	4.73361			1.1609	2.56937	1.24496	2.75382	1.51918	3.36924	1.67812	3.71114	1.88858	4.1673	2.11233	4.67906		
1.06577	2.56319	1.06555	2.56331	1.21167	2.66817	1.38783	3.06113	1.68157	3.70046	1.89472	4.16386	2.13862	4.71221			1.16864	2.57005	1.24975	2.74685	1.52385	3.35804	1.68539	3.70353	1.89304	4.15066	2.11674	4.65899		
1.05972	2.56651	1.05951	2.56662	1.21911	2.66754	1.39174	3.0503	1.68611	3.68697	1.90003	4.14915	2.14259	4.69104			1.17637	2.57071	1.25458	2.74003	1.52844	3.34683	1.69274	3.69619	1.89748	4.13417	2.12122	4.6393		
1.05368	2.56987	1.05346	2.56999	1.22655	2.66694	1.39568	3.03966	1.69059	3.67354	1.9054	4.13477	2.14653	4.6701			1.1841	2.57134	1.25944	2.73337	1.53296	3.33561	1.70016	3.68909	1.90189	4.11784	2.12574	4.61997		
1.04763	2.57328	1.04742	2.57341	1.23399	2.66637	1.39964	3.02919	1.69503	3.66018	1.91083	4.12069	2.15045	4.64939			1.19182	2.57196	1.26433	2.72687	1.53743	3.3244	1.70765	3.68223	1.90629	4.10168	2.13032	4.60101		
1.04158	2.57673	1.04137	2.57685	1.24145	2.66581	1.40362	3.01891	1.69942	3.64688	1.91632	4.10691	2.15437	4.6289			1.19954	2.57255	1.26925	2.72052	1.54184	3.31321	1.7152	3.67558	1.91067	4.08568	2.13496	4.58239		
1.03552	2.58018	1.0353	2.58031	1.24891	2.66528	1.40762	3.00879	1.70376	3.63365	1.92187	4.09342	2.15827	4.60864			1.20724	2.57311	1.27421	2.71432	1.54619	3.30205	1.7228	3.66913	1.91504	4.06984	2.13964	4.5641		
1.02943	2.58365	1.02922	2.58377	1.25637	2.66476	1.41164	2.99885	1.70806	3.62049	1.92746	4.08021	2.16216	4.58862			1.21494	2.57365	1.27921	2.70828	1.5505	3.29092	1.73045	3.66286	1.91939	4.05417	2.14437	4.54614		
1.02332	2.5871	1.02311	2.58722	1.26384	2.66426	1.41569	2.98909	1.71232	3.6074	1.93311	4.06725	2.16605	4.56882			1.22263	2.57417	1.28424	2.70238	1.55477	3.27984	1.73814	3.65675	1.92374	4.03867	2.14915	4.5285		
1.01718	2.59052	1.01696	2.59064	1.27132	2.66377	1.41976	2.97948	1.71654	3.59438	1.9388	4.05455	2.16994	4.54926			1.23031	2.57466	1.28931	2.69664	1.55899	3.26881	1.74586	3.65079	1.92808	4.02335	2.15397	4.51116		
1.01101	2.59389	1.01079	2.59401	1.2788	2.6633	1.42385	2.97005	1.72071	3.58143	1.94453	4.04209	2.17382	4.52993			1.23798	2.57511	1.29442	2.69105	1.56319	3.25785	1.75362	3.64496	1.93241	4.00821	2.15883	4.49411		
1.00479	2.59721	1.00456	2.59732	1.28627	2.66284	1.42797	2.96078	1.72485	3.56856	1.9503	4.02986	2.17771	4.51084			1.24563	2.57554	1.29957	2.68561	1.56735	3.24694	1.7614	3.63925	1.93675	3.99325	2.16372	4.47735		
0.998517	2.60044	0.998292	2.60056	1.29376	2.66238	1.43212	2.95167	1.72896	3.55577	1.95611	4.01784	2.1816	4.49198			1.25327	2.57592	1.30476	2.68032	1.57148	3.23611	1.76919	3.63364	1.94109	3.97847	2.16866	4.46086		
0.992192	2.60358	0.991966	2.60369	1.30124	2.66194	1.43629	2.94272	1.73302	3.54306	1.96194	4.00603	2.18549	4.47337			1.26089	2.57628	1.31	2.67518	1.57559	3.22536	1.777	3.62812	1.94544	3.96389	2.17362	4.44463		
0.985809	2.60662	0.98558	2.60672	1.30872	2.6615	1.44048	2.93393	1.73706	3.53043	1.96781	3.99441	2.1894	4.45499			1.2685	2.57659	1.31528	2.67019	1.57967	3.21469	1.78481	3.62267	1.94981	3.94951	2.17862	4.42865		
0.979363	2.60953	0.979132	2.60963	1.31621	2.66106	1.44471	2.9253	1.74106	3.51789	1.9737	3.98297	2.19332	4.43685			1.27608	2.57685	1.32061	2.66536	1.58374	3.20411	1.79262	3.61729	1.95419	3.93534	2.18364	4.41292		
0.972852	2.61232	0.972619	2.61241	1.32369	2.66064	1.44896	2.91682	1.74504	3.50544	1.9796	3.97171	2.19726	4.41896			1.28364	2.57707	1.32599	2.66069	1.58779	3.19362	1.80043	3.61195	1.9586	3.92137	2.18869	4.39742		
0.966275	2.61497	0.966039	2.61506	1.33118	2.66021	1.45323	2.90849	1.74899	3.49308	1.98552	3.96061	2.20121	4.40131			1.29118	2.57723	1.33143	2.65618	1.59183	3.18322	1.80821	3.60665	1.96304	3.90762	2.19376	4.38214		
0.959631	2.61748	0.959393	2.61756	1.33866	2.65979	1.45754	2.90032	1.75291	3.4808	1.99146	3.94966					1.29868	2.57733	1.33692	2.65184	1.59586	3.17292	1.81598	3.60137	1.96751	3.8941	2.19886	4.36708		
0.952922	2.61984	0.952681	2.61993	1.34614	2.65937	1.46187	2.89229	1.75681	3.46863	1.9974	3.93885					1.30616	2.57737	1.34248	2.64767	1.59988	3.16272	1.82372	3.59609	1.97202	3.88082	2.20396	4.35222		
0.946148	2.62207	0.945905	2.62215	1.35362	2.65896	1.46623	2.88441	1.76069	3.45654	2.00335	3.92817					1.31359	2.57733	1.3481	2.64367	1.60389	3.15262	1.83143	3.5908	1.97658	3.86777				
0.939312	2.62416	0.939068	2.62424	1.3611	2.65854	1.47062	2.87668	1.76455	3.44456	2.00929	3.91761					1.32098	2.5772	1.35379	2.63986	1.60789	3.14263	1.83909	3.58549	1.98119	3.85498				
0.932418	2.62612	0.932171	2.62619	1.36857	2.65812	1.47504	2.86909	1.76839	3.43267	2.01524	3.90716					1.32832	2.57698	1.35956	2.63624	1.6119	3.13274	1.8467	3.58015	1.98587	3.84245				
0.925468	2.62796	0.92522	2.62802	1.37604	2.65769	1.47949	2.86164	1.77221	3.42088	2.02117	3.89681					1.33561	2.57665	1.36542	2.63283	1.6159	3.12296	1.85426	3.57475	1.99061	3.83018				
0.918467	2.62968	0.918216	2.62974	1.3835	2.65727	1.48397	2.85434	1.77602	3.4092	2.0271	3.88656					1.34283	2.57621	1.37136	2.62962	1.6199	3.11329	1.86175	3.56929	1.99542	3.8182				
0.911418	2.63129	0.911165	2.63134	1.39096	2.65683	1.48848	2.84718	1.77981	3.39761	2.03301	3.87639					1.34998	2.57564	1.3774	2.62664	1.6239	3.10373	1.86917	3.56375	2.00032	3.80651				
0.904324	2.63279	0.90407	2.63284	1.39842	2.65639	1.49302	2.84015	1.78359	3.38614	2.0389	3.8663					1.35706	2.57494	1.38355	2.62389	1.6279	3.09428	1.87651	3.55812	2.00531	3.79512				
0.89719	2.6342	0.896935	2.63425	1.40586	2.65595	1.4976	2.83327	1.78736	3.37476	2.04476	3.85628					1.36405	2.57408	1.3898	2.62137	1.63191	3.08494	1.88376	3.55238	2.0104	3.78403				
0.890019	2.63553	0.889762	2.63558	1.4133	2.65549	1.5022	2.82652	1.79112	3.36349	2.05061	3.84631					1.37096	2.57308	1.39617	2.6191	1.63593	3.07571	1.89091	3.54652	2.0156	3.77327				
0.882814	2.63678	0.882556	2.63682	1.42074	2.65503	1.50685	2.81991	1.79488	3.35233	2.05642	3.8364					1.37778	2.57191	1.40266	2.61707	1.63995	3.06659	1.89796	3.54053	2.02091	3.76284				
0.875578	2.63796	0.875319	2.638	1.42816	2.65455	1.51152	2.81343	1.79862	3.34127	2.0622	3.82654					1.38452	2.5706	1.40926	2.61527	1.64398	3.05759	1.90489	3.5344	2.02634	3.75274				
0.868314	2.63907	0.868054	2.63911	1.43557	2.65406	1.51624	2.80709	1.80236	3.33032	2.06794	3.81671					1.39116	2.56914	1.41598	2.61371	1.64801	3.04869	1.91171	3.52811	2.0319	3.74298				
0.861024	2.64013	0.860764	2.64016	1.44297	2.65355	1.52099	2.80088	1.80609	3.31948	2.07365	3.80692					1.39772	2.56755	1.4228	2.61235	1.65206	3.03991	1.9184	3.52166	2.03759	3.73357				
0.853712	2.64113	0.853451	2.64116	1.45036	2.65303	1.52577	2.79481	1.80983	3.30875	2.07931	3.79715					1.40421	2.56583	1.42973	2.6112	1.65611	3.03124	1.92496	3.51504	2.04342	3.72452				
0.846379	2.64208	0.846117	2.64212	1.45774	2.65249	1.5306	2.78888	1.81355	3.29813	2.08493	3.78741					1.41063	2.56401	1.43675	2.61023	1.66018	3.02268	1.93138	3.50824	2.0494	3.71581				
0.839027	2.643	0.838764	2.64303	1.4651	2.65192	1.53547	2.78308	1.81728	3.28761	2.0905	3.77768					1.417	2.56211	1.44385	2.60942	1.66426	3.01423	1.93767	3.50126	2.05551	3.70746				
0.831657	2.64387	0.831394	2.6439	1.47244	2.65133	1.54038	2.77742	1.82101	3.2772	2.09603	3.76797					1.42331	2.56014	1.45103	2.60876	1.66835	3.00589	1.94381	3.4941	2.06178	3.69946				
0.824273	2.64472	0.824009	2.64475	1.47977	2.65072	1.54533	2.77189	1.82473	3.26691	2.1015	3.75826					1.42959	2.55812	1.45827	2.60821	1.67245	2.99766	1.94982	3.48677	2.06819	3.69181				
0.816874	2.64553	0.81661	2.64556	1.48707	2.65007	1.55033	2.7665	1.82846	3.25672	2.10692	3.74856					1.43583	2.55607	1.46557	2.60778	1.67657	2.98954	1.95568	3.47926	2.07475	3.68449				
0.809463	2.64632	0.809198	2.64634	1.49435	2.64939	1.55537	2.76125	1.83219	3.24664	2.11228	3.73886					1.44206	2.55399	1.47292	2.60744	1.6807	2.98153	1.96141	3.47158	2.08145	3.6775				
0.80204	2.64708	0.801776	2.64711	1.50161	2.64868	1.56047	2.75614	1.83593	3.23666	2.11759	3.72916					1.44826	2.55191	1.48031	2.60717	1.68484	2.97362	1.96699	3.46374	2.08829	3.67083				
0.794607	2.64783	0.794342	2.64785	1.50884	2.64792	1.56561	2.75117	1.83967	3.2268	2.12284	3.71946					1.45445	2.54983	1.48774	2.60698	1.689	2.96582	1.97245	3.45574	2.09527	3.66447				
0.787166	2.64856	0.7869	2.64858	1.51604	2.64712	1.57081	2.74635	1.84341	3.21704	2.12803	3.70975					1.46064	2.54776	1.4952	2.60684	1.69318	2.95813	1.97778	3.4476	2.10238	3.65839				
0.779715	2.64927	0.77945	2.6493	1.52321	2.64627	1.57607	2.74168	1.84716	3.20739	2.13316	3.70004					1.46683	2.5457	1.50269	2.60675	1.69737	2.95055	1.98298	3.43933	2.10961	3.6526				
0.772258	2.64998	0.771992	2.65	1.53034	2.64537	1.58138	2.73715	1.85091	3.19785	2.13823	3.69033					1.47302	2.54368	1.5102	2.6067	1.70158	2.94306	1.98807	3.43094	2.11697	3.64706				
0.764793	2.65067	0.764527	2.6507	1.53744	2.64441	1.58676	2.73278	1.85467	3.18842	2.14324	3.6806					1.47921	2.54168	1.51773	2.60669	1.70581	2.93569	1.99305	3.42245	2.12443	3.64178				
0.757324	2.65136	0.757057	2.65139	1.54449	2.64339	1.59221	2.72856	1.85844	3.17909	2.14819	3.67087					1.48542	2.53972	1.52528	2.6067	1.71005	2.92841	1.99792	3.41386	2.132	3.63672				
0.749849	2.65205	0.749582	2.65207	1.5515	2.6423	1.59772	2.72451	1.86222	3.16986	2.15309	3.66114					1.49163	2.53779	1.53285	2.60674	1.71431	2.92124	2.00269	3.40519	2.13967	3.63188				
0.742369	2.65273	0.742102	2.65276	1.55845	2.64114	1.60331	2.72062	1.86601	3.16075	2.15792	3.6514					1.49786	2.53591	1.54042	2.60681	1.71859	2.91416	2.00738	3.39645	2.14743	3.62724				
0.734886	2.65342	0.734619	2.65344	1.56536	2.6399	1.60897	2.71689	1.8698	3.15173	2.1627	3.64166					1.5041	2.53406	1.54801	2.60689	1.72288	2.90719	2.01198	3.38766	2.15527	3.62278				
0.7274	2.65411	0.727133	2.65413	1.57221	2.63858	1.61471	2.71333	1.87361	3.14282	2.16742	3.63191					1.51036	2.53226	1.55561	2.60699	1.7272	2.90031	2.01651	3.37882	2.16318	3.61849				
0.719911	2.6548	0.719644	2.65483	1.579	2.63718	1.62054	2.70995	1.87742	3.13402	2.17208	3.62217					1.51663	2.53051	1.56322	2.60709	1.73153	2.89354	2.02096	3.36995	2.17117	3.61436				
0.71242	2.6555	0.712153	2.65553	1.58573	2.63568	1.62645	2.70674	1.88125	3.12531	2.17669	3.61243					1.52292	2.52881	1.57083	2.60721	1.73589	2.88686	2.02535	3.36106	2.17921	3.61037				
0.704928	2.65622	0.704661	2.65624	1.59239	2.6341	1.63244	2.7037	1.88508	3.11671	2.18124	3.60269					1.52923	2.52715	1.57845	2.60734	1.74026	2.88028	2.02968	3.35215	2.18732	3.60651				
0.697435	2.65694	0.697168	2.65697	1.59899	2.63242	1.63853	2.70084	1.88893	3.10821	2.18574	3.59296					1.53557	2.52554	1.58607	2.60748	1.74465	2.87379	2.03395	3.34324	2.19547	3.60277				
0.689942	2.65768	0.689675	2.65771	1.60553	2.63065	1.6447	2.69815	1.89279	3.0998	2.19019	3.58324					1.54192	2.52397	1.5937	2.60762	1.74906	2.86739	2.03817	3.33433	2.20366	3.59913				
0.682449	2.65844	0.682182	2.65846	1.612	2.6288	1.65096	2.69564	1.89666	3.0915	2.19459	3.57353					1.54829	2.52246	1.60133	2.60777	1.75349	2.86109	2.04235	3.32543						
0.674957	2.65921	0.67469	2.65924	1.61841	2.62685	1.65732	2.69329	1.90055	3.0833	2.19895	3.56384					1.55468	2.521	1.60897	2.60791	1.75795	2.85489	2.04649	3.31655						
0.667466	2.66002	0.667199	2.66004	1.62475	2.62483	1.66375	2.6911	1.90445	3.07519	2.20326	3.55416					1.5611	2.51958	1.61661	2.60806	1.76242	2.84877	2.05059	3.30769						
0.659978	2.66084	0.659711	2.66087	1.63104	2.62273	1.67027	2.68907	1.90836	3.06718							1.56753	2.51821	1.62424	2.60822	1.76692	2.84274	2.05466	3.29887						
0.652492	2.6617	0.652226	2.66174	1.63726	2.62055	1.67688	2.68718	1.91228	3.05927							1.57399	2.51689	1.63188	2.60837	1.77143	2.83681	2.0587	3.29007						
0.64501	2.6626	0.644744	2.66263	1.64344	2.61832	1.68355	2.68544	1.91622	3.05145							1.58047	2.51562	1.63952	2.60852	1.77597	2.83096	2.06272	3.28132						
0.637532	2.66353	0.637266	2.66357	1.64957	2.61602	1.6903	2.68382	1.92018	3.04373							1.58698	2.5144	1.64716	2.60867	1.78053	2.8252	2.06671	3.27261						
0.630059	2.66451	0.629793	2.66455	1.65565	2.61369	1.69712	2.68233	1.92415	3.0361							1.5935	2.51322	1.6548	2.60882	1.78511	2.81953	2.07068	3.26395						
0.622592	2.66554	0.622326	2.66557	1.6617	2.61131	1.704	2.68095	1.92813	3.02856							1.60005	2.51209	1.66244	2.60896	1.78971	2.81394	2.07463	3.25533						
0.615131	2.66662	0.614866	2.66666	1.66771	2.6089	1.71094	2.67967	1.93213	3.02112							1.60662	2.511	1.67008	2.60911	1.79433	2.80844	2.07857	3.24677						
0.607679	2.66776	0.607413	2.6678	1.67369	2.60646	1.71793	2.67849	1.93614	3.01377							1.61321	2.50996	1.67772	2.60925	1.79898	2.80302	2.08249	3.23827						
0.600235	2.66898	0.59997	2.66902	1.67965	2.60401	1.72498	2.67739	1.94018	3.00651							1.61983	2.50896	1.68535	2.60938	1.80365	2.79769	2.0864	3.22983						
0.592802	2.67027	0.592537	2.67031	1.68558	2.60154	1.73206	2.67637	1.94422	2.99933							1.62647	2.50801	1.69298	2.60951	1.80834	2.79244	2.0903	3.22144						
0.58538	2.67164	0.585116	2.6717	1.6915	2.59907	1.73919	2.67543	1.94828	2.99225							1.63313	2.5071	1.70061	2.60964	1.81306	2.78727	2.0942	3.21312						
0.577972	2.67312	0.577708	2.67318	1.69741	2.5966	1.74635	2.67455	1.95236	2.98525							1.63981	2.50623	1.70824	2.60976	1.8178	2.78219	2.09808	3.20486						
0.570579	2.67471	0.570315	2.67477	1.7033	2.59414	1.75355	2.67373	1.95646	2.97834							1.64652	2.5054	1.71586	2.60987	1.82256	2.77719	2.10197	3.19667						
0.563203	2.67642	0.56294	2.67649	1.70918	2.59168	1.76078	2.67296	1.96057	2.97152							1.65325	2.50461	1.72348	2.60998	1.82735	2.77226	2.10585	3.18854						
0.555847	2.67828	0.555585	2.67835	1.71506	2.58924	1.76804	2.67225	1.9647	2.96478							1.65999	2.50387	1.73109	2.61007	1.83216	2.76742	2.10972	3.18048						
0.548513	2.6803	0.548252	2.68037	1.72094	2.58682	1.77532	2.67157	1.96885	2.95813							1.66676	2.50316	1.7387	2.61017	1.837	2.76265	2.1136	3.17249						
0.541205	2.6825	0.540945	2.68258	1.72681	2.58441	1.78262	2.67094	1.97301	2.95156							1.67356	2.50249	1.74631	2.61025	1.84186	2.75797	2.11747	3.16457						
0.533926	2.68492	0.533667	2.68501	1.73269	2.58203	1.78995	2.67034	1.9772	2.94507							1.68037	2.50185	1.75391	2.61032	1.84675	2.75336	2.12135	3.15672						
0.526681	2.68758	0.526423	2.68768	1.73857	2.57967	1.79729	2.66978	1.9814	2.93867							1.6872	2.50126	1.7615	2.61038	1.85166	2.74883	2.12523	3.14894						
0.519475	2.69052	0.519219	2.69063	1.74446	2.57735	1.80465	2.66924	1.98561	2.93234							1.69406	2.50069	1.76909	2.61044	1.8566	2.74438	2.12911	3.14123						
0.512314	2.69378	0.512059	2.6939	1.75035	2.57505	1.81203	2.66873	1.98985	2.9261							1.70093	2.50017	1.77667	2.61048	1.86157	2.74001	2.133	3.13359						
0.505204	2.69742	0.504952	2.69756	1.75625	2.57277	1.81942	2.66825	1.9941	2.91993							1.70782	2.49967	1.78424	2.61051	1.86656	2.73571	2.13689	3.12602						
0.498154	2.7015	0.497904	2.70166	1.76215	2.57054	1.82682	2.66779	1.99838	2.91385							1.71474	2.49921	1.7918	2.61052	1.87159	2.73149	2.14079	3.11852						
0.491174	2.7061	0.490927	2.70627	1.76807	2.56833	1.83423	2.66735	2.00267	2.90784							1.72167	2.49878	1.79935	2.61053	1.87664	2.72735	2.14469	3.1111						
0.484274	2.71129	0.48403	2.71149	1.774	2.56616	1.84166	2.66692	2.00698	2.90191							1.72862	2.49838	1.80689	2.61051	1.88172	2.72329	2.1486	3.10375						
0.477468	2.71719	0.477228	2.71741	1.77994	2.56402	1.84909	2.66652	2.01131	2.89606							1.7356	2.49802	1.81443	2.61049	1.88683	2.7193	2.15251	3.09646						
0.47077	2.72391	0.470534	2.72417	1.78589	2.56192	1.85653	2.66613	2.01566	2.89028							1.74259	2.49768	1.82194	2.61044	1.89197	2.71539	2.15643	3.08925						
0.464198	2.7316	0.463966	2.73189	1.79185	2.55985	1.86398	2.66575	2.02002	2.88458							1.74959	2.49737	1.82945	2.61038	1.89714	2.71156	2.16037	3.08211						
0.457769	2.74041	0.457543	2.74075	1.79783	2.55782	1.87143	2.66538	2.02441	2.87896							1.75662	2.49709	1.83694	2.61029	1.90235	2.70781	2.16431	3.07505						
0.451504	2.75053	0.451284	2.75092	1.80382	2.55582	1.87889	2.66503	2.02882	2.8734							1.76366	2.49684	1.84442	2.61019	1.90759	2.70414	2.16826	3.06805						
0.445424	2.76216	0.445211	2.76261	1.80982	2.55387	1.88635	2.66468	2.03324	2.86792							1.77072	2.49661	1.85187	2.61006	1.91287	2.70055	2.17222	3.06112						
0.43955	2.77552	0.439344	2.77603	1.81584	2.55195	1.89382	2.66435	2.03769	2.86251							1.7778	2.49641	1.85931	2.6099	1.91819	2.69704	2.17618	3.05427						
0.433901	2.79082	0.433704	2.79141	1.82188	2.55006	1.9013	2.66402	2.04215	2.85718							1.7849	2.49623	1.86673	2.60972	1.92354	2.69361	2.18016	3.04748						
0.428496	2.8083	0.428308	2.80897	1.82793	2.54822	1.90877	2.6637	2.04664	2.85191							1.79201	2.49608	1.87413	2.60951	1.92894	2.69027	2.18416	3.04077						
0.423348	2.82818	0.423169	2.82893	1.834	2.54641	1.91625	2.66339	2.05115	2.84672							1.79913	2.49595	1.8815	2.60926	1.93437	2.68701	2.18816	3.03412						
0.418466	2.85065	0.418297	2.8515	1.8401	2.54466	1.92373	2.66308	2.05567	2.8416							1.80627	2.49584	1.88885	2.60898	1.93985	2.68384	2.19217	3.02754						
0.413857	2.87592	0.413697	2.87687	1.84623	2.54296	1.93121	2.66277	2.06022	2.83654							1.81343	2.49575	1.89616	2.60867	1.94538	2.68076	2.1962	3.02103						
0.40952	2.90416	0.409371	2.90522	1.85165	2.54031	1.9387	2.66247	2.06479	2.83156							1.8206	2.49569	1.90345	2.60831	1.95096	2.67777	2.20023	3.01459						
0.405455	2.93554	0.405314	2.93672	1.8598	2.5414	1.94618	2.66218	2.06938	2.82664							1.82779	2.49564	1.9107	2.60791	1.95659	2.67488								
0.401655	2.97023	0.401524	2.97153	1.86752	2.5419	1.95367	2.66188	2.074	2.82179							1.83499	2.49562	1.91791	2.60746	1.96227	2.67208								
0.398115	3.0084	0.397993	3.00983	1.87528	2.54246	1.96115	2.66159	2.07863	2.81701							1.8422	2.49562	1.92508	2.60696	1.96801	2.66939								
0.394827	3.05023	0.394714	3.05179	1.88305	2.54302	1.96863	2.6613	2.08329	2.8123							1.84943	2.49563	1.93221	2.6064	1.97381	2.66679								
0.391785	3.0959	0.391681	3.09761	1.89082	2.54358	1.97612	2.66101	2.08796	2.80765							1.85668	2.49566	1.93929	2.60579	1.97968	2.6643								
0.388982	3.14565	0.388886	3.1475	1.8986	2.54415	1.9836	2.66072	2.09267	2.80307							1.86393	2.49571	1.94632	2.60511	1.98561	2.66192								
0.386412	3.19971	0.386324	3.20172	1.90638	2.54471	1.99107	2.66043	2.09739	2.79855							1.8712	2.49577	1.95331	2.60437	1.99161	2.65965								
0.384068	3.25835	0.383989	3.26053	1.91416	2.54527	1.99855	2.66013	2.10214	2.79411							1.87848	2.49585	1.96023	2.60357	1.99768	2.6575								
0.381948	3.32188	0.381876	3.32424	1.92194	2.54583	2.00602	2.65984	2.10691	2.78972							1.88577	2.49595	1.9671	2.60269	2.00383	2.65546								
0.380046	3.39063	0.379982	3.39318	1.92973	2.54638	2.01349	2.65954	2.11171	2.78541							1.89307	2.49606	1.97391	2.60174	2.01005	2.65353								
0.378358	3.46499	0.378302	3.46775	1.93751	2.54693	2.02095	2.65923	2.11653	2.78115							1.90039	2.49619	1.98066	2.60072	2.01635	2.65172								
0.376883	3.54539	0.376834	3.54838	1.9453	2.54748	2.02841	2.65893	2.12137	2.77697							1.90772	2.49633	1.98734	2.59963	2.02273	2.65003								
0.375616	3.63231	0.375575	3.63554	1.95308	2.54802	2.03586	2.65861	2.12625	2.77285							1.91505	2.49648	1.99397	2.59847	2.02918	2.64845								
0.374557	3.7263	0.374523	3.72978	1.96087	2.54856	2.0433	2.65829	2.13115	2.76879							1.9224	2.49665	2.00054	2.59724	2.03572	2.64699								
0.373701	3.82794	0.373675	3.83171	1.96866	2.5491	2.05074	2.65797	2.13607	2.7648							1.92976	2.49682	2.00705	2.59594	2.04233	2.64563								
0.373048	3.93792	0.373029	3.94201	1.97644	2.54964	2.05817	2.65763	2.14103	2.76088							1.93713	2.49701	2.0135	2.59458	2.04901	2.64439								
0.372596	4.05702	0.372583	4.06144	1.98423	2.55017	2.06558	2.65729	2.14601	2.75702							1.94451	2.49721	2.01991	2.59317	2.05577	2.64324								
0.372341	4.18609	0.372336	4.19088	1.99202	2.5507	2.07299	2.65693	2.15102	2.75323							1.9519	2.49743	2.02626	2.5917	2.06259	2.64218								
0.372282	4.32611	0.372284	4.33132	1.99981	2.55122	2.08039	2.65656	2.15607	2.74951							1.9593	2.49765	2.03257	2.59018	2.06948	2.64122								
0.372418	4.4782	0.372426	4.48386	2.0076	2.55174	2.08777	2.65618	2.16115	2.74586							1.9667	2.49788	2.03883	2.58863	2.07642	2.64034								
0.372744	4.64364	0.372759	4.6498	2.01539	2.55226	2.09514	2.65578	2.16626	2.74227							1.97412	2.49812	2.04506	2.58704	2.08343	2.63953								
0.373183	4.79983	0.373282	4.83061	2.02318	2.55277	2.1025	2.65537	2.1714	2.73876							1.98155	2.49838	2.05126	2.58541	2.09048	2.6388								
0.373669	4.94268	0.37399	5.02798	2.03096	2.55328	2.10984	2.65494	2.17658	2.73531							1.98898	2.49864	2.05743	2.58377	2.09758	2.63813								
0.374148	5.06813	0.374882	5.24389	2.03875	2.55378	2.11716	2.65449	2.1818	2.73194							1.99642	2.4989	2.06357	2.5821	2.10473	2.63752								
0.374576	5.17235	0.375954	5.48063	2.04654	2.55429	2.12445	2.65401	2.18706	2.72864							2.00387	2.49918	2.06968	2.58042	2.11191	2.63697								
0.374917	5.25199	0.377203	5.74091	2.05433	2.55478	2.13173	2.65351	2.19236	2.72542							2.01133	2.49947	2.07578	2.57872	2.11913	2.63646								
0.375252	5.3276	0.378626	6.02793	2.06212	2.55528	2.13898	2.65299	2.19771	2.72228							2.01879	2.49976	2.08187	2.57702	2.12639	2.636								
0.375496	5.38158	0.380218	6.34548	2.06991	2.55577	2.1462	2.65243	2.2031	2.71921							2.02627	2.50006	2.08794	2.57532	2.13367	2.63558								
0.375896	5.46828	0.381975	6.69815	2.0777	2.55626	2.1534	2.65184									2.03375	2.50036	2.094	2.57361	2.14098	2.6352								
0.376477	5.59099	0.383894	7.09149	2.08549	2.55674	2.16056	2.65122									2.04123	2.50067	2.10006	2.57191	2.14832	2.63484								
0.37727	5.75462	0.385969	7.53228	2.09327	2.55722	2.16769	2.65056									2.04873	2.50099	2.10611	2.57021	2.15567	2.63452								
0.378317	5.96612	0.387901	7.96161	2.10106	2.55769	2.17477	2.64985									2.05623	2.50132	2.11215	2.56853	2.16305	2.63423								
0.379665	6.23523	0.389636	8.36619	2.10885	2.55817	2.18182	2.6491									2.06373	2.50165	2.1182	2.56685	2.17045	2.63395								
0.381367	6.57554	0.39113	8.73138	2.11663	2.55863	2.18882	2.6483									2.07125	2.50198	2.12424	2.56518	2.17786	2.6337								
0.383232	6.95454	0.392349	9.04217	2.12442	2.5591	2.19577	2.64744									2.07877	2.50232	2.13029	2.56353	2.18528	2.63347								
0.385255	7.37855	0.393265	9.28433	2.1322	2.55956	2.20267	2.64653									2.08629	2.50266	2.13634	2.56189	2.19272	2.63326								
0.387432	7.85541	0.394123	9.51814	2.13999	2.56001											2.09382	2.50301	2.14239	2.56027	2.20017	2.63306								
0.389756	8.39487	0.394729	9.68743	2.14777	2.56046											2.10136	2.50336	2.14845	2.55866										
0.392222	9.00926	0.395688	9.96357	2.15555	2.56091											2.1089	2.50372	2.15452	2.55708										
0.394824	9.71445	0.397018	10.3637	2.16333	2.56135											2.11644	2.50408	2.16059	2.55551										
0.397554	10.5311	0.398741	10.9149	2.17111	2.56178											2.12399	2.50444	2.16667	2.55397										
0.400404	11.4867	0.400883	11.6593	2.17889	2.56222											2.13155	2.50481	2.17276	2.55244										
0.403364	12.6187	0.403472	12.6629	2.18666	2.56264											2.13911	2.50517	2.17885	2.55094										
0.406423	13.9794	0.406534	14.0329	2.19444	2.56307											2.14667	2.50554	2.18496	2.54945										
0.409566	15.6439	0.40968	15.7101	2.20221	2.56348											2.15424	2.50592	2.19108	2.54799										
0.412775	17.7247	0.41289	17.8085													2.16181	2.50629	2.19721	2.54656										
0.416023	20.3976	0.416139	20.507													2.16938	2.50666	2.20335	2.54514										
0.419275	23.9542	0.419391	24.1028													2.17696	2.50704												
0.422478	28.9157	0.422591	29.1289													2.18453	2.50741												
0.425552	36.3153	0.425657	36.6468													2.19212	2.50779												
0.428368	48.5361	0.428462	49.1206													2.1997	2.50816												
0.430734	72.5961	0.430807	73.8926													2.20728	2.50854												
0.432377	142.191	0.432419	147.196																										
0.433011	2919	0.433013	9573.98																										
