Minima		Zeros		Sym0		Asym0		Sym1		Sym2		Sym3		Asym1		Asym2	
8  Points		7  Points		480  Points		492  Points		480  Points		282  Points		142  Points		414  Points		164  Points	
Freq (MHz)	Vgr (m/ms)	Freq (MHz)	Vgr (m/ms)	Freq (MHz)	Vgr (m/ms)	Freq (MHz)	Vgr (m/ms)	Freq (MHz)	Vgr (m/ms)	Freq (MHz)	Vgr (m/ms)	Freq (MHz)	Vgr (m/ms)	Freq (MHz)	Vgr (m/ms)	Freq (MHz)	Vgr (m/ms)
0.32693	4.54011	0.328372	4.53615	0.00614894	7.62133	0.000504925	0.565148	0.00345615	7.62206	0.279534	0.122427	0.342622	0.0803773	0.139758	0.254656	0.419299	0.138779
0.0343535	30.9142	0.0343703	31.1898	0.0132497	7.6196	0.00103147	0.659598	0.0105576	7.62075	0.279648	0.171081	0.342697	0.136757	0.139995	0.454502	0.419428	0.189116
0.200937	26.1582	0.200457	26.4395	0.0203472	7.61529	0.00173401	0.84312	0.0176566	7.61717	0.279853	0.267824	0.342877	0.249864	0.140604	0.850865	0.419651	0.289662
0.565654	9.01819	0.563799	9.01607	0.0274399	7.60915	0.00260253	1.01504	0.0247513	7.61169	0.280147	0.363239	0.343162	0.363726	0.14158	1.23878	0.419968	0.389899
0.86406	10.1289	0.861787	10.1239	0.034526	7.60105	0.00362544	1.17403	0.0318401	7.60433	0.28053	0.45695	0.343554	0.478656	0.142913	1.61486	0.420378	0.489738
0.406505	8.28929	0.405531	8.23832	0.0416037	7.59094	0.00479021	1.3193	0.0389212	7.59502	0.280999	0.548572	0.344054	0.594992	0.144589	1.97628	0.42088	0.589075
0.72812	9.64817	0.728921	8.95897	0.0486709	7.57878	0.00608381	1.45054	0.0459926	7.58366	0.281552	0.637699	0.344663	0.712966	0.146595	2.32088	0.421475	0.687773
0.900532	9.97674			0.0557259	7.56448	0.00749313	1.56792	0.0530525	7.57017	0.282187	0.724107	0.345383	0.832898	0.148914	2.6471	0.422162	0.785779
				0.0627665	7.54782	0.00900546	1.67195	0.0600988	7.55439	0.282901	0.807567	0.346215	0.954916	0.151528	2.95406	0.42294	0.882988
				0.0697904	7.52871	0.0106086	1.7634	0.0671293	7.53624	0.283692	0.887915	0.347162	1.0792	0.154419	3.24138	0.423807	0.979262
				0.0767954	7.50697	0.0122914	1.84326	0.0741417	7.51554	0.284556	0.965189	0.348226	1.20582	0.157568	3.50914	0.424764	1.07454
				0.0837788	7.48238	0.0140433	1.91245	0.0811336	7.49208	0.28549	1.03939	0.349409	1.33484	0.160958	3.75778	0.42581	1.16872
				0.090738	7.45481	0.015855	1.97209	0.0881024	7.46566	0.286493	1.11074	0.350713	1.46625	0.16457	3.98795	0.426942	1.26179
				0.09767	7.42385	0.0177181	2.02325	0.0950451	7.43598	0.28756	1.17947	0.352141	1.59994	0.168389	4.20049	0.428161	1.35365
				0.104572	7.38924	0.0196251	2.06683	0.101959	7.40283	0.28869	1.24595	0.353695	1.73577	0.172397	4.39641	0.429465	1.44415
				0.111439	7.35072	0.0215694	2.10382	0.108839	7.36583	0.289882	1.3108	0.355376	1.87348	0.176581	4.57673	0.430852	1.53323
				0.118269	7.30779	0.0235453	2.13511	0.115684	7.32456	0.291133	1.37459	0.357186	2.01288	0.180926	4.74238	0.432322	1.62094
				0.125056	7.26004	0.025548	2.16135	0.122488	7.27873	0.292443	1.438	0.359126	2.15356	0.185418	4.89447	0.433872	1.70714
				0.131797	7.20701	0.0275728	2.18336	0.129247	7.22779	0.293813	1.50191	0.361199	2.29516	0.190046	5.03394	0.435503	1.79172
				0.138486	7.14811	0.0293526	2.19956	0.135956	7.17116	0.295242	1.56732	0.363403	2.43729	0.194798	5.16162	0.437211	1.87475
				0.145117	7.08268	0.0308793	2.2114	0.14261	7.1083	0.296733	1.63524	0.36574	2.57955	0.199664	5.27847	0.438996	1.95614
				0.151684	7.01013	0.0321476	2.22001	0.149202	7.03855	0.298289	1.70668	0.36821	2.72146	0.204634	5.38526	0.440856	2.0358
				0.158179	6.92963	0.0331537	2.22613	0.155725	6.96114	0.299913	1.78292	0.370811	2.8626	0.209699	5.48267	0.44279	2.11375
				0.164596	6.84041	0.0338951	2.23027	0.162173	6.87533	0.301611	1.86523	0.373544	3.00257	0.21485	5.57143	0.444795	2.19003
				0.170926	6.74158	0.0343703	2.23276	0.168537	6.78023	0.303389	1.95478	0.376406	3.14095	0.220081	5.65213	0.44687	2.26451
				0.177158	6.63225	0.0350544	2.23599	0.174807	6.675	0.305254	2.05287	0.379397	3.27736	0.225382	5.72527	0.449014	2.33723
				0.183284	6.51158	0.0357989	2.23928	0.180975	6.55903	0.307214	2.16079	0.382513	3.41146	0.230749	5.79143	0.451226	2.40818
				0.189292	6.37865	0.0368133	2.24352	0.186257	6.44846	0.30928	2.27966	0.385754	3.543	0.236174	5.85102	0.453502	2.47735
				0.19517	6.23269	0.0380988	2.24821	0.190686	6.34671	0.311462	2.41055	0.389115	3.67169	0.241652	5.90443	0.455842	2.54479
				0.200906	6.07304	0.0396566	2.25306	0.194294	6.25713	0.313772	2.55433	0.392595	3.79736	0.247176	5.95207	0.458244	2.61046
				0.206487	5.89941	0.041488	2.25774	0.197109	6.1826	0.316222	2.71167	0.396191	3.91987	0.252743	5.99424	0.460706	2.67441
				0.211899	5.71182	0.0435938	2.26209	0.199157	6.12578	0.318825	2.88272	0.3999	4.03907	0.258346	6.03119	0.463227	2.73668
				0.21713	5.51051	0.0457032	2.26544	0.200457	6.0884	0.321593	3.06727	0.403718	4.15485	0.263981	6.0632	0.465806	2.7973
				0.222167	5.2965	0.0478152	2.26788	0.202313	6.03318	0.32454	3.26463	0.407642	4.26719	0.269644	6.09054	0.46844	2.85634
				0.226999	5.07129	0.0499291	2.26969	0.20431	5.97137	0.327677	3.4733	0.411669	4.37613	0.27533	6.11334	0.471128	2.91386
				0.231617	4.83693	0.0520445	2.27089	0.206993	5.88435	0.331012	3.69135	0.415796	4.48167	0.281036	6.13178	0.473869	2.96986
				0.236012	4.59614	0.0541607	2.27156	0.210329	5.76956	0.334555	3.9163	0.42002	4.58375	0.286756	6.14602	0.476662	3.02445
				0.240181	4.35186	0.0562773	2.27186	0.214273	5.62375	0.33831	4.14507	0.424338	4.68253	0.292488	6.1562	0.479505	3.07773
				0.244122	4.10734	0.058394	2.27186	0.218768	5.44341	0.342279	4.3744	0.428746	4.77805	0.298228	6.16235	0.482397	3.1298
				0.247835	3.86601	0.0605106	2.27157	0.22374	5.22539	0.346461	4.60096	0.433241	4.87038	0.303971	6.1646	0.485337	3.18071
				0.251326	3.63099	0.0626269	2.27106	0.228505	4.99699	0.350852	4.82146	0.437821	4.95958	0.309715	6.16304	0.488324	3.23058
				0.254601	3.405	0.0647425	2.27044	0.233052	4.76026	0.355446	5.03313	0.442483	5.04586	0.315455	6.15764	0.491357	3.27958
				0.25767	3.19031	0.0668576	2.26965	0.237375	4.51796	0.360231	5.23359	0.447223	5.12927	0.321189	6.14852	0.494435	3.32776
				0.260546	2.98857	0.0689718	2.26874	0.24147	4.27326	0.365198	5.42094	0.45204	5.20989	0.326912	6.13563	0.497558	3.37527
				0.263239	2.80093	0.0710851	2.26781	0.245338	4.02943	0.370332	5.59409	0.456931	5.28794	0.332622	6.11901	0.500725	3.42233
				0.265765	2.62788	0.0731976	2.2668	0.248979	3.78978	0.375622	5.75229	0.461894	5.36338	0.338314	6.09865	0.503935	3.46898
				0.268136	2.46942	0.075309	2.26574	0.252399	3.55735	0.381051	5.89539	0.466926	5.43641	0.343986	6.07449	0.507189	3.5154
				0.270366	2.32528	0.0774195	2.26466	0.255608	3.33479	0.386607	6.0237	0.472024	5.50718	0.349633	6.0466	0.510486	3.56181
				0.272469	2.19483	0.079529	2.26358	0.258613	3.12411	0.392276	6.13764	0.477188	5.57576	0.355253	6.01485	0.513826	3.60834
				0.274456	2.07728	0.0816375	2.26252	0.261429	2.92682	0.398044	6.23793	0.482414	5.64225	0.360841	5.97925	0.517209	3.65512
				0.27634	1.97174	0.083745	2.26148	0.264067	2.7438	0.403899	6.32535	0.487701	5.70675	0.366395	5.93984	0.520637	3.7023
				0.27813	1.87725	0.0858515	2.26041	0.266542	2.57546	0.409831	6.40086	0.493048	5.7694	0.37191	5.89647	0.524108	3.7501
				0.279838	1.7928	0.087957	2.25936	0.268866	2.42167	0.415827	6.4654	0.498452	5.83023	0.377382	5.84913	0.527625	3.79866
				0.281471	1.7175	0.0900615	2.25836	0.271054	2.28197	0.421878	6.5197	0.503912	5.88942	0.382809	5.79781	0.531187	3.84817
				0.283038	1.65046	0.0921652	2.25739	0.273119	2.15576	0.427975	6.56465	0.509426	5.94702	0.388186	5.74263	0.534795	3.89864
				0.284546	1.59081	0.0942679	2.25646	0.275071	2.04216	0.434111	6.60108	0.514993	6.00303	0.392828	5.69137	0.538451	3.9503
				0.286002	1.53786	0.0963698	2.25552	0.276924	1.94024	0.440276	6.62963	0.520612	6.05763	0.396752	5.64522	0.542156	4.00328
				0.287412	1.49092	0.0984708	2.25457	0.278687	1.84907	0.446464	6.65099	0.526281	6.11087	0.399971	5.60544	0.545911	4.05754
				0.288781	1.44933	0.100571	2.2537	0.280369	1.76771	0.452669	6.66566	0.531999	6.16271	0.402501	5.57302	0.549717	4.11326
				0.290113	1.41253	0.10267	2.25289	0.281981	1.69513	0.458885	6.67418	0.537765	6.2133	0.404351	5.54842	0.553576	4.17042
				0.291413	1.38	0.104769	2.25209	0.283528	1.63053	0.465106	6.67711	0.543577	6.26269	0.405531	5.53238	0.557488	4.229
				0.292684	1.35135	0.106867	2.25132	0.285019	1.57314	0.471327	6.67475	0.549435	6.31085	0.407221	5.50913	0.561456	4.28904
				0.293931	1.32612	0.108964	2.25057	0.286459	1.52219	0.477544	6.66755	0.555336	6.35782	0.40905	5.48329	0.56548	4.35038
				0.295155	1.30401	0.111061	2.24983	0.287855	1.47704	0.483751	6.65578	0.561282	6.40364	0.411523	5.44726	0.569562	4.41299
				0.296361	1.2847	0.113156	2.24913	0.289212	1.43704	0.489946	6.63979	0.567269	6.44833	0.414628	5.40046	0.573703	4.47669
				0.297549	1.26783	0.115252	2.24848	0.290533	1.40162	0.496124	6.61981	0.573297	6.49185	0.418346	5.34202	0.577904	4.54133
				0.298723	1.25321	0.117346	2.24783	0.291824	1.3704	0.502281	6.59604	0.579366	6.53423	0.422655	5.27094	0.582166	4.60673
				0.299884	1.24066	0.11944	2.24721	0.293087	1.34292	0.508415	6.56879	0.585473	6.57547	0.427527	5.18618	0.586488	4.67257
				0.301035	1.22991	0.121534	2.24665	0.294326	1.31871	0.514521	6.53817	0.591618	6.61548	0.432318	5.09821	0.590872	4.73863
				0.302176	1.2208	0.123627	2.24607	0.295544	1.29752	0.520598	6.5044	0.5978	6.65426	0.437027	5.0072	0.595318	4.80467
				0.30331	1.2132	0.125719	2.24553	0.296744	1.27902	0.526642	6.4677	0.604018	6.69183	0.441649	4.91336	0.599825	4.87041
				0.304437	1.20694	0.127811	2.245	0.297927	1.26288	0.53265	6.42812	0.61027	6.72807	0.446182	4.817	0.604394	4.93545
				0.305559	1.20188	0.129902	2.24452	0.299097	1.24899	0.53862	6.38582	0.616555	6.76291	0.450625	4.71846	0.609022	4.99955
				0.306676	1.19793	0.131993	2.24405	0.300255	1.23702	0.544549	6.34098	0.622872	6.79634	0.454974	4.61807	0.61371	5.06241
				0.307791	1.19499	0.134084	2.24357	0.301402	1.22683	0.549681	6.29999	0.629219	6.82833	0.45923	4.51617	0.618455	5.12376
				0.308903	1.19299	0.136174	2.2431	0.302541	1.21822	0.554029	6.26369	0.635596	6.85869	0.46339	4.41314	0.623257	5.18331
				0.310014	1.19179	0.138264	2.24273	0.303672	1.21102	0.557605	6.23266	0.642	6.8874	0.467453	4.30937	0.628114	5.24074
				0.311124	1.19136	0.140353	2.24232	0.304797	1.20519	0.56042	6.20753	0.64843	6.91443	0.47142	4.20526	0.633023	5.29592
				0.312234	1.19159	0.142442	2.24189	0.305918	1.20051	0.562482	6.18874	0.654884	6.93963	0.475289	4.1012	0.637982	5.34863
				0.313344	1.19243	0.14453	2.24153	0.307034	1.19689	0.563799	6.17658	0.661361	6.96294	0.479062	3.99758	0.642989	5.39861
				0.314456	1.19389	0.146619	2.24117	0.308148	1.19428	0.565687	6.15883	0.667859	6.98421	0.482738	3.89471	0.648042	5.44577
				0.315569	1.19585	0.148707	2.24081	0.30926	1.19253	0.567733	6.13928	0.674375	7.00339	0.486319	3.79297	0.653137	5.48998
				0.316684	1.1983	0.150794	2.24048	0.31037	1.19155	0.570506	6.1124	0.680909	7.02036	0.489806	3.69269	0.658272	5.53116
				0.317802	1.20115	0.152882	2.24017	0.31148	1.19135	0.573994	6.07762	0.687457	7.03497	0.4932	3.59406	0.663444	5.56921
				0.318922	1.20437	0.154969	2.23983	0.31259	1.1918	0.578186	6.03457	0.694017	7.0472	0.496503	3.49744	0.668649	5.60408
				0.320046	1.20796	0.157055	2.23955	0.313701	1.19283	0.583064	5.98287	0.700588	7.05686	0.499717	3.40302	0.673886	5.63572
				0.321173	1.2119	0.159142	2.23926	0.314813	1.19448	0.588611	5.92193	0.707167	7.06381	0.502845	3.31095	0.679151	5.66414
				0.322304	1.21613	0.161228	2.23897	0.315927	1.19659	0.594099	5.85938	0.713751	7.06796	0.505887	3.22144	0.684441	5.68935
				0.323439	1.22063	0.163314	2.23872	0.317043	1.19914	0.599529	5.79522	0.720338	7.06922	0.508847	3.13458	0.689753	5.71134
				0.324579	1.22538	0.165399	2.23845	0.318161	1.20214	0.604898	5.72959	0.726924	7.06751	0.511728	3.05049	0.695083	5.7302
				0.325575	1.22963	0.167485	2.23824	0.319283	1.20547	0.610205	5.66261	0.733507	7.06261	0.514532	2.9692	0.70043	5.74588
				0.326428	1.23343	0.16957	2.23798	0.320407	1.20919	0.61545	5.59433	0.740084	7.05443	0.517261	2.89075	0.70579	5.75848
				0.327135	1.2367	0.171655	2.23771	0.321536	1.21324	0.62063	5.52482	0.746652	7.04297	0.519918	2.81524	0.71116	5.76809
				0.327695	1.23924	0.17374	2.2375	0.322668	1.21754	0.625745	5.45421	0.753208	7.02811	0.522507	2.74255	0.715846	5.77414
				0.328108	1.2412	0.175824	2.23729	0.323805	1.22211	0.630793	5.38265	0.759748	7.00974	0.525029	2.67273	0.719844	5.77753
				0.328372	1.24246	0.177909	2.23707	0.324945	1.22692	0.635775	5.3101	0.76627	6.98794	0.527487	2.60578	0.723151	5.77906
				0.328753	1.24422	0.179993	2.23689	0.326091	1.23196	0.640688	5.23677	0.77277	6.96267	0.529884	2.54158	0.725767	5.77964
				0.329167	1.24623	0.182077	2.23669	0.327241	1.23719	0.645533	5.16278	0.779244	6.93393	0.532223	2.48003	0.72769	5.77952
				0.329732	1.24897	0.184161	2.23648	0.328396	1.24259	0.650308	5.08814	0.78569	6.90196	0.534505	2.42117	0.728921	5.77918
				0.330447	1.25247	0.186244	2.2363	0.329556	1.24814	0.655014	5.01307	0.792105	6.86686	0.536734	2.36493	0.73069	5.77864
				0.331316	1.25674	0.188328	2.23614	0.330722	1.25381	0.65965	4.93759	0.798486	6.82882	0.538912	2.31118	0.732613	5.77766
				0.332338	1.26189	0.190411	2.23598	0.331893	1.25965	0.664215	4.86184	0.80483	6.78813	0.541041	2.2598	0.735227	5.77558
				0.333517	1.2679	0.192494	2.2358	0.333069	1.26561	0.668709	4.78599	0.811135	6.74511	0.543123	2.21079	0.738532	5.77219
				0.334701	1.27395	0.194577	2.23563	0.334251	1.27163	0.673133	4.71008	0.817399	6.70016	0.545161	2.16402	0.742525	5.76675
				0.33589	1.28012	0.19666	2.23547	0.335439	1.27779	0.677486	4.63423	0.82362	6.6537	0.547156	2.11942	0.747204	5.75853
				0.337086	1.2864	0.198743	2.23532	0.336632	1.28402	0.681768	4.55855	0.829797	6.60612	0.54911	2.07691	0.752564	5.74676
				0.338288	1.29272	0.200826	2.23517	0.337831	1.29028	0.68598	4.48317	0.83593	6.55782	0.551026	2.0364	0.757913	5.73256
				0.339495	1.2991	0.202908	2.23502	0.339036	1.29667	0.690122	4.4082	0.842017	6.50936	0.552905	1.99779	0.763246	5.71601
				0.340708	1.30552	0.20499	2.23488	0.340248	1.30309	0.694194	4.33373	0.847285	6.46729	0.554748	1.96098	0.768564	5.69708
				0.341928	1.31199	0.207072	2.23473	0.341465	1.30952	0.698197	4.2598	0.851748	6.43168	0.556559	1.92599	0.773862	5.67583
				0.343153	1.31848	0.209154	2.23462	0.342688	1.31604	0.702132	4.18654	0.855421	6.40251	0.558337	1.89264	0.77914	5.65242
				0.344384	1.32502	0.211236	2.23449	0.343917	1.32255	0.705999	4.1141	0.858313	6.37977	0.560085	1.86087	0.784395	5.62687
				0.345622	1.33162	0.213318	2.23439	0.345152	1.3291	0.709798	4.0425	0.860433	6.36311	0.561805	1.83067	0.789625	5.59923
				0.346866	1.33818	0.2154	2.23427	0.346393	1.33568	0.713531	3.97176	0.861787	6.35252	0.563497	1.80195	0.794828	5.56962
				0.348116	1.34476	0.217481	2.2341	0.347641	1.34226	0.717199	3.90201	0.86373	6.33757	0.565162	1.77462	0.800003	5.53801
				0.349372	1.35138	0.219563	2.23401	0.348895	1.34888	0.720802	3.83333	0.865836	6.32142	0.566803	1.74858	0.805148	5.50455
				0.350634	1.35799	0.221644	2.23393	0.350154	1.35545	0.724342	3.76574	0.868692	6.29972	0.568421	1.72384	0.810261	5.46933
				0.351902	1.36459	0.223726	2.23378	0.35142	1.36207	0.727819	3.69928	0.872289	6.27279	0.570016	1.70034	0.815339	5.43235
				0.353176	1.37118	0.225807	2.23367	0.352693	1.36871	0.731235	3.63397	0.87662	6.24098	0.571589	1.67797	0.820383	5.39375
				0.354457	1.37778	0.227888	2.23358	0.353971	1.37526	0.734591	3.56989	0.881672	6.20481	0.573142	1.65671	0.82539	5.35358
				0.355744	1.38433	0.229969	2.23349	0.355255	1.38186	0.737887	3.50709	0.887434	6.16471	0.574676	1.63649	0.830359	5.31192
				0.357037	1.39091	0.23205	2.23338	0.356546	1.38846	0.741126	3.44555	0.893159	6.12616	0.576192	1.61729	0.835288	5.26883
				0.358336	1.39749	0.23413	2.23329	0.357842	1.39498	0.744308	3.3853	0.898849	6.08912	0.57769	1.59909	0.840177	5.22443
				0.359641	1.404	0.236211	2.2332	0.359145	1.40154	0.747434	3.32632	0.904505	6.05358	0.579172	1.58179	0.845023	5.17879
				0.360952	1.41052	0.238292	2.23309	0.360454	1.40804	0.750506	3.26863	0.910129	6.01933	0.580637	1.56537	0.849827	5.13199
				0.362269	1.417	0.240372	2.23299	0.361769	1.41451	0.753525	3.21228	0.915722	5.98627	0.582088	1.54977	0.854586	5.08412
				0.363592	1.42346	0.242453	2.23291	0.36309	1.42101	0.756492	3.15727	0.921284	5.95429	0.583525	1.53497	0.859301	5.03525
				0.364922	1.42988	0.244533	2.23287	0.364417	1.42748	0.759408	3.10354	0.926817	5.92313	0.584949	1.52094	0.863969	4.98547
				0.366257	1.43628	0.246613	2.23277	0.36575	1.43386	0.762275	3.05111	0.932321	5.89276	0.586359	1.50759	0.868591	4.93495
				0.367598	1.44266	0.248694	2.23265	0.367089	1.4402	0.765093	3	0.937797	5.86297	0.587758	1.49499	0.873165	4.88369
				0.368945	1.44896	0.250774	2.23259	0.368433	1.44656	0.767865	2.95012	0.943246	5.83364	0.589145	1.48308	0.877691	4.83176
				0.370298	1.45527	0.252854	2.23253	0.369784	1.45289	0.770591	2.90156	0.948668	5.80462	0.590521	1.47174	0.882168	4.77936
				0.371657	1.46153	0.254934	2.23246	0.371141	1.45917	0.773272	2.85425	0.954062	5.77572	0.591887	1.46102	0.886597	4.72646
				0.373021	1.46774	0.257014	2.23238	0.372503	1.46542	0.775909	2.80811	0.95943	5.74695	0.593244	1.45094	0.890975	4.67321
				0.374392	1.47395	0.259094	2.23228	0.373871	1.47162	0.778504	2.76321	0.964771	5.7181	0.594591	1.44135	0.895305	4.61966
				0.375768	1.4801	0.261173	2.23222	0.375245	1.47776	0.781058	2.71956	0.970085	5.6891	0.59593	1.43228	0.899584	4.56594
				0.37715	1.48618	0.263253	2.23216	0.376625	1.48387	0.783572	2.67708	0.975372	5.65988	0.59726	1.42375	0.903813	4.51212
				0.378537	1.49226	0.265333	2.23209	0.37801	1.48996	0.786047	2.6357	0.980632	5.63029	0.598583	1.41571	0.907991	4.45819
				0.37993	1.49826	0.267412	2.23205	0.379401	1.49601	0.788483	2.59545	0.985864	5.60037	0.599898	1.40814	0.91212	4.4043
				0.381329	1.50427	0.269492	2.23196	0.380798	1.50197	0.790883	2.55632	0.991067	5.56999	0.601207	1.40098	0.916198	4.35059
				0.382733	1.5102	0.271571	2.23188	0.3822	1.50795	0.793247	2.5183	0.996243	5.53909	0.602509	1.39426	0.920227	4.29696
				0.384143	1.51606	0.273651	2.23184	0.383608	1.51387	0.795576	2.48131	1.00139	5.52352	0.603805	1.38793	0.924205	4.24356
				0.385558	1.52192	0.27573	2.23178	0.385021	1.51969	0.79787	2.44534			0.605095	1.38202	0.928134	4.1905
				0.386979	1.52774	0.277809	2.23168	0.38644	1.52552	0.800132	2.41044			0.60638	1.37646	0.932014	4.13771
				0.388405	1.53351	0.279889	2.23163	0.387864	1.53133	0.802362	2.37651			0.60766	1.37126	0.935844	4.08531
				0.389837	1.53918	0.281968	2.23161	0.389293	1.53706	0.804561	2.34354			0.608935	1.3664	0.939626	4.0334
				0.391273	1.54487	0.284047	2.23156	0.390728	1.54271	0.806729	2.31149			0.610206	1.36184	0.94336	3.98196
				0.392715	1.55049	0.286126	2.2315	0.392168	1.54835	0.808868	2.28035			0.611473	1.35766	0.947046	3.93097
				0.394162	1.55605	0.288205	2.23143	0.393613	1.55395	0.810978	2.25012			0.612736	1.35373	0.950685	3.88058
				0.395615	1.56158	0.290284	2.23136	0.395063	1.55947	0.813061	2.2208			0.613995	1.35009	0.954277	3.8308
				0.397072	1.56706	0.292363	2.23132	0.396519	1.56497	0.815116	2.1923			0.615251	1.34673	0.957823	3.78157
				0.398535	1.5725	0.294442	2.23127	0.39798	1.57047	0.817146	2.16461			0.616505	1.34362	0.961324	3.73296
				0.400002	1.5779	0.296521	2.2312	0.399445	1.57585	0.81915	2.13776			0.617755	1.34078	0.964779	3.68507
				0.401475	1.58323	0.2986	2.23117	0.400916	1.58122	0.821129	2.11167			0.619003	1.33823	0.968191	3.6378
				0.402953	1.5885	0.300678	2.23112	0.402392	1.58654	0.823085	2.08635			0.620249	1.33585	0.971558	3.5912
				0.404435	1.59377	0.302757	2.23109	0.403872	1.59176	0.825017	2.06179			0.621492	1.33368	0.974882	3.54531
				0.405922	1.59897	0.304836	2.23104	0.405358	1.59701	0.826927	2.03791			0.622734	1.33175	0.978164	3.50014
				0.407415	1.60413	0.306914	2.23098	0.406848	1.6022	0.828814	2.01476			0.623974	1.33001	0.981405	3.45568
				0.408912	1.60924	0.308993	2.23092	0.408343	1.60732	0.830681	1.99234			0.625212	1.32848	0.984604	3.41193
				0.410413	1.61432	0.311071	2.23088	0.409843	1.61241	0.832527	1.97055			0.626449	1.32717	0.987762	3.36892
				0.41192	1.61935	0.31315	2.23086	0.411348	1.6174	0.834353	1.94936			0.627685	1.326	0.990881	3.32661
				0.413431	1.62429	0.315228	2.23078	0.412857	1.62239	0.836159	1.92885			0.62892	1.32498	0.993961	3.28502
				0.414946	1.62921	0.317307	2.23074	0.414371	1.62738	0.837947	1.90896			0.630154	1.32417	0.997003	3.24416
				0.416466	1.63408	0.319385	2.23072	0.41589	1.63225	0.839716	1.88967			0.631388	1.32355	1.00001	3.2239
				0.417991	1.63894	0.321463	2.23068	0.417413	1.6371	0.841468	1.87095			0.632621	1.32302		
				0.41952	1.64375	0.323542	2.23065	0.41894	1.64195	0.843203	1.8528			0.633853	1.32265		
				0.421054	1.64846	0.32562	2.2306	0.420472	1.64668	0.844921	1.83519			0.635085	1.32246		
				0.422592	1.65316	0.327698	2.23054	0.422009	1.65138	0.846622	1.81807			0.636317	1.32236		
				0.424135	1.65785	0.329776	2.23051	0.423549	1.65608	0.848308	1.80153			0.637549	1.32239		
				0.425681	1.66247	0.331854	2.2305	0.425094	1.6607	0.849979	1.7855			0.638781	1.32255		
				0.427232	1.66701	0.333933	2.23045	0.426644	1.66528	0.851635	1.76993			0.640014	1.32285		
				0.428788	1.67151	0.336011	2.23039	0.428198	1.66981	0.853277	1.75483			0.641246	1.32329		
				0.430347	1.676	0.338089	2.23036	0.429755	1.6743	0.854905	1.74017			0.64248	1.32381		
				0.431911	1.68048	0.340167	2.23035	0.431317	1.67878	0.85652	1.72603			0.643713	1.32439		
				0.433479	1.68488	0.342245	2.23031	0.432884	1.68322	0.858122	1.7123			0.644947	1.32513		
				0.43505	1.6892	0.344323	2.23028	0.434454	1.68756	0.859711	1.69898			0.646182	1.32597		
				0.436626	1.69352	0.346401	2.23024	0.436028	1.6919	0.861288	1.6861			0.647418	1.32687		
				0.438206	1.69777	0.348478	2.23018	0.437607	1.69619	0.862853	1.67358			0.648655	1.32786		
				0.43979	1.70202	0.350556	2.23018	0.439189	1.70042	0.864406	1.66146			0.649892	1.32895		
				0.441378	1.70623	0.352634	2.23015	0.440775	1.70462	0.865948	1.64976			0.651131	1.33015		
				0.442969	1.71035	0.354712	2.2301	0.442365	1.70878	0.86748	1.63842			0.652371	1.33141		
				0.444565	1.71446	0.35679	2.23007	0.443959	1.7129	0.869002	1.6274			0.653612	1.3327		
				0.446164	1.71853	0.358867	2.23002	0.445557	1.71698	0.870513	1.61677			0.654854	1.33411		
				0.447767	1.72254	0.360945	2.22999	0.447159	1.72103	0.872014	1.60647			0.656098	1.33559		
				0.449374	1.72657	0.363023	2.22998	0.448764	1.72504	0.873506	1.59649			0.657343	1.33713		
				0.450984	1.73052	0.3651	2.22994	0.450373	1.72902	0.874989	1.58681			0.65859	1.33875		
				0.452598	1.7344	0.367178	2.22992	0.451986	1.73295	0.876463	1.57746			0.659838	1.3404		
				0.454216	1.73828	0.369256	2.22991	0.453602	1.73682	0.877928	1.56843			0.661087	1.3421		
				0.455837	1.74212	0.371333	2.22986	0.455222	1.74066	0.879386	1.55971			0.662339	1.34387		
				0.457462	1.74591	0.373411	2.22981	0.456846	1.74448	0.880835	1.55124			0.663592	1.34574		
				0.459091	1.74967	0.375488	2.22978	0.458473	1.74826	0.882276	1.54305			0.664846	1.34763		
				0.460723	1.75339	0.377566	2.22976	0.460103	1.75198	0.88371	1.53515			0.666103	1.34956		
				0.462358	1.75707	0.379643	2.22976	0.461737	1.75567	0.885137	1.5275			0.667361	1.35155		
				0.463997	1.76075	0.381721	2.22972	0.463375	1.75935	0.886556	1.52009			0.668621	1.35354		
				0.465639	1.76434	0.383798	2.2297	0.465016	1.76298	0.887969	1.51294			0.669883	1.35563		
				0.467284	1.7679	0.385875	2.22969	0.46666	1.76659	0.889376	1.50607			0.671147	1.35777		
				0.468933	1.77147	0.387953	2.22964	0.468308	1.77012	0.890776	1.49941			0.672413	1.35991		
				0.470585	1.77498	0.39003	2.22959	0.469958	1.77364	0.89217	1.493			0.673681	1.36211		
				0.472241	1.77842	0.392107	2.22956	0.471613	1.77716	0.893558	1.4868			0.674951	1.36435		
				0.473899	1.78189	0.394185	2.22958	0.47327	1.78057	0.89494	1.48077			0.676224	1.3666		
				0.475561	1.78532	0.396262	2.22956	0.474931	1.78399	0.896317	1.47497			0.677498	1.3689		
				0.477226	1.78868	0.398339	2.22951	0.476594	1.78739	0.897689	1.46943			0.678774	1.37122		
				0.478894	1.792	0.400416	2.22948	0.478261	1.79073	0.899055	1.46406			0.680053	1.37355		
				0.480565	1.79528	0.402494	2.22947	0.479931	1.79406	0.900417	1.45885			0.681334	1.37596		
				0.482239	1.79856	0.404571	2.22943	0.481604	1.79736	0.901774	1.45387			0.682617	1.37838		
				0.483917	1.80186	0.406648	2.2294	0.48328	1.80063	0.903126	1.44907			0.683902	1.38079		
				0.485597	1.80504	0.408725	2.22939	0.484959	1.8038	0.904474	1.44443			0.68519	1.38328		
				0.48728	1.80821	0.410802	2.22935	0.486641	1.807	0.905817	1.43999			0.68648	1.38577		
				0.488966	1.81136	0.412879	2.22933	0.488327	1.81017	0.907157	1.43572			0.687772	1.3883		
				0.490655	1.81448	0.414956	2.22932	0.490015	1.81329	0.908493	1.43157			0.689067	1.39081		
				0.492347	1.81758	0.417033	2.22932	0.491705	1.8164	0.909825	1.42759			0.690364	1.39334		
				0.494042	1.82063	0.41911	2.22928	0.493399	1.81948	0.911153	1.42381			0.691663	1.39597		
				0.49574	1.82365	0.421187	2.22922	0.495096	1.82253	0.912478	1.42016			0.692965	1.39852		
				0.49744	1.82663	0.423264	2.22923	0.496795	1.82548	0.913799	1.41665			0.694269	1.40112		
				0.499144	1.82958	0.425341	2.22923	0.498497	1.82846	0.915117	1.41332			0.695576	1.40377		
				0.50085	1.83253	0.427418	2.2292	0.500202	1.83145	0.916433	1.41008			0.696885	1.40638		
				0.502558	1.83546	0.429495	2.22914	0.50191	1.83437	0.917745	1.40699			0.698196	1.40904		
				0.50427	1.83836	0.431572	2.22912	0.503621	1.83726	0.919054	1.40406			0.699511	1.41173		
				0.505984	1.8412	0.433649	2.22914	0.505334	1.8401	0.920361	1.4012			0.700827	1.41439		
				0.507701	1.84401	0.435726	2.22912	0.507049	1.84294	0.921665	1.39853			0.702146	1.41707		
				0.50942	1.84681	0.437802	2.22907	0.508768	1.84576	0.922967	1.39594			0.703468	1.41977		
				0.511142	1.84956	0.439879	2.22904	0.510489	1.84852	0.924267	1.39348			0.704792	1.42247		
				0.512866	1.85233	0.441956	2.22907	0.512212	1.85129	0.925564	1.39119			0.706118	1.42518		
				0.514594	1.85507	0.444033	2.22904	0.513938	1.85403	0.926859	1.38894			0.707447	1.42792		
				0.516323	1.85772	0.44611	2.22899	0.515667	1.85672	0.928152	1.38679			0.708779	1.43069		
				0.518055	1.8604	0.448186	2.22897	0.517398	1.85939	0.929443	1.38481			0.710113	1.43339		
				0.51979	1.86302	0.450263	2.22896	0.519132	1.86204	0.930732	1.38289			0.71145	1.43613		
				0.521527	1.86565	0.45234	2.22895	0.520868	1.86464	0.93202	1.3811			0.712789	1.43893		
				0.523266	1.86825	0.454416	2.22891	0.522606	1.86726	0.933306	1.37943			0.714131	1.44168		
				0.525008	1.87079	0.456493	2.22889	0.524347	1.86986	0.93459	1.37779			0.715476	1.44445		
				0.526752	1.87334	0.45857	2.22888	0.526091	1.87236	0.935873	1.37627			0.716823	1.44723		
				0.528499	1.87587	0.460646	2.22888	0.527836	1.8749	0.937155	1.37486			0.718173	1.44997		
				0.530248	1.87834	0.462723	2.22887	0.529584	1.87741	0.938435	1.37353			0.719525	1.45274		
				0.531999	1.88082	0.4648	2.22884	0.531335	1.87987	0.939714	1.37228			0.72088	1.45555		
				0.533752	1.88326	0.466876	2.22878	0.533087	1.88235	0.940992	1.3711			0.722237	1.45834		
				0.535508	1.88566	0.468953	2.22879	0.534842	1.88476	0.942269	1.37004			0.723597	1.4611		
				0.537266	1.8881	0.471029	2.22879	0.536599	1.88717	0.943545	1.36903			0.72496	1.4639		
				0.539026	1.89046	0.473106	2.22876	0.538359	1.88955	0.94482	1.36812			0.726325	1.46669		
				0.540789	1.89277	0.475182	2.22874	0.54012	1.89191	0.946095	1.36727			0.727693	1.46945		
				0.542553	1.89514	0.477259	2.22873	0.541884	1.89427	0.947368	1.36647			0.729063	1.47225		
				0.54432	1.89746	0.479335	2.22869	0.54365	1.89654	0.948641	1.36582			0.730436	1.47508		
				0.546089	1.89971	0.481412	2.22867	0.545418	1.89885	0.949913	1.36516			0.731812	1.47785		
				0.54786	1.90198	0.483488	2.22866	0.547188	1.90114	0.951185	1.36458			0.73319	1.48059		
				0.549633	1.90421	0.485565	2.22866	0.548961	1.90338	0.952456	1.36414			0.734571	1.48339		
				0.551408	1.90646	0.487641	2.22865	0.550735	1.90561	0.953727	1.36366			0.735954	1.48622		
				0.553186	1.90865	0.489717	2.22862	0.552512	1.90781	0.954997	1.36328			0.73734	1.48898		
				0.554965	1.91084	0.491794	2.2286	0.55429	1.91002	0.956267	1.36301			0.738728	1.49172		
				0.556746	1.913	0.49387	2.22859	0.556071	1.91218	0.957537	1.36277			0.74012	1.49452		
				0.55853	1.9151	0.495947	2.22858	0.557853	1.91432	0.958806	1.36258			0.741513	1.49731		
				0.560315	1.91725	0.498023	2.22854	0.559638	1.91642	0.960076	1.36244			0.74291	1.50006		
				0.562102	1.91935	0.500099	2.22852	0.561424	1.91853	0.961345	1.36234			0.744309	1.50283		
				0.563891	1.92143	0.502176	2.22851	0.563213	1.92065	0.962614	1.36232			0.74571	1.5056		
				0.565683	1.92349	0.504252	2.22851	0.565003	1.92273	0.963884	1.36239			0.747114	1.50835		
				0.567476	1.92555	0.506328	2.22851	0.566796	1.92476	0.965153	1.36246			0.748521	1.51111		
				0.569271	1.92757	0.508404	2.22847	0.56859	1.92677	0.966422	1.36257			0.74993	1.51388		
				0.571067	1.92956	0.510481	2.22845	0.570386	1.9288	0.967692	1.36273			0.751342	1.51659		
				0.572866	1.93155	0.512557	2.22844	0.572184	1.9308	0.968962	1.36299			0.752756	1.51933		
				0.574667	1.9335	0.514633	2.22844	0.573984	1.93279	0.970232	1.36327			0.754173	1.5221		
				0.576469	1.93546	0.516709	2.2284	0.575785	1.93474	0.971502	1.36356			0.755592	1.52483		
				0.578273	1.93739	0.518785	2.22838	0.577589	1.93666	0.972773	1.36392			0.757014	1.52752		
				0.580079	1.93927	0.520862	2.2284	0.579394	1.93858	0.974043	1.36436			0.758438	1.53025		
				0.581887	1.9412	0.522938	2.22838	0.581201	1.94049	0.975315	1.3648			0.759866	1.53298		
				0.583696	1.94308	0.525014	2.22833	0.58301	1.94239	0.976587	1.36527			0.761295	1.53566		
				0.585508	1.94494	0.52709	2.22831	0.584821	1.94423	0.977859	1.36581			0.762727	1.53839		
				0.587321	1.94678	0.529166	2.22833	0.586633	1.94606	0.979132	1.36636			0.764162	1.54107		
				0.589135	1.94862	0.531242	2.22831	0.588447	1.94793	0.980405	1.36697			0.765599	1.54377		
				0.590952	1.95046	0.533318	2.22826	0.590263	1.94977	0.981679	1.36757			0.767038	1.54644		
				0.59277	1.95221	0.535394	2.22827	0.59208	1.95154	0.982953	1.36827			0.76848	1.54909		
				0.594589	1.95397	0.537471	2.22828	0.593899	1.9533	0.984228	1.36899			0.769925	1.5518		
				0.596411	1.95577	0.539547	2.22824	0.59572	1.9551	0.985504	1.36971			0.771372	1.55445		
				0.598234	1.95754	0.541623	2.22823	0.597542	1.95684	0.986781	1.37048			0.772821	1.55708		
				0.600058	1.95924	0.543699	2.22822	0.599366	1.95859	0.988058	1.37126			0.774273	1.55976		
				0.601885	1.96093	0.545775	2.22822	0.601192	1.96031	0.989336	1.37213			0.775728	1.56238		
				0.603712	1.96265	0.547851	2.22818	0.603019	1.96201	0.990615	1.37301			0.777185	1.565		
				0.605542	1.96435	0.549927	2.22816	0.604848	1.96374	0.991894	1.37388			0.778644	1.56764		
				0.607373	1.96601	0.552003	2.22818	0.606678	1.96537	0.993175	1.37483			0.780106	1.57023		
				0.609205	1.96768	0.554079	2.22816	0.60851	1.96703	0.994456	1.37579			0.78157	1.57285		
				0.611039	1.96933	0.556155	2.22811	0.610344	1.9687	0.995738	1.37674			0.783037	1.57544		
				0.612875	1.97091	0.55823	2.22809	0.612179	1.97031	0.997022	1.37773			0.784506	1.57802		
				0.614712	1.97255	0.560306	2.22811	0.614015	1.97195	0.998306	1.37877			0.785977	1.58063		
				0.61655	1.97418	0.562382	2.22809	0.615853	1.97354	0.999591	1.37984			0.787451	1.58321		
				0.61839	1.97572	0.564458	2.22808	0.617693	1.97511	1.00088	1.38034			0.788927	1.58575		
				0.620232	1.9773	0.566534	2.22807	0.619533	1.97673					0.790406	1.5883		
				0.622075	1.97886	0.56861	2.22803	0.621376	1.97828					0.791887	1.59089		
				0.623919	1.98037	0.570686	2.22805	0.62322	1.97978					0.79337	1.5934		
				0.625765	1.98193	0.572762	2.22806	0.625065	1.98134					0.794856	1.59593		
				0.627612	1.98344	0.574837	2.22799	0.626912	1.98289					0.796344	1.59848		
				0.629461	1.98493	0.576913	2.22799	0.62876	1.9844					0.797835	1.60096		
				0.631311	1.98644	0.578989	2.22799	0.63061	1.98588					0.799327	1.60345		
				0.633163	1.98793	0.581065	2.22795	0.63246	1.98736					0.800822	1.60598		
				0.635015	1.98937	0.583141	2.22797	0.634313	1.98879					0.80232	1.60848		
				0.63687	1.99079	0.585216	2.22795	0.636166	1.99028					0.80382	1.61095		
				0.638725	1.99227	0.587292	2.22793	0.638021	1.99175					0.805322	1.61339		
				0.640582	1.9937	0.589368	2.22793	0.639878	1.99315					0.806826	1.61585		
				0.64244	1.99508	0.591444	2.22789	0.641735	1.99454					0.808333	1.61833		
				0.6443	1.9965	0.593519	2.2279	0.643594	1.99597					0.809842	1.62074		
				0.64616	1.9979	0.595595	2.22787	0.645455	1.99738					0.811353	1.62319		
				0.648022	1.99927	0.597671	2.22786	0.647316	1.99875					0.812866	1.62562		
				0.649886	2.00064	0.599746	2.22785	0.649179	2.00012					0.814382	1.62801		
				0.65175	2.00199	0.601822	2.22781	0.651043	2.00147					0.8159	1.63045		
				0.653616	2.00332	0.603898	2.22783	0.652909	2.00281					0.81742	1.63284		
				0.655483	2.00469	0.605973	2.22784	0.654775	2.00417					0.818943	1.63521		
				0.657352	2.00599	0.608049	2.2278	0.656643	2.00547					0.820467	1.63757		
				0.659221	2.00727	0.610125	2.22779	0.658512	2.00678					0.821994	1.63995		
				0.661092	2.0086	0.6122	2.22778	0.660383	2.00813					0.823523	1.64232		
				0.662964	2.00989	0.614276	2.22778	0.662254	2.0094					0.825054	1.64464		
				0.664837	2.01115	0.616352	2.22777	0.664127	2.01065					0.826588	1.647		
				0.666712	2.01241	0.618427	2.22774	0.666001	2.01194					0.828123	1.64936		
				0.668587	2.01366	0.620503	2.22772	0.667876	2.0132					0.829661	1.65167		
				0.670464	2.01495	0.622578	2.22771	0.669752	2.01446					0.831201	1.65396		
				0.672342	2.01617	0.624654	2.2277	0.67163	2.01571					0.832743	1.65624		
				0.674221	2.01737	0.626729	2.2277	0.673508	2.01692					0.834287	1.65856		
				0.676101	2.01856	0.628805	2.22766	0.675388	2.01811					0.835834	1.66085		
				0.677982	2.01978	0.63088	2.22764	0.677269	2.01933					0.837382	1.66309		
				0.679865	2.02101	0.632956	2.22767	0.679151	2.02056					0.838933	1.66535		
				0.681748	2.02221	0.635031	2.22765	0.681034	2.02172					0.840485	1.66761		
				0.683633	2.02336	0.637107	2.22764	0.682918	2.02289					0.84204	1.66988		
				0.685518	2.02448	0.639182	2.22763	0.684803	2.02406					0.843597	1.67211		
				0.687405	2.02567	0.641258	2.22759	0.68669	2.02523					0.845156	1.67433		
				0.689293	2.02684	0.643333	2.22761	0.688577	2.02641					0.846717	1.67653		
				0.691182	2.02795	0.645409	2.22758	0.690466	2.0275					0.84828	1.67877		
				0.693072	2.02905	0.647484	2.22757	0.692355	2.02864					0.849845	1.68095		
				0.694963	2.03018	0.649559	2.22756	0.694246	2.02979					0.851412	1.68314		
				0.696855	2.03134	0.651635	2.22756	0.696137	2.03088					0.852981	1.68534		
				0.698748	2.03243	0.65371	2.22755	0.69803	2.03198					0.854552	1.68746		
				0.700642	2.03348	0.655786	2.22752	0.699924	2.03307					0.856126	1.68962		
				0.702537	2.03456	0.657861	2.2275	0.701818	2.03417					0.857701	1.6918		
				0.704433	2.03565	0.659936	2.22749	0.703714	2.03527					0.859278	1.69395		
				0.70633	2.03671	0.662012	2.22752	0.705611	2.03633					0.860857	1.69609		
				0.708228	2.03778	0.664087	2.2275	0.707509	2.03737					0.862439	1.69818		
				0.710128	2.03884	0.666162	2.22745	0.709407	2.03841					0.864022	1.70029		
				0.712028	2.03984	0.668238	2.22743	0.711307	2.03947					0.865607	1.70241		
				0.713929	2.04089	0.670313	2.22745	0.713208	2.04052					0.867194	1.70449		
				0.715831	2.04193	0.672388	2.22747	0.715109	2.04152					0.868783	1.70659		
				0.717734	2.04292	0.674464	2.2274	0.717012	2.04253					0.870374	1.70867		
				0.719637	2.04393	0.676539	2.2274	0.718915	2.04355					0.871967	1.71073		
				0.721542	2.04495	0.678614	2.2274	0.72082	2.04457					0.873562	1.71279		
				0.723448	2.04593	0.680689	2.22737	0.722725	2.04556					0.875159	1.71481		
				0.725355	2.0469	0.682765	2.22739	0.724631	2.04653					0.876757	1.71684		
				0.727262	2.04786	0.68484	2.2274	0.726539	2.04749					0.878358	1.71892		
				0.72917	2.04886	0.686915	2.22736	0.728447	2.04848					0.87996	1.72091		
				0.73108	2.04983	0.68899	2.22731	0.730356	2.04946					0.881564	1.7229		
				0.73299	2.05079	0.691065	2.22732	0.732266	2.05042					0.883171	1.72495		
				0.734901	2.05171	0.693141	2.22733	0.734177	2.05138					0.884779	1.72693		
				0.736813	2.05265	0.695216	2.22733	0.736088	2.05229					0.886389	1.72891		
				0.738726	2.05359	0.697291	2.22729	0.738001	2.05323					0.888	1.73089		
				0.74064	2.0545	0.699366	2.22728	0.739914	2.05414					0.889614	1.73283		
				0.742554	2.0554	0.701441	2.2273	0.741828	2.05507					0.891229	1.73479		
				0.74447	2.05632	0.703516	2.22728	0.743744	2.05601					0.892846	1.73676		
				0.746386	2.05726	0.705592	2.22723	0.74566	2.05688					0.894466	1.73869		
				0.748303	2.05813	0.707667	2.22725	0.747576	2.05779					0.896086	1.74061		
				0.750221	2.05901	0.709742	2.22725	0.749494	2.05869					0.897709	1.74256		
				0.75214	2.05988	0.711817	2.22722	0.751412	2.05954					0.899333	1.74445		
				0.75406	2.06076	0.713892	2.2272	0.753332	2.06044					0.90096	1.74635		
				0.75598	2.06164	0.715967	2.22719	0.755252	2.06133					0.902588	1.74825		
				0.757901	2.06252	0.718042	2.22719	0.757173	2.06218					0.904217	1.75015		
				0.759823	2.06336	0.720117	2.22719	0.759095	2.06304					0.905849	1.75202		
				0.761746	2.06422	0.722192	2.22719	0.761017	2.06391					0.907482	1.75387		
				0.76367	2.06506	0.724267	2.22715	0.76294	2.06471					0.909117	1.75578		
				0.765594	2.06587	0.726342	2.22713	0.764864	2.06555					0.910754	1.75762		
				0.767519	2.06672	0.728417	2.22712	0.766789	2.06641					0.912392	1.75941		
				0.769445	2.06755	0.730492	2.22712	0.768715	2.06725					0.914032	1.76127		
				0.771372	2.06837	0.732567	2.22712	0.770641	2.06807					0.915674	1.76311		
				0.773299	2.06918	0.734642	2.22711	0.772569	2.06884					0.917318	1.76494		
				0.775228	2.06999	0.736717	2.22711	0.774496	2.06967					0.918963	1.76674		
				0.777157	2.07076	0.738792	2.22708	0.776425	2.07049					0.92061	1.76852		
				0.779086	2.07155	0.740867	2.22706	0.778355	2.07126					0.922258	1.77032		
				0.781017	2.07238	0.742942	2.22709	0.780285	2.07205					0.923908	1.7721		
				0.782948	2.07316	0.745017	2.22706	0.782216	2.07285					0.92556	1.77391		
				0.78488	2.07388	0.747092	2.22701	0.784147	2.07365					0.927214	1.77565		
				0.786812	2.07468	0.749167	2.22703	0.78608	2.07438					0.928869	1.7774		
				0.788746	2.07545	0.751242	2.22703	0.788013	2.07515					0.930526	1.77916		
				0.79068	2.0762	0.753317	2.227	0.789946	2.07594					0.932184	1.78088		
				0.792615	2.07698	0.755392	2.22702	0.791881	2.07666					0.933844	1.78265		
				0.79455	2.07769	0.757467	2.22699	0.793816	2.07742					0.935506	1.78438		
				0.796486	2.07846	0.759541	2.22698	0.795752	2.07817					0.937169	1.78609		
				0.798423	2.0792	0.761616	2.22697	0.797689	2.07891					0.938834	1.78779		
				0.800361	2.07991	0.763691	2.22693	0.799626	2.07965					0.940501	1.78948		
				0.802299	2.08062	0.765766	2.22695	0.801564	2.08038					0.942169	1.7912		
				0.804238	2.08139	0.767841	2.22696	0.803502	2.08108					0.943838	1.79287		
				0.806177	2.0821	0.769916	2.22693	0.805442	2.08179					0.94551	1.79455		
				0.808117	2.08278	0.77199	2.22691	0.807382	2.08255					0.947182	1.79623		
				0.810058	2.08349	0.774065	2.2269	0.809322	2.08323					0.948857	1.79787		
				0.812	2.08421	0.77614	2.2269	0.811263	2.08393					0.950533	1.79954		
				0.813942	2.0849	0.778215	2.2269	0.813205	2.08465					0.95221	1.80121		
				0.815885	2.08557	0.78029	2.22686	0.815148	2.0853					0.953889	1.80285		
				0.817828	2.08628	0.782364	2.22688	0.817091	2.08599					0.955569	1.80445		
				0.819772	2.08696	0.784439	2.22688	0.819035	2.0867					0.957251	1.80608		
				0.821717	2.08763	0.786514	2.22682	0.820979	2.08739					0.958935	1.80771		
				0.823662	2.08829	0.788589	2.22682	0.822925	2.08806					0.96062	1.80929		
				0.825608	2.08896	0.790663	2.22686	0.82487	2.08869					0.962306	1.81088		
				0.827555	2.08962	0.792738	2.2268	0.826817	2.08937					0.963994	1.81249		
				0.829502	2.09028	0.794813	2.22677	0.828764	2.09004					0.965684	1.8141		
				0.83145	2.09094	0.796887	2.2268	0.830711	2.09067					0.967374	1.81567		
				0.833398	2.0916	0.798962	2.22681	0.832659	2.09135					0.969067	1.81722		
				0.835347	2.09222	0.801037	2.22678	0.834608	2.09198					0.970761	1.81881		
				0.837297	2.09286	0.803111	2.22676	0.836558	2.09259					0.972456	1.82037		
				0.839247	2.09351	0.805186	2.22675	0.838507	2.09326					0.974153	1.82192		
				0.841198	2.09413	0.807261	2.22675	0.840458	2.09389					0.975851	1.82346		
				0.843149	2.09473	0.809335	2.22675	0.842409	2.0945					0.977551	1.82497		
				0.845101	2.09536	0.81141	2.22671	0.844361	2.09517					0.979252	1.82649		
				0.847054	2.096	0.813485	2.22669	0.846313	2.09576					0.980954	1.82802		
				0.849007	2.09662	0.815559	2.22668	0.848266	2.09635					0.982658	1.82955		
				0.850961	2.09718	0.817634	2.22671	0.85022	2.09701					0.984363	1.83105		
				0.852915	2.0978	0.819708	2.22669	0.852174	2.0976					0.98607	1.83253		
				0.85487	2.09843	0.821783	2.22665	0.854128	2.09818					0.987778	1.83404		
				0.856825	2.09901	0.823858	2.22666	0.856083	2.09877					0.989487	1.83553		
				0.858781	2.09959	0.825932	2.22667	0.858039	2.09935					0.991198	1.83701		
				0.860737	2.10021	0.828007	2.22663	0.859995	2.09998					0.99291	1.83844		
				0.862694	2.10077	0.830081	2.22662	0.861952	2.10054					0.994624	1.83993		
				0.864652	2.10135	0.832156	2.22665	0.863909	2.10112					0.996339	1.8414		
				0.86661	2.10193	0.83423	2.22662	0.865867	2.10174					0.998055	1.84283		
				0.868569	2.10248	0.836305	2.22661	0.867826	2.1023					0.999773	1.84428		
				0.870528	2.10308	0.838379	2.22661	0.869785	2.10284					1.00149	1.84499		
				0.872487	2.10364	0.840454	2.22657	0.871744	2.10341								
				0.874448	2.10417	0.842528	2.22655	0.873704	2.10398								
				0.876408	2.10473	0.844603	2.22657	0.875665	2.10452								
				0.878369	2.10531	0.846677	2.22659	0.877626	2.10509								
				0.880331	2.10585	0.848752	2.22652	0.879587	2.10563								
				0.882294	2.10641	0.850826	2.22652	0.881549	2.10615								
				0.884256	2.10695	0.852901	2.22653	0.883512	2.10674								
				0.88622	2.10744	0.854975	2.22649	0.885475	2.1073								
				0.888183	2.10801	0.85705	2.22651	0.887439	2.10779								
				0.890148	2.10856	0.859124	2.22652	0.889403	2.10833								
				0.892112	2.10905	0.861198	2.22649	0.891367	2.10886								
				0.894078	2.10959	0.863273	2.22647	0.893332	2.10938								
				0.896043	2.11011	0.865347	2.22646	0.895298	2.10993								
				0.89801	2.1106	0.867422	2.22646	0.897264	2.11043								
				0.899976	2.11113	0.869496	2.22646	0.899231	2.11093								
				0.901943	2.11165	0.87157	2.22642	0.901198	2.11144								
				0.903911	2.11214	0.873645	2.22644	0.903165	2.11195								
				0.905879	2.11267	0.875719	2.22641	0.905133	2.11247								
				0.907848	2.11316	0.877793	2.22639	0.907101	2.11298								
				0.909817	2.11366	0.879868	2.22642	0.90907	2.11345								
				0.911786	2.11416	0.881942	2.22637	0.911039	2.11395								
				0.913756	2.11463	0.884016	2.22637	0.913009	2.11445								
				0.915727	2.11513	0.886091	2.22638	0.91498	2.11492								
				0.917698	2.11559	0.888165	2.22634	0.91695	2.11545								
				0.919669	2.11608	0.890239	2.22636	0.918921	2.11594								
				0.921641	2.11658	0.892313	2.22633	0.920893	2.11636								
				0.923613	2.11705	0.894388	2.22632	0.922865	2.11683								
				0.925586	2.11751	0.896462	2.22631	0.924838	2.11736								
				0.927559	2.11796	0.898536	2.22631	0.926811	2.1178								
				0.929532	2.11844	0.90061	2.22631	0.928784	2.11825								
				0.931506	2.11893	0.902685	2.22627	0.930758	2.11876								
				0.933481	2.11936	0.904759	2.22629	0.932732	2.1192								
				0.935455	2.1198	0.906833	2.22626	0.934707	2.11964								
				0.937431	2.12027	0.908907	2.22625	0.936682	2.12012								
				0.939406	2.12073	0.910981	2.22628	0.938657	2.12054								
				0.941382	2.12118	0.913056	2.22626	0.940633	2.12101								
				0.943359	2.12162	0.91513	2.22621	0.942609	2.12146								
				0.945336	2.12206	0.917204	2.22622	0.944586	2.12187								
				0.947313	2.1225	0.919278	2.22623	0.946563	2.12233								
				0.949291	2.12294	0.921352	2.22619	0.948541	2.12278								
				0.951269	2.12338	0.923426	2.22618	0.950519	2.12323								
				0.953247	2.12382	0.9255	2.22617	0.952497	2.12367								
				0.955226	2.12423	0.927575	2.22616	0.954476	2.12407								
				0.957206	2.12465	0.929649	2.22616	0.956455	2.12449								
				0.959185	2.12511	0.931723	2.22616	0.958435	2.12492								
				0.961166	2.12549	0.933797	2.22616	0.960415	2.12532								
				0.963146	2.1259	0.935871	2.22612	0.962395	2.12578								
				0.965127	2.12636	0.937945	2.22611	0.964376	2.12619								
				0.967108	2.12674	0.940019	2.22613	0.966357	2.12658								
				0.96909	2.12715	0.942093	2.22611	0.968339	2.12699								
				0.971072	2.12757	0.944167	2.2261	0.97032	2.12742								
				0.973054	2.12797	0.946241	2.22609	0.972303	2.12781								
				0.975037	2.12839	0.948315	2.22605	0.974285	2.1282								
				0.97702	2.12878	0.950389	2.22607	0.976268	2.12864								
				0.979004	2.12916	0.952463	2.22608	0.978252	2.12905								
				0.980988	2.12957	0.954537	2.22605	0.980236	2.1294								
				0.982972	2.12995	0.956611	2.22603	0.98222	2.12979								
				0.984957	2.13037	0.958685	2.22602	0.984204	2.13021								
				0.986942	2.13076	0.960759	2.22602	0.986189	2.1306								
				0.988927	2.1311	0.962833	2.22598	0.988174	2.13098								
				0.990913	2.13149	0.964907	2.226	0.99016	2.13135								
				0.992899	2.1319	0.966981	2.22601	0.992146	2.13176								
				0.994886	2.13229	0.969055	2.22597	0.994132	2.13215								
				0.996872	2.13264	0.971129	2.22596	0.996119	2.13249								
				0.99886	2.13299	0.973203	2.22599	0.998106	2.13288								
				1.00085	2.13318	0.975277	2.22596	1.00009	2.1331								
						0.977351	2.22592										
						0.979425	2.22593										
						0.981499	2.22593										
						0.983572	2.22594										
						0.985646	2.2259										
						0.98772	2.22589										
						0.989794	2.22588										
						0.991868	2.22587										
						0.993942	2.22587										
						0.996015	2.22587										
						0.998089	2.22583										
						1.00016	2.22577										
