Sym0		Asym0		Sym1		Sym2		Sym3		Sym4		Asym1		Asym2		Asym3	
453  Points		495  Points		177  Points		149  Points		134  Points		98  Points		283  Points		160  Points		129  Points	
Freq (MHz)	Vph (m/ms)	Freq (MHz)	Vph (m/ms)	Freq (MHz)	Vph (m/ms)	Freq (MHz)	Vph (m/ms)	Freq (MHz)	Vph (m/ms)	Freq (MHz)	Vph (m/ms)	Freq (MHz)	Vph (m/ms)	Freq (MHz)	Vph (m/ms)	Freq (MHz)	Vph (m/ms)
0.00491328	6.87834	9.63871e-008	0.00269032	0.279508	40567.6	0.52804	12283.9	0.559053	634.52	0.838526	14720.9	0.139907	152.031	0.419268	1284.41	0.698772	4061.76
0.0113212	6.878	9.32867e-005	0.0964181	0.27957	297.864	0.528052	541.768	0.55917	308.464	0.83855	848.171	0.14037	75.7962	0.419342	333.307	0.698807	633.131
0.0177281	6.8775	0.000358313	0.188663	0.279754	149.578	0.528085	277.01	0.559367	203.817	0.838618	436.7	0.141141	50.7038	0.419502	191.569	0.698893	343.364
0.0241332	6.87674	0.000791772	0.279688	0.280058	99.9503	0.52814	186.091	0.559645	152.237	0.838729	294.08	0.142212	38.2772	0.419748	134.469	0.699029	235.592
0.0305359	6.87576	0.00138809	0.368916	0.280484	75.1228	0.528217	140.119	0.560002	121.532	0.838883	221.707	0.143576	30.8963	0.420081	103.642	0.699216	179.341
0.0369354	6.87454	0.00213999	0.45587	0.281029	60.2374	0.528317	112.373	0.560438	101.17	0.83908	177.943	0.145221	26.0311	0.4205	84.3546	0.699454	144.799
0.0433313	6.8731	0.0030389	0.540152	0.281694	50.329	0.528441	93.8091	0.560951	86.6838	0.839321	148.628	0.147135	22.5999	0.421004	71.1564	0.699743	121.437
0.0497227	6.87141	0.00407498	0.621404	0.282478	43.2667	0.52859	80.5182	0.561542	75.8541	0.839605	127.622	0.149305	20.0622	0.421594	61.5619	0.700082	104.585
0.056109	6.86948	0.00523789	0.699375	0.283378	37.984	0.528765	70.5345	0.562209	67.4546	0.839932	111.834	0.151719	18.1182	0.422269	54.2762	0.700472	91.858
0.0624894	6.86729	0.00651702	0.773893	0.284393	33.888	0.528967	62.7612	0.56295	60.7523	0.840303	99.5358	0.154361	16.5881	0.423028	48.5587	0.700912	81.9081
0.0688633	6.86487	0.00790153	0.844832	0.285523	30.6229	0.529197	56.5385	0.563765	55.2819	0.840716	89.6868	0.157218	15.3575	0.423871	43.9546	0.701402	73.9175
0.0752299	6.86219	0.00938106	0.912158	0.286765	27.962	0.529456	51.4453	0.564652	50.7338	0.841172	81.6228	0.160276	14.3502	0.424797	40.1697	0.701943	67.3606
0.0815884	6.85925	0.0109457	0.975885	0.288118	25.7542	0.529747	47.2005	0.565611	46.8943	0.841671	74.8998	0.163523	13.5136	0.425806	37.0049	0.702534	61.8843
0.0879381	6.85605	0.0125858	1.03605	0.289579	23.8948	0.530071	43.6092	0.56664	43.6108	0.842213	69.2097	0.166944	12.8101	0.426897	34.3208	0.703174	57.2428
0.0942781	6.85258	0.0142928	1.09275	0.291147	22.3091	0.530428	40.5318	0.567737	40.7717	0.842798	64.3323	0.170529	12.2121	0.42807	32.0168	0.703864	53.2595
0.100607	6.84883	0.0160585	1.14612	0.292819	20.9421	0.53082	37.8659	0.568902	38.2932	0.843425	60.1056	0.173778	11.7609	0.429323	30.0187	0.704604	49.8043
0.106925	6.84479	0.0178758	1.19627	0.294593	19.7528	0.53125	35.5349	0.570133	36.1114	0.844094	56.408	0.176632	11.4192	0.430656	28.2702	0.705393	46.7794
0.113231	6.84046	0.0197379	1.24336	0.296467	18.7096	0.531718	33.4797	0.57143	34.1767	0.844806	53.1466	0.179049	11.1624	0.432068	26.7282	0.706232	44.1096
0.119523	6.83582	0.021639	1.28755	0.298439	17.7881	0.532226	31.6547	0.572791	32.4499	0.845561	50.2488	0.180994	10.9741	0.433557	25.3588	0.707119	41.7363
0.125801	6.83088	0.0235737	1.32899	0.300505	16.969	0.532775	30.0236	0.574215	30.8996	0.846357	47.6575	0.182444	10.8432	0.435124	24.1352	0.708055	39.6132
0.132063	6.82562	0.0255376	1.36786	0.302664	16.2366	0.533366	28.5576	0.575701	29.5005	0.847195	45.3267	0.183379	10.7626	0.436767	23.0358	0.70904	37.703
0.138309	6.82001	0.0275264	1.40431	0.304913	15.5786	0.534002	27.2331	0.577249	28.2319	0.848075	43.2194	0.184735	10.6508	0.438485	22.0433	0.710073	35.9756
0.144537	6.81407	0.0295366	1.43849	0.307249	14.9847	0.534683	26.031	0.578856	27.0767	0.848997	41.3052	0.186223	10.5345	0.440277	21.1431	0.711154	34.4062
0.150747	6.80777	0.0315651	1.47055	0.30967	14.4464	0.535411	24.9354	0.580523	26.0207	0.84996	39.5589	0.18827	10.3844	0.442142	20.3233	0.712283	32.9745
0.156935	6.8011	0.0333455	1.49687	0.312174	13.9566	0.536188	23.933	0.582249	25.0519	0.850965	37.9596	0.190895	10.207	0.444079	19.5741	0.713459	31.6632
0.163102	6.79404	0.0348713	1.5182	0.314758	13.5094	0.537014	23.0129	0.584032	24.1601	0.85201	36.4897	0.194122	10.0092	0.446087	18.8869	0.714682	30.4581
0.169246	6.78658	0.0361379	1.5351	0.31742	13.0998	0.537891	22.1655	0.585872	23.3367	0.853097	35.1343	0.197977	9.79777	0.448165	18.2548	0.715953	29.347
0.175366	6.77871	0.0371423	1.548	0.320157	12.7235	0.538821	21.3828	0.587768	22.5745	0.854224	33.8807	0.202487	9.57927	0.450311	17.6716	0.71727	28.3195
0.181459	6.77039	0.0378823	1.55725	0.322968	12.3769	0.539804	20.658	0.589719	21.8669	0.855393	32.718	0.207083	9.38311	0.452525	17.1321	0.718634	27.3666
0.187523	6.76163	0.0383566	1.56306	0.325849	12.0569	0.540842	19.9852	0.591725	21.2086	0.856601	31.6368	0.211758	9.20631	0.454805	16.6318	0.720043	26.4807
0.193558	6.75238	0.0390391	1.57127	0.328416	11.7974	0.541937	19.3592	0.593784	20.5947	0.85785	30.629	0.216508	9.04637	0.457151	16.1667	0.721498	25.6552
0.199561	6.74265	0.0397819	1.58001	0.330645	11.5893	0.54309	18.7755	0.595897	20.021	0.859139	29.6874	0.221326	8.90119	0.45956	15.7335	0.722999	24.8842
0.20553	6.73239	0.0407938	1.59159	0.332515	11.4257	0.544302	18.2302	0.598063	19.4838	0.860467	28.8059	0.226209	8.76898	0.462032	15.3292	0.724545	24.1625
0.211463	6.72159	0.0420759	1.60576	0.334011	11.3014	0.545575	17.7198	0.60028	18.98	0.861836	27.979	0.231151	8.64822	0.464566	14.9511	0.726135	23.4859
0.217357	6.71023	0.0436295	1.6222	0.335121	11.2127	0.546909	17.2414	0.602548	18.5065	0.863243	27.202	0.236149	8.53758	0.467161	14.5969	0.72777	22.8502
0.223211	6.69827	0.0454557	1.64058	0.335835	11.1571	0.548307	16.7923	0.604868	18.0609	0.86469	26.4704	0.241197	8.43596	0.469815	14.2646	0.729449	22.2519
0.229021	6.6857	0.0475557	1.66053	0.336868	11.0787	0.54977	16.37	0.607237	17.6409	0.866176	25.7806	0.246294	8.34236	0.472526	13.9522	0.731171	21.6881
0.234785	6.67248	0.0496594	1.67935	0.337998	10.9956	0.551298	15.9724	0.609655	17.2444	0.8677	25.1291	0.251435	8.25595	0.475295	13.6582	0.732937	21.1558
0.240499	6.65858	0.051766	1.69712	0.339548	10.8857	0.552893	15.5976	0.612123	16.8696	0.869263	24.5129	0.256616	8.17597	0.47812	13.3812	0.734745	20.6526
0.246162	6.64398	0.053875	1.71391	0.341529	10.7519	0.554557	15.2438	0.614639	16.5149	0.870864	23.9294	0.261836	8.10178	0.480999	13.1196	0.736596	20.1762
0.25177	6.62864	0.0559857	1.72979	0.343954	10.5974	0.556291	14.9097	0.617203	16.1788	0.872503	23.376	0.267092	8.03281	0.483932	12.8725	0.73849	19.7247
0.257319	6.61254	0.0580977	1.74481	0.346841	10.4255	0.558096	14.5936	0.619813	15.8599	0.87418	22.8505	0.272379	7.96856	0.486917	12.6387	0.740425	19.2962
0.262807	6.59564	0.0602107	1.75905	0.350209	10.24	0.559973	14.2944	0.622471	15.557	0.875894	22.351	0.277697	7.90857	0.489953	12.4172	0.742401	18.8891
0.268229	6.57792	0.0623243	1.77255	0.353634	10.0659	0.561923	14.011	0.625175	15.269	0.877645	21.8756	0.283043	7.85246	0.49304	12.2072	0.744419	18.5018
0.273583	6.55934	0.0644381	1.78536	0.357116	9.90241	0.563948	13.7422	0.627924	14.995	0.879433	21.4227	0.288415	7.79987	0.49577	12.0329	0.746477	18.1331
0.278865	6.53989	0.0665522	1.79754	0.360653	9.74866	0.566048	13.4872	0.630719	14.7339	0.881259	20.9907	0.29381	7.75049	0.498125	11.8903	0.748575	17.7816
0.284071	6.51953	0.068666	1.8091	0.364247	9.60393	0.568225	13.245	0.633558	14.485	0.88312	20.5784	0.299226	7.70402	0.500093	11.7764	0.750713	17.4463
0.289197	6.49824	0.0707798	1.82012	0.367896	9.46757	0.570478	13.0149	0.636442	14.2474	0.885018	20.1844	0.304662	7.66024	0.501662	11.6888	0.75289	17.126
0.294241	6.47599	0.072893	1.8306	0.371601	9.339	0.572811	12.7961	0.639369	14.0205	0.886951	19.8076	0.310117	7.61889	0.502822	11.6257	0.755107	16.82
0.299199	6.45279	0.0750059	1.84059	0.375362	9.21768	0.575221	12.588	0.642339	13.8036	0.88892	19.4469	0.315587	7.57979	0.503567	11.5859	0.757361	16.5272
0.304067	6.42861	0.0771181	1.85013	0.379179	9.10314	0.577712	12.3899	0.645353	13.5962	0.890925	19.1015	0.321072	7.54274	0.504643	11.5294	0.759654	16.2469
0.308843	6.40344	0.0792298	1.85923	0.383053	8.99494	0.579948	12.225	0.648408	13.3976	0.892964	18.7702	0.32657	7.50757	0.505818	11.4691	0.761985	15.9784
0.313523	6.37729	0.0813408	1.86793	0.386984	8.8927	0.581901	12.0898	0.651506	13.2073	0.895038	18.4525	0.332079	7.47414	0.507426	11.3887	0.764353	15.7209
0.318106	6.35016	0.0834511	1.87625	0.390974	8.79605	0.583551	11.9816	0.654645	13.0249	0.897147	18.1474	0.337599	7.44231	0.509473	11.2896	0.766758	15.4738
0.322588	6.32205	0.0855607	1.88421	0.395022	8.70468	0.584877	11.8982	0.657826	12.85	0.89929	17.8542	0.343127	7.41195	0.511971	11.1736	0.7692	15.2366
0.326968	6.29299	0.0876695	1.89183	0.399131	8.61828	0.585864	11.8382	0.661047	12.6821	0.901467	17.5724	0.348663	7.38294	0.514932	11.0425	0.771677	15.0087
0.331245	6.263	0.0897775	1.89914	0.4033	8.53657	0.586501	11.8003	0.664308	12.5209	0.903678	17.3013	0.354205	7.35518	0.518369	10.8985	0.77419	14.7896
0.335418	6.23211	0.0918848	1.90615	0.407531	8.4593	0.587424	11.7465	0.667183	12.3855	0.905921	17.0403	0.359752	7.32858	0.521847	10.7608	0.776739	14.5788
0.339485	6.20035	0.0939913	1.91288	0.411825	8.38624	0.588438	11.689	0.669657	12.2738	0.908198	16.7889	0.365302	7.30304	0.525365	10.6292	0.779322	14.3759
0.343447	6.16776	0.0960971	1.91934	0.416181	8.31715	0.589833	11.6123	0.67172	12.1838	0.910508	16.5466	0.370855	7.27848	0.528923	10.5032	0.781939	14.1805
0.347305	6.13439	0.0982021	1.92555	0.420601	8.25184	0.591624	11.5178	0.673361	12.1141	0.91285	16.3129	0.37641	7.25484	0.532519	10.3825	0.784591	13.9921
0.351058	6.1003	0.100306	1.93152	0.425085	8.1901	0.593832	11.4071	0.674574	12.0637	0.915225	16.0875	0.381964	7.23203	0.536153	10.2668	0.787276	13.8105
0.354708	6.06552	0.10241	1.93727	0.429632	8.13174	0.596479	11.282	0.675353	12.0318	0.917631	15.8699	0.387518	7.20999	0.539823	10.1559	0.789995	13.6354
0.358257	6.03013	0.104513	1.94281	0.434243	8.07658	0.599591	11.1444	0.676476	11.9865	0.920069	15.6597	0.39307	7.18867	0.54353	10.0495	0.792746	13.4663
0.361705	5.99418	0.106615	1.94815	0.438916	8.02445	0.602784	11.0131	0.677701	11.9378	0.922538	15.4567	0.398618	7.16801	0.547271	9.94733	0.795529	13.3031
0.365056	5.95772	0.108717	1.9533	0.443652	7.97517	0.606057	10.8875	0.679376	11.8726	0.925038	15.2603	0.404163	7.14796	0.551047	9.84917	0.798345	13.1453
0.368312	5.92083	0.110817	1.95826	0.448448	7.9286	0.609409	10.7675	0.681507	11.7919	0.927569	15.0705	0.409702	7.12847	0.554857	9.75482	0.801192	12.9929
0.371475	5.88355	0.112918	1.96305	0.453303	7.88457	0.61284	10.6528	0.684103	11.6968	0.930131	14.8867	0.415236	7.10949	0.5587	9.66408	0.80407	12.8455
0.374548	5.84596	0.115017	1.96768	0.458217	7.84293	0.616348	10.543	0.687175	11.5884	0.932722	14.7089	0.420762	7.09099	0.562575	9.57677	0.806604	12.7209
0.377534	5.8081	0.117116	1.97216	0.463186	7.80354	0.619933	10.438	0.690737	11.4683	0.935343	14.5366	0.42628	7.07293	0.566481	9.49271	0.808781	12.6176
0.380436	5.77004	0.119215	1.97648	0.468208	7.76625	0.623594	10.3375	0.694336	11.3525	0.937994	14.3698	0.431788	7.05526	0.570419	9.41175	0.810595	12.5339
0.383256	5.73182	0.121312	1.98067	0.473282	7.73093	0.627328	10.2412	0.697973	11.2407	0.940674	14.208	0.437287	7.03796	0.574387	9.33374	0.812037	12.469
0.385999	5.69351	0.12341	1.98472	0.478405	7.69747	0.631136	10.149	0.701647	11.1328	0.943384	14.0512	0.442774	7.021	0.578385	9.25854	0.813101	12.4219
0.388667	5.65514	0.125507	1.98865	0.483574	7.66572	0.635015	10.0606	0.705359	11.0287	0.946121	13.8991	0.448249	7.00433	0.582413	9.186	0.813785	12.392
0.391262	5.61676	0.127603	1.99245	0.488787	7.63558	0.638964	9.97596	0.709107	10.9281	0.948888	13.7515	0.453711	6.98794	0.586469	9.11602	0.81477	12.3494
0.393789	5.57843	0.129699	1.99613	0.494041	7.60694	0.642982	9.89475	0.712893	10.8309	0.951682	13.6083	0.459159	6.9718	0.590554	9.04847	0.815844	12.3037
0.39625	5.54017	0.131794	1.99971	0.499333	7.57969	0.647066	9.81685	0.716716	10.737	0.954504	13.4692	0.464591	6.95589	0.594666	8.98325	0.817311	12.2422
0.398649	5.50203	0.133889	2.00318	0.504661	7.55374	0.651215	9.74209	0.720575	10.6462	0.957354	13.3341	0.470007	6.94016	0.598806	8.92024	0.819177	12.1659
0.400987	5.46404	0.135983	2.00654	0.510022	7.52899	0.655428	9.67032	0.724472	10.5585	0.96023	13.2028	0.475406	6.92462	0.602974	8.85936	0.821447	12.0755
0.403268	5.42623	0.138078	2.00981	0.515413	7.50535	0.659701	9.60139	0.728405	10.4736	0.962759	13.0914	0.480787	6.90923	0.607168	8.80051	0.82413	11.972
0.405494	5.38863	0.140171	2.01299	0.520833	7.48275	0.664034	9.53516	0.732376	10.3915	0.964931	12.9986	0.486148	6.89397	0.611388	8.7436	0.827235	11.8567
0.407391	5.35606	0.142264	2.01607	0.526278	7.4611	0.668424	9.47148	0.736383	10.312	0.966738	12.9234	0.491489	6.87883	0.615634	8.68856	0.830369	11.7447
0.408979	5.32844	0.144357	2.01907	0.531746	7.44035	0.67287	9.41024	0.740428	10.2351	0.968174	12.8647	0.496809	6.86378	0.619907	8.63531	0.833529	11.6361
0.410272	5.30572	0.14645	2.02199	0.537235	7.42042	0.677368	9.35131	0.74451	10.1607	0.969234	12.8221	0.502106	6.84881	0.624204	8.58377	0.836717	11.5306
0.411282	5.28784	0.148542	2.02483	0.542743	7.40124	0.681918	9.29457	0.74863	10.0886	0.969914	12.7951	0.50738	6.8339	0.628528	8.53388	0.839932	11.4282
0.412017	5.27473	0.150634	2.0276	0.548267	7.38278	0.686517	9.23991	0.752787	10.0188	0.970893	12.7565	0.51263	6.81904	0.632876	8.48558	0.843174	11.3287
0.412485	5.26636	0.152725	2.03029	0.553806	7.36496	0.691162	9.18722	0.756983	9.95128	0.971962	12.7149	0.517855	6.8042	0.637249	8.43879	0.846441	11.232
0.413153	5.25436	0.154817	2.03291	0.559358	7.34775	0.695852	9.13642	0.761216	9.88585	0.97342	12.659	0.523053	6.78939	0.641646	8.39347	0.849734	11.138
0.413875	5.24135	0.156908	2.03546	0.56492	7.3311	0.700584	9.08738	0.765489	9.82249	0.975272	12.5894	0.528223	6.77457	0.646068	8.34955	0.853053	11.0466
0.414847	5.22373	0.158998	2.03795	0.570492	7.31496	0.705357	9.04004	0.7698	9.76111	0.977525	12.5068	0.533366	6.75975	0.650515	8.30699	0.856397	10.9577
0.416063	5.20155	0.161089	2.04038	0.576072	7.29931	0.710167	8.99429	0.77415	9.70166	0.980187	12.4119	0.538479	6.74491	0.654985	8.26574	0.859766	10.8712
0.417512	5.17489	0.163179	2.04274	0.581657	7.28409	0.715013	8.95005	0.778541	9.64408	0.983264	12.3057	0.543561	6.73003	0.65948	8.22574	0.863159	10.787
0.419186	5.14387	0.165269	2.04505	0.587248	7.26928	0.719893	8.90725	0.782971	9.5883	0.986366	12.2022	0.548613	6.71511	0.663998	8.18696	0.866577	10.7051
0.421072	5.10861	0.167358	2.04731	0.592841	7.25485	0.724803	8.86581	0.787443	9.53428	0.989492	12.1014	0.553632	6.70014	0.66854	8.14935	0.870018	10.6253
0.422923	5.07372	0.169447	2.04951	0.598437	7.24077	0.729743	8.82565	0.791955	9.48195	0.992643	12.0032	0.558618	6.6851	0.673106	8.11286	0.873483	10.5476
0.424741	5.0392	0.171536	2.05165	0.604033	7.22701	0.734709	8.78671	0.79651	9.43128	0.995818	11.9074	0.56357	6.66999	0.677696	8.07747	0.876972	10.4719
0.426527	5.00507	0.173625	2.05375	0.609629	7.21355	0.739701	8.74891	0.801107	9.3822	0.999016	11.814	0.568487	6.65481	0.682308	8.04313	0.880484	10.3982
0.428283	4.97132	0.175714	2.0558	0.615224	7.20037	0.744714	8.7122	0.805746	9.33468	1.00224	11.723	0.573368	6.63953	0.686944	8.00981	0.884018	10.3263
0.430011	4.93798	0.177802	2.0578	0.620815	7.18744	0.749748	8.67652	0.810429	9.28867			0.578213	6.62416	0.691603	7.97747	0.887575	10.2562
0.431713	4.90504	0.179891	2.05976	0.626404	7.17475	0.7548	8.64181	0.815156	9.24413			0.58302	6.6087	0.696285	7.94608	0.891154	10.1879
0.433388	4.8725	0.181979	2.06168	0.631987	7.16227	0.759868	8.60801	0.819927	9.20103			0.587789	6.59312	0.70099	7.91561	0.894755	10.1213
0.43504	4.84037	0.184066	2.06355	0.637566	7.14999	0.76495	8.57508	0.824743	9.15931			0.592519	6.57744	0.705717	7.88602	0.898378	10.0563
0.43667	4.80865	0.186154	2.06538	0.643138	7.1379	0.770045	8.54297	0.829605	9.11895			0.597209	6.56165	0.710467	7.85729	0.902023	9.99284
0.438277	4.77734	0.188242	2.06717	0.648703	7.12598	0.77515	8.51162	0.834513	9.0799			0.601859	6.54573	0.715239	7.82939	0.905689	9.93095
0.439865	4.74644	0.190329	2.06893	0.654259	7.11421	0.780263	8.481	0.839467	9.04214			0.606469	6.5297	0.720033	7.80229	0.909375	9.87053
0.441433	4.71595	0.192416	2.07064	0.659808	7.10258	0.785383	8.45107	0.844467	9.00563			0.611037	6.51354	0.724848	7.77597	0.913083	9.81155
0.442984	4.68587	0.194503	2.07232	0.665347	7.09109	0.790508	8.42179	0.849515	8.97033			0.615563	6.49725	0.729685	7.7504	0.916811	9.75396
0.444517	4.6562	0.19659	2.07397	0.670875	7.07971	0.795637	8.39312	0.85461	8.93621			0.620046	6.48085	0.734543	7.72555	0.92056	9.69772
0.446034	4.62694	0.198676	2.07558	0.676393	7.06844	0.800769	8.36504	0.859751	8.90324			0.624487	6.46431	0.739422	7.70139	0.924328	9.64277
0.447536	4.59808	0.200763	2.07716	0.6819	7.05727	0.805901	8.3375	0.864941	8.87138			0.628884	6.44764	0.744322	7.67792	0.928117	9.58909
0.449023	4.56962	0.202849	2.07871	0.687394	7.04619	0.811032	8.31049	0.870177	8.84061			0.633238	6.43085	0.749241	7.65509	0.931925	9.53664
0.450498	4.54156	0.204936	2.08023	0.692875	7.03519	0.816163	8.28397	0.875461	8.81089			0.637547	6.41393	0.75418	7.63289	0.935753	9.48537
0.451959	4.5139	0.207022	2.08171	0.698344	7.02427	0.821291	8.25793	0.880792	8.78219			0.641813	6.39689	0.759138	7.6113	0.9396	9.43526
0.453409	4.48663	0.209108	2.08317	0.703798	7.0134	0.826417	8.23234	0.886169	8.75448			0.646035	6.37972	0.764115	7.5903	0.943466	9.38627
0.454847	4.45974	0.211193	2.0846	0.709238	7.0026	0.831538	8.20719	0.891593	8.72773			0.650211	6.36243	0.769111	7.56986	0.947351	9.33836
0.456275	4.43324	0.213279	2.08601	0.714663	6.99184	0.836655	8.18245	0.897062	8.70191			0.654344	6.34502	0.774124	7.54997	0.951255	9.29151
0.457693	4.40713	0.215365	2.08738	0.720072	6.98113	0.841768	8.15812	0.902577	8.67698			0.658431	6.32749	0.779154	7.5306	0.955178	9.24568
0.459102	4.38139	0.21745	2.08873	0.725466	6.97046	0.846875	8.13417	0.908135	8.65291			0.662474	6.30984	0.784201	7.51174	0.959118	9.20085
0.460502	4.35602	0.219536	2.09006	0.730842	6.95981	0.851977	8.11059	0.913738	8.62969			0.666472	6.29209	0.789264	7.49336	0.963077	9.15699
0.461894	4.33102	0.221621	2.09136	0.736202	6.9492	0.857074	8.08738	0.919383	8.60726			0.670426	6.27423	0.794343	7.47545	0.967054	9.11406
0.463279	4.30638	0.223706	2.09264	0.741544	6.9386	0.862166	8.06453	0.92507	8.58562			0.674335	6.25626	0.799436	7.458	0.971049	9.07205
0.464657	4.2821	0.225791	2.0939	0.746868	6.92802	0.867252	8.04202	0.930798	8.56472			0.6782	6.23819	0.804544	7.44097	0.975062	9.03093
0.466028	4.25817	0.227876	2.09513	0.752174	6.91745	0.872334	8.01985	0.936567	8.54455			0.682021	6.22003	0.809665	7.42436	0.979092	8.99068
0.467393	4.2346	0.229961	2.09634	0.75746	6.90689	0.87741	7.99801	0.942373	8.52506			0.685797	6.20178	0.8148	7.40815	0.98314	8.95126
0.468752	4.21136	0.232045	2.09753	0.762727	6.89632	0.882482	7.9765	0.948218	8.50624			0.68953	6.18343	0.819947	7.39233	0.987204	8.91266
0.470106	4.18847	0.23413	2.0987	0.767974	6.88576	0.887549	7.95531	0.9541	8.48806			0.693219	6.16501	0.825105	7.37687	0.991286	8.87486
0.471456	4.16591	0.236214	2.09984	0.773201	6.87519	0.892613	7.93444	0.960017	8.47049			0.696865	6.1465	0.830274	7.36176	0.995385	8.83784
0.4728	4.14368	0.238299	2.10097	0.778407	6.86461	0.897674	7.91388	0.965968	8.45351			0.700468	6.12793	0.835454	7.34699	0.999501	8.80157
0.474141	4.12177	0.240383	2.10208	0.783592	6.85402	0.902731	7.89363	0.971953	8.43709			0.704029	6.10928	0.840643	7.33255	1.00363	8.76604
0.475478	4.10019	0.242468	2.10317	0.788756	6.84342	0.907786	7.87369	0.97797	8.42121			0.707547	6.09057	0.845841	7.31841		
0.476812	4.07892	0.244552	2.10425	0.793897	6.83279	0.912839	7.85404	0.984018	8.40585			0.711023	6.0718	0.851047	7.30458		
0.478143	4.05796	0.246636	2.1053	0.799016	6.82214	0.91789	7.8347	0.990096	8.39099			0.714458	6.05297	0.856261	7.29102		
0.479471	4.03731	0.24872	2.10634	0.804112	6.81147	0.922941	7.81565	0.996202	8.3766			0.717852	6.03409	0.861482	7.27774		
0.480796	4.01695	0.250804	2.10736	0.809186	6.80077	0.92799	7.7969	1.00234	8.36267			0.721205	6.01517	0.866709	7.26471		
0.48212	3.9969	0.252888	2.10836	0.814235	6.79004	0.93304	7.77843					0.724518	5.99621	0.871941	7.25194		
0.483441	3.97713	0.254972	2.10935	0.819261	6.77928	0.938089	7.76026					0.727791	5.97721	0.877178	7.23939		
0.484761	3.95766	0.257055	2.11032	0.824263	6.76849	0.94314	7.74236					0.731025	5.95818	0.882419	7.22708		
0.486079	3.93846	0.259139	2.11128	0.82924	6.75766	0.948192	7.72475					0.734221	5.93912	0.887663	7.21497		
0.487396	3.91954	0.261222	2.11222	0.834193	6.74679	0.953245	7.70742					0.737377	5.92004	0.89291	7.20307		
0.488712	3.9009	0.263306	2.11315	0.83912	6.73589	0.9583	7.69036					0.740496	5.90094	0.898159	7.19137		
0.490027	3.88252	0.265389	2.11406	0.844022	6.72494	0.963357	7.67357					0.743578	5.88183	0.90341	7.17985		
0.491341	3.86441	0.267473	2.11496	0.848898	6.71395	0.968417	7.65705					0.746623	5.86271	0.908661	7.1685		
0.492655	3.84656	0.269556	2.11585	0.853748	6.70292	0.97348	7.64079					0.749632	5.84358	0.913913	7.15733		
0.493969	3.82896	0.271639	2.11672	0.858573	6.69185	0.978546	7.62479					0.752604	5.82445	0.919164	7.14631		
0.495283	3.81162	0.273723	2.11758	0.86337	6.68073	0.983615	7.60905					0.755542	5.80532	0.924414	7.13544		
0.496597	3.79452	0.275806	2.11843	0.868141	6.66956	0.988688	7.59356					0.758445	5.78621	0.929662	7.12471		
0.497911	3.77767	0.277889	2.11926	0.872885	6.65835	0.993764	7.57832					0.761313	5.7671	0.934908	7.11412		
0.499225	3.76105	0.279972	2.12008	0.877602	6.64709	0.998845	7.56333					0.764148	5.748	0.940151	7.10365		
0.50054	3.74468	0.282055	2.12089	0.882292	6.63578	1.00393	7.54858					0.766949	5.72893	0.945391	7.09331		
0.501856	3.72853	0.284138	2.12169	0.886954	6.62443							0.769718	5.70987	0.950626	7.08307		
0.503172	3.71261	0.286221	2.12248	0.891589	6.61302							0.772455	5.69084	0.955857	7.07295		
0.50449	3.69692	0.288304	2.12325	0.896195	6.60157							0.77516	5.67184	0.961083	7.06292		
0.505808	3.68144	0.290386	2.12402	0.900774	6.59007							0.777835	5.65287	0.966303	7.05299		
0.507127	3.66618	0.292469	2.12477	0.905325	6.57853							0.780478	5.63394	0.971517	7.04315		
0.508448	3.65114	0.294552	2.12552	0.909848	6.56693							0.783092	5.61504	0.976724	7.0334		
0.50977	3.6363	0.296634	2.12625	0.914342	6.55529							0.785676	5.59618	0.981924	7.02372		
0.511094	3.62168	0.298717	2.12697	0.918808	6.5436							0.788231	5.57737	0.987116	7.01411		
0.512418	3.60725	0.3008	2.12769	0.923246	6.53186							0.790758	5.5586	0.9923	7.00457		
0.513745	3.59302	0.302882	2.12839	0.927655	6.52008							0.793257	5.53989	0.997475	6.9951		
0.515073	3.57899	0.304964	2.12908	0.932036	6.50825							0.795728	5.52122	1.00264	6.98568		
0.516403	3.56515	0.307047	2.12977	0.936388	6.49637							0.798173	5.50261				
0.517735	3.5515	0.309129	2.13045	0.940711	6.48445							0.800591	5.48406				
0.519069	3.53804	0.311212	2.13111	0.945006	6.47249							0.802983	5.46556				
0.520404	3.52476	0.313294	2.13177	0.949272	6.46048							0.80535	5.44713				
0.521742	3.51166	0.315376	2.13242	0.95351	6.44843							0.807692	5.42876				
0.523082	3.49874	0.317458	2.13306	0.957719	6.43635							0.810009	5.41045				
0.524424	3.48599	0.31954	2.1337	0.9619	6.42422							0.812303	5.39222				
0.525768	3.47341	0.321623	2.13432	0.966052	6.41205							0.814573	5.37405				
0.527115	3.461	0.323705	2.13494	0.970175	6.39984							0.81682	5.35595				
0.528463	3.44876	0.325787	2.13555	0.97427	6.38759							0.819045	5.33793				
0.529814	3.43668	0.327869	2.13615	0.978337	6.37531							0.821247	5.31998				
0.531168	3.42476	0.329951	2.13674	0.982375	6.363							0.823428	5.30211				
0.532524	3.413	0.332033	2.13733	0.986385	6.35064							0.825588	5.28431				
0.533882	3.4014	0.334115	2.13791	0.990367	6.33826							0.827727	5.2666				
0.535243	3.38995	0.336197	2.13848	0.994321	6.32584							0.829846	5.24896				
0.536606	3.37865	0.338278	2.13905	0.998246	6.3134							0.831945	5.23141				
0.537972	3.36749	0.34036	2.13961	1.00214	6.30092							0.834025	5.21394				
0.539341	3.35648	0.342442	2.14016									0.836085	5.19655				
0.540712	3.34562	0.344524	2.1407									0.838127	5.17925				
0.542086	3.33489	0.346606	2.14124									0.840151	5.16204				
0.543463	3.32431	0.348687	2.14177									0.842157	5.14491				
0.544842	3.31386	0.350769	2.1423									0.844146	5.12788				
0.546224	3.30354	0.352851	2.14282									0.846118	5.11093				
0.547609	3.29336	0.354932	2.14334									0.848073	5.09407				
0.548996	3.28331	0.357014	2.14384									0.850012	5.0773				
0.550386	3.27338	0.359095	2.14435									0.851935	5.06063				
0.55178	3.26359	0.361177	2.14484									0.853843	5.04404				
0.553175	3.25391	0.363258	2.14533									0.855736	5.02755				
0.554574	3.24436	0.36534	2.14582									0.857614	5.01115				
0.555976	3.23492	0.367421	2.1463									0.859477	4.99485				
0.55738	3.22561	0.369503	2.14678									0.861326	4.97864				
0.558788	3.21641	0.371584	2.14724									0.863162	4.96252				
0.560198	3.20733	0.373665	2.14771									0.864984	4.9465				
0.561611	3.19836	0.375747	2.14817									0.866793	4.93058				
0.563027	3.1895	0.377828	2.14862									0.868589	4.91475				
0.564445	3.18075	0.37991	2.14907									0.870373	4.89902				
0.565867	3.1721	0.381991	2.14952									0.872144	4.88338				
0.567292	3.16357	0.384072	2.14996									0.873904	4.86784				
0.568719	3.15514	0.386153	2.15039									0.875652	4.85239				
0.57015	3.14681	0.388234	2.15082									0.877389	4.83704				
0.571583	3.13858	0.390316	2.15125									0.879114	4.82179				
0.573019	3.13045	0.392397	2.15167									0.880829	4.80663				
0.574459	3.12242	0.394478	2.15209									0.882534	4.79157				
0.575901	3.11448	0.396559	2.1525									0.884228	4.77661				
0.577346	3.10665	0.39864	2.15291									0.885912	4.76174				
0.578793	3.0989	0.400721	2.15331									0.887587	4.74697				
0.580244	3.09125	0.402802	2.15371									0.889252	4.73229				
0.581698	3.08369	0.404884	2.15411									0.890908	4.71771				
0.583155	3.07621	0.406965	2.1545									0.892555	4.70323				
0.584614	3.06883	0.409046	2.15489									0.894193	4.68884				
0.586077	3.06153	0.411127	2.15527									0.895823	4.67455				
0.587542	3.05432	0.413208	2.15565									0.897444	4.66035				
0.58901	3.0472	0.415289	2.15603									0.899057	4.64625				
0.590481	3.04015	0.41737	2.1564									0.900662	4.63224				
0.591955	3.03319	0.41945	2.15677									0.90226	4.61833				
0.593432	3.02631	0.421531	2.15714									0.90385	4.60451				
0.594912	3.01951	0.423612	2.1575									0.905433	4.59079				
0.596394	3.01279	0.425693	2.15786									0.907009	4.57715				
0.59788	3.00615	0.427774	2.15821									0.908578	4.56361				
0.599368	2.99958	0.429855	2.15857									0.91014	4.55017				
0.600859	2.99308	0.431936	2.15891									0.911696	4.53681				
0.602353	2.98666	0.434016	2.15926									0.913246	4.52355				
0.60385	2.98032	0.436097	2.1596									0.914789	4.51038				
0.605349	2.97404	0.438178	2.15994									0.916326	4.4973				
0.606852	2.96784	0.440259	2.16028									0.917858	4.48431				
0.608357	2.9617	0.44234	2.16061									0.919384	4.47141				
0.609865	2.95564	0.44442	2.16094									0.920904	4.45861				
0.611375	2.94964	0.446501	2.16126									0.922419	4.44589				
0.612889	2.94371	0.448582	2.16159									0.923929	4.43326				
0.614405	2.93785	0.450662	2.16191									0.925434	4.42071				
0.615924	2.93205	0.452743	2.16222									0.926934	4.40826				
0.617446	2.92631	0.454824	2.16254									0.928429	4.39589				
0.61897	2.92064	0.456904	2.16285									0.92992	4.38361				
0.620497	2.91503	0.458985	2.16316									0.931406	4.37142				
0.622027	2.90948	0.461066	2.16346									0.932888	4.35931				
0.62356	2.904	0.463146	2.16377									0.934366	4.34729				
0.625095	2.89857	0.465227	2.16407									0.935839	4.33535				
0.626633	2.8932	0.467307	2.16437									0.937309	4.3235				
0.628174	2.88789	0.469388	2.16466									0.938775	4.31173				
0.629717	2.88264	0.471469	2.16495									0.940237	4.30005				
0.631263	2.87744	0.473549	2.16524									0.941695	4.28844				
0.632811	2.8723	0.47563	2.16553									0.943151	4.27692				
0.634362	2.86722	0.47771	2.16582									0.944602	4.26549				
0.635916	2.86219	0.479791	2.1661									0.946051	4.25413				
0.637472	2.85721	0.481871	2.16638									0.947496	4.24285				
0.639031	2.85229	0.483952	2.16666									0.948939	4.23166				
0.640593	2.84742	0.486032	2.16693									0.950378	4.22054				
0.642157	2.8426	0.488112	2.16721									0.951815	4.2095				
0.643723	2.83783	0.490193	2.16748									0.953248	4.19854				
0.645292	2.83311	0.492273	2.16775									0.95468	4.18766				
0.646864	2.82844	0.494354	2.16801									0.956108	4.17686				
0.648438	2.82382	0.496434	2.16828									0.957535	4.16613				
0.650015	2.81924	0.498515	2.16854									0.958958	4.15548				
0.651594	2.81472	0.500595	2.1688									0.96038	4.14491				
0.653175	2.81024	0.502675	2.16906									0.961799	4.13441				
0.654759	2.80581	0.504756	2.16931									0.963217	4.12399				
0.656346	2.80142	0.506836	2.16957									0.964632	4.11364				
0.657935	2.79708	0.508916	2.16982									0.966045	4.10336				
0.659526	2.79278	0.510997	2.17007									0.967457	4.09316				
0.66112	2.78853	0.513077	2.17031									0.968866	4.08303				
0.662716	2.78432	0.515157	2.17056									0.970274	4.07297				
0.664314	2.78016	0.517238	2.1708									0.971681	4.06298				
0.665915	2.77603	0.519318	2.17104									0.973086	4.05306				
0.667519	2.77195	0.521398	2.17128									0.974489	4.04322				
0.669124	2.76791	0.523478	2.17152									0.975891	4.03344				
0.670732	2.76391	0.525559	2.17176									0.977291	4.02374				
0.672342	2.75994	0.527639	2.17199									0.97869	4.0141				
0.673955	2.75602	0.529719	2.17222									0.980088	4.00453				
0.67557	2.75214	0.5318	2.17245									0.981485	3.99503				
0.677187	2.7483	0.53388	2.17268									0.98288	3.98559				
0.678806	2.74449	0.53596	2.17291									0.984275	3.97623				
0.680428	2.74073	0.53804	2.17313									0.985669	3.96693				
0.682052	2.73699	0.54012	2.17336									0.987061	3.95769				
0.683678	2.7333	0.5422	2.17358									0.988453	3.94852				
0.685306	2.72964	0.544281	2.1738									0.989844	3.93942				
0.686937	2.72602	0.546361	2.17402									0.991234	3.93037				
0.68857	2.72244	0.548441	2.17423									0.992623	3.9214				
0.690205	2.71888	0.550521	2.17445									0.994012	3.91248				
0.691842	2.71537	0.552601	2.17466									0.9954	3.90363				
0.693481	2.71189	0.554681	2.17487									0.996788	3.89484				
0.695123	2.70844	0.556762	2.17508									0.998175	3.88611				
0.696766	2.70502	0.558842	2.17529									0.999561	3.87745				
0.698412	2.70164	0.560922	2.1755									1.00095	3.86884				
0.70006	2.69829	0.563002	2.17571														
0.70171	2.69497	0.565082	2.17591														
0.703362	2.69168	0.567162	2.17611														
0.705016	2.68843	0.569242	2.17631														
0.706672	2.6852	0.571322	2.17651														
0.70833	2.68201	0.573402	2.17671														
0.70999	2.67884	0.575482	2.17691														
0.711653	2.67571	0.577562	2.1771														
0.713317	2.6726	0.579642	2.1773														
0.714983	2.66953	0.581722	2.17749														
0.716652	2.66648	0.583802	2.17768														
0.718322	2.66346	0.585882	2.17787														
0.719994	2.66047	0.587962	2.17806														
0.721668	2.65751	0.590042	2.17825														
0.723345	2.65458	0.592122	2.17843														
0.725023	2.65167	0.594202	2.17862														
0.726703	2.64879	0.596282	2.1788														
0.728385	2.64593	0.598362	2.17898														
0.730068	2.6431	0.600442	2.17916														
0.731754	2.6403	0.602522	2.17934														
0.733442	2.63752	0.604602	2.17952														
0.735131	2.63477	0.606682	2.1797														
0.736823	2.63204	0.608762	2.17987														
0.738516	2.62934	0.610842	2.18005														
0.740211	2.62666	0.612922	2.18022														
0.741908	2.62401	0.615002	2.18039														
0.743606	2.62138	0.617082	2.18057														
0.745307	2.61877	0.619162	2.18074														
0.747009	2.61619	0.621242	2.1809														
0.748713	2.61363	0.623321	2.18107														
0.750419	2.61109	0.625401	2.18124														
0.752127	2.60858	0.627481	2.1814														
0.753836	2.60608	0.629561	2.18157														
0.755547	2.60361	0.631641	2.18173														
0.75726	2.60116	0.633721	2.18189														
0.758975	2.59874	0.635801	2.18206														
0.760691	2.59633	0.63788	2.18222														
0.762409	2.59394	0.63996	2.18238														
0.764128	2.59158	0.64204	2.18253														
0.76585	2.58924	0.64412	2.18269														
0.767573	2.58691	0.6462	2.18285														
0.769297	2.58461	0.64828	2.183														
0.771024	2.58233	0.650359	2.18316														
0.772752	2.58006	0.652439	2.18331														
0.774481	2.57782	0.654519	2.18346														
0.776213	2.57559	0.656599	2.18361														
0.777945	2.57339	0.658678	2.18376														
0.77968	2.5712	0.660758	2.18391														
0.781416	2.56903	0.662838	2.18406														
0.783153	2.56688	0.664918	2.18421														
0.784893	2.56475	0.666998	2.18435														
0.786633	2.56264	0.669077	2.1845														
0.788376	2.56054	0.671157	2.18464														
0.790119	2.55846	0.673237	2.18479														
0.791865	2.5564	0.675316	2.18493														
0.793612	2.55436	0.677396	2.18507														
0.79536	2.55233	0.679476	2.18521														
0.79711	2.55032	0.681556	2.18535														
0.798862	2.54833	0.683635	2.18549														
0.800615	2.54635	0.685715	2.18563														
0.802369	2.54439	0.687795	2.18577														
0.804125	2.54245	0.689874	2.18591														
0.805882	2.54052	0.691954	2.18604														
0.807641	2.53861	0.694034	2.18618														
0.809401	2.53672	0.696114	2.18631														
0.811163	2.53484	0.698193	2.18645														
0.812926	2.53297	0.700273	2.18658														
0.814691	2.53112	0.702353	2.18671														
0.816457	2.52929	0.704432	2.18684														
0.818224	2.52747	0.706512	2.18697														
0.819993	2.52566	0.708592	2.1871														
0.821763	2.52387	0.710671	2.18723														
0.823534	2.52209	0.712751	2.18736														
0.825307	2.52033	0.71483	2.18749														
0.827082	2.51858	0.71691	2.18762														
0.828857	2.51685	0.71899	2.18774														
0.830634	2.51513	0.721069	2.18787														
0.832413	2.51343	0.723149	2.18799														
0.834192	2.51173	0.725229	2.18812														
0.835973	2.51005	0.727308	2.18824														
0.837756	2.50839	0.729388	2.18836														
0.839539	2.50674	0.731467	2.18848														
0.841324	2.5051	0.733547	2.1886														
0.84311	2.50347	0.735627	2.18872														
0.844898	2.50186	0.737706	2.18884														
0.846687	2.50025	0.739786	2.18896														
0.848477	2.49867	0.741865	2.18908														
0.850268	2.49709	0.743945	2.1892														
0.85206	2.49553	0.746024	2.18932														
0.853854	2.49397	0.748104	2.18943														
0.855649	2.49243	0.750183	2.18955														
0.857446	2.49091	0.752263	2.18966														
0.859243	2.48939	0.754343	2.18978														
0.861042	2.48789	0.756422	2.18989														
0.862842	2.48639	0.758502	2.19001														
0.864643	2.48491	0.760581	2.19012														
0.866445	2.48344	0.762661	2.19023														
0.868249	2.48198	0.76474	2.19034														
0.870054	2.48054	0.76682	2.19045														
0.871859	2.4791	0.768899	2.19056														
0.873667	2.47767	0.770979	2.19067														
0.875475	2.47626	0.773058	2.19078														
0.877284	2.47486	0.775138	2.19089														
0.879095	2.47346	0.777217	2.191														
0.880906	2.47208	0.779297	2.1911														
0.882719	2.47071	0.781376	2.19121														
0.884533	2.46934	0.783456	2.19132														
0.886348	2.46799	0.785535	2.19142														
0.888164	2.46665	0.787615	2.19153														
0.889982	2.46532	0.789694	2.19163														
0.8918	2.464	0.791774	2.19174														
0.89362	2.46268	0.793853	2.19184														
0.89544	2.46138	0.795933	2.19194														
0.897262	2.46009	0.798012	2.19205														
0.899085	2.45881	0.800091	2.19215														
0.900909	2.45753	0.802171	2.19225														
0.902734	2.45627	0.80425	2.19235														
0.90456	2.45501	0.80633	2.19245														
0.906387	2.45377	0.808409	2.19255														
0.908215	2.45253	0.810489	2.19265														
0.910044	2.4513	0.812568	2.19275														
0.911874	2.45008	0.814647	2.19284														
0.913705	2.44887	0.816727	2.19294														
0.915537	2.44767	0.818806	2.19304														
0.917371	2.44648	0.820886	2.19314														
0.919205	2.44529	0.822965	2.19323														
0.92104	2.44412	0.825045	2.19333														
0.922876	2.44295	0.827124	2.19342														
0.924714	2.44179	0.829203	2.19352														
0.926552	2.44064	0.831283	2.19361														
0.928391	2.4395	0.833362	2.19371														
0.930231	2.43836	0.835441	2.1938														
0.932073	2.43724	0.837521	2.19389														
0.933915	2.43612	0.8396	2.19398														
0.935758	2.43501	0.84168	2.19408														
0.937602	2.43391	0.843759	2.19417														
0.939447	2.43281	0.845838	2.19426														
0.941293	2.43173	0.847918	2.19435														
0.94314	2.43065	0.849997	2.19444														
0.944988	2.42958	0.852076	2.19453														
0.946837	2.42851	0.854156	2.19462														
0.948686	2.42746	0.856235	2.19471														
0.950537	2.42641	0.858314	2.19479														
0.952388	2.42536	0.860394	2.19488														
0.954241	2.42433	0.862473	2.19497														
0.956094	2.4233	0.864552	2.19506														
0.957949	2.42228	0.866632	2.19514														
0.959804	2.42127	0.868711	2.19523														
0.96166	2.42026	0.87079	2.19532														
0.963517	2.41926	0.87287	2.1954														
0.965375	2.41827	0.874949	2.19549														
0.967233	2.41729	0.877028	2.19557														
0.969093	2.41631	0.879108	2.19565														
0.970953	2.41533	0.881187	2.19574														
0.972815	2.41437	0.883266	2.19582														
0.974677	2.41341	0.885346	2.1959														
0.97654	2.41246	0.887425	2.19599														
0.978404	2.41151	0.889504	2.19607														
0.980268	2.41057	0.891583	2.19615														
0.982134	2.40964	0.893663	2.19623														
0.984	2.40871	0.895742	2.19631														
0.985867	2.40779	0.897821	2.19639														
0.987735	2.40688	0.899901	2.19648														
0.989604	2.40597	0.90198	2.19656														
0.991474	2.40507	0.904059	2.19663														
0.993344	2.40417	0.906138	2.19671														
0.995216	2.40328	0.908218	2.19679														
0.997088	2.40239	0.910297	2.19687														
0.998961	2.40152	0.912376	2.19695														
1.00083	2.40064	0.914455	2.19703														
		0.916535	2.1971														
		0.918614	2.19718														
		0.920693	2.19726														
		0.922772	2.19733														
		0.924851	2.19741														
		0.926931	2.19749														
		0.92901	2.19756														
		0.931089	2.19764														
		0.933168	2.19771														
		0.935248	2.19779														
		0.937327	2.19786														
		0.939406	2.19793														
		0.941485	2.19801														
		0.943564	2.19808														
		0.945644	2.19815														
		0.947723	2.19822														
		0.949802	2.1983														
		0.951881	2.19837														
		0.95396	2.19844														
		0.95604	2.19851														
		0.958119	2.19858														
		0.960198	2.19865														
		0.962277	2.19872														
		0.964356	2.19879														
		0.966435	2.19886														
		0.968515	2.19893														
		0.970594	2.199														
		0.972673	2.19907														
		0.974752	2.19914														
		0.976831	2.1992														
		0.97891	2.19927														
		0.980989	2.19934														
		0.983069	2.19941														
		0.985148	2.19947														
		0.987227	2.19954														
		0.989306	2.19961														
		0.991385	2.19967														
		0.993464	2.19974														
		0.995543	2.1998														
		0.997623	2.19987														
		0.999702	2.19993														
		1.00178	2.2														
