Sym0		Asym0		Sym1		Sym2		Sym3		Sym4		Asym1		Asym2		Asym3	
468  Points		493  Points		206  Points		153  Points		129  Points		101  Points		355  Points		168  Points		134  Points	
Freq (MHz)	Vph (m/ms)	Freq (MHz)	Vph (m/ms)	Freq (MHz)	Vph (m/ms)	Freq (MHz)	Vph (m/ms)	Freq (MHz)	Vph (m/ms)	Freq (MHz)	Vph (m/ms)	Freq (MHz)	Vph (m/ms)	Freq (MHz)	Vph (m/ms)	Freq (MHz)	Vph (m/ms)
0.00371072	6.87827	0.000330856	0.181332	0.279544	369.864	0.477515	1.15684e+006	0.559036	812.436	0.83853	1873.25	0.139758	980.431	0.419263	3637.48	0.698774	2113.49
0.0101186	6.87787	0.000750987	0.272464	0.279687	165.741	0.477542	512.324	0.55912	345.18	0.83857	607.955	0.13996	130.287	0.419314	400.507	0.698814	553.595
0.0165245	6.87697	0.00133457	0.361871	0.279938	106.88	0.47762	256.261	0.559272	219.194	0.83865	362.891	0.14047	70.0272	0.419445	211.985	0.698901	318.549
0.0229274	6.87568	0.00207453	0.449065	0.280298	78.9373	0.477752	170.9	0.559491	160.626	0.83877	258.663	0.141284	48.0945	0.419657	144.195	0.699035	223.64
0.0293261	6.87395	0.00296225	0.533607	0.280765	62.6345	0.477936	128.229	0.559779	126.794	0.838931	200.97	0.142394	36.8007	0.41995	109.304	0.699215	172.331
0.0357193	6.8718	0.0039881	0.615157	0.281338	51.9623	0.478173	102.637	0.560134	104.765	0.839133	164.339	0.143792	29.9503	0.420322	88.0489	0.699442	140.194
0.0421059	6.86921	0.00514189	0.693467	0.282018	44.4404	0.478464	85.5839	0.560556	89.2851	0.839374	139.02	0.145467	25.3748	0.420775	73.75	0.699716	118.179
0.0484846	6.86619	0.00641288	0.768337	0.282802	38.8589	0.478809	73.4113	0.561045	77.8153	0.839656	120.476	0.147406	22.1184	0.421308	63.4775	0.700037	102.158
0.054854	6.86272	0.0077904	0.839651	0.28369	34.5569	0.479208	64.2889	0.561601	68.9788	0.839978	106.31	0.149597	19.6939	0.42192	55.7445	0.700404	89.9778
0.0612129	6.85879	0.00926402	0.907362	0.28468	31.143	0.479662	57.2002	0.562224	61.9643	0.840341	95.1377	0.152026	17.8271	0.422612	49.716	0.700817	80.4069
0.06756	6.85441	0.0108236	0.971467	0.285771	28.3707	0.480172	51.5352	0.562913	56.2629	0.840743	86.1013	0.154679	16.3517	0.423381	44.8867	0.701277	72.6894
0.0738938	6.84955	0.0124599	1.03202	0.286961	26.0768	0.480738	46.9056	0.563667	51.5389	0.841186	78.6428	0.157542	15.1611	0.424229	40.9333	0.701783	66.3356
0.080213	6.84422	0.0141639	1.08912	0.288248	24.1492	0.481362	43.0527	0.564487	47.5621	0.841668	72.383	0.160601	14.1838	0.425154	37.6389	0.702335	61.0144
0.0865159	6.83838	0.0159275	1.14285	0.289631	22.5081	0.482044	39.7974	0.565373	44.1693	0.84219	67.0551	0.163844	13.37	0.426155	34.8528	0.702932	56.4937
0.0928011	6.83204	0.0177434	1.19337	0.291108	21.0955	0.482785	37.0116	0.566322	41.2416	0.842753	62.4661	0.167257	12.6842	0.427233	32.467	0.703576	52.6063
0.099067	6.82519	0.0196049	1.24081	0.292676	19.8677	0.483586	34.6016	0.567336	38.6903	0.843354	58.4726	0.170829	12.1001	0.428386	30.4021	0.704265	49.2285
0.105312	6.81779	0.0215059	1.28534	0.294335	18.7918	0.484448	32.4968	0.568413	36.4479	0.843996	54.9664	0.174548	11.5981	0.429614	28.5983	0.705	46.2667
0.111534	6.80984	0.0234413	1.32711	0.296081	17.842	0.485372	30.6437	0.569554	34.4622	0.844677	51.8638	0.178403	11.1632	0.430915	27.0097	0.70578	43.649
0.117731	6.80133	0.0254062	1.36629	0.297914	16.9981	0.48636	29.0002	0.570757	32.692	0.845397	49.0992	0.182385	10.7837	0.43229	25.6008	0.706605	41.3192
0.123902	6.79222	0.0273966	1.40303	0.299831	16.2439	0.487412	27.5333	0.572022	31.1046	0.846156	46.6206	0.185951	10.4909	0.433736	24.3433	0.707475	39.2326
0.130044	6.7825	0.0294087	1.43748	0.30183	15.5665	0.48853	26.2167	0.573349	29.6734	0.846955	44.3861	0.189056	10.2653	0.435254	23.2146	0.708389	37.3534
0.136155	6.77215	0.0314394	1.46981	0.303909	14.9551	0.489715	25.0289	0.574737	28.3769	0.847792	42.3616	0.191667	10.0934	0.436842	22.1963	0.709348	35.6524
0.142233	6.76114	0.0332219	1.49634	0.306067	14.4011	0.490968	23.9524	0.576185	27.1973	0.848669	40.5191	0.193758	9.96599	0.438499	21.2734	0.710351	34.1057
0.148275	6.74945	0.0347497	1.51784	0.308303	13.897	0.492291	22.9727	0.577693	26.1198	0.849584	38.8352	0.19531	9.87678	0.440225	20.4335	0.711398	32.6935
0.15428	6.73705	0.0360181	1.53487	0.310614	13.4369	0.493685	22.0778	0.57926	25.1319	0.850537	37.2907	0.19631	9.82154	0.442018	19.6663	0.712488	31.3992
0.160243	6.72391	0.0370239	1.54788	0.313	13.0155	0.49515	21.2577	0.580886	24.2233	0.851529	35.8689	0.197755	9.74459	0.443877	18.9629	0.713623	30.2088
0.166164	6.71	0.037765	1.5572	0.315458	12.6285	0.49669	20.5036	0.58257	23.385	0.852559	34.5561	0.199336	9.66406	0.445802	18.3161	0.7148	29.1105
0.172037	6.6953	0.03824	1.56306	0.317989	12.2721	0.498304	19.8084	0.584311	22.6093	0.853627	33.3404	0.201504	9.55944	0.447791	17.7195	0.71602	28.0942
0.177862	6.67976	0.0389235	1.57134	0.320591	11.9431	0.499993	19.1657	0.58611	21.8897	0.854733	32.2114	0.204274	9.43469	0.449843	17.1678	0.717283	27.1512
0.183633	6.66335	0.0396674	1.58015	0.323264	11.6387	0.50176	18.5703	0.587964	21.2206	0.855876	31.1604	0.207663	9.29413	0.451957	16.6562	0.718588	26.274
0.189348	6.64605	0.0406808	1.59182	0.326008	11.3565	0.503606	18.0173	0.589875	20.5969	0.857057	30.1797	0.211691	9.1422	0.454132	16.1808	0.719935	25.4561
0.195003	6.62781	0.0419648	1.60609	0.328822	11.0945	0.50553	17.5027	0.59184	20.0145	0.858275	29.2625	0.216378	8.98316	0.456367	15.738	0.721324	24.6917
0.200595	6.60859	0.0435208	1.62266	0.331706	10.8507	0.507536	17.023	0.593861	19.4693	0.859531	28.4031	0.221129	8.83852	0.458661	15.3247	0.722754	23.976
0.20612	6.58837	0.04535	1.64118	0.334277	10.6519	0.509622	16.5751	0.595935	18.9583	0.860823	27.5962	0.225939	8.70653	0.461012	14.9383	0.724225	23.3045
0.211573	6.5671	0.0474532	1.66128	0.336511	10.4917	0.511791	16.156	0.598063	18.4783	0.862152	26.8372	0.230803	8.58572	0.463421	14.5762	0.725737	22.6734
0.216951	6.54475	0.0495602	1.68024	0.338388	10.3653	0.514044	15.7635	0.600243	18.0267	0.863517	26.1221	0.235717	8.4748	0.465885	14.2365	0.72729	22.0793
0.222249	6.52129	0.0516702	1.69813	0.339892	10.269	0.51638	15.3953	0.602476	17.6013	0.864918	25.4473	0.240677	8.37266	0.468403	13.9173	0.728882	21.5189
0.227463	6.49669	0.0537824	1.71504	0.341009	10.2002	0.518801	15.0494	0.604762	17.1999	0.866356	24.8095	0.245679	8.27835	0.470975	13.6167	0.730515	20.9898
0.23259	6.47092	0.0558963	1.73102	0.341728	10.157	0.521307	14.7242	0.607098	16.8206	0.867829	24.2058	0.250719	8.19103	0.4736	13.3334	0.732187	20.4893
0.237625	6.44396	0.0580116	1.74614	0.342769	10.0961	0.523898	14.418	0.609486	16.4618	0.869338	23.6338	0.255794	8.10999	0.476275	13.0661	0.733898	20.0154
0.242564	6.41579	0.0601277	1.76047	0.34391	10.0314	0.526575	14.1293	0.611924	16.122	0.870882	23.0909	0.260902	8.03458	0.479002	12.8133	0.735647	19.5659
0.247402	6.38639	0.0622444	1.77405	0.345476	9.94576	0.529339	13.8571	0.614412	15.7997	0.872461	22.5751	0.266038	7.96424	0.481777	12.5742	0.737436	19.1392
0.252138	6.35578	0.0643613	1.78693	0.347482	9.84136	0.532188	13.5999	0.61695	15.4937	0.874075	22.0844	0.2712	7.89847	0.484601	12.3476	0.739262	18.7336
0.256767	6.32393	0.0664782	1.79916	0.349947	9.72061	0.535123	13.3569	0.619537	15.203	0.875724	21.6172	0.276385	7.83684	0.487473	12.1328	0.741126	18.3477
0.261286	6.29088	0.068595	1.81079	0.352891	9.58621	0.538143	13.127	0.622173	14.9264	0.877407	21.1718	0.281592	7.77896	0.490391	11.9288	0.743027	17.98
0.265693	6.25663	0.0707114	1.82185	0.356343	9.44103	0.541249	12.9094	0.624858	14.6631	0.879124	20.7468	0.286816	7.72447	0.493355	11.7349	0.744966	17.6295
0.269985	6.22122	0.0728274	1.83239	0.359874	9.30489	0.544439	12.7032	0.627591	14.4121	0.880875	20.3409	0.292056	7.67307	0.496363	11.5505	0.746941	17.2949
0.274162	6.18468	0.0749428	1.84242	0.363485	9.17718	0.547713	12.5077	0.630372	14.1727	0.88266	19.9528	0.29731	7.62447	0.499415	11.3749	0.748953	16.9752
0.278222	6.14707	0.0770576	1.85199	0.367177	9.05735	0.55107	12.3222	0.633201	13.9443	0.884478	19.5815	0.302576	7.57843	0.502511	11.2076	0.751	16.6696
0.282164	6.10843	0.0791716	1.86112	0.370953	8.94489	0.554509	12.1461	0.636078	13.726	0.886329	19.2259	0.307851	7.53473	0.505648	11.048	0.753083	16.3772
0.28599	6.06884	0.0812849	1.86985	0.374811	8.83934	0.558029	11.9787	0.639003	13.5173	0.888213	18.8851	0.313133	7.49315	0.508416	10.9148	0.755201	16.0971
0.289699	6.02836	0.0833974	1.87819	0.378753	8.74026	0.561629	11.8196	0.641974	13.3177	0.890129	18.5583	0.318422	7.45351	0.5108	10.8055	0.757355	15.8287
0.293293	5.98708	0.085509	1.88617	0.382779	8.64724	0.565307	11.6682	0.644994	13.1266	0.892078	18.2445	0.323713	7.41565	0.512788	10.7178	0.759542	15.5712
0.296774	5.94506	0.0876199	1.89381	0.386888	8.55991	0.569062	11.5241	0.64806	12.9436	0.894059	17.9431	0.329007	7.37942	0.51437	10.6501	0.761764	15.324
0.300143	5.90241	0.0897298	1.90113	0.39108	8.47789	0.572891	11.3868	0.651175	12.7682	0.896072	17.6534	0.3343	7.34466	0.51554	10.6013	0.76402	15.0866
0.303405	5.8592	0.0918389	1.90815	0.395353	8.40085	0.576794	11.2559	0.654337	12.6	0.898117	17.3748	0.339592	7.31127	0.516291	10.5704	0.76631	14.8585
0.306562	5.81552	0.0939472	1.91488	0.399706	8.32847	0.580768	11.1311	0.657546	12.4387	0.900192	17.1066	0.344881	7.27912	0.517375	10.5267	0.768632	14.6391
0.309616	5.77146	0.0960545	1.92135	0.404137	8.26044	0.584287	11.0269	0.660804	12.2838	0.902299	16.8483	0.350164	7.2481	0.518557	10.4798	0.770988	14.4279
0.312573	5.7271	0.0981611	1.92757	0.408644	8.19646	0.587328	10.9414	0.66411	12.1351	0.904436	16.5994	0.355441	7.21813	0.520173	10.4171	0.773376	14.2246
0.315435	5.68253	0.100267	1.93354	0.413223	8.13626	0.58987	10.8728	0.667465	11.9922	0.906604	16.3595	0.36071	7.1891	0.52223	10.3398	0.775796	14.0287
0.318206	5.63783	0.102372	1.93929	0.417872	8.07957	0.591897	10.8199	0.670869	11.8549	0.908802	16.128	0.365969	7.16094	0.524736	10.249	0.778247	13.8399
0.320891	5.59307	0.104476	1.94483	0.422586	8.02615	0.593397	10.7818	0.674322	11.723	0.91103	15.9046	0.371216	7.13357	0.527703	10.146	0.780731	13.6577
0.323493	5.54832	0.106579	1.95016	0.427364	7.97575	0.594361	10.7577	0.677826	11.5961	0.913288	15.6888	0.376451	7.10692	0.531142	10.0324	0.783245	13.482
0.326016	5.50366	0.108682	1.9553	0.432201	7.92816	0.595752	10.7234	0.681382	11.474	0.915575	15.4803	0.381671	7.08092	0.534617	9.92346	0.785791	13.3123
0.328465	5.45913	0.110784	1.96025	0.437092	7.88316	0.597272	10.6868	0.684989	11.3566	0.917891	15.2788	0.386875	7.05551	0.538128	9.81883	0.788367	13.1484
0.330842	5.4148	0.112885	1.96504	0.442035	7.84056	0.599351	10.6379	0.688175	11.2578	0.920237	15.0839	0.392062	7.03064	0.541675	9.71834	0.790973	12.99
0.333153	5.37071	0.114986	1.96966	0.447026	7.80018	0.602001	10.5774	0.690923	11.1763	0.92261	14.8953	0.39723	7.00626	0.545258	9.62177	0.793609	12.8369
0.335399	5.32692	0.117086	1.97412	0.45206	7.76183	0.605234	10.5065	0.693218	11.1105	0.925012	14.7128	0.402377	6.98231	0.548875	9.52893	0.796275	12.6888
0.337586	5.28346	0.119185	1.97844	0.457134	7.72537	0.609065	10.426	0.695048	11.0596	0.927443	14.5361	0.407503	6.95874	0.552526	9.43964	0.79897	12.5455
0.339715	5.24038	0.121283	1.98261	0.462244	7.69064	0.61351	10.3373	0.696401	11.0228	0.929901	14.3648	0.412605	6.93553	0.556212	9.35372	0.801694	12.4067
0.341791	5.19771	0.123381	1.98665	0.467387	7.65751	0.618004	10.252	0.697272	10.9995	0.932386	14.1989	0.417683	6.91262	0.559931	9.27101	0.804446	12.2724
0.343817	5.15546	0.125479	1.99056	0.47256	7.62584	0.622546	10.1702	0.698527	10.9664	0.934899	14.0379	0.422734	6.88998	0.563684	9.19136	0.807227	12.1422
0.345795	5.11368	0.127576	1.99435	0.477758	7.59553	0.627131	10.0915	0.699899	10.9308	0.937439	13.8819	0.427758	6.86757	0.567471	9.11463	0.810037	12.0161
0.347728	5.07238	0.129672	1.99802	0.482979	7.56646	0.631756	10.0158	0.701777	10.8832	0.940005	13.7304	0.432753	6.84537	0.57129	9.04069	0.812874	11.8938
0.349619	5.03158	0.131768	2.00157	0.48822	7.53853	0.636419	9.94282	0.704172	10.8243	0.942599	13.5835	0.437717	6.82334	0.575143	8.96941	0.815739	11.7752
0.35147	4.9913	0.133863	2.00503	0.493478	7.51166	0.641115	9.8725	0.707097	10.7548	0.945218	13.4408	0.44265	6.80145	0.579028	8.90067	0.818631	11.6601
0.353053	4.95662	0.135958	2.00838	0.49875	7.48575	0.645843	9.80462	0.71057	10.6758	0.947863	13.3021	0.44755	6.77968	0.582946	8.83437	0.821173	11.5626
0.354381	4.92739	0.138052	2.01163	0.504035	7.46073	0.650597	9.73905	0.714613	10.5883	0.950535	13.1675	0.452415	6.758	0.586896	8.7704	0.823356	11.4815
0.355465	4.90344	0.140146	2.01479	0.509328	7.43653	0.655375	9.67563	0.718718	10.5041	0.953231	13.0366	0.457245	6.7364	0.590878	8.70866	0.825173	11.4157
0.356313	4.88465	0.14224	2.01785	0.514629	7.41309	0.660174	9.61423	0.722887	10.4232	0.955953	12.9093	0.462038	6.71484	0.594893	8.64907	0.826616	11.3645
0.356932	4.87092	0.144333	2.02084	0.519935	7.39033	0.66499	9.55472	0.727122	10.3452	0.958701	12.7855	0.466793	6.69331	0.59894	8.59152	0.827682	11.3273
0.357326	4.86216	0.146425	2.02374	0.525244	7.36822	0.669818	9.49697	0.731424	10.2703	0.961472	12.6651	0.471508	6.6718	0.603018	8.53594	0.828365	11.3037
0.35789	4.84963	0.148518	2.02656	0.530554	7.34669	0.674657	9.44086	0.735795	10.1983	0.964269	12.548	0.476184	6.65028	0.607128	8.48225	0.82935	11.2701
0.358499	4.83608	0.150609	2.0293	0.535864	7.32569	0.679503	9.3863	0.740235	10.129	0.96709	12.4339	0.480818	6.62874	0.611269	8.43038	0.830424	11.2339
0.359322	4.81777	0.152701	2.03198	0.541171	7.3052	0.684353	9.33317	0.744747	10.0625	0.969934	12.3229	0.485409	6.60718	0.615442	8.38024	0.83189	11.1853
0.360353	4.7948	0.154792	2.03458	0.546474	7.28516	0.689203	9.28138	0.749332	9.99853	0.972803	12.2147	0.489957	6.58556	0.619646	8.33178	0.833752	11.1247
0.361585	4.7673	0.156883	2.03711	0.551772	7.26555	0.69405	9.23084	0.75399	9.93715	0.975696	12.1094	0.494461	6.5639	0.623881	8.28493	0.836018	11.0528
0.363014	4.73543	0.158973	2.03958	0.557063	7.24632	0.698893	9.18147	0.758723	9.87823	0.978612	12.0068	0.498919	6.54217	0.628146	8.23963	0.838693	10.9705
0.36463	4.6994	0.161064	2.04199	0.562345	7.22744	0.703727	9.1332	0.763531	9.82169	0.981172	11.9194	0.503332	6.52037	0.632441	8.19581	0.841787	10.8784
0.366223	4.66393	0.163153	2.04434	0.567619	7.20889	0.708553	9.08596	0.768415	9.76745	0.983368	11.8465	0.507697	6.49849	0.636767	8.15342	0.844906	10.7888
0.367794	4.62902	0.165243	2.04663	0.572881	7.19064	0.713366	9.03968	0.773374	9.71543	0.985193	11.7872	0.512016	6.47653	0.641122	8.1124	0.84805	10.7016
0.369346	4.59467	0.167332	2.04886	0.578132	7.17267	0.718167	8.99432	0.77841	9.66556	0.986643	11.741	0.516286	6.45448	0.645506	8.07271	0.851218	10.6168
0.370879	4.56087	0.169421	2.05104	0.58337	7.15495	0.722952	8.94983	0.783521	9.61776	0.987712	11.7074	0.520508	6.43234	0.649919	8.03428	0.854411	10.5342
0.372394	4.52763	0.17151	2.05317	0.588594	7.13746	0.727723	8.90616	0.788706	9.57194	0.988398	11.686	0.524681	6.4101	0.65436	7.99708	0.857629	10.4538
0.373893	4.49494	0.173599	2.05525	0.593803	7.12018	0.732477	8.86327	0.793966	9.52804	0.989386	11.6555	0.528805	6.38777	0.658829	7.96104	0.86087	10.3754
0.375376	4.46278	0.175687	2.05728	0.598996	7.1031	0.737214	8.82115	0.799298	9.48596	0.990463	11.6226	0.532879	6.36535	0.663325	7.92613	0.864135	10.2991
0.376845	4.43117	0.177775	2.05927	0.604172	7.08619	0.741935	8.77976	0.804702	9.44565	0.991932	11.5784	0.536903	6.34283	0.667847	7.8923	0.867424	10.2248
0.378301	4.40008	0.179863	2.0612	0.609331	7.06944	0.746639	8.73907	0.810175	9.40702	0.993797	11.5232	0.540878	6.32022	0.672395	7.85952	0.870736	10.1523
0.379744	4.36952	0.18195	2.0631	0.614471	7.05283	0.751327	8.69908	0.815716	9.37	0.996064	11.4575	0.544802	6.29752	0.676968	7.82772	0.874072	10.0817
0.381176	4.33947	0.184038	2.06495	0.619591	7.03636	0.755999	8.65976	0.821324	9.33451	0.998739	11.382	0.548677	6.27473	0.681566	7.79689	0.87743	10.0128
0.382597	4.30993	0.186125	2.06677	0.624691	7.02	0.760657	8.62111	0.826995	9.30048	1.00183	11.2972	0.552502	6.25185	0.686187	7.76697	0.880811	9.94568
0.384008	4.2809	0.188212	2.06854	0.629771	7.00375	0.765301	8.58311	0.832728	9.26785			0.556277	6.2289	0.69083	7.73793	0.884214	9.88017
0.38541	4.25236	0.190299	2.07027	0.634828	6.9876	0.769932	8.54575	0.838521	9.23654			0.560002	6.20587	0.695496	7.70973	0.88764	9.81626
0.386803	4.22431	0.192385	2.07197	0.639864	6.97153	0.774552	8.50903	0.844371	9.20649			0.563678	6.18277	0.700182	7.68233	0.891089	9.75389
0.388189	4.19674	0.194472	2.07364	0.644876	6.95553	0.779161	8.47294	0.850276	9.17765			0.567305	6.15961	0.704889	7.65571	0.894559	9.69302
0.389567	4.16964	0.196558	2.07526	0.649864	6.9396	0.783761	8.43748	0.856233	9.14993			0.570884	6.13639	0.709614	7.62983	0.898051	9.63361
0.390939	4.143	0.198644	2.07686	0.654828	6.92372	0.788353	8.40264	0.862242	9.1233			0.574414	6.11312	0.714358	7.60465	0.901564	9.57559
0.392304	4.11683	0.20073	2.07842	0.659768	6.9079	0.792938	8.36841	0.868298	9.0977			0.577897	6.0898	0.719118	7.58015	0.905099	9.51894
0.393664	4.0911	0.202815	2.07995	0.664681	6.89211	0.797518	8.33479	0.8744	9.07306			0.581332	6.06644	0.723895	7.55629	0.908655	9.46361
0.395019	4.06581	0.204901	2.08145	0.669569	6.87636	0.802094	8.30177	0.880546	9.04935			0.584721	6.04304	0.728687	7.53305	0.912232	9.40956
0.396369	4.04096	0.206986	2.08292	0.674429	6.86063	0.806666	8.26935	0.886734	9.02652			0.588063	6.01962	0.733493	7.51039	0.91583	9.35675
0.397715	4.01653	0.209072	2.08436	0.679263	6.84492	0.811237	8.23753	0.892961	9.00451			0.59136	5.99618	0.738312	7.4883	0.919449	9.30515
0.399058	3.99252	0.211157	2.08578	0.684068	6.82923	0.815806	8.20629	0.899227	8.98329			0.594612	5.97273	0.743143	7.46674	0.923088	9.25471
0.400397	3.96892	0.213242	2.08716	0.688846	6.81355	0.820376	8.17564	0.905528	8.96281			0.597819	5.94927	0.747985	7.44569	0.926748	9.20542
0.401733	3.94573	0.215326	2.08852	0.693594	6.79788	0.824947	8.14556	0.911862	8.94304			0.600983	5.92581	0.752837	7.42512	0.930427	9.15722
0.403067	3.92293	0.217411	2.08986	0.698314	6.7822	0.829519	8.11604	0.918229	8.92394			0.604104	5.90236	0.757697	7.40501	0.934127	9.11009
0.404398	3.90051	0.219496	2.09117	0.703004	6.76652	0.834094	8.08708	0.924627	8.90548			0.607183	5.87893	0.762566	7.38534	0.937846	9.06401
0.405727	3.87848	0.22158	2.09245	0.707664	6.75084	0.838673	8.05868	0.931053	8.88762			0.61022	5.85551	0.767441	7.36609	0.941585	9.01893
0.407055	3.85682	0.223664	2.09371	0.712294	6.73514	0.843255	8.03082	0.937506	8.87033			0.613216	5.83212	0.772322	7.34724	0.945344	8.97484
0.408381	3.83553	0.225749	2.09495	0.716893	6.71943	0.847843	8.00349	0.943984	8.85357			0.616172	5.80876	0.777207	7.32876	0.949121	8.9317
0.409707	3.8146	0.227833	2.09617	0.72146	6.7037	0.852435	7.97668	0.950486	8.83733			0.619089	5.78544	0.782097	7.31063	0.952918	8.88949
0.411031	3.79402	0.229917	2.09736	0.725997	6.68795	0.857033	7.9504	0.957011	8.82158			0.621967	5.76217	0.786989	7.29285	0.956734	8.84818
0.412355	3.77379	0.232001	2.09854	0.730502	6.67219	0.861637	7.92462	0.963556	8.80628			0.624807	5.73895	0.791883	7.27539	0.960569	8.80775
0.413679	3.7539	0.234084	2.09969	0.734975	6.6564	0.866248	7.89933	0.970121	8.79142			0.62761	5.71578	0.796777	7.25823	0.964422	8.76818
0.415003	3.73434	0.236168	2.10082	0.739416	6.64058	0.870866	7.87454	0.976703	8.77696			0.630376	5.69267	0.801672	7.24136	0.968293	8.72943
0.416327	3.7151	0.238251	2.10194	0.743824	6.62474	0.87549	7.85022	0.983301	8.76289			0.633107	5.66962	0.806566	7.22476	0.972184	8.6915
0.417651	3.69619	0.240335	2.10303	0.7482	6.60888	0.880122	7.82637	0.989914	8.74918			0.635802	5.64665	0.811457	7.20841	0.976092	8.65435
0.418976	3.67759	0.242418	2.10411	0.752543	6.59298	0.884762	7.80298	0.99654	8.73581			0.638464	5.62375	0.816346	7.19232	0.980018	8.61797
0.420301	3.65929	0.244502	2.10517	0.756854	6.57706	0.889409	7.78003	1.00318	8.72275			0.641092	5.60094	0.821231	7.17645	0.983962	8.58234
0.421627	3.6413	0.246585	2.10621	0.761131	6.56111	0.894063	7.75752					0.643687	5.5782	0.826112	7.1608	0.987924	8.54744
0.422954	3.62361	0.248668	2.10723	0.765375	6.54513	0.898725	7.73544					0.646249	5.55555	0.830987	7.14535	0.991903	8.51324
0.424283	3.60621	0.250751	2.10824	0.769587	6.52912	0.903395	7.71378					0.648781	5.533	0.835856	7.13009	0.9959	8.47974
0.425613	3.58909	0.252834	2.10923	0.773765	6.51309	0.908072	7.69252					0.651281	5.51054	0.840718	7.11502	0.999914	8.44691
0.426944	3.57225	0.254916	2.1102	0.77791	6.49702	0.912757	7.67165					0.653751	5.48817	0.845572	7.10012	1.00395	8.41473
0.428277	3.55568	0.256999	2.11116	0.782021	6.48093	0.917449	7.65118					0.656192	5.46591	0.850418	7.08537		
0.429611	3.53938	0.259082	2.1121	0.7861	6.46481	0.922148	7.63107					0.658604	5.44376	0.855254	7.07078		
0.430948	3.52335	0.261164	2.11303	0.790145	6.44867	0.926855	7.61133					0.660988	5.42171	0.86008	7.05632		
0.432286	3.50757	0.263247	2.11394	0.794157	6.43251	0.931568	7.59195					0.663345	5.39977	0.864895	7.042		
0.433626	3.49205	0.265329	2.11484	0.798137	6.41632	0.936287	7.57291					0.665674	5.37795	0.869699	7.02781		
0.434969	3.47677	0.267412	2.11573	0.802083	6.4001	0.941013	7.55421					0.667978	5.35624	0.874491	7.01372		
0.436313	3.46174	0.269494	2.1166	0.805996	6.38387	0.945744	7.53583					0.670255	5.33465	0.879271	6.99975		
0.43766	3.44695	0.271576	2.11746	0.809877	6.36762	0.950482	7.51776					0.672508	5.31318	0.884036	6.98587		
0.43901	3.43239	0.273658	2.11831	0.813725	6.35135	0.955224	7.5					0.674736	5.29183	0.888788	6.97209		
0.440362	3.41806	0.27574	2.11914	0.817541	6.33506	0.959971	7.48254					0.676941	5.27061	0.893526	6.9584		
0.441716	3.40395	0.277822	2.11996	0.821325	6.31876	0.964723	7.46536					0.679122	5.24951	0.898248	6.94478		
0.443073	3.39007	0.279904	2.12077	0.825076	6.30245	0.969479	7.44846					0.68128	5.22854	0.902954	6.93124		
0.444433	3.3764	0.281986	2.12157	0.828796	6.28613	0.974238	7.43183					0.683416	5.20769	0.907644	6.91777		
0.445795	3.36295	0.284068	2.12235	0.832484	6.26979	0.979001	7.41546					0.685531	5.18698	0.912318	6.90436		
0.44716	3.34971	0.28615	2.12313	0.836141	6.25345	0.983766	7.39934					0.687624	5.1664	0.916974	6.89101		
0.448528	3.33667	0.288231	2.12389	0.839766	6.2371	0.988534	7.38346					0.689697	5.14595	0.921613	6.87771		
0.449899	3.32383	0.290313	2.12464	0.843361	6.22075	0.993304	7.36781					0.691749	5.12563	0.926233	6.86447		
0.451273	3.31118	0.292395	2.12539	0.846924	6.2044	0.998075	7.35239					0.693782	5.10545	0.930835	6.85126		
0.45265	3.29874	0.294476	2.12612	0.850457	6.18805	1.00285	7.33719					0.695796	5.0854	0.935418	6.8381		
0.454029	3.28648	0.296558	2.12684	0.85396	6.1717							0.697791	5.06549	0.939981	6.82498		
0.455412	3.2744	0.298639	2.12755	0.857433	6.15535							0.699769	5.04572	0.944525	6.81189		
0.456798	3.26251	0.30072	2.12825	0.860877	6.13901							0.701728	5.02608	0.949048	6.79883		
0.458187	3.2508	0.302802	2.12894	0.864291	6.12268							0.70367	5.00658	0.953551	6.78579		
0.45958	3.23927	0.304883	2.12963	0.867675	6.10635							0.705595	4.98722	0.958033	6.77278		
0.460975	3.22791	0.306964	2.1303	0.871031	6.09004							0.707504	4.968	0.962494	6.7598		
0.462374	3.21671	0.309045	2.13096	0.874358	6.07373							0.709397	4.94891	0.966934	6.74683		
0.463775	3.20569	0.311127	2.13162	0.877657	6.05744							0.711275	4.92997	0.971352	6.73388		
0.46518	3.19482	0.313208	2.13227	0.880928	6.04117							0.713137	4.91116	0.975748	6.72095		
0.466589	3.18412	0.315289	2.13291	0.884171	6.02492							0.714985	4.89249	0.980122	6.70803		
0.468	3.17358	0.31737	2.13354	0.887387	6.00868							0.716818	4.87396	0.984474	6.69512		
0.469415	3.16319	0.319451	2.13416	0.890575	5.99247							0.718637	4.85557	0.988803	6.68222		
0.470833	3.15295	0.321532	2.13477	0.893737	5.97627							0.720442	4.83732	0.993109	6.66933		
0.472255	3.14286	0.323612	2.13538	0.896872	5.96011							0.722235	4.81921	0.997393	6.65645		
0.47368	3.13292	0.325693	2.13598	0.89998	5.94396							0.724014	4.80123	1.00165	6.64357		
0.475108	3.12312	0.327774	2.13657	0.903063	5.92784							0.725781	4.78339				
0.47654	3.11346	0.329855	2.13715	0.90612	5.91176							0.727536	4.76569				
0.477974	3.10394	0.331935	2.13773	0.909152	5.8957							0.729279	4.74813				
0.479413	3.09455	0.334016	2.1383	0.912158	5.87967							0.73101	4.73071				
0.480854	3.0853	0.336097	2.13886	0.91514	5.86367							0.73273	4.71342				
0.482299	3.07619	0.338177	2.13942	0.918096	5.84771							0.734439	4.69627				
0.483747	3.0672	0.340258	2.13997	0.921029	5.83178							0.736138	4.67925				
0.485199	3.05833	0.342338	2.14051	0.923938	5.81589							0.737826	4.66237				
0.486654	3.0496	0.344419	2.14104	0.926823	5.80003							0.739504	4.64562				
0.488112	3.04098	0.346499	2.14157	0.929684	5.78422							0.741172	4.62901				
0.489574	3.03249	0.34858	2.1421	0.932523	5.76844							0.742831	4.61253				
0.491039	3.02411	0.35066	2.14261	0.935338	5.7527							0.744481	4.59619				
0.492508	3.01585	0.352741	2.14312	0.938131	5.737							0.746122	4.57997				
0.49398	3.0077	0.354821	2.14363	0.940902	5.72135							0.747754	4.56389				
0.495455	2.99966	0.356901	2.14413	0.943651	5.70574							0.749378	4.54794				
0.496933	2.99174	0.358981	2.14462	0.946378	5.69017							0.750993	4.53211				
0.498415	2.98392	0.361062	2.14511	0.949083	5.67465							0.7526	4.51642				
0.4999	2.97621	0.363142	2.14559	0.951767	5.65917							0.7542	4.50086				
0.501388	2.96861	0.365222	2.14607	0.95443	5.64374							0.755793	4.48542				
0.50288	2.96111	0.367302	2.14654	0.957073	5.62836							0.757378	4.47011				
0.504375	2.95371	0.369382	2.14701	0.959695	5.61302							0.758956	4.45493				
0.505873	2.9464	0.371462	2.14747	0.962297	5.59774							0.760527	4.43987				
0.507375	2.9392	0.373542	2.14792	0.964879	5.5825							0.762092	4.42494				
0.50888	2.93209	0.375622	2.14837	0.967442	5.56732							0.76365	4.41012				
0.510388	2.92508	0.377702	2.14882	0.969985	5.55218							0.765202	4.39544				
0.511899	2.91816	0.379782	2.14926	0.972509	5.5371							0.766748	4.38087				
0.513414	2.91133	0.381862	2.1497	0.975014	5.52207							0.768288	4.36643				
0.514932	2.90459	0.383942	2.15013	0.9775	5.5071							0.769822	4.3521				
0.516453	2.89794	0.386022	2.15055	0.979969	5.49217							0.771351	4.3379				
0.517977	2.89138	0.388102	2.15098	0.982419	5.4773							0.772875	4.32381				
0.519504	2.8849	0.390181	2.15139	0.984851	5.46249							0.774393	4.30984				
0.521035	2.8785	0.392261	2.15181	0.987265	5.44773							0.775907	4.29599				
0.522568	2.87219	0.394341	2.15222	0.989662	5.43302							0.777416	4.28225				
0.524105	2.86596	0.396421	2.15262	0.992042	5.41838							0.77892	4.26863				
0.525645	2.85981	0.398501	2.15302	0.994406	5.40378							0.780419	4.25512				
0.527188	2.85374	0.40058	2.15342	0.996752	5.38925							0.781915	4.24173				
0.528734	2.84775	0.40266	2.15381	0.999082	5.37477							0.783406	4.22845				
0.530283	2.84183	0.40474	2.1542	1.0014	5.36035							0.784893	4.21528				
0.531836	2.83599	0.406819	2.15458									0.786376	4.20222				
0.533391	2.83022	0.408899	2.15496									0.787856	4.18926				
0.534949	2.82453	0.410978	2.15534									0.789332	4.17642				
0.53651	2.81891	0.413058	2.15571									0.790804	4.16369				
0.538075	2.81335	0.415137	2.15608									0.792273	4.15106				
0.539642	2.80787	0.417217	2.15645									0.793739	4.13853				
0.541212	2.80245	0.419296	2.15681									0.795201	4.12612				
0.542786	2.79711	0.421376	2.15717									0.796661	4.1138				
0.544362	2.79182	0.423455	2.15752									0.798118	4.10159				
0.545941	2.78661	0.425535	2.15787									0.799572	4.08948				
0.547523	2.78146	0.427614	2.15822									0.801023	4.07748				
0.549108	2.77637	0.429694	2.15857									0.802472	4.06557				
0.550695	2.77134	0.431773	2.15891									0.803918	4.05376				
0.552286	2.76637	0.433852	2.15925									0.805362	4.04205				
0.553879	2.76147	0.435932	2.15958									0.806804	4.03044				
0.555476	2.75662	0.438011	2.15991									0.808244	4.01893				
0.557075	2.75183	0.44009	2.16024									0.809681	4.00751				
0.558676	2.7471	0.44217	2.16057									0.811117	3.99619				
0.560281	2.74243	0.444249	2.16089									0.812551	3.98496				
0.561888	2.73781	0.446328	2.16121									0.813983	3.97383				
0.563498	2.73325	0.448407	2.16152									0.815413	3.96278				
0.565111	2.72874	0.450487	2.16184									0.816842	3.95183				
0.566727	2.72428	0.452566	2.16215									0.818269	3.94098				
0.568345	2.71988	0.454645	2.16246									0.819694	3.93021				
0.569966	2.71553	0.456724	2.16276									0.821119	3.91953				
0.571589	2.71123	0.458803	2.16306									0.822542	3.90893				
0.573215	2.70698	0.460882	2.16336									0.823964	3.89843				
0.574844	2.70278	0.462961	2.16366									0.825384	3.88801				
0.576475	2.69862	0.465041	2.16395									0.826804	3.87768				
0.578109	2.69452	0.46712	2.16425									0.828223	3.86744				
0.579745	2.69046	0.469199	2.16453									0.82964	3.85728				
0.581384	2.68646	0.471278	2.16482									0.831057	3.8472				
0.583026	2.68249	0.473357	2.1651									0.832473	3.8372				
0.58467	2.67857	0.475436	2.16539									0.833889	3.82729				
0.586317	2.6747	0.477515	2.16566									0.835303	3.81746				
0.587966	2.67087	0.479594	2.16594									0.836717	3.80771				
0.589617	2.66709	0.481673	2.16622									0.838131	3.79804				
0.591271	2.66334	0.483752	2.16649									0.839544	3.78845				
0.592927	2.65964	0.485831	2.16676									0.840956	3.77893				
0.594586	2.65598	0.48791	2.16702									0.842368	3.7695				
0.596247	2.65236	0.489988	2.16729									0.84378	3.76014				
0.597911	2.64879	0.492067	2.16755									0.845192	3.75085				
0.599577	2.64525	0.494146	2.16781									0.846603	3.74164				
0.601245	2.64175	0.496225	2.16807									0.848014	3.73251				
0.602916	2.63829	0.498304	2.16833									0.849425	3.72345				
0.604589	2.63487	0.500383	2.16858									0.850836	3.71447				
0.606264	2.63148	0.502462	2.16883									0.852247	3.70555				
0.607942	2.62814	0.50454	2.16908									0.853657	3.69671				
0.609621	2.62483	0.506619	2.16933									0.855068	3.68794				
0.611303	2.62155	0.508698	2.16958									0.856479	3.67924				
0.612988	2.61831	0.510777	2.16982									0.85789	3.67061				
0.614674	2.61511	0.512856	2.17006									0.859301	3.66205				
0.616363	2.61194	0.514934	2.1703									0.860712	3.65356				
0.618054	2.60881	0.517013	2.17054									0.862124	3.64514				
0.619747	2.60571	0.519092	2.17078									0.863536	3.63678				
0.621442	2.60264	0.52117	2.17101									0.864948	3.62849				
0.62314	2.5996	0.523249	2.17124									0.86636	3.62026				
0.624839	2.5966	0.525328	2.17147									0.867773	3.6121				
0.626541	2.59363	0.527407	2.1717									0.869187	3.60401				
0.628245	2.59069	0.529485	2.17193									0.8706	3.59598				
0.629951	2.58779	0.531564	2.17215									0.872015	3.58801				
0.631659	2.58491	0.533642	2.17238									0.873429	3.58011				
0.633369	2.58206	0.535721	2.1726									0.874844	3.57227				
0.635081	2.57924	0.5378	2.17282									0.87626	3.56449				
0.636795	2.57646	0.539878	2.17304									0.877677	3.55677				
0.638511	2.5737	0.541957	2.17325									0.879094	3.54911				
0.640229	2.57097	0.544035	2.17347									0.880511	3.54152				
0.641949	2.56827	0.546114	2.17368									0.88193	3.53398				
0.643672	2.56559	0.548193	2.17389									0.883349	3.5265				
0.645396	2.56295	0.550271	2.1741									0.884769	3.51908				
0.647122	2.56033	0.55235	2.17431									0.886189	3.51171				
0.64885	2.55774	0.554428	2.17452									0.88761	3.50441				
0.650579	2.55517	0.556507	2.17472									0.889032	3.49716				
0.652311	2.55263	0.558585	2.17493									0.890455	3.48996				
0.654045	2.55012	0.560664	2.17513									0.891879	3.48283				
0.655781	2.54763	0.562742	2.17533									0.893304	3.47574				
0.657518	2.54517	0.564821	2.17553									0.894729	3.46871				
0.659257	2.54273	0.566899	2.17573									0.896156	3.46174				
0.660998	2.54032	0.568977	2.17592									0.897583	3.45482				
0.662741	2.53793	0.571056	2.17612									0.899011	3.44795				
0.664486	2.53557	0.573134	2.17631									0.90044	3.44114				
0.666233	2.53322	0.575213	2.1765									0.901871	3.43438				
0.667981	2.53091	0.577291	2.17669									0.903302	3.42766				
0.669731	2.52861	0.579369	2.17688									0.904734	3.421				
0.671483	2.52634	0.581448	2.17707									0.906167	3.41439				
0.673237	2.52409	0.583526	2.17726									0.907601	3.40784				
0.674992	2.52186	0.585605	2.17744									0.909037	3.40133				
0.67675	2.51966	0.587683	2.17763									0.910473	3.39487				
0.678509	2.51747	0.589761	2.17781									0.911911	3.38845				
0.680269	2.51531	0.59184	2.17799									0.913349	3.38209				
0.682031	2.51317	0.593918	2.17817									0.914789	3.37578				
0.683795	2.51105	0.595996	2.17835									0.91623	3.36951				
0.685561	2.50895	0.598075	2.17853									0.917672	3.36329				
0.687328	2.50687	0.600153	2.1787									0.919115	3.35711				
0.689097	2.50481	0.602231	2.17888									0.920559	3.35098				
0.690868	2.50277	0.604309	2.17905									0.922005	3.3449				
0.69264	2.50075	0.606388	2.17922									0.923451	3.33886				
0.694414	2.49874	0.608466	2.1794									0.924899	3.33287				
0.696189	2.49676	0.610544	2.17957									0.926348	3.32692				
0.697966	2.4948	0.612622	2.17974									0.927799	3.32102				
0.699745	2.49286	0.614701	2.1799									0.92925	3.31516				
0.701525	2.49093	0.616779	2.18007									0.930703	3.30934				
0.703307	2.48902	0.618857	2.18024									0.932157	3.30357				
0.70509	2.48713	0.620935	2.1804									0.933612	3.29784				
0.706875	2.48526	0.623013	2.18056									0.935069	3.29215				
0.708661	2.48341	0.625092	2.18073									0.936527	3.2865				
0.710449	2.48157	0.62717	2.18089									0.937986	3.28089				
0.712238	2.47975	0.629248	2.18105									0.939446	3.27533				
0.714029	2.47795	0.631326	2.18121									0.940908	3.2698				
0.715822	2.47616	0.633404	2.18137									0.942371	3.26432				
0.717615	2.47439	0.635482	2.18152									0.943836	3.25887				
0.719411	2.47264	0.637561	2.18168									0.945301	3.25347				
0.721207	2.4709	0.639639	2.18183									0.946768	3.2481				
0.723005	2.46918	0.641717	2.18199									0.948237	3.24277				
0.724805	2.46747	0.643795	2.18214									0.949706	3.23749				
0.726606	2.46578	0.645873	2.18229									0.951178	3.23223				
0.728408	2.46411	0.647951	2.18244									0.95265	3.22702				
0.730212	2.46245	0.650029	2.18259									0.954124	3.22185				
0.732018	2.46081	0.652107	2.18274									0.955599	3.21671				
0.733824	2.45918	0.654185	2.18289									0.957076	3.2116				
0.735632	2.45756	0.656263	2.18304									0.958553	3.20654				
0.737441	2.45596	0.658341	2.18319									0.960033	3.20151				
0.739252	2.45438	0.660419	2.18333									0.961514	3.19652				
0.741064	2.45281	0.662498	2.18348									0.962996	3.19156				
0.742878	2.45125	0.664576	2.18362									0.964479	3.18663				
0.744692	2.44971	0.666654	2.18376									0.965964	3.18175				
0.746508	2.44818	0.668732	2.1839									0.96745	3.17689				
0.748326	2.44666	0.67081	2.18404									0.968938	3.17207				
0.750144	2.44516	0.672888	2.18418									0.970427	3.16729				
0.751964	2.44367	0.674966	2.18432									0.971918	3.16253				
0.753785	2.44219	0.677044	2.18446									0.973409	3.15782				
0.755608	2.44073	0.679122	2.1846									0.974903	3.15313				
0.757432	2.43928	0.6812	2.18474									0.976398	3.14848				
0.759257	2.43784	0.683277	2.18487									0.977894	3.14386				
0.761083	2.43642	0.685355	2.18501									0.979391	3.13927				
0.762911	2.43501	0.687433	2.18514									0.98089	3.13471				
0.764739	2.43361	0.689511	2.18527									0.982391	3.13019				
0.766569	2.43222	0.691589	2.18541									0.983893	3.12569				
0.7684	2.43084	0.693667	2.18554									0.985396	3.12123				
0.770233	2.42948	0.695745	2.18567									0.986901	3.1168				
0.772066	2.42813	0.697823	2.1858									0.988407	3.1124				
0.773901	2.42679	0.699901	2.18593									0.989915	3.10803				
0.775737	2.42546	0.701979	2.18606									0.991424	3.10369				
0.777574	2.42414	0.704057	2.18618									0.992934	3.09937				
0.779413	2.42283	0.706135	2.18631									0.994446	3.09509				
0.781252	2.42154	0.708212	2.18644									0.99596	3.09084				
0.783093	2.42025	0.71029	2.18656									0.997475	3.08662				
0.784934	2.41898	0.712368	2.18669									0.998991	3.08242				
0.786777	2.41772	0.714446	2.18681									1.00051	3.07826				
0.788621	2.41647	0.716524	2.18694														
0.790466	2.41522	0.718602	2.18706														
0.792313	2.41399	0.720679	2.18718														
0.79416	2.41277	0.722757	2.1873														
0.796009	2.41156	0.724835	2.18742														
0.797858	2.41036	0.726913	2.18754														
0.799709	2.40917	0.728991	2.18766														
0.801561	2.40799	0.731068	2.18778														
0.803413	2.40682	0.733146	2.1879														
0.805267	2.40566	0.735224	2.18801														
0.807122	2.40451	0.737302	2.18813														
0.808978	2.40337	0.73938	2.18825														
0.810835	2.40224	0.741457	2.18836														
0.812693	2.40111	0.743535	2.18847														
0.814552	2.4	0.745613	2.18859														
0.816412	2.39889	0.747691	2.1887														
0.818273	2.3978	0.749768	2.18881														
0.820135	2.39671	0.751846	2.18893														
0.821999	2.39563	0.753924	2.18904														
0.823863	2.39456	0.756001	2.18915														
0.825728	2.3935	0.758079	2.18926														
0.827594	2.39245	0.760157	2.18937														
0.829461	2.39141	0.762235	2.18948														
0.831329	2.39037	0.764312	2.18958														
0.833198	2.38935	0.76639	2.18969														
0.835068	2.38833	0.768468	2.1898														
0.836939	2.38732	0.770545	2.1899														
0.838811	2.38631	0.772623	2.19001														
0.840683	2.38532	0.774701	2.19012														
0.842557	2.38433	0.776778	2.19022														
0.844432	2.38335	0.778856	2.19032														
0.846307	2.38238	0.780933	2.19043														
0.848184	2.38142	0.783011	2.19053														
0.850061	2.38046	0.785089	2.19063														
0.85194	2.37951	0.787166	2.19074														
0.853819	2.37857	0.789244	2.19084														
0.855699	2.37764	0.791322	2.19094														
0.85758	2.37671	0.793399	2.19104														
0.859462	2.37579	0.795477	2.19114														
0.861344	2.37488	0.797554	2.19124														
0.863228	2.37398	0.799632	2.19134														
0.865112	2.37308	0.801709	2.19143														
0.866998	2.37219	0.803787	2.19153														
0.868884	2.3713	0.805865	2.19163														
0.870771	2.37043	0.807942	2.19173														
0.872659	2.36956	0.81002	2.19182														
0.874548	2.36869	0.812097	2.19192														
0.876437	2.36783	0.814175	2.19201														
0.878327	2.36698	0.816252	2.19211														
0.880219	2.36614	0.81833	2.1922														
0.882111	2.3653	0.820407	2.19229														
0.884003	2.36447	0.822485	2.19239														
0.885897	2.36364	0.824562	2.19248														
0.887792	2.36283	0.82664	2.19257														
0.889687	2.36201	0.828717	2.19266														
0.891583	2.36121	0.830795	2.19276														
0.89348	2.3604	0.832872	2.19285														
0.895377	2.35961	0.83495	2.19294														
0.897276	2.35882	0.837027	2.19303														
0.899175	2.35804	0.839105	2.19312														
0.901075	2.35726	0.841182	2.19321														
0.902975	2.35649	0.84326	2.19329														
0.904877	2.35572	0.845337	2.19338														
0.906779	2.35496	0.847415	2.19347														
0.908682	2.35421	0.849492	2.19356														
0.910585	2.35346	0.851569	2.19364														
0.91249	2.35272	0.853647	2.19373														
0.914395	2.35198	0.855724	2.19382														
0.916301	2.35125	0.857802	2.1939														
0.918208	2.35052	0.859879	2.19399														
0.920115	2.3498	0.861956	2.19407														
0.922023	2.34908	0.864034	2.19416														
0.923932	2.34837	0.866111	2.19424														
0.925841	2.34766	0.868189	2.19432														
0.927751	2.34696	0.870266	2.19441														
0.929662	2.34627	0.872343	2.19449														
0.931574	2.34558	0.874421	2.19457														
0.933486	2.34489	0.876498	2.19465														
0.935399	2.34421	0.878576	2.19473														
0.937313	2.34353	0.880653	2.19482														
0.939227	2.34286	0.88273	2.1949														
0.941142	2.34219	0.884808	2.19498														
0.943058	2.34153	0.886885	2.19506														
0.944974	2.34088	0.888962	2.19514														
0.946891	2.34022	0.89104	2.19522														
0.948809	2.33958	0.893117	2.19529														
0.950727	2.33893	0.895194	2.19537														
0.952646	2.33829	0.897271	2.19545														
0.954565	2.33766	0.899349	2.19553														
0.956486	2.33703	0.901426	2.19561														
0.958407	2.3364	0.903503	2.19568														
0.960328	2.33578	0.905581	2.19576														
0.96225	2.33517	0.907658	2.19584														
0.964173	2.33455	0.909735	2.19591														
0.966097	2.33395	0.911813	2.19599														
0.968021	2.33334	0.91389	2.19606														
0.969945	2.33274	0.915967	2.19614														
0.97187	2.33215	0.918044	2.19621														
0.973796	2.33156	0.920121	2.19629														
0.975723	2.33097	0.922199	2.19636														
0.97765	2.33039	0.924276	2.19643														
0.979578	2.32981	0.926353	2.19651														
0.981506	2.32923	0.92843	2.19658														
0.983435	2.32866	0.930508	2.19665														
0.985364	2.32809	0.932585	2.19672														
0.987294	2.32753	0.934662	2.19679														
0.989225	2.32697	0.936739	2.19687														
0.991156	2.32641	0.938817	2.19694														
0.993088	2.32586	0.940894	2.19701														
0.995021	2.32531	0.942971	2.19708														
0.996953	2.32477	0.945048	2.19715														
0.998887	2.32423	0.947125	2.19722														
1.00082	2.32369	0.949202	2.19729														
		0.95128	2.19736														
		0.953357	2.19743														
		0.955434	2.19749														
		0.957511	2.19756														
		0.959588	2.19763														
		0.961665	2.1977														
		0.963743	2.19777														
		0.96582	2.19783														
		0.967897	2.1979														
		0.969974	2.19797														
		0.972051	2.19803														
		0.974128	2.1981														
		0.976205	2.19816														
		0.978282	2.19823														
		0.980359	2.19829														
		0.982437	2.19836														
		0.984514	2.19842														
		0.986591	2.19849														
		0.988668	2.19855														
		0.990745	2.19862														
		0.992822	2.19868														
		0.994899	2.19874														
		0.996976	2.19881														
		0.999053	2.19887														
		1.00113	2.19893														
