Sym0		Asym0		Sym1		Sym2		Sym3		Sym4		Asym1		Asym2		Asym4	
479  Points		492  Points		479  Points		271  Points		142  Points		129  Points		409  Points		164  Points		127  Points	
Freq (MHz)	Vph (m/ms)	Freq (MHz)	Vph (m/ms)	Freq (MHz)	Vph (m/ms)	Freq (MHz)	Vph (m/ms)	Freq (MHz)	Vph (m/ms)	Freq (MHz)	Vph (m/ms)	Freq (MHz)	Vph (m/ms)	Freq (MHz)	Vph (m/ms)	Freq (MHz)	Vph (m/ms)
0.00500526	7.56392	0.000585561	0.25249	0.00603936	7.56378	0.279539	383.29	0.353684	513.456	0.55904	763.636	0.139791	336.993	0.419279	769.821	0.69877	1417.23
0.0120513	7.56316	0.0011417	0.351201	0.0130851	7.563	0.279665	168.371	0.353803	218.326	0.559135	336.065	0.14014	104.076	0.41938	284.067	0.698764	490.447
0.0190945	7.56184	0.00187099	0.447335	0.0201278	7.56158	0.27989	107.953	0.354017	138.709	0.559305	215.493	0.140854	61.8266	0.419574	174.239	0.698754	296.529
0.0261332	7.55991	0.00276331	0.540317	0.0271657	7.55957	0.280211	79.5061	0.354327	101.704	0.559549	158.64	0.141926	44.2151	0.419861	125.717	0.698743	212.504
0.0331656	7.55738	0.0038071	0.629697	0.034197	7.55695	0.280629	62.9764	0.354735	80.3365	0.559867	125.563	0.143347	34.6115	0.42024	98.384	0.698736	165.584
0.0401899	7.5542	0.00498981	0.715116	0.04122	7.55369	0.281141	52.1811	0.355241	66.4336	0.560258	103.933	0.145103	28.6013	0.420712	80.8576	0.698736	135.637
0.0472043	7.5504	0.00629858	0.796349	0.0482328	7.54979	0.281744	44.5835	0.355847	56.6725	0.560724	88.6906	0.147179	24.5094	0.421275	68.6695	0.69875	114.865
0.054207	7.54594	0.00772068	0.87328	0.0552335	7.54522	0.282438	38.9507	0.356554	49.4479	0.561262	77.3734	0.149558	21.5604	0.421929	59.7083	0.69878	99.6135
0.0611957	7.54079	0.00924346	0.945844	0.06222	7.53998	0.283219	34.6112	0.357365	43.8894	0.561874	68.6414	0.152223	19.3462	0.422674	52.8462	0.698832	87.9409
0.0681685	7.53494	0.0108552	1.01408	0.0691903	7.53402	0.284085	31.1683	0.358281	39.4839	0.562558	61.702	0.155157	17.6313	0.423509	47.426	0.698909	78.7209
0.075123	7.52835	0.0125448	1.07809	0.076142	7.52733	0.285033	28.372	0.359304	35.9096	0.563315	56.0566	0.15834	16.2705	0.424433	43.0389	0.699013	71.2551
0.0820569	7.521	0.0143021	1.13799	0.0830727	7.51986	0.28606	26.0576	0.360437	32.9543	0.564143	51.3758	0.161756	15.1692	0.425444	39.4175	0.699148	65.0873
0.0889676	7.51285	0.016118	1.19397	0.0899797	7.51158	0.287162	24.1117	0.361681	30.4723	0.565043	47.4331	0.165388	14.2636	0.426543	36.379	0.699315	59.9067
0.0958524	7.50385	0.0179843	1.24621	0.0968604	7.50245	0.288338	22.4539	0.36304	28.3606	0.566014	44.068	0.169219	13.5085	0.427728	33.7946	0.699516	55.4947
0.102708	7.49395	0.0198937	1.29492	0.103711	7.49242	0.289584	21.0254	0.364516	26.5439	0.567056	41.1632	0.173234	12.8717	0.428998	31.5709	0.699752	51.6927
0.109531	7.48311	0.0218398	1.34031	0.11053	7.48143	0.290899	19.7827	0.36611	24.9661	0.568167	38.6311	0.177418	12.329	0.430351	29.6384	0.700026	48.3828
0.116319	7.47126	0.023817	1.3826	0.117312	7.46943	0.29228	18.6922	0.367824	23.5846	0.569348	36.4052	0.181758	11.8626	0.431787	27.9442	0.700337	45.4759
0.123067	7.45834	0.0258205	1.42199	0.124053	7.45635	0.293725	17.7283	0.369661	22.3662	0.570598	34.4337	0.18624	11.4584	0.433305	26.4477	0.700688	42.9031
0.12977	7.44428	0.0278459	1.45869	0.13075	7.44212	0.295234	16.8707	0.371622	21.285	0.571915	32.6761	0.190855	11.1057	0.434902	25.1168	0.701078	40.6103
0.136426	7.42899	0.029626	1.48863	0.137398	7.42664	0.296807	16.1032	0.373709	20.3202	0.573301	31.0997	0.195589	10.7959	0.436578	23.9262	0.701509	38.5545
0.143027	7.41239	0.0311529	1.51274	0.143146	7.41208	0.298443	15.4129	0.375922	19.4549	0.574753	29.6785	0.200434	10.5222	0.43833	22.8552	0.701981	36.7011
0.149569	7.39438	0.0324213	1.53176	0.148011	7.39882	0.300145	14.7892	0.378262	18.6755	0.576271	28.391	0.20538	10.2791	0.440159	21.8873	0.702495	35.022
0.156045	7.37485	0.0334274	1.54624	0.152007	7.38724	0.301913	14.2234	0.38073	17.9707	0.577854	27.2196	0.210418	10.062	0.442062	21.0086	0.703051	33.494
0.162448	7.35369	0.0341689	1.55658	0.155149	7.37766	0.303753	13.7083	0.383326	17.3311	0.579502	26.1496	0.215541	9.86735	0.444037	20.2077	0.70365	32.0979
0.168772	7.33077	0.0346441	1.56306	0.157448	7.37038	0.305667	13.2381	0.386048	16.7487	0.581214	25.1687	0.220739	9.69197	0.446083	19.4751	0.704293	30.8174
0.175008	7.30595	0.0353281	1.57221	0.158915	7.36561	0.307661	12.8076	0.388897	16.2167	0.582989	24.2665	0.226008	9.53331	0.448199	18.8027	0.70498	29.6391
0.181146	7.2791	0.0360727	1.58192	0.161016	7.35859	0.309742	12.4128	0.391871	15.7296	0.584827	23.4342	0.23134	9.38921	0.450383	18.1835	0.705711	28.5515
0.187179	7.25007	0.0370871	1.59475	0.163291	7.35076	0.311917	12.0501	0.394969	15.2825	0.586726	22.6641	0.236728	9.25784	0.452633	17.6119	0.706488	27.5446
0.193094	7.21869	0.0383725	1.6104	0.166367	7.33973	0.314194	11.7163	0.398189	14.871	0.588685	21.9499	0.242169	9.13765	0.454949	17.0827	0.70731	26.6101
0.198882	7.18482	0.0399303	1.62847	0.17023	7.32517	0.316583	11.409	0.401529	14.4915	0.590704	21.2857	0.247655	9.0273	0.457327	16.5916	0.708178	25.7405
0.204532	7.14831	0.0417616	1.64857	0.174855	7.30659	0.319094	11.126	0.404987	14.1408	0.592783	20.6667	0.253182	8.92564	0.459767	16.1347	0.709093	24.9295
0.210031	7.10902	0.0438674	1.67027	0.180212	7.28335	0.321738	10.8652	0.40856	13.8161	0.594919	20.0887	0.258745	8.83168	0.462267	15.7089	0.710055	24.1716
0.215368	7.06681	0.0459767	1.69061	0.186261	7.25466	0.324526	10.625	0.412246	13.5149	0.597113	19.5478	0.26434	8.74457	0.464826	15.311	0.711065	23.4618
0.220531	7.02158	0.0480888	1.7097	0.192196	7.22366	0.327468	10.404	0.416041	13.2351	0.599363	19.0407	0.269962	8.66353	0.467442	14.9388	0.712123	22.796
0.225511	6.97326	0.0502027	1.72763	0.198004	7.19018	0.330575	10.2007	0.419944	12.9747	0.601668	18.5645	0.275608	8.58793	0.470114	14.5897	0.71323	22.1702
0.230296	6.92182	0.0523181	1.74449	0.203675	7.15409	0.333856	10.0141	0.423951	12.732	0.604029	18.1165	0.281272	8.51717	0.472841	14.262	0.714387	21.5811
0.23488	6.86728	0.0544344	1.76037	0.209198	7.11522	0.33732	9.8429	0.428058	12.5054	0.606443	17.6944	0.286953	8.45076	0.47562	13.9537	0.715594	21.0258
0.239255	6.8097	0.0565512	1.77533	0.214561	7.07347	0.340971	9.68613	0.432264	12.2937	0.60891	17.2962	0.292645	8.38823	0.478451	13.6633	0.716852	20.5015
0.243418	6.7492	0.0586681	1.78945	0.219752	7.02871	0.344816	9.54277	0.436565	12.0955	0.61143	16.92	0.298345	8.32918	0.481333	13.3893	0.71816	20.0059
0.247366	6.68597	0.0607849	1.80278	0.22476	6.98087	0.348853	9.41183	0.440959	11.9098	0.614	16.5641	0.30405	8.27325	0.484264	13.1305	0.719521	19.5367
0.251103	6.62024	0.0629014	1.81539	0.229576	6.92991	0.353083	9.29237	0.445441	11.7355	0.616622	16.2269	0.309756	8.22012	0.487243	12.8858	0.720934	19.0921
0.25463	6.55229	0.0650173	1.82732	0.234191	6.87584	0.357501	9.18347	0.45001	11.5719	0.619292	15.9072	0.31546	8.16951	0.49027	12.654	0.722401	18.6703
0.257954	6.48242	0.0671325	1.83863	0.238598	6.81871	0.362102	9.08422	0.454663	11.418	0.622012	15.6036	0.321159	8.12114	0.493343	12.4343	0.723921	18.2697
0.261084	6.41096	0.0692471	1.84935	0.242794	6.75865	0.366876	8.99377	0.459397	11.2731	0.62478	15.3151	0.326849	8.07479	0.496461	12.2258	0.725496	17.8888
0.264028	6.33826	0.0713608	1.85953	0.246775	6.69583	0.371813	8.91128	0.464209	11.1365	0.627595	15.0406	0.332527	8.03023	0.499625	12.0278	0.727125	17.5263
0.266799	6.26465	0.0734735	1.8692	0.250544	6.63047	0.376904	8.83598	0.469098	11.0078	0.630456	14.7792	0.33819	7.98728	0.502833	11.8395	0.72881	17.1811
0.269407	6.19047	0.0755854	1.8784	0.254103	6.56283	0.382136	8.76713	0.474059	10.8862	0.633363	14.53	0.343835	7.94575	0.506085	11.6602	0.730551	16.852
0.271866	6.11602	0.0776962	1.88717	0.257458	6.49323	0.387496	8.70405	0.479092	10.7713	0.636315	14.2922	0.349458	7.90548	0.50938	11.4895	0.732348	16.538
0.274185	6.04158	0.0798061	1.89552	0.260617	6.422	0.392972	8.64611	0.484194	10.6627	0.639312	14.0652	0.355056	7.86633	0.512719	11.3268	0.734203	16.2382
0.276379	5.96741	0.0819149	1.90348	0.263589	6.34947	0.398552	8.59275	0.489363	10.5598	0.642352	13.8482	0.359911	7.833	0.5161	11.1716	0.736115	15.9518
0.278458	5.89372	0.0840229	1.91109	0.266385	6.27598	0.404225	8.54344	0.494597	10.4624	0.645435	13.6407	0.364032	7.80511	0.519525	11.0234	0.738085	15.678
0.280432	5.82072	0.0861297	1.91836	0.269018	6.20186	0.409979	8.49772	0.499893	10.3701	0.648561	13.4421	0.367426	7.78237	0.522993	10.8818	0.740114	15.416
0.282312	5.74857	0.0882357	1.92531	0.271498	6.12743	0.415804	8.45518	0.505251	10.2825	0.651728	13.2518	0.370099	7.76458	0.526505	10.7466	0.742201	15.1652
0.284107	5.67741	0.0903407	1.93197	0.273838	6.05298	0.42169	8.41544	0.510668	10.1993	0.654936	13.0695	0.37206	7.7516	0.530061	10.6173	0.744348	14.9249
0.285825	5.60735	0.0924448	1.93834	0.276051	5.97875	0.427629	8.37817	0.516142	10.1204	0.658185	12.8946	0.373312	7.74333	0.533662	10.4935	0.746553	14.6946
0.287474	5.53848	0.0945479	1.94445	0.278146	5.90497	0.433611	8.34308	0.521672	10.0453	0.661474	12.7267	0.375108	7.7315	0.537307	10.3752	0.748819	14.4738
0.289062	5.47087	0.0966502	1.95032	0.280136	5.83186	0.439629	8.30991	0.527256	9.97386	0.664803	12.5655	0.377056	7.7187	0.540998	10.2618	0.751145	14.2619
0.290595	5.40457	0.0987516	1.95595	0.282029	5.75957	0.445677	8.27842	0.532893	9.90591	0.668171	12.4106	0.379696	7.7014	0.544736	10.1533	0.75353	14.0585
0.292078	5.33963	0.100852	1.96136	0.283837	5.68825	0.451746	8.24841	0.538581	9.8412	0.671578	12.2617	0.383021	7.67969	0.548522	10.0493	0.755975	13.8631
0.293517	5.27607	0.102952	1.96657	0.285566	5.61801	0.457832	8.2197	0.544319	9.77956	0.675024	12.1185	0.387018	7.65363	0.552356	9.94974	0.758481	13.6754
0.294916	5.2139	0.105051	1.97157	0.287226	5.54895	0.463928	8.19213	0.550105	9.72079	0.678508	11.9806	0.391674	7.6233	0.55624	9.85431	0.761046	13.495
0.29628	5.15314	0.107149	1.97639	0.288823	5.48114	0.470031	8.16554	0.555938	9.66475	0.68203	11.8479	0.396969	7.58875	0.560174	9.76287	0.763672	13.3215
0.297613	5.09378	0.109247	1.98104	0.290363	5.41464	0.476134	8.13981	0.561817	9.61128	0.685589	11.72	0.40221	7.55439	0.56416	9.67523	0.766357	13.1545
0.298918	5.03581	0.111344	1.98552	0.291854	5.34949	0.482233	8.11484	0.56774	9.56023	0.689187	11.5968	0.407394	7.52016	0.568198	9.59123	0.769101	12.9938
0.300198	4.97922	0.11344	1.98984	0.293299	5.28572	0.488325	8.0905	0.573706	9.51146	0.692822	11.4781	0.412518	7.48599	0.57229	9.51073	0.771904	12.8391
0.301456	4.92399	0.115536	1.99401	0.294704	5.22334	0.494405	8.06672	0.579713	9.46486	0.696495	11.3635	0.417577	7.45181	0.576436	9.43356	0.774766	12.69
0.302695	4.87011	0.117631	1.99804	0.296073	5.16236	0.499692	8.04639	0.585761	9.42031	0.700205	11.253	0.42257	7.41758	0.580637	9.35961	0.777687	12.5464
0.303916	4.81755	0.119725	2.00194	0.297411	5.10278	0.504188	8.0293	0.591848	9.37768	0.703954	11.1463	0.427492	7.38323	0.584894	9.28872	0.780664	12.4079
0.305123	4.76628	0.121819	2.0057	0.29872	5.0446	0.507897	8.01532	0.597972	9.33688	0.70774	11.0434	0.432341	7.34873	0.589207	9.22078	0.783699	12.2744
0.306316	4.71628	0.123912	2.00934	0.300003	4.9878	0.510825	8.00435	0.604133	9.29781	0.711565	10.9439	0.437114	7.31404	0.593577	9.15567	0.78679	12.1456
0.307498	4.66752	0.126005	2.01287	0.301265	4.93237	0.512973	7.99633	0.610328	9.26037	0.715428	10.8479	0.441809	7.27911	0.598002	9.09325	0.789936	12.0212
0.30867	4.61997	0.128097	2.01628	0.302506	4.87828	0.514347	7.99121	0.616556	9.22446	0.719331	10.7552	0.446423	7.24393	0.602484	9.03343	0.793137	11.9012
0.309834	4.57361	0.130189	2.01959	0.30373	4.82552	0.516319	7.98388	0.622815	9.19002	0.723273	10.6655	0.450954	7.20847	0.607022	8.97608	0.796392	11.7853
0.31099	4.5284	0.132281	2.0228	0.304939	4.77405	0.51846	7.97594	0.629105	9.15694	0.727256	10.5789	0.455399	7.17271	0.611615	8.92109	0.7997	11.6733
0.31214	4.48431	0.134372	2.02591	0.306134	4.72386	0.521365	7.96519	0.635423	9.12515	0.731279	10.4952	0.459758	7.13663	0.616263	8.86836	0.80306	11.565
0.313286	4.44132	0.136462	2.02893	0.307318	4.67491	0.52503	7.95165	0.641768	9.09459	0.735344	10.4143	0.464028	7.10023	0.620964	8.81779	0.80647	11.4604
0.314427	4.39939	0.138552	2.03186	0.308491	4.62718	0.529448	7.93537	0.648138	9.06516	0.739451	10.3361	0.468209	7.06351	0.625717	8.76927	0.80993	11.3592
0.315565	4.3585	0.140642	2.0347	0.309656	4.58064	0.534607	7.91637	0.654531	9.03682	0.743602	10.2605	0.4723	7.02646	0.630521	8.72269	0.813439	11.2612
0.316701	4.31862	0.142731	2.03746	0.310813	4.53525	0.540495	7.89465	0.660945	9.00948	0.747798	10.1874	0.4763	6.98909	0.635374	8.67798	0.816995	11.1664
0.317836	4.27971	0.14482	2.04015	0.311964	4.491	0.546348	7.87299	0.667378	8.98308	0.752039	10.1168	0.480208	6.95141	0.640274	8.63502	0.820597	11.0746
0.318969	4.24176	0.146909	2.04276	0.31311	4.44784	0.552163	7.85137	0.673827	8.95756	0.756327	10.0485	0.484026	6.91343	0.645219	8.59372	0.824245	10.9857
0.320102	4.20473	0.148997	2.0453	0.314252	4.40575	0.557937	7.82975	0.680292	8.93286	0.760664	9.98255	0.487754	6.87518	0.650207	8.55401	0.827936	10.8996
0.321236	4.16861	0.151085	2.04777	0.315391	4.3647	0.56367	7.80811	0.686769	8.90892	0.765051	9.91885	0.491391	6.83667	0.655235	8.51578	0.83167	10.8161
0.32237	4.13335	0.153173	2.05018	0.316527	4.32467	0.569358	7.78641	0.693256	8.88567	0.76949	9.85732	0.49494	6.79792	0.660301	8.47895	0.835445	10.7351
0.323506	4.09895	0.15526	2.05252	0.317662	4.28561	0.575001	7.76465	0.69975	8.86307	0.773982	9.79793	0.498401	6.75896	0.665403	8.44344	0.83926	10.6565
0.324643	4.06537	0.157347	2.0548	0.318795	4.24752	0.580597	7.74279	0.706249	8.84106	0.778529	9.74061	0.501775	6.71982	0.670537	8.40918	0.843114	10.5803
0.325782	4.03258	0.159434	2.05703	0.319929	4.21035	0.586143	7.72083	0.71275	8.81957	0.783134	9.68532	0.505065	6.68052	0.675037	8.38028	0.847006	10.5063
0.326924	4.00058	0.16152	2.0592	0.321062	4.17409	0.591639	7.69875	0.71925	8.79857	0.787798	9.63201	0.508272	6.6411	0.678889	8.35631	0.850934	10.4344
0.328069	3.96933	0.163607	2.06131	0.322196	4.1387	0.597084	7.67652	0.725747	8.77799	0.792524	9.58066	0.511397	6.60157	0.682086	8.33692	0.854897	10.3646
0.329069	3.9427	0.165693	2.06337	0.323332	4.10417	0.602475	7.65415	0.732236	8.75779	0.797313	9.53121	0.514444	6.56198	0.68462	8.32186	0.858894	10.2968
0.329923	3.92043	0.167779	2.06538	0.324469	4.07046	0.607811	7.63161	0.738715	8.73791	0.802169	9.48363	0.517414	6.52235	0.686487	8.31094	0.862924	10.2308
0.330631	3.9023	0.169864	2.06734	0.325608	4.03756	0.613092	7.60891	0.74518	8.7183	0.807094	9.4379	0.520309	6.48271	0.687683	8.30401	0.866985	10.1667
0.331192	3.88816	0.17195	2.06926	0.326749	4.00544	0.618316	7.58602	0.751629	8.69892	0.81209	9.39397	0.523132	6.44309	0.689404	8.29414	0.871077	10.1043
0.331605	3.87786	0.174035	2.07113	0.327893	3.97407	0.623481	7.56294	0.758057	8.67973	0.817159	9.35182	0.525885	6.40352	0.691278	8.28352	0.875199	10.0435
0.33187	3.87131	0.17612	2.07296	0.329041	3.94345	0.628588	7.53968	0.764462	8.66067	0.822305	9.31143	0.528571	6.36402	0.69383	8.26926	0.879349	9.98439
0.33225	3.86196	0.178204	2.07474	0.330191	3.91354	0.633634	7.51621	0.77084	8.64172	0.827529	9.27275	0.531191	6.32462	0.697064	8.25152	0.883527	9.92682
0.332665	3.85187	0.180289	2.07649	0.331345	3.88433	0.63862	7.49254	0.777188	8.62281	0.832833	9.23577	0.533749	6.28534	0.700984	8.23049	0.887732	9.87073
0.333229	3.8383	0.182373	2.07819	0.332503	3.85579	0.643544	7.46867	0.783503	8.60394	0.83822	9.20044	0.536245	6.24622	0.705592	8.20636	0.891963	9.81608
0.333944	3.82134	0.184457	2.07986	0.333666	3.82791	0.648405	7.44459	0.789782	8.58506	0.843691	9.16675	0.538684	6.20726	0.710891	8.17937	0.896218	9.76281
0.334811	3.80115	0.186541	2.08149	0.334832	3.80066	0.653203	7.4203	0.795222	8.56857	0.849248	9.13465	0.541067	6.16849	0.716201	8.15306	0.900498	9.71088
0.335831	3.77791	0.188625	2.08309	0.336003	3.77404	0.657937	7.39581	0.799836	8.55449	0.854891	9.10412	0.543396	6.12993	0.721518	8.12738	0.904802	9.66023
0.337005	3.7518	0.190709	2.08465	0.337178	3.74802	0.662608	7.37111	0.803634	8.54282	0.860621	9.07509	0.545673	6.0916	0.72684	8.1023	0.909129	9.61082
0.338185	3.72628	0.192792	2.08618	0.338358	3.72258	0.667213	7.3462	0.806625	8.53357	0.866438	9.04754	0.547901	6.05351	0.732164	8.07775	0.913478	9.56262
0.339369	3.70133	0.194876	2.08767	0.339543	3.69772	0.671754	7.3211	0.808818	8.52675	0.872341	9.02142	0.550082	6.01568	0.737488	8.05371	0.917849	9.51557
0.340558	3.67694	0.196959	2.08914	0.340733	3.6734	0.67623	7.29579	0.810219	8.52238	0.878331	8.99668	0.552217	5.97812	0.742811	8.03013	0.922242	9.46964
0.341752	3.65309	0.199042	2.09057	0.341928	3.64963	0.68064	7.2703	0.812229	8.5161	0.884404	8.97325	0.554309	5.94084	0.748128	8.00697	0.926656	9.4248
0.342952	3.62976	0.201125	2.09198	0.343128	3.62638	0.684985	7.24461	0.814407	8.50925	0.890559	8.95109	0.556359	5.90386	0.753439	7.9842	0.93109	9.381
0.344157	3.60694	0.203207	2.09336	0.344334	3.60364	0.689265	7.21875	0.817361	8.49993	0.896795	8.93013	0.55837	5.86719	0.758741	7.96177	0.935545	9.33823
0.345367	3.58462	0.20529	2.0947	0.345545	3.58139	0.69348	7.19271	0.821082	8.4881	0.903107	8.91032	0.560342	5.83083	0.764033	7.93967	0.94002	9.29644
0.346583	3.56279	0.207372	2.09603	0.346761	3.55962	0.69763	7.1665	0.825558	8.47375	0.909493	8.89159	0.562278	5.79479	0.769311	7.91786	0.944514	9.2556
0.347804	3.54142	0.209455	2.09732	0.347983	3.53833	0.701716	7.14013	0.830778	8.45685	0.91595	8.87389	0.564179	5.75909	0.774574	7.89631	0.949028	9.2157
0.34903	3.52051	0.211537	2.0986	0.349211	3.51748	0.705737	7.11361	0.836725	8.43737	0.922473	8.85714	0.566047	5.72372	0.77982	7.87499	0.953562	9.1767
0.350263	3.50005	0.213619	2.09984	0.350444	3.49709	0.709695	7.08695	0.842629	8.41781	0.92906	8.8413	0.567884	5.6887	0.785047	7.85388	0.958114	9.13857
0.351501	3.48002	0.215701	2.10107	0.351683	3.47712	0.71359	7.06015	0.848489	8.39819	0.935707	8.82629	0.569689	5.65402	0.790253	7.83296	0.962686	9.1013
0.352744	3.46042	0.217783	2.10227	0.352927	3.45757	0.717422	7.03323	0.854307	8.37851	0.941545	8.81386	0.571466	5.61969	0.795437	7.8122	0.967277	9.06485
0.353994	3.44122	0.219865	2.10344	0.354177	3.43844	0.721192	7.0062	0.860086	8.3588	0.946554	8.80371	0.573216	5.58571	0.800597	7.79158	0.971886	9.02921
0.355249	3.42242	0.221946	2.1046	0.355433	3.4197	0.7249	6.97906	0.865825	8.33908	0.950717	8.7956	0.574939	5.5521	0.805731	7.77108	0.976514	8.99435
0.35651	3.40402	0.224028	2.10574	0.356695	3.40135	0.728549	6.95183	0.871528	8.31935	0.954021	8.78938	0.576636	5.51884	0.810837	7.75068	0.98116	8.96025
0.357776	3.38599	0.22611	2.10685	0.357963	3.38337	0.732138	6.92451	0.877197	8.29964	0.956458	8.7849	0.57831	5.48594	0.815914	7.73037	0.985224	8.93115
0.359049	3.36833	0.228191	2.10794	0.359236	3.36577	0.735668	6.89712	0.882832	8.27997	0.95802	8.78207	0.579961	5.4534	0.820961	7.71012	0.988699	8.90677
0.360327	3.35103	0.230272	2.10902	0.360515	3.34852	0.73914	6.86967	0.888436	8.26035	0.96027	8.77806	0.58159	5.42122	0.825976	7.68993	0.991581	8.88691
0.361611	3.33408	0.232353	2.11007	0.3618	3.33163	0.742555	6.84216	0.894011	8.2408	0.962722	8.77378	0.583198	5.3894	0.830958	7.66978	0.993864	8.87139
0.362901	3.31748	0.234434	2.11111	0.363091	3.31507	0.745914	6.81461	0.899557	8.22132	0.966064	8.76808	0.584786	5.35795	0.835905	7.64966	0.995546	8.86008
0.364196	3.30121	0.236515	2.11213	0.364387	3.29885	0.749219	6.78703	0.905078	8.20193	0.970304	8.76106	0.586355	5.32685	0.840816	7.62955	0.996623	8.85289
0.365498	3.28526	0.238596	2.11313	0.365689	3.28294	0.752469	6.75942	0.910573	8.18264	0.975452	8.75284	0.587906	5.29611	0.84569	7.60945	0.998173	8.84262
0.366805	3.26963	0.240677	2.11411	0.366997	3.26736	0.755667	6.7318	0.916043	8.16345	0.981517	8.74356	0.589439	5.26573	0.850526	7.58934	0.999861	8.83153
0.368118	3.2543	0.242758	2.11508	0.368311	3.25208	0.758812	6.70418	0.921491	8.14438	0.988508	8.73335	0.590957	5.23571	0.855323	7.56922	1.00216	8.81659
0.369437	3.23928	0.244839	2.11603	0.369631	3.2371	0.761907	6.67657	0.926916	8.12542	0.99553	8.72359	0.592458	5.20604	0.86008	7.54907		
0.370762	3.22455	0.246919	2.11697	0.370956	3.22242	0.764952	6.64896	0.932319	8.10657	1.00258	8.71423	0.593945	5.17672	0.864796	7.52889		
0.372092	3.21011	0.249	2.11789	0.372287	3.20802	0.767948	6.62139	0.937701	8.08785			0.595417	5.14775	0.86947	7.50868		
0.373428	3.19595	0.25108	2.11879	0.373624	3.19389	0.770897	6.59384	0.943062	8.06924			0.596876	5.11913	0.874101	7.48842		
0.374769	3.18206	0.253161	2.11968	0.374967	3.18004	0.773799	6.56633	0.948402	8.05075			0.598322	5.09085	0.878689	7.46812		
0.376117	3.16843	0.255241	2.12056	0.376315	3.16646	0.776655	6.53888	0.953721	8.03238			0.599756	5.06292	0.883233	7.44777		
0.37747	3.15507	0.257321	2.12142	0.377669	3.15313	0.779467	6.51147	0.95902	8.01412			0.601179	5.03532	0.887733	7.42736		
0.378828	3.14196	0.259401	2.12227	0.379028	3.14005	0.782236	6.48413	0.964297	7.99597			0.60259	5.00806	0.892188	7.40689		
0.380193	3.12909	0.261481	2.1231	0.380393	3.12722	0.784962	6.45686	0.969554	7.97792			0.60399	4.98113	0.896597	7.38636		
0.381562	3.11647	0.263561	2.12392	0.381764	3.11463	0.787646	6.42967	0.974789	7.95997			0.605381	4.95453	0.900961	7.36578		
0.382938	3.10408	0.265641	2.12473	0.38314	3.10228	0.790291	6.40256	0.980002	7.94212			0.606762	4.92826	0.905279	7.34513		
0.384318	3.09192	0.267721	2.12553	0.384521	3.09015	0.792895	6.37554	0.985193	7.92435			0.608135	4.90231	0.909551	7.32442		
0.385705	3.07999	0.269801	2.12631	0.385908	3.07825	0.795462	6.34861	0.990362	7.90667			0.609498	4.87667	0.913776	7.30365		
0.387096	3.06827	0.271881	2.12708	0.387301	3.06657	0.79799	6.32178	0.995507	7.88907			0.610854	4.85135	0.917955	7.28282		
0.388493	3.05677	0.27396	2.12785	0.388699	3.0551	0.800482	6.29506	1.00063	7.87154			0.612202	4.82635	0.922087	7.26192		
0.389896	3.04548	0.27604	2.12859	0.390102	3.04384	0.802939	6.26845					0.613543	4.80165	0.926174	7.24097		
0.391304	3.03439	0.27812	2.12933	0.391511	3.03278	0.805361	6.24196					0.614876	4.77725	0.930213	7.21996		
0.392717	3.02351	0.280199	2.13006	0.392924	3.02192	0.807749	6.21558					0.616204	4.75316	0.934207	7.1989		
0.394135	3.01281	0.282279	2.13078	0.394343	3.01126	0.810103	6.18933					0.617525	4.72936	0.938155	7.17779		
0.395558	3.00231	0.284358	2.13148	0.395768	3.00079	0.812426	6.1632					0.618841	4.70586	0.942056	7.15663		
0.396987	2.992	0.286438	2.13218	0.397197	2.9905	0.814718	6.13721					0.620151	4.68264	0.945913	7.13542		
0.398421	2.98187	0.288517	2.13286	0.398632	2.9804	0.816979	6.11135					0.621456	4.65972	0.949724	7.11417		
0.39986	2.97191	0.290596	2.13354	0.400072	2.97047	0.81921	6.08563					0.622756	4.63707	0.95349	7.09288		
0.401304	2.96213	0.292675	2.13421	0.401516	2.96071	0.821413	6.06005					0.624052	4.6147	0.957212	7.07155		
0.402753	2.95253	0.294755	2.13486	0.402966	2.95113	0.823587	6.03461					0.625343	4.59261	0.960889	7.05019		
0.404207	2.94308	0.296834	2.13551	0.404421	2.94171	0.825734	6.00932					0.62663	4.57079	0.964523	7.02881		
0.405666	2.93381	0.298913	2.13615	0.405881	2.93246	0.827855	5.98417					0.627914	4.54924	0.968114	7.0074		
0.40713	2.92469	0.300992	2.13678	0.407345	2.92336	0.829949	5.95918					0.629194	4.52795	0.971662	6.98597		
0.408599	2.91572	0.303071	2.1374	0.408815	2.91442	0.832018	5.93434					0.630472	4.50692	0.975168	6.96452		
0.410073	2.90691	0.30515	2.13802	0.410289	2.90563	0.834063	5.90965					0.631746	4.48615	0.978632	6.94306		
0.411551	2.89825	0.307229	2.13862	0.411768	2.89699	0.836084	5.88512					0.633017	4.46564	0.982055	6.92159		
0.413034	2.88974	0.309308	2.13922	0.413252	2.8885	0.838082	5.86075					0.634286	4.44537	0.985437	6.90012		
0.414522	2.88136	0.311386	2.13981	0.414741	2.88015	0.840057	5.83653					0.635552	4.42535	0.988779	6.87865		
0.416015	2.87313	0.313465	2.14039	0.416234	2.87193	0.84201	5.81248					0.636817	4.40557	0.992082	6.85718		
0.417512	2.86504	0.315544	2.14096	0.417732	2.86386	0.843942	5.78858					0.638079	4.38604	0.995346	6.83572		
0.419014	2.85708	0.317623	2.14153	0.419235	2.85592	0.845853	5.76485					0.63934	4.36674	0.998571	6.81426		
0.42052	2.84925	0.319701	2.14209	0.420742	2.84811	0.847744	5.74128					0.640599	4.34767	1.00176	6.79283		
0.422031	2.84155	0.32178	2.14264	0.422253	2.84043	0.849615	5.71787					0.641857	4.32883				
0.423547	2.83397	0.323858	2.14318	0.423769	2.83287	0.851467	5.69463					0.643113	4.31022				
0.425066	2.82652	0.325937	2.14372	0.42529	2.82544	0.8533	5.67155					0.644368	4.29183				
0.426591	2.81919	0.328015	2.14425	0.426815	2.81812	0.855116	5.64864					0.645623	4.27367				
0.428119	2.81198	0.330094	2.14478	0.428344	2.81093	0.856914	5.62589					0.646876	4.25572				
0.429652	2.80488	0.332172	2.1453	0.429877	2.80385	0.858695	5.60331					0.648129	4.23798				
0.431189	2.7979	0.334251	2.14581	0.431415	2.79688	0.860459	5.58089					0.649381	4.22046				
0.432731	2.79103	0.336329	2.14631	0.432957	2.79003	0.862207	5.55864					0.650633	4.20315				
0.434276	2.78426	0.338408	2.14681	0.434504	2.78328	0.86394	5.53656					0.651884	4.18603				
0.435826	2.77761	0.340486	2.1473	0.436054	2.77664	0.865657	5.51463					0.653136	4.16913				
0.43738	2.77106	0.342564	2.14779	0.437609	2.77011	0.86736	5.49288					0.654387	4.15242				
0.438938	2.76461	0.344642	2.14827	0.439167	2.76367	0.869048	5.47129					0.655638	4.13591				
0.4405	2.75826	0.346721	2.14875	0.44073	2.75734	0.870723	5.44986					0.65689	4.11959				
0.442067	2.75201	0.348799	2.14922	0.442297	2.75111	0.872384	5.4286					0.658142	4.10346				
0.443637	2.74586	0.350877	2.14968	0.443867	2.74497	0.874031	5.40751					0.659394	4.08753				
0.445211	2.73981	0.352955	2.15014	0.445442	2.73892	0.875666	5.38657					0.660646	4.07177				
0.446789	2.73384	0.355033	2.15059	0.44702	2.73297	0.877289	5.3658					0.661899	4.05621				
0.44837	2.72797	0.357111	2.15104	0.448603	2.72711	0.8789	5.34519					0.663153	4.04082				
0.449956	2.72219	0.359189	2.15148	0.450189	2.72134	0.880499	5.32474					0.664408	4.02561				
0.451546	2.71649	0.361267	2.15192	0.451779	2.71566	0.882086	5.30446					0.665663	4.01057				
0.453139	2.71088	0.363345	2.15235	0.453373	2.71006	0.883663	5.28433					0.666919	3.99571				
0.454736	2.70535	0.365423	2.15278	0.45497	2.70455	0.885229	5.26436					0.668176	3.98102				
0.456336	2.69991	0.367501	2.1532	0.456572	2.69912	0.886784	5.24456					0.669434	3.9665				
0.457941	2.69455	0.369579	2.15362	0.458176	2.69377	0.88833	5.22491					0.670693	3.95214				
0.459549	2.68927	0.371657	2.15403	0.459785	2.6885	0.889865	5.20541					0.671953	3.93794				
0.46116	2.68406	0.373734	2.15444	0.461397	2.68331	0.891392	5.18608					0.673214	3.92391				
0.462775	2.67894	0.375812	2.15485	0.463013	2.67819	0.892909	5.1669					0.674477	3.91004				
0.464394	2.67389	0.37789	2.15525	0.464632	2.67315	0.894417	5.14787					0.675741	3.89632				
0.466016	2.66891	0.379968	2.15564	0.466254	2.66818	0.895917	5.129					0.677006	3.88276				
0.467642	2.664	0.382045	2.15603	0.46788	2.66329	0.897408	5.11028					0.678273	3.86935				
0.469271	2.65917	0.384123	2.15642	0.46951	2.65847	0.898891	5.09171					0.679542	3.85609				
0.470903	2.65441	0.386201	2.1568	0.471143	2.65371	0.900366	5.07329					0.680811	3.84298				
0.472539	2.64971	0.388278	2.15718	0.472779	2.64903	0.901834	5.05502					0.682083	3.83001				
0.474178	2.64508	0.390356	2.15756	0.474419	2.64441	0.903294	5.0369					0.683356	3.81719				
0.47582	2.64052	0.392434	2.15793	0.476061	2.63986	0.904747	5.01893					0.68463	3.80451				
0.477466	2.63602	0.394511	2.15829	0.477707	2.63537	0.906193	5.00111					0.685907	3.79197				
0.479115	2.63159	0.396589	2.15866	0.479357	2.63094	0.907633	4.98343					0.687185	3.77956				
0.480767	2.62722	0.398666	2.15902	0.481009	2.62658	0.909066	4.96589					0.688465	3.7673				
0.482422	2.62291	0.400744	2.15937	0.482665	2.62228	0.910493	4.9485					0.689746	3.75517				
0.48408	2.61866	0.402821	2.15972	0.484324	2.61804	0.911913	4.93125					0.69103	3.74317				
0.485742	2.61447	0.404899	2.16007	0.485986	2.61386	0.913328	4.91414					0.692315	3.7313				
0.487406	2.61034	0.406976	2.16042	0.487651	2.60974	0.914737	4.89717					0.693603	3.71956				
0.489074	2.60627	0.409054	2.16076	0.489319	2.60568	0.916141	4.88034					0.694892	3.70795				
0.490744	2.60225	0.411131	2.16109	0.49099	2.60167	0.917539	4.86365					0.696184	3.69646				
0.492418	2.59829	0.413208	2.16143	0.492664	2.59771	0.918932	4.8471					0.697477	3.6851				
0.494095	2.59438	0.415286	2.16176	0.494341	2.59381	0.92032	4.83068					0.698772	3.67386				
0.495774	2.59053	0.417363	2.16209	0.496021	2.58997	0.921704	4.8144					0.70007	3.66274				
0.497457	2.58672	0.41944	2.16241	0.497704	2.58617	0.923082	4.79825					0.701369	3.65174				
0.499142	2.58297	0.421518	2.16273	0.49939	2.58243	0.924456	4.78223					0.702671	3.64085				
0.50083	2.57928	0.423595	2.16305	0.501078	2.57874	0.925826	4.76635					0.703975	3.63009				
0.502521	2.57563	0.425672	2.16337	0.50277	2.57509	0.927192	4.75059					0.705281	3.61943				
0.504215	2.57202	0.427749	2.16368	0.504464	2.5715	0.928554	4.73496					0.706589	3.60889				
0.505912	2.56847	0.429827	2.16399	0.506161	2.56795	0.929912	4.71947					0.707899	3.59846				
0.507611	2.56497	0.431904	2.16429	0.507861	2.56446	0.931266	4.7041					0.709212	3.58814				
0.509313	2.56151	0.433981	2.16459	0.509563	2.561	0.932616	4.68885					0.710527	3.57792				
0.511018	2.5581	0.436058	2.16489	0.511268	2.5576	0.933963	4.67373					0.711844	3.56782				
0.512725	2.55473	0.438135	2.16519	0.512976	2.55424	0.935307	4.65873					0.713163	3.55782				
0.514435	2.5514	0.440212	2.16549	0.514686	2.55092	0.936648	4.64386					0.714485	3.54792				
0.516148	2.54812	0.44229	2.16578	0.516399	2.54765	0.937985	4.62911					0.715809	3.53812				
0.517863	2.54489	0.444367	2.16607	0.518115	2.54441	0.939319	4.61448					0.717135	3.52843				
0.519581	2.54169	0.446444	2.16635	0.519833	2.54123	0.940651	4.59996					0.718464	3.51884				
0.521301	2.53854	0.448521	2.16664	0.521554	2.53808	0.94198	4.58557					0.719794	3.50934				
0.523024	2.53542	0.450598	2.16692	0.523277	2.53497	0.943306	4.57129					0.721128	3.49994				
0.52475	2.53235	0.452675	2.16719	0.525003	2.5319	0.94463	4.55713					0.722463	3.49064				
0.526478	2.52932	0.454752	2.16747	0.526732	2.52887	0.945951	4.54309					0.723801	3.48143				
0.528208	2.52632	0.456829	2.16774	0.528462	2.52589	0.94727	4.52915					0.725142	3.47232				
0.529941	2.52336	0.458906	2.16801	0.530195	2.52293	0.948587	4.51534					0.726484	3.4633				
0.531676	2.52045	0.460983	2.16828	0.531931	2.52002	0.949902	4.50163					0.727829	3.45437				
0.533414	2.51756	0.463059	2.16855	0.533669	2.51714	0.951215	4.48804					0.729177	3.44553				
0.535154	2.51472	0.465136	2.16881	0.535409	2.5143	0.952526	4.47455					0.730527	3.43677				
0.536896	2.51191	0.467213	2.16907	0.537152	2.5115	0.953835	4.46117					0.731879	3.42811				
0.53864	2.50913	0.46929	2.16933	0.538897	2.50873	0.955142	4.44791					0.733234	3.41953				
0.540387	2.50639	0.471367	2.16959	0.540644	2.50599	0.956448	4.43475					0.734591	3.41104				
0.542136	2.50368	0.473444	2.16984	0.542393	2.50329	0.957752	4.42169					0.735951	3.40263				
0.543888	2.50101	0.475521	2.17009	0.544145	2.50062	0.959054	4.40874					0.737313	3.39431				
0.545641	2.49837	0.477597	2.17034	0.545899	2.49799	0.960356	4.3959					0.738677	3.38607				
0.547397	2.49576	0.479674	2.17059	0.547655	2.49538	0.961655	4.38315					0.740044	3.37791				
0.549155	2.49319	0.481751	2.17084	0.549414	2.49281	0.962954	4.37051					0.741414	3.36983				
0.550916	2.49065	0.483828	2.17108	0.551174	2.49027	0.964252	4.35797					0.742786	3.36183				
0.552678	2.48813	0.485904	2.17132	0.552937	2.48777	0.965548	4.34553					0.74416	3.3539				
0.554442	2.48565	0.487981	2.17156	0.554702	2.48529	0.966843	4.33319					0.745537	3.34606				
0.556209	2.4832	0.490058	2.1718	0.556468	2.48284	0.968138	4.32095					0.746916	3.33829				
0.557978	2.48078	0.492135	2.17203	0.558237	2.48042	0.969431	4.30881					0.748297	3.3306				
0.559749	2.47838	0.494211	2.17226	0.560009	2.47803	0.970724	4.29676					0.749682	3.32298				
0.561521	2.47602	0.496288	2.17249	0.561782	2.47567	0.972016	4.28481					0.751068	3.31543				
0.563296	2.47368	0.498365	2.17272	0.563557	2.47334	0.973307	4.27295					0.752457	3.30796				
0.565073	2.47137	0.500441	2.17295	0.565334	2.47104	0.974598	4.26119					0.753849	3.30055				
0.566852	2.46909	0.502518	2.17318	0.567113	2.46876	0.975888	4.24952					0.755243	3.29322				
0.568633	2.46684	0.504594	2.1734	0.568894	2.46651	0.977178	4.23794					0.756639	3.28596				
0.570416	2.46461	0.506671	2.17362	0.570677	2.46429	0.978467	4.22645					0.758038	3.27877				
0.5722	2.46241	0.508748	2.17384	0.572462	2.46209	0.979756	4.21506					0.759439	3.27165				
0.573987	2.46023	0.510824	2.17406	0.574249	2.45992	0.981044	4.20375					0.760843	3.26459				
0.575776	2.45808	0.512901	2.17427	0.576038	2.45777	0.982332	4.19253					0.762249	3.2576				
0.577566	2.45596	0.514977	2.17449	0.577829	2.45565	0.98362	4.1814					0.763658	3.25068				
0.579358	2.45386	0.517054	2.1747	0.579622	2.45355	0.984908	4.17036					0.765069	3.24382				
0.581153	2.45178	0.51913	2.17491	0.581416	2.45148	0.986195	4.1594					0.766482	3.23703				
0.582949	2.44973	0.521207	2.17512	0.583212	2.44943	0.987482	4.14853					0.767898	3.2303				
0.584747	2.4477	0.523283	2.17533	0.585011	2.44741	0.98877	4.13774					0.769317	3.22363				
0.586546	2.4457	0.52536	2.17554	0.586811	2.44541	0.990057	4.12704					0.770737	3.21702				
0.588348	2.44372	0.527436	2.17574	0.588612	2.44343	0.991344	4.11642					0.772161	3.21048				
0.590151	2.44176	0.529513	2.17594	0.590416	2.44147	0.992632	4.10588					0.773586	3.20399				
0.591956	2.43982	0.531589	2.17614	0.592221	2.43954	0.993919	4.09542					0.775014	3.19757				
0.593763	2.4379	0.533665	2.17634	0.594028	2.43762	0.995207	4.08504					0.776445	3.19121				
0.595571	2.43601	0.535742	2.17654	0.595837	2.43573	0.996495	4.07475					0.777878	3.1849				
0.597381	2.43414	0.537818	2.17674	0.597647	2.43387	0.997783	4.06453					0.779313	3.17865				
0.599193	2.43229	0.539895	2.17693	0.599459	2.43202	0.999072	4.05439					0.780751	3.17246				
0.601007	2.43046	0.541971	2.17712	0.601273	2.43019	1.00036	4.04433					0.782191	3.16632				
0.602822	2.42865	0.544047	2.17732	0.603089	2.42838							0.783633	3.16024				
0.604639	2.42686	0.546124	2.17751	0.604906	2.4266							0.785078	3.15422				
0.606458	2.42509	0.5482	2.1777	0.606725	2.42483							0.786526	3.14825				
0.608278	2.42334	0.550276	2.17788	0.608545	2.42308							0.787975	3.14233				
0.610099	2.42161	0.552352	2.17807	0.610367	2.42135							0.789427	3.13647				
0.611923	2.4199	0.554429	2.17825	0.61219	2.41965							0.790882	3.13066				
0.613748	2.4182	0.556505	2.17844	0.614016	2.41796							0.792338	3.1249				
0.615574	2.41653	0.558581	2.17862	0.615842	2.41628							0.793798	3.11919				
0.617402	2.41487	0.560657	2.1788	0.617671	2.41463							0.795259	3.11354				
0.619232	2.41323	0.562734	2.17898	0.619501	2.413							0.796723	3.10793				
0.621063	2.41161	0.56481	2.17916	0.621332	2.41138							0.798189	3.10238				
0.622896	2.41001	0.566886	2.17933	0.623165	2.40978							0.799657	3.09687				
0.62473	2.40843	0.568962	2.17951	0.624999	2.40819							0.801128	3.09141				
0.626565	2.40686	0.571038	2.17968	0.626835	2.40663							0.802601	3.086				
0.628403	2.40531	0.573115	2.17985	0.628672	2.40508							0.804077	3.08064				
0.630241	2.40377	0.575191	2.18003	0.630511	2.40355							0.805554	3.07532				
0.632081	2.40225	0.577267	2.1802	0.632351	2.40203							0.807034	3.07005				
0.633923	2.40075	0.579343	2.18036	0.634193	2.40053							0.808517	3.06483				
0.635765	2.39926	0.581419	2.18053	0.636036	2.39905							0.810001	3.05965				
0.63761	2.39779	0.583495	2.1807	0.63788	2.39758							0.811488	3.05452				
0.639455	2.39634	0.585571	2.18086	0.639726	2.39612							0.812977	3.04943				
0.641302	2.3949	0.587647	2.18103	0.641574	2.39469							0.814469	3.04438				
0.643151	2.39347	0.589724	2.18119	0.643422	2.39326							0.815962	3.03938				
0.645001	2.39206	0.5918	2.18135	0.645272	2.39186							0.817458	3.03442				
0.646852	2.39067	0.593876	2.18151	0.647124	2.39046							0.818956	3.0295				
0.648704	2.38929	0.595952	2.18167	0.648976	2.38909							0.820457	3.02463				
0.650558	2.38792	0.598028	2.18183	0.65083	2.38772							0.821959	3.0198				
0.652413	2.38657	0.600104	2.18199	0.652686	2.38637							0.823464	3.015				
0.65427	2.38523	0.60218	2.18214	0.654542	2.38503							0.824971	3.01025				
0.656128	2.38391	0.604256	2.1823	0.6564	2.38371							0.82648	3.00554				
0.657987	2.38259	0.606332	2.18245	0.65826	2.3824							0.827992	3.00087				
0.659847	2.3813	0.608408	2.1826	0.66012	2.38111							0.829505	2.99624				
0.661709	2.38001	0.610484	2.18276	0.661982	2.37983							0.831021	2.99165				
0.663571	2.37874	0.61256	2.18291	0.663845	2.37856							0.832539	2.98709				
0.665436	2.37748	0.614636	2.18306	0.665709	2.3773							0.834059	2.98258				
0.667301	2.37624	0.616711	2.18321	0.667575	2.37606							0.835581	2.9781				
0.669167	2.375	0.618787	2.18335	0.669441	2.37483							0.837106	2.97366				
0.671035	2.37378	0.620863	2.1835	0.671309	2.37361							0.838632	2.96925				
0.672904	2.37258	0.622939	2.18364	0.673178	2.3724							0.840161	2.96488				
0.674774	2.37138	0.625015	2.18379	0.675049	2.37121							0.841692	2.96055				
0.676646	2.3702	0.627091	2.18393	0.67692	2.37002							0.843224	2.95626				
0.678518	2.36902	0.629167	2.18408	0.678793	2.36885							0.844759	2.95199				
0.680392	2.36786	0.631243	2.18422	0.680667	2.36769							0.846297	2.94777				
0.682267	2.36671	0.633318	2.18436	0.682542	2.36655							0.847836	2.94358				
0.684143	2.36558	0.635394	2.1845	0.684418	2.36541							0.849377	2.93942				
0.68602	2.36445	0.63747	2.18464	0.686295	2.36428							0.85092	2.9353				
0.687898	2.36333	0.639546	2.18477	0.688174	2.36317							0.852466	2.93121				
0.689777	2.36223	0.641622	2.18491	0.690053	2.36207							0.854013	2.92715				
0.691658	2.36114	0.643697	2.18505	0.691934	2.36098							0.855563	2.92313				
0.693539	2.36005	0.645773	2.18518	0.693816	2.35989							0.857114	2.91914				
0.695422	2.35898	0.647849	2.18532	0.695698	2.35882							0.858668	2.91518				
0.697306	2.35792	0.649925	2.18545	0.697582	2.35776							0.860224	2.91125				
0.699191	2.35687	0.652	2.18558	0.699467	2.35671							0.861781	2.90735				
0.701076	2.35582	0.654076	2.18572	0.701353	2.35567							0.863341	2.90349				
0.702963	2.35479	0.656152	2.18585	0.70324	2.35464							0.864903	2.89966				
0.704851	2.35377	0.658228	2.18598	0.705128	2.35362							0.866466	2.89585				
0.70674	2.35276	0.660303	2.18611	0.707018	2.35261							0.868032	2.89208				
0.70863	2.35176	0.662379	2.18623	0.708908	2.35161							0.8696	2.88834				
0.710522	2.35076	0.664455	2.18636	0.710799	2.35062							0.871169	2.88462				
0.712414	2.34978	0.66653	2.18649	0.712691	2.34964							0.872741	2.88094				
0.714307	2.34881	0.668606	2.18661	0.714585	2.34866							0.874315	2.87729				
0.716201	2.34784	0.670682	2.18674	0.716479	2.3477							0.87589	2.87366				
0.718096	2.34689	0.672757	2.18686	0.718374	2.34675							0.877467	2.87006				
0.719992	2.34594	0.674833	2.18699	0.72027	2.3458							0.879047	2.86649				
0.721889	2.345	0.676909	2.18711	0.722167	2.34486							0.880628	2.86295				
0.723787	2.34407	0.678984	2.18723	0.724066	2.34394							0.882211	2.85944				
0.725686	2.34315	0.68106	2.18735	0.725965	2.34302							0.883796	2.85595				
0.727586	2.34224	0.683135	2.18747	0.727865	2.34211							0.885383	2.85249				
0.729487	2.34134	0.685211	2.18759	0.729766	2.34121							0.886972	2.84906				
0.731389	2.34044	0.687286	2.18771	0.731668	2.34031							0.888563	2.84565				
0.733291	2.33956	0.689362	2.18783	0.733571	2.33943							0.890156	2.84227				
0.735195	2.33868	0.691438	2.18795	0.735474	2.33855							0.89175	2.83892				
0.7371	2.33781	0.693513	2.18807	0.737379	2.33768							0.893347	2.83559				
0.739005	2.33695	0.695589	2.18818	0.739285	2.33682							0.894945	2.83228				
0.740911	2.33609	0.697664	2.1883	0.741191	2.33597							0.896545	2.82901				
0.742819	2.33525	0.69974	2.18841	0.743099	2.33512							0.898147	2.82575				
0.744727	2.33441	0.701815	2.18853	0.745007	2.33428							0.89975	2.82252				
0.746636	2.33358	0.703891	2.18864	0.746916	2.33345							0.901356	2.81932				
0.748546	2.33275	0.705966	2.18875	0.748826	2.33263							0.902963	2.81614				
0.750457	2.33194	0.708042	2.18886	0.750737	2.33182							0.904572	2.81299				
0.752368	2.33113	0.710117	2.18898	0.752649	2.33101							0.906183	2.80986				
0.754281	2.33033	0.712192	2.18909	0.754562	2.33021							0.907796	2.80675				
0.756194	2.32953	0.714268	2.1892	0.756475	2.32942							0.909411	2.80366				
0.758108	2.32875	0.716343	2.18931	0.758389	2.32863							0.911027	2.8006				
0.760024	2.32797	0.718419	2.18941	0.760305	2.32785							0.912645	2.79756				
0.761939	2.32719	0.720494	2.18952	0.762221	2.32708							0.914265	2.79455				
0.763856	2.32643	0.72257	2.18963	0.764137	2.32631							0.915886	2.79155				
0.765774	2.32567	0.724645	2.18974	0.766055	2.32556							0.91751	2.78858				
0.767692	2.32491	0.72672	2.18984	0.767974	2.3248							0.919135	2.78563				
0.769611	2.32417	0.728796	2.18995	0.769893	2.32406							0.920761	2.78271				
0.771531	2.32343	0.730871	2.19005	0.771813	2.32332							0.92239	2.7798				
0.773452	2.3227	0.732946	2.19016	0.773734	2.32259							0.92402	2.77692				
0.775373	2.32197	0.735022	2.19026	0.775655	2.32186							0.925652	2.77405				
0.777296	2.32125	0.737097	2.19036	0.777578	2.32115							0.927286	2.77121				
0.779219	2.32054	0.739172	2.19047	0.779501	2.32043							0.928921	2.76839				
0.781142	2.31983	0.741248	2.19057	0.781425	2.31973							0.930558	2.76559				
0.783067	2.31913	0.743323	2.19067	0.78335	2.31903							0.932196	2.76281				
0.784992	2.31843	0.745398	2.19077	0.785275	2.31833							0.933837	2.76005				
0.786919	2.31774	0.747474	2.19087	0.787201	2.31764							0.935479	2.75731				
0.788845	2.31706	0.749549	2.19097	0.789128	2.31696							0.937122	2.75459				
0.790773	2.31638	0.751624	2.19107	0.791056	2.31628							0.938767	2.75189				
0.792701	2.31571	0.753699	2.19117	0.792984	2.31561							0.940414	2.74921				
0.79463	2.31505	0.755775	2.19127	0.794914	2.31495							0.942063	2.74655				
0.79656	2.31439	0.75785	2.19136	0.796844	2.31429							0.943713	2.7439				
0.798491	2.31373	0.759925	2.19146	0.798774	2.31364							0.945365	2.74128				
0.800422	2.31308	0.762	2.19156	0.800705	2.31299							0.947018	2.73868				
0.802354	2.31244	0.764076	2.19165	0.802638	2.31235							0.948673	2.73609				
0.804287	2.3118	0.766151	2.19175	0.80457	2.31171							0.95033	2.73352				
0.80622	2.31117	0.768226	2.19184	0.806504	2.31108							0.951988	2.73097				
0.808154	2.31054	0.770301	2.19193	0.808438	2.31045							0.953647	2.72844				
0.810089	2.30992	0.772376	2.19203	0.810373	2.30983							0.955309	2.72593				
0.812024	2.30931	0.774452	2.19212	0.812308	2.30922							0.956971	2.72343				
0.81396	2.3087	0.776527	2.19221	0.814245	2.30861							0.958636	2.72095				
0.815897	2.30809	0.778602	2.19231	0.816181	2.308							0.960302	2.71849				
0.817835	2.30749	0.780677	2.1924	0.818119	2.3074							0.961969	2.71605				
0.819773	2.30689	0.782752	2.19249	0.820057	2.30681							0.963638	2.71362				
0.821711	2.3063	0.784827	2.19258	0.821996	2.30622							0.965309	2.71122				
0.823651	2.30572	0.786902	2.19267	0.823936	2.30563							0.966981	2.70882				
0.825591	2.30513	0.788977	2.19276	0.825876	2.30505							0.968655	2.70645				
0.827532	2.30456	0.791053	2.19285	0.827817	2.30447							0.97033	2.70409				
0.829473	2.30399	0.793128	2.19294	0.829758	2.3039							0.972006	2.70175				
0.831415	2.30342	0.795203	2.19302	0.8317	2.30334							0.973684	2.69942				
0.833358	2.30286	0.797278	2.19311	0.833643	2.30278							0.975364	2.69711				
0.835301	2.3023	0.799353	2.1932	0.835586	2.30222							0.977045	2.69482				
0.837245	2.30175	0.801428	2.19329	0.83753	2.30167							0.978727	2.69254				
0.839189	2.3012	0.803503	2.19337	0.839475	2.30112							0.980411	2.69027				
0.841135	2.30065	0.805578	2.19346	0.84142	2.30058							0.982097	2.68803				
0.84308	2.30012	0.807653	2.19354	0.843366	2.30004							0.983784	2.6858				
0.845027	2.29958	0.809728	2.19363	0.845312	2.2995							0.985472	2.68358				
0.846974	2.29905	0.811803	2.19371	0.84726	2.29897							0.987162	2.68138				
0.848921	2.29852	0.813878	2.1938	0.849207	2.29845							0.988853	2.67919				
0.850869	2.298	0.815953	2.19388	0.851155	2.29792							0.990546	2.67702				
0.852818	2.29748	0.818028	2.19396	0.853104	2.29741							0.99224	2.67486				
0.854768	2.29697	0.820103	2.19404	0.855054	2.29689							0.993935	2.67272				
0.856717	2.29646	0.822178	2.19413	0.857004	2.29638							0.995632	2.67059				
0.858668	2.29595	0.824253	2.19421	0.858954	2.29588							0.997331	2.66848				
0.860619	2.29545	0.826328	2.19429	0.860905	2.29538							0.99903	2.66638				
0.862571	2.29495	0.828403	2.19437	0.862857	2.29488							1.00073	2.66429				
0.864523	2.29446	0.830478	2.19445	0.864809	2.29439												
0.866476	2.29397	0.832553	2.19453	0.866762	2.2939												
0.868429	2.29349	0.834628	2.19461	0.868716	2.29341												
0.870383	2.293	0.836702	2.19469	0.87067	2.29293												
0.872337	2.29252	0.838777	2.19477	0.872624	2.29246												
0.874292	2.29205	0.840852	2.19485	0.874579	2.29198												
0.876248	2.29158	0.842927	2.19493	0.876535	2.29151												
0.878204	2.29111	0.845002	2.195	0.878491	2.29104												
0.880161	2.29065	0.847077	2.19508	0.880448	2.29058												
0.882118	2.29019	0.849152	2.19516	0.882405	2.29012												
0.884075	2.28973	0.851227	2.19523	0.884363	2.28967												
0.886034	2.28928	0.853301	2.19531	0.886321	2.28922												
0.887992	2.28883	0.855376	2.19538	0.88828	2.28877												
0.889952	2.28839	0.857451	2.19546	0.890239	2.28832												
0.891911	2.28795	0.859526	2.19553	0.892199	2.28788												
0.893872	2.28751	0.861601	2.19561	0.894159	2.28744												
0.895832	2.28707	0.863675	2.19568	0.89612	2.28701												
0.897794	2.28664	0.86575	2.19576	0.898082	2.28658												
0.899756	2.28621	0.867825	2.19583	0.900043	2.28615												
0.901718	2.28579	0.8699	2.1959	0.902006	2.28572												
0.903681	2.28536	0.871974	2.19598	0.903969	2.2853												
0.905644	2.28495	0.874049	2.19605	0.905932	2.28488												
0.907608	2.28453	0.876124	2.19612	0.907896	2.28447												
0.909572	2.28412	0.878199	2.19619	0.90986	2.28406												
0.911537	2.28371	0.880273	2.19626	0.911825	2.28365												
0.913502	2.2833	0.882348	2.19633	0.91379	2.28324												
0.915468	2.2829	0.884423	2.1964	0.915756	2.28284												
0.917434	2.2825	0.886498	2.19647	0.917722	2.28244												
0.9194	2.2821	0.888572	2.19654	0.919689	2.28204												
0.921368	2.28171	0.890647	2.19661	0.921656	2.28165												
0.923335	2.28132	0.892722	2.19668	0.923624	2.28126												
0.925303	2.28093	0.894796	2.19675	0.925592	2.28087												
0.927272	2.28054	0.896871	2.19682	0.927561	2.28049												
0.929241	2.28016	0.898945	2.19689	0.92953	2.28011												
0.93121	2.27978	0.90102	2.19696	0.931499	2.27973												
0.93318	2.2794	0.903095	2.19702	0.933469	2.27935												
0.93515	2.27903	0.905169	2.19709	0.93544	2.27898												
0.937121	2.27866	0.907244	2.19716	0.93741	2.27861												
0.939092	2.27829	0.909319	2.19722	0.939382	2.27824												
0.941064	2.27793	0.911393	2.19729	0.941353	2.27787												
0.943036	2.27756	0.913468	2.19736	0.943325	2.27751												
0.945009	2.2772	0.915542	2.19742	0.945298	2.27715												
0.946981	2.27685	0.917617	2.19749	0.947271	2.27679												
0.948955	2.27649	0.919691	2.19755	0.949244	2.27644												
0.950929	2.27614	0.921766	2.19762	0.951218	2.27609												
0.952903	2.27579	0.92384	2.19768	0.953193	2.27574												
0.954877	2.27544	0.925915	2.19774	0.955167	2.27539												
0.956852	2.2751	0.92799	2.19781	0.957142	2.27505												
0.958828	2.27475	0.930064	2.19787	0.959118	2.2747												
0.960804	2.27441	0.932139	2.19793	0.961094	2.27437												
0.96278	2.27408	0.934213	2.198	0.96307	2.27403												
0.964757	2.27374	0.936288	2.19806	0.965047	2.27369												
0.966734	2.27341	0.938362	2.19812	0.967024	2.27336												
0.968711	2.27308	0.940437	2.19818	0.969002	2.27303												
0.970689	2.27275	0.942511	2.19825	0.97098	2.2727												
0.972668	2.27243	0.944585	2.19831	0.972958	2.27238												
0.974646	2.2721	0.94666	2.19837	0.974937	2.27206												
0.976625	2.27178	0.948734	2.19843	0.976916	2.27174												
0.978605	2.27147	0.950809	2.19849	0.978895	2.27142												
0.980585	2.27115	0.952883	2.19855	0.980875	2.2711												
0.982565	2.27084	0.954958	2.19861	0.982856	2.27079												
0.984546	2.27052	0.957032	2.19867	0.984836	2.27048												
0.986527	2.27022	0.959106	2.19873	0.986817	2.27017												
0.988508	2.26991	0.961181	2.19879	0.988799	2.26986												
0.99049	2.2696	0.963255	2.19885	0.990781	2.26956												
0.992472	2.2693	0.96533	2.19891	0.992763	2.26926												
0.994455	2.269	0.967404	2.19896	0.994746	2.26896												
0.996437	2.2687	0.969478	2.19902	0.996728	2.26866												
0.998421	2.2684	0.971553	2.19908	0.998712	2.26836												
1.0004	2.26811	0.973627	2.19914	1.0007	2.26807												
		0.975701	2.19919														
		0.977776	2.19925														
		0.97985	2.19931														
		0.981924	2.19936														
		0.983998	2.19942														
		0.986073	2.19948														
		0.988147	2.19953														
		0.990221	2.19959														
		0.992296	2.19964														
		0.99437	2.1997														
		0.996444	2.19975														
		0.998518	2.19981														
		1.00059	2.19986														
