Sym0		Asym0		Sym1		Sym2		Sym3		Asym1		Asym2		Asym3		Asym4	
478  Points		494  Points		255  Points		144  Points		129  Points		401  Points		2  Points		163  Points		128  Points	
Freq (MHz)	Vph (m/ms)	Freq (MHz)	Vph (m/ms)	Freq (MHz)	Vph (m/ms)	Freq (MHz)	Vph (m/ms)	Freq (MHz)	Vph (m/ms)	Freq (MHz)	Vph (m/ms)	Freq (MHz)	Vph (m/ms)	Freq (MHz)	Vph (m/ms)	Freq (MHz)	Vph (m/ms)
0.00231776	7.44631	7.14828e-005	0.0878493	0.279509	4360.27	0.374801	424.441	0.559022	1556.01	0.139807	276.469	-3.87518e-008	8.41692	0.419299	504.43	0.698784	986.329
0.00925479	7.44577	0.000327727	0.187767	0.279569	280.749	0.374922	206.598	0.559087	433.077	0.14018	97.5247	1.01289e-005	0.0330877	0.419426	237.914	0.698841	426.08
0.0161897	7.44471	0.000766289	0.28624	0.279735	145.129	0.375127	136.587	0.559224	251.601	0.140908	59.478			0.419643	155.734	0.698944	271.766
0.0231208	7.44307	0.00138087	0.382642	0.280007	97.9322	0.375417	102.067	0.559433	177.353	0.141983	43.015			0.419952	115.807	0.699091	199.538
0.0300462	7.44079	0.00216284	0.476346	0.280383	73.9623	0.375792	81.5199	0.559715	136.982	0.143395	33.8797			0.420351	92.2223	0.699283	157.665
0.0369646	7.43793	0.00310188	0.566846	0.280862	59.4721	0.376254	67.8972	0.560069	111.618	0.145131	28.1036			0.42084	76.6597	0.699521	130.339
0.0438739	7.43445	0.00418638	0.653726	0.281443	49.7753	0.376802	58.2095	0.560496	94.2099	0.147178	24.144			0.421418	65.6271	0.699803	111.104
0.0507724	7.43033	0.00540417	0.736708	0.282124	42.8372	0.37744	50.9715	0.560994	81.5264	0.149519	21.2762			0.422086	57.4024	0.70013	96.8323
0.0576582	7.42557	0.00674277	0.815599	0.282904	37.6319	0.378167	45.3623	0.561564	71.8772	0.152138	19.1146			0.422842	51.0383	0.700501	85.8244
0.0645294	7.42015	0.00818967	0.890282	0.28378	33.5859	0.378986	40.8906	0.562205	64.2922	0.155017	17.4354			0.423685	45.9704	0.700917	77.0769
0.0713838	7.41403	0.00973291	0.960739	0.284749	30.3536	0.379899	37.245	0.562917	58.1753	0.158139	16.0995			0.424616	41.8416	0.701376	69.9598
0.0782192	7.40719	0.0113613	1.02702	0.285809	27.7142	0.380907	34.2182	0.5637	53.1396	0.161487	15.016			0.425633	38.415	0.701879	64.057
0.0850334	7.39962	0.0130643	1.08923	0.286958	25.52	0.382012	31.667	0.564553	48.923	0.165045	14.1233			0.426736	35.527	0.702426	59.083
0.0918238	7.39126	0.0148322	1.1475	0.288193	23.6687	0.383216	29.4893	0.565475	45.3421	0.168798	13.3778			0.427922	33.0614	0.703016	54.8353
0.0985877	7.38209	0.0166564	1.20198	0.289511	22.0869	0.384522	27.6103	0.566467	42.2642	0.17273	12.7481			0.429192	30.9329	0.703649	51.1663
0.105322	7.37206	0.018529	1.25288	0.29091	20.7208	0.385932	25.9739	0.567528	39.5912	0.176827	12.2109			0.430544	29.0778	0.704325	47.9658
0.112025	7.36114	0.0204432	1.30039	0.292387	19.5299	0.387447	24.5372	0.568657	37.249	0.181077	11.7485			0.431978	27.4474	0.705043	45.1499
0.118691	7.34926	0.0223928	1.34471	0.293939	18.4834	0.38907	23.2672	0.569854	35.1803	0.185467	11.3474			0.433491	26.0042	0.705803	42.6537
0.125318	7.33638	0.0243724	1.38604	0.295566	17.557	0.390803	22.1373	0.571118	33.3406	0.189986	10.997			0.435083	24.7182	0.706605	40.426
0.131903	7.32244	0.0263775	1.42459	0.297265	16.7319	0.392647	21.1268	0.572448	31.6944	0.194623	10.689			0.436752	23.5656	0.707447	38.4259
0.138439	7.30736	0.0284041	1.46055	0.299034	15.9928	0.394605	20.2186	0.573845	30.2132	0.199369	10.4166			0.438497	22.5273	0.708331	36.6207
0.144924	7.29108	0.0301849	1.48991	0.300874	15.3275	0.396678	19.3987	0.575306	28.8738	0.204215	10.1745			0.440317	21.5875	0.709256	34.9834
0.151351	7.27352	0.0317121	1.51359	0.302784	14.7258	0.398867	18.6558	0.576833	27.6571	0.209151	9.95818			0.442211	20.7333	0.710221	33.4919
0.157717	7.2546	0.0329807	1.53228	0.304764	14.1796	0.401174	17.9801	0.578423	26.5475	0.214172	9.76406			0.444177	19.9538	0.711226	32.1277
0.164014	7.23422	0.0339868	1.54651	0.306815	13.682	0.403598	17.3638	0.580076	25.5316	0.219268	9.58909			0.446213	19.24	0.71227	30.8754
0.170236	7.21228	0.0347284	1.55668	0.30894	13.2272	0.406142	16.7998	0.581792	24.5984	0.224433	9.43074			0.448318	18.5842	0.713354	29.7221
0.176377	7.18868	0.0352036	1.56306	0.311141	12.8104	0.408805	16.2824	0.58357	23.7384	0.229662	9.28686			0.450491	17.9799	0.714478	28.6564
0.182429	7.16332	0.0358876	1.57207	0.313422	12.4276	0.411587	15.8067	0.585409	22.9437	0.234948	9.15566			0.452731	17.4214	0.71564	27.6691
0.188384	7.13609	0.0366322	1.58163	0.315786	12.0752	0.414488	15.3682	0.587307	22.2072	0.240285	9.0356			0.455035	16.9041	0.71684	26.7518
0.194234	7.10686	0.0376466	1.59427	0.31824	11.7504	0.417507	14.9632	0.589266	21.523	0.245669	8.92536			0.457403	16.4236	0.718079	25.8976
0.199969	7.07553	0.0389319	1.60969	0.320788	11.4506	0.420644	14.5885	0.591283	20.8859	0.251095	8.8238			0.459832	15.9763	0.719357	25.1003
0.205582	7.04199	0.0404896	1.62752	0.323438	11.1736	0.423896	14.2412	0.593358	20.2914	0.256558	8.72995			0.462323	15.5592	0.720672	24.3544
0.211063	7.00612	0.0423209	1.64737	0.326197	10.9175	0.427264	13.9186	0.59549	19.7355	0.262053	8.64294			0.464872	15.1694	0.722026	23.6554
0.216402	6.96785	0.0444265	1.66881	0.329073	10.6807	0.430745	13.6187	0.597679	19.2147	0.267578	8.56204			0.46748	14.8044	0.723417	22.9989
0.22159	6.92708	0.0465358	1.68893	0.332073	10.4617	0.434337	13.3393	0.599923	18.726	0.273127	8.4866			0.470143	14.462	0.724847	22.3814
0.226618	6.88377	0.0486478	1.70784	0.335204	10.2592	0.438039	13.0788	0.602222	18.2665	0.278697	8.41603			0.472862	14.1404	0.726314	21.7996
0.231477	6.83787	0.0507618	1.72561	0.338476	10.0721	0.441848	12.8355	0.604574	17.8339	0.284285	8.34984			0.475635	13.8378	0.727819	21.2505
0.236162	6.78939	0.0528773	1.74234	0.341893	9.89939	0.445762	12.6079	0.60698	17.426	0.289886	8.28758			0.478461	13.5526	0.729362	20.7316
0.240665	6.73837	0.0549937	1.7581	0.345463	9.73998	0.449779	12.3949	0.609439	17.0407	0.295498	8.22884			0.481338	13.2835	0.730943	20.2405
0.244983	6.68487	0.0571107	1.77297	0.349188	9.59304	0.453896	12.1952	0.611949	16.6765	0.300395	8.18025			0.484265	13.0293	0.732562	19.7752
0.249112	6.629	0.059228	1.78701	0.353074	9.45769	0.45811	12.0079	0.61451	16.3316	0.304572	8.14058			0.487242	12.7888	0.73422	19.3336
0.253051	6.57092	0.0613451	1.80029	0.357119	9.33313	0.462419	11.8319	0.617121	16.0047	0.308028	8.10889			0.490267	12.5611	0.735916	18.9143
0.256802	6.51081	0.063462	1.81284	0.361325	9.21857	0.466821	11.6664	0.619781	15.6945	0.31076	8.0845			0.493339	12.3451	0.73765	18.5155
0.260368	6.44887	0.0655783	1.82473	0.365687	9.11325	0.471312	11.5106	0.62249	15.3997	0.312769	8.06693			0.496458	12.1401	0.739424	18.1359
0.263752	6.38535	0.0676942	1.83601	0.370203	9.01645	0.475891	11.3638	0.625247	15.1194	0.314055	8.05584			0.499623	11.9453	0.741237	17.7742
0.266962	6.32049	0.0698092	1.84671	0.374867	8.92745	0.480554	11.2255	0.628051	14.8526	0.315902	8.0401			0.502832	11.7601	0.74309	17.4292
0.270004	6.25455	0.0719234	1.85687	0.379671	8.84559	0.4853	11.0948	0.630902	14.5984	0.31791	8.02326			0.506086	11.5838	0.744982	17.0999
0.272887	6.18779	0.0740369	1.86654	0.384607	8.77022	0.490125	10.9715	0.633798	14.3559	0.32064	8.00078			0.509384	11.4158	0.746915	16.7853
0.27562	6.12046	0.0761494	1.87574	0.389667	8.70074	0.495028	10.8548	0.63674	14.1245	0.32409	7.97301			0.512725	11.2557	0.748888	16.4845
0.278213	6.0528	0.0782609	1.8845	0.39484	8.63659	0.500005	10.7445	0.639726	13.9034	0.328259	7.94036			0.516109	11.1029	0.750902	16.1967
0.280675	5.98505	0.0803715	1.89286	0.400119	8.57724	0.505056	10.64	0.642757	13.692	0.333142	7.90326			0.519536	10.957	0.752958	15.9211
0.283015	5.9174	0.0824811	1.90083	0.405491	8.52221	0.510176	10.5409	0.64583	13.4897	0.338733	7.86213			0.523006	10.8176	0.755055	15.657
0.285244	5.85003	0.0845897	1.90845	0.410949	8.47105	0.515365	10.447	0.648947	13.2961	0.344309	7.82238			0.526518	10.6843	0.757194	15.4037
0.28737	5.78313	0.0866974	1.91573	0.416484	8.42335	0.52062	10.3579	0.652105	13.1105	0.349867	7.78389			0.530072	10.5569	0.759376	15.1607
0.289402	5.71682	0.0888041	1.9227	0.421361	8.38432	0.525938	10.2733	0.655306	12.9326	0.355403	7.74649			0.533669	10.4349	0.761601	14.9275
0.291347	5.65124	0.0909099	1.92937	0.425555	8.35275	0.531319	10.1929	0.658548	12.7619	0.360916	7.71007			0.537309	10.3181	0.763868	14.7034
0.293214	5.58649	0.0930148	1.93577	0.429046	8.32771	0.536759	10.1165	0.661831	12.5981	0.366402	7.67452			0.540992	10.2062	0.766179	14.4881
0.295009	5.52266	0.0951187	1.9419	0.43182	8.30857	0.542258	10.0437	0.665155	12.4407	0.371858	7.63971			0.544718	10.099	0.768534	14.281
0.296739	5.45982	0.0972218	1.94779	0.433866	8.29483	0.547812	9.97449	0.668519	12.2895	0.377282	7.60556			0.548488	9.99622	0.770933	14.0818
0.29841	5.39803	0.099324	1.95344	0.435178	8.28619	0.553421	9.90852	0.671923	12.1441	0.38267	7.57197			0.552302	9.89767	0.773376	13.89
0.300027	5.33733	0.101425	1.95887	0.437069	8.27395	0.559082	9.84563	0.675367	12.0042	0.38802	7.53886			0.556161	9.80315	0.775864	13.7054
0.301596	5.27776	0.103526	1.9641	0.439128	8.26091	0.564793	9.78565	0.67885	11.8695	0.39333	7.50614			0.560065	9.71246	0.778396	13.5275
0.30312	5.21934	0.105626	1.96913	0.441937	8.24356	0.570553	9.7284	0.682373	11.7399	0.398595	7.47374			0.564016	9.62544	0.780973	13.356
0.304605	5.16209	0.107725	1.97398	0.4455	8.22225	0.576359	9.67373	0.685935	11.615	0.403814	7.44159			0.568012	9.54193	0.783595	13.1907
0.306054	5.10602	0.109823	1.97865	0.449824	8.19734	0.582211	9.62148	0.689537	11.4946	0.408983	7.40963			0.572055	9.46176	0.786262	13.0312
0.30747	5.05113	0.111921	1.98315	0.454914	8.16922	0.588105	9.57152	0.693177	11.3786	0.4141	7.3778			0.576146	9.3848	0.788974	12.8773
0.308857	4.99743	0.114018	1.9875	0.460773	8.13829	0.594041	9.52372	0.696858	11.2667	0.419162	7.34605			0.580285	9.31091	0.791731	12.7287
0.310217	4.94489	0.116114	1.9917	0.466648	8.10862	0.600016	9.47794	0.700578	11.1588	0.424167	7.31432			0.584472	9.23997	0.794533	12.5853
0.311554	4.89352	0.11821	1.99575	0.472534	8.08007	0.606029	9.43408	0.704338	11.0546	0.429111	7.28257			0.588708	9.17183	0.79738	12.4467
0.312869	4.8433	0.120305	1.99967	0.478425	8.05252	0.612077	9.39201	0.708139	10.9541	0.433992	7.25077			0.592992	9.1064	0.800271	12.3127
0.314165	4.79422	0.1224	2.00346	0.484318	8.02585	0.618159	9.35164	0.71198	10.857	0.438808	7.21886			0.597326	9.04356	0.803207	12.1833
0.315444	4.74625	0.124494	2.00713	0.490209	7.99996	0.624273	9.31286	0.715862	10.7633	0.443557	7.18682			0.601708	8.98319	0.806187	12.0581
0.316707	4.69938	0.126588	2.01068	0.496095	7.97476	0.630416	9.27558	0.719786	10.6728	0.448235	7.15462			0.606139	8.9252	0.809211	11.9369
0.317957	4.6536	0.128681	2.01411	0.501972	7.95016	0.636586	9.23971	0.723753	10.5854	0.452842	7.12224			0.610619	8.86948	0.812278	11.8197
0.319195	4.60886	0.130773	2.01745	0.507837	7.92609	0.642782	9.20516	0.727764	10.5009	0.457376	7.08966			0.615146	8.81593	0.815389	11.7063
0.320422	4.56517	0.132865	2.02068	0.513688	7.90249	0.649001	9.17184	0.731818	10.4194	0.461834	7.05685			0.61913	8.77097	0.818542	11.5964
0.321639	4.52248	0.134957	2.02381	0.519521	7.87929	0.65524	9.13967	0.735918	10.3406	0.466216	7.0238			0.622554	8.73384	0.821738	11.4901
0.322849	4.48079	0.137048	2.02685	0.525334	7.85644	0.661498	9.10858	0.740065	10.2645	0.470519	6.99052			0.625405	8.70395	0.824975	11.387
0.324051	4.44006	0.139139	2.02981	0.531125	7.83389	0.667771	9.07849	0.74426	10.1909	0.474744	6.95699			0.627671	8.68082	0.828253	11.2871
0.325248	4.40028	0.141229	2.03267	0.536891	7.81159	0.674057	9.04932	0.748504	10.12	0.478889	6.9232			0.629344	8.66408	0.831572	11.1902
0.326439	4.36142	0.143319	2.03546	0.542631	7.78951	0.680353	9.02101	0.752799	10.0514	0.482954	6.88917			0.630418	8.65349	0.834931	11.0963
0.327626	4.32346	0.145409	2.03817	0.548342	7.76761	0.686656	8.99349	0.757147	9.98524	0.486937	6.8549			0.631965	8.63843	0.838329	11.0052
0.328809	4.28637	0.147498	2.0408	0.554023	7.74586	0.692964	8.96669	0.761549	9.9214	0.49084	6.82038			0.633653	8.62228	0.841767	10.9168
0.329989	4.25014	0.149587	2.04336	0.559672	7.72422	0.699273	8.94054	0.766008	9.85981	0.494663	6.78565			0.635956	8.60067	0.845242	10.831
0.331167	4.21474	0.151676	2.04586	0.565288	7.70267	0.70558	8.91498	0.770526	9.80044	0.498405	6.7507			0.638884	8.5739	0.848754	10.7477
0.332344	4.18015	0.153764	2.04828	0.570867	7.68119	0.711071	8.89313	0.775106	9.74322	0.502067	6.71555			0.642445	8.54235	0.852303	10.6668
0.33352	4.14635	0.155852	2.05065	0.57641	7.65974	0.715748	8.8748	0.779749	9.68812	0.50565	6.68023			0.646652	8.50645	0.855888	10.5882
0.334544	4.11752	0.15794	2.05295	0.581915	7.63832	0.71961	8.85982	0.784458	9.6351	0.509154	6.64474			0.651515	8.46665	0.859509	10.5118
0.335417	4.0934	0.160027	2.05519	0.587379	7.6169	0.722661	8.84808	0.789237	9.58412	0.512582	6.60911			0.656415	8.42829	0.863164	10.4376
0.336139	4.07375	0.162115	2.05738	0.592802	7.59546	0.724901	8.8395	0.794087	9.53514	0.515933	6.57336			0.661351	8.39128	0.866852	10.3654
0.33671	4.05842	0.164201	2.05951	0.598183	7.57399	0.726334	8.83403	0.799012	9.48813	0.51921	6.5375			0.66632	8.35555	0.870574	10.2952
0.33713	4.04725	0.166288	2.06159	0.603521	7.55247	0.728393	8.82621	0.804015	9.44305	0.522414	6.50157			0.671321	8.32104	0.874328	10.2269
0.337399	4.04015	0.168374	2.06362	0.608813	7.5309	0.730628	8.81774	0.809097	9.39988	0.525546	6.46559			0.676351	8.28768	0.878114	10.1605
0.337786	4.03	0.170461	2.06561	0.61406	7.50925	0.733664	8.80628	0.814262	9.35859	0.528609	6.42956			0.681408	8.2554	0.88193	10.0958
0.338206	4.01906	0.172547	2.06754	0.619259	7.48753	0.737495	8.79187	0.819511	9.31913	0.531603	6.39353			0.68649	8.22414	0.885777	10.0328
0.338778	4.00432	0.174632	2.06943	0.624411	7.46571	0.742117	8.77458	0.824848	9.28148	0.534531	6.35751			0.691595	8.19384	0.889654	9.97152
0.339502	3.98592	0.176718	2.07127	0.629513	7.44379	0.747521	8.75442	0.830273	9.24559	0.537394	6.32151			0.696721	8.16444	0.89356	9.91179
0.340378	3.96399	0.178803	2.07308	0.634565	7.42177	0.753693	8.73144	0.835787	9.21143	0.540195	6.28557			0.701865	8.13589	0.897494	9.85359
0.341407	3.93874	0.180888	2.07484	0.639567	7.39963	0.759833	8.70857	0.841392	9.17895	0.542935	6.2497			0.707025	8.10814	0.901455	9.79688
0.34259	3.91035	0.182973	2.07656	0.644516	7.37737	0.765937	8.68578	0.84635	9.15198	0.545616	6.21392			0.712199	8.08114	0.905444	9.74159
0.343775	3.88259	0.185058	2.07825	0.649414	7.35499	0.772002	8.66303	0.850631	9.12994	0.54824	6.17824			0.717385	8.05483	0.90946	9.68768
0.344964	3.85544	0.187142	2.07989	0.654258	7.33249	0.778026	8.6403	0.854209	9.11236	0.550809	6.14269			0.722581	8.02918	0.913502	9.63512
0.346155	3.82888	0.189227	2.08151	0.659048	7.30985	0.784007	8.61755	0.857061	9.09887	0.553324	6.10729			0.727785	8.00413	0.917569	9.58384
0.347349	3.8029	0.191311	2.08308	0.663785	7.28707	0.789943	8.59478	0.859172	9.08917	0.555788	6.07204			0.732994	7.97966	0.921662	9.53381
0.348546	3.77748	0.193395	2.08463	0.668466	7.26416	0.795834	8.57197	0.860528	9.08306	0.558202	6.03697			0.738206	7.95571	0.92578	9.48499
0.349747	3.7526	0.195479	2.08614	0.673092	7.24112	0.801678	8.54913	0.862487	9.0744	0.560569	6.00208			0.74342	7.93225	0.929921	9.43734
0.350952	3.72826	0.197563	2.08762	0.677662	7.21794	0.807476	8.52624	0.864626	9.06517	0.562889	5.96739			0.748634	7.90925	0.934087	9.39082
0.352161	3.70443	0.199646	2.08907	0.682176	7.19462	0.813228	8.50333	0.867552	9.0529	0.565164	5.93291			0.753845	7.88668	0.937736	9.35118
0.353373	3.68111	0.20173	2.09049	0.686634	7.17117	0.818936	8.4804	0.871282	9.03785	0.567396	5.89866			0.759052	7.86449	0.940861	9.31803
0.35459	3.65828	0.203813	2.09188	0.691035	7.14759	0.824601	8.45746	0.875834	9.02031	0.569588	5.86463			0.764252	7.84267	0.943455	9.29105
0.355811	3.63593	0.205896	2.09325	0.69538	7.12388	0.830225	8.43455	0.881231	9.00063	0.571739	5.83085			0.769445	7.82118	0.945512	9.26999
0.357036	3.61404	0.207979	2.09458	0.699669	7.10004	0.83581	8.41167	0.887497	8.97918	0.573852	5.79732			0.774628	7.79999	0.947028	9.25466
0.358266	3.59261	0.210062	2.09589	0.7039	7.07608	0.841358	8.38884	0.893837	8.95887	0.575929	5.76404			0.7798	7.77909	0.947999	9.24492
0.359501	3.57162	0.212145	2.09718	0.708075	7.05201	0.846872	8.3661	0.900248	8.93965	0.57797	5.73103			0.784958	7.75844	0.949398	9.231
0.36074	3.55106	0.214228	2.09844	0.712194	7.02781	0.852354	8.34347	0.906726	8.92143	0.579977	5.69829			0.790102	7.73802	0.950921	9.21599
0.361984	3.53092	0.21631	2.09968	0.716257	7.00351	0.857807	8.32096	0.913267	8.90417	0.581951	5.66582			0.795229	7.71781	0.952997	9.19578
0.363233	3.51119	0.218393	2.10089	0.720263	6.97911	0.863233	8.29859	0.919867	8.88779	0.583894	5.63364			0.800339	7.6978	0.95563	9.17055
0.364486	3.49186	0.220475	2.10208	0.724215	6.95461	0.868634	8.27638	0.926523	8.87223	0.585807	5.60174			0.80543	7.67796	0.958826	9.1405
0.365745	3.47292	0.222557	2.10325	0.72811	6.93002	0.874012	8.25435	0.933231	8.85744	0.587691	5.57013			0.8105	7.65827	0.962589	9.1059
0.367008	3.45436	0.224639	2.1044	0.731952	6.90535	0.87937	8.23251	0.939987	8.84336	0.589547	5.53881			0.815547	7.63872	0.966928	9.06703
0.368277	3.43617	0.226721	2.10553	0.735739	6.88059	0.884709	8.21087	0.946789	8.82995	0.591377	5.50778			0.820572	7.61929	0.971289	9.02904
0.369551	3.41833	0.228803	2.10663	0.739472	6.85577	0.89003	8.18944	0.953632	8.81716	0.593181	5.47706			0.825571	7.59996	0.97567	8.99189
0.370829	3.40085	0.230885	2.10772	0.743152	6.83088	0.895335	8.16824	0.960513	8.80494	0.59496	5.44663			0.830545	7.58073	0.980073	8.95556
0.372113	3.38372	0.232966	2.10879	0.746779	6.80594	0.900626	8.14725	0.967431	8.79325	0.596715	5.4165			0.835492	7.56158	0.984496	8.92004
0.373402	3.36691	0.235048	2.10984	0.750354	6.78095	0.905902	8.12649	0.974381	8.78205	0.598448	5.38668			0.84041	7.54249	0.988939	8.8853
0.374696	3.35043	0.23713	2.11087	0.753878	6.75591	0.911166	8.10596	0.981362	8.77131	0.60016	5.35715			0.845299	7.52346	0.993403	8.85131
0.375996	3.33427	0.239211	2.11188	0.757352	6.73084	0.916417	8.08565	0.98837	8.76099	0.60185	5.32793			0.850158	7.50447	0.997887	8.81806
0.3773	3.31843	0.241292	2.11287	0.760776	6.70574	0.921656	8.06557	0.995404	8.75107	0.603521	5.29902			0.854985	7.48552	1.00239	8.78552
0.37861	3.30288	0.243374	2.11385	0.76415	6.68062	0.926883	8.04572	1.00246	8.74151	0.605172	5.2704			0.85978	7.4666		
0.379925	3.28763	0.245455	2.11482	0.767476	6.65549	0.932099	8.02608			0.606805	5.24209			0.864542	7.44769		
0.381245	3.27267	0.247536	2.11576	0.770755	6.63035	0.937304	8.00667			0.60842	5.21408			0.86927	7.42879		
0.382571	3.25799	0.249617	2.11669	0.773986	6.60521	0.942497	7.98746			0.610019	5.18636			0.873962	7.4099		
0.383901	3.24359	0.251698	2.11761	0.777172	6.58008	0.947679	7.96846			0.611601	5.15895			0.87862	7.391		
0.385237	3.22945	0.253779	2.11851	0.780313	6.55496	0.95285	7.94966			0.613168	5.13184			0.883241	7.37209		
0.386578	3.21558	0.255859	2.1194	0.783409	6.52986	0.958009	7.93105			0.61472	5.10502			0.887825	7.35317		
0.387925	3.20196	0.25794	2.12027	0.786461	6.50479	0.963155	7.91262			0.616258	5.0785			0.892372	7.33424		
0.389276	3.1886	0.260021	2.12113	0.789471	6.47975	0.968289	7.89438			0.617783	5.05227			0.896881	7.31528		
0.390633	3.17548	0.262101	2.12197	0.792439	6.45475	0.97341	7.8763			0.619294	5.02633			0.901351	7.29629		
0.391995	3.16259	0.264182	2.1228	0.795366	6.42979	0.978518	7.85838			0.620793	5.00068			0.905783	7.27728		
0.393362	3.14995	0.266262	2.12362	0.798252	6.40489	0.983611	7.84062			0.62228	4.97532			0.910175	7.25824		
0.394734	3.13752	0.268343	2.12443	0.801099	6.38003	0.98869	7.823			0.623756	4.95025			0.914528	7.23917		
0.396111	3.12533	0.270423	2.12522	0.803907	6.35524	0.993753	7.80553			0.62522	4.92545			0.918841	7.22006		
0.397493	3.11335	0.272503	2.126	0.806678	6.33052	0.998801	7.78818			0.626675	4.90094			0.923114	7.20092		
0.398881	3.10158	0.274583	2.12677	0.809411	6.30586	1.00383	7.77096			0.628119	4.8767			0.927347	7.18174		
0.400273	3.09002	0.276664	2.12753	0.812108	6.28128					0.629554	4.85274			0.93154	7.16253		
0.401671	3.07867	0.278744	2.12828	0.814769	6.25677					0.63098	4.82905			0.935693	7.14329		
0.403073	3.06751	0.280824	2.12901	0.817396	6.23235					0.632398	4.80563			0.939805	7.12401		
0.404481	3.05655	0.282904	2.12974	0.819988	6.20802					0.633807	4.78248			0.943877	7.1047		
0.405893	3.04578	0.284984	2.13045	0.822547	6.18378					0.635208	4.75959			0.947908	7.08536		
0.40731	3.03519	0.287063	2.13116	0.825074	6.15963					0.636602	4.73697			0.951899	7.06598		
0.408733	3.02479	0.289143	2.13185	0.827569	6.13558					0.637989	4.7146			0.955851	7.04658		
0.41016	3.01457	0.291223	2.13254	0.830032	6.11162					0.639369	4.69249			0.959762	7.02715		
0.411592	3.00452	0.293303	2.13321	0.832466	6.08778					0.640742	4.67063			0.963634	7.00769		
0.413029	2.99464	0.295382	2.13388	0.834869	6.06404					0.64211	4.64902			0.967466	6.98821		
0.41447	2.98493	0.297462	2.13454	0.837243	6.04041					0.643471	4.62767			0.971258	6.96871		
0.415916	2.97538	0.299542	2.13518	0.839589	6.01689					0.644827	4.60655			0.975012	6.94918		
0.417367	2.96599	0.301621	2.13582	0.841908	5.99348					0.646178	4.58568			0.978727	6.92965		
0.418823	2.95676	0.303701	2.13645	0.844199	5.97019					0.647524	4.56505			0.982404	6.91009		
0.420283	2.94768	0.30578	2.13707	0.846463	5.94702					0.648865	4.54465			0.986042	6.89053		
0.421748	2.93875	0.307859	2.13769	0.848702	5.92398					0.650201	4.52449			0.989643	6.87096		
0.423218	2.92997	0.309939	2.13829	0.850916	5.90105					0.651534	4.50456			0.993206	6.85138		
0.424692	2.92133	0.312018	2.13889	0.853104	5.87825					0.652862	4.48485			0.996732	6.83179		
0.426171	2.91284	0.314097	2.13948	0.855269	5.85557					0.654187	4.46537			1.00022	6.81221		
0.427654	2.90448	0.316176	2.14006	0.85741	5.83302					0.655509	4.44612						
0.429142	2.89625	0.318256	2.14063	0.859528	5.8106					0.656827	4.42708						
0.430634	2.88816	0.320335	2.1412	0.861624	5.78832					0.658142	4.40826						
0.43213	2.8802	0.322414	2.14176	0.863698	5.76616					0.659454	4.38965						
0.433631	2.87237	0.324493	2.14231	0.865751	5.74413					0.660763	4.37126						
0.435136	2.86466	0.326572	2.14285	0.867782	5.72224					0.66207	4.35307						
0.436645	2.85707	0.328651	2.14339	0.869794	5.70048					0.663374	4.33509						
0.438159	2.8496	0.33073	2.14392	0.871785	5.67885					0.664677	4.31732						
0.439677	2.84225	0.332809	2.14445	0.873757	5.65737					0.665977	4.29974						
0.441199	2.83502	0.334888	2.14497	0.875711	5.63601					0.667275	4.28237						
0.442725	2.82789	0.336966	2.14548	0.877645	5.6148					0.668572	4.26519						
0.444255	2.82088	0.339045	2.14598	0.879562	5.59372					0.669867	4.2482						
0.44579	2.81398	0.341124	2.14648	0.881461	5.57278					0.671161	4.2314						
0.447328	2.80718	0.343203	2.14698	0.883344	5.55197					0.672454	4.21479						
0.448871	2.80048	0.345282	2.14746	0.885209	5.53131					0.673745	4.19837						
0.450417	2.79389	0.34736	2.14795	0.887058	5.51078					0.675036	4.18213						
0.451968	2.7874	0.349439	2.14842	0.888892	5.49039					0.676325	4.16608						
0.453522	2.78101	0.351517	2.14889	0.890709	5.47014					0.677614	4.1502						
0.45508	2.77471	0.353596	2.14936	0.892512	5.45003					0.678902	4.13449						
0.456643	2.76851	0.355675	2.14982	0.8943	5.43005					0.68019	4.11896						
0.458209	2.7624	0.357753	2.15027	0.896074	5.41022					0.681477	4.10361						
0.459778	2.75638	0.359832	2.15072	0.897834	5.39052					0.682764	4.08842						
0.461352	2.75045	0.36191	2.15116	0.89958	5.37096					0.684051	4.0734						
0.462929	2.74461	0.363988	2.1516	0.901313	5.35154					0.685338	4.05854						
0.46451	2.73885	0.366067	2.15203	0.903033	5.33225					0.686624	4.04385						
0.466095	2.73318	0.368145	2.15246	0.904741	5.3131					0.687911	4.02932						
0.467683	2.72759	0.370224	2.15289	0.906436	5.29409					0.689198	4.01495						
0.469275	2.72208	0.372302	2.15331	0.908119	5.27522					0.690485	4.00073						
0.47087	2.71666	0.37438	2.15372	0.909791	5.25648					0.691772	3.98667						
0.472469	2.71131	0.376459	2.15413	0.911451	5.23788					0.69306	3.97276						
0.474071	2.70603	0.378537	2.15454	0.9131	5.21941					0.694348	3.959						
0.475677	2.70084	0.380615	2.15494	0.914739	5.20108					0.695637	3.94539						
0.477287	2.69571	0.382693	2.15533	0.916367	5.18288					0.696926	3.93192						
0.478899	2.69066	0.384771	2.15573	0.917985	5.16481					0.698216	3.9186						
0.480515	2.68569	0.386849	2.15612	0.919593	5.14688					0.699507	3.90543						
0.482135	2.68078	0.388928	2.1565	0.921191	5.12908					0.700799	3.89239						
0.483758	2.67594	0.391006	2.15688	0.92278	5.11141					0.702091	3.87949						
0.485384	2.67117	0.393084	2.15726	0.92436	5.09387					0.703385	3.86673						
0.487013	2.66646	0.395162	2.15763	0.92593	5.07646					0.704679	3.85411						
0.488646	2.66182	0.39724	2.158	0.927492	5.05918					0.705975	3.84162						
0.490282	2.65725	0.399318	2.15836	0.929046	5.04203					0.707271	3.82926						
0.491921	2.65274	0.401396	2.15872	0.930592	5.02501					0.708569	3.81703						
0.493563	2.64828	0.403474	2.15908	0.932129	5.00812					0.709868	3.80493						
0.495208	2.6439	0.405552	2.15943	0.933659	4.99135					0.711168	3.79296						
0.496857	2.63957	0.40763	2.15978	0.935181	4.97471					0.712469	3.78111						
0.498508	2.6353	0.409707	2.16013	0.936696	4.9582					0.713772	3.76939						
0.500162	2.63108	0.411785	2.16047	0.938204	4.94181					0.715076	3.75778						
0.50182	2.62693	0.413863	2.16081	0.939705	4.92554					0.716381	3.7463						
0.50348	2.62283	0.415941	2.16114	0.941199	4.9094					0.717688	3.73494						
0.505144	2.61878	0.418019	2.16148	0.942687	4.89338					0.718997	3.72369						
0.50681	2.61479	0.420097	2.1618	0.944168	4.87748					0.720307	3.71256						
0.508479	2.61085	0.422174	2.16213	0.945643	4.8617					0.721618	3.70155						
0.510151	2.60697	0.424252	2.16245	0.947112	4.84604					0.722931	3.69064						
0.511826	2.60313	0.42633	2.16277	0.948576	4.8305					0.724246	3.67985						
0.513504	2.59935	0.428407	2.16309	0.950033	4.81508					0.725562	3.66917						
0.515185	2.59561	0.430485	2.1634	0.951485	4.79977					0.72688	3.6586						
0.516868	2.59193	0.432563	2.16371	0.952932	4.78458					0.7282	3.64813						
0.518554	2.58829	0.43464	2.16402	0.954374	4.76951					0.729522	3.63778						
0.520243	2.5847	0.436718	2.16432	0.955811	4.75455					0.730845	3.62752						
0.521935	2.58116	0.438796	2.16463	0.957242	4.73971					0.73217	3.61737						
0.523629	2.57766	0.440873	2.16492	0.958669	4.72497					0.733497	3.60732						
0.525326	2.57421	0.442951	2.16522	0.960092	4.71036					0.734826	3.59737						
0.527025	2.5708	0.445028	2.16551	0.96151	4.69585					0.736156	3.58752						
0.528727	2.56743	0.447106	2.1658	0.962924	4.68145					0.737489	3.57777						
0.530432	2.56411	0.449183	2.16609	0.964334	4.66716					0.738823	3.56812						
0.532139	2.56083	0.451261	2.16638	0.965739	4.65299					0.740159	3.55856						
0.533849	2.55759	0.453338	2.16666	0.967141	4.63892					0.741497	3.54909						
0.535561	2.55439	0.455416	2.16694	0.968539	4.62495					0.742838	3.53972						
0.537276	2.55123	0.457493	2.16722	0.969933	4.6111					0.74418	3.53044						
0.538994	2.54811	0.459571	2.16749	0.971324	4.59734					0.745524	3.52126						
0.540713	2.54503	0.461648	2.16776	0.972711	4.5837					0.74687	3.51216						
0.542435	2.54199	0.463725	2.16803	0.974095	4.57016					0.748218	3.50315						
0.54416	2.53899	0.465803	2.1683	0.975476	4.55672					0.749568	3.49423						
0.545887	2.53602	0.46788	2.16856	0.976854	4.54338					0.75092	3.48539						
0.547616	2.53309	0.469958	2.16883	0.978229	4.53014					0.752275	3.47665						
0.549348	2.5302	0.472035	2.16909	0.979601	4.51701					0.753631	3.46798						
0.551082	2.52734	0.474112	2.16935	0.98097	4.50397					0.754989	3.4594						
0.552818	2.52451	0.47619	2.1696	0.982337	4.49103					0.75635	3.4509						
0.554556	2.52172	0.478267	2.16985	0.983701	4.47819					0.757713	3.44249						
0.556297	2.51897	0.480344	2.17011	0.985062	4.46545					0.759077	3.43415						
0.55804	2.51624	0.482421	2.17036	0.986421	4.45281					0.760444	3.42589						
0.559785	2.51355	0.484499	2.1706	0.987778	4.44026					0.761813	3.41772						
0.561533	2.51089	0.486576	2.17085	0.989133	4.4278					0.763184	3.40962						
0.563282	2.50827	0.488653	2.17109	0.990486	4.41544					0.764558	3.40159						
0.565034	2.50567	0.49073	2.17133	0.991836	4.40317					0.765933	3.39364						
0.566788	2.50311	0.492807	2.17157	0.993185	4.391					0.767311	3.38577						
0.568544	2.50057	0.494884	2.17181	0.994531	4.37892					0.76869	3.37797						
0.570302	2.49807	0.496962	2.17204	0.995876	4.36692					0.770072	3.37025						
0.572062	2.4956	0.499039	2.17227	0.99722	4.35502					0.771457	3.36259						
0.573824	2.49315	0.501116	2.1725	0.998561	4.34321					0.772843	3.35501						
0.575589	2.49073	0.503193	2.17273	0.999901	4.33148					0.774231	3.3475						
0.577355	2.48834	0.50527	2.17296	1.00124	4.31985					0.775622	3.34006						
0.579123	2.48598	0.507347	2.17318							0.777015	3.33268						
0.580894	2.48365	0.509424	2.17341							0.77841	3.32538						
0.582666	2.48134	0.511501	2.17363							0.779807	3.31814						
0.58444	2.47906	0.513578	2.17385							0.781207	3.31097						
0.586216	2.47681	0.515655	2.17407							0.782609	3.30386						
0.587994	2.47458	0.517732	2.17428							0.784013	3.29682						
0.589774	2.47238	0.519809	2.1745							0.785419	3.28985						
0.591556	2.4702	0.521886	2.17471							0.786827	3.28294						
0.59334	2.46804	0.523963	2.17492							0.788238	3.27609						
0.595126	2.46591	0.52604	2.17513							0.78965	3.2693						
0.596913	2.46381	0.528117	2.17534							0.791065	3.26257						
0.598702	2.46173	0.530194	2.17554							0.792483	3.2559						
0.600494	2.45967	0.532271	2.17575							0.793902	3.2493						
0.602286	2.45763	0.534348	2.17595							0.795324	3.24275						
0.604081	2.45562	0.536425	2.17615							0.796747	3.23626						
0.605878	2.45363	0.538502	2.17635							0.798174	3.22983						
0.607676	2.45166	0.540578	2.17655							0.799602	3.22346						
0.609476	2.44972	0.542655	2.17674							0.801032	3.21714						
0.611277	2.44779	0.544732	2.17694							0.802465	3.21088						
0.613081	2.44589	0.546809	2.17713							0.8039	3.20468						
0.614886	2.444	0.548886	2.17732							0.805337	3.19853						
0.616692	2.44214	0.550963	2.17752							0.806776	3.19243						
0.618501	2.4403	0.553039	2.1777							0.808218	3.18639						
0.620311	2.43848	0.555116	2.17789							0.809662	3.1804						
0.622122	2.43667	0.557193	2.17808							0.811108	3.17446						
0.623936	2.43489	0.55927	2.17826							0.812556	3.16857						
0.625751	2.43313	0.561346	2.17845							0.814006	3.16274						
0.627567	2.43138	0.563423	2.17863							0.815459	3.15695						
0.629385	2.42966	0.5655	2.17881							0.816913	3.15122						
0.631205	2.42795	0.567577	2.17899							0.81837	3.14553						
0.633026	2.42626	0.569653	2.17917							0.819829	3.1399						
0.634848	2.42458	0.57173	2.17934							0.821291	3.13431						
0.636673	2.42293	0.573807	2.17952							0.822754	3.12877						
0.638498	2.42129	0.575883	2.17969							0.824219	3.12328						
0.640326	2.41967	0.57796	2.17987							0.825687	3.11783						
0.642154	2.41807	0.580036	2.18004							0.827157	3.11243						
0.643985	2.41648	0.582113	2.18021							0.828629	3.10708						
0.645816	2.41491	0.58419	2.18038							0.830103	3.10177						
0.647649	2.41336	0.586266	2.18054							0.83158	3.0965						
0.649484	2.41182	0.588343	2.18071							0.833058	3.09129						
0.65132	2.4103	0.590419	2.18088							0.834539	3.08611						
0.653157	2.4088	0.592496	2.18104							0.836022	3.08098						
0.654996	2.40731	0.594573	2.1812							0.837507	3.07589						
0.656836	2.40583	0.596649	2.18137							0.838994	3.07084						
0.658678	2.40437	0.598726	2.18153							0.840483	3.06584						
0.660521	2.40293	0.600802	2.18169							0.841974	3.06088						
0.662365	2.4015	0.602879	2.18185							0.843467	3.05595						
0.664211	2.40008	0.604955	2.182							0.844963	3.05107						
0.666058	2.39868	0.607032	2.18216							0.84646	3.04623						
0.667906	2.39729	0.609108	2.18231							0.84796	3.04143						
0.669755	2.39592	0.611185	2.18247							0.849462	3.03667						
0.671606	2.39456	0.613261	2.18262							0.850966	3.03195						
0.673459	2.39321	0.615337	2.18277							0.852472	3.02726						
0.675312	2.39188	0.617414	2.18293							0.853979	3.02262						
0.677167	2.39056	0.61949	2.18308							0.855489	3.01801						
0.679023	2.38925	0.621567	2.18323							0.857002	3.01344						
0.68088	2.38796	0.623643	2.18337							0.858516	3.00891						
0.682739	2.38668	0.62572	2.18352							0.860032	3.00441						
0.684598	2.38541	0.627796	2.18367							0.86155	2.99995						
0.686459	2.38416	0.629872	2.18381							0.86307	2.99552						
0.688321	2.38291	0.631949	2.18396							0.864593	2.99114						
0.690185	2.38168	0.634025	2.1841							0.866117	2.98678						
0.692049	2.38046	0.636101	2.18424							0.867643	2.98246						
0.693915	2.37926	0.638178	2.18438							0.869171	2.97818						
0.695782	2.37806	0.640254	2.18452							0.870702	2.97393						
0.69765	2.37688	0.64233	2.18466							0.872234	2.96971						
0.699519	2.3757	0.644407	2.1848							0.873768	2.96553						
0.70139	2.37454	0.646483	2.18494							0.875304	2.96138						
0.703261	2.37339	0.648559	2.18508							0.876843	2.95726						
0.705134	2.37225	0.650636	2.18521							0.878383	2.95317						
0.707008	2.37112	0.652712	2.18535							0.879925	2.94912						
0.708883	2.37001	0.654788	2.18548							0.881469	2.9451						
0.710759	2.3689	0.656864	2.18561							0.883015	2.94111						
0.712636	2.3678	0.65894	2.18575							0.884563	2.93715						
0.714514	2.36672	0.661017	2.18588							0.886113	2.93322						
0.716393	2.36564	0.663093	2.18601							0.887665	2.92933						
0.718273	2.36457	0.665169	2.18614							0.889219	2.92546						
0.720155	2.36352	0.667245	2.18627							0.890774	2.92162						
0.722037	2.36247	0.669322	2.1864							0.892332	2.91781						
0.723921	2.36144	0.671398	2.18652							0.893892	2.91404						
0.725805	2.36041	0.673474	2.18665							0.895453	2.91029						
0.727691	2.35939	0.67555	2.18678							0.897016	2.90657						
0.729577	2.35839	0.677626	2.1869							0.898581	2.90287						
0.731465	2.35739	0.679702	2.18702							0.900148	2.89921						
0.733353	2.3564	0.681778	2.18715							0.901717	2.89557						
0.735243	2.35542	0.683854	2.18727							0.903288	2.89197						
0.737133	2.35445	0.685931	2.18739							0.904861	2.88838						
0.739025	2.35349	0.688007	2.18751							0.906435	2.88483						
0.740918	2.35253	0.690083	2.18763							0.908011	2.8813						
0.742811	2.35159	0.692159	2.18775							0.90959	2.8778						
0.744705	2.35065	0.694235	2.18787							0.91117	2.87433						
0.746601	2.34972	0.696311	2.18799							0.912751	2.87088						
0.748497	2.34881	0.698387	2.18811							0.914335	2.86746						
0.750394	2.34789	0.700463	2.18823							0.91592	2.86406						
0.752293	2.34699	0.702539	2.18834							0.917508	2.86069						
0.754192	2.3461	0.704615	2.18846							0.919097	2.85735						
0.756092	2.34521	0.706691	2.18857							0.920687	2.85402						
0.757993	2.34433	0.708767	2.18869							0.92228	2.85073						
0.759895	2.34346	0.710843	2.1888							0.923874	2.84746						
0.761797	2.3426	0.712919	2.18891							0.92547	2.84421						
0.763701	2.34174	0.714995	2.18902							0.927068	2.84098						
0.765605	2.3409	0.717071	2.18913							0.928668	2.83778						
0.767511	2.34006	0.719147	2.18925							0.930269	2.83461						
0.769417	2.33922	0.721223	2.18936							0.931872	2.83145						
0.771324	2.3384	0.723299	2.18947							0.933477	2.82832						
0.773232	2.33758	0.725375	2.18957							0.935083	2.82521						
0.775141	2.33677	0.727451	2.18968							0.936691	2.82213						
0.777051	2.33596	0.729527	2.18979							0.938301	2.81907						
0.778961	2.33517	0.731603	2.1899							0.939913	2.81602						
0.780873	2.33438	0.733679	2.19							0.941526	2.81301						
0.782785	2.33359	0.735755	2.19011							0.943141	2.81001						
0.784698	2.33282	0.73783	2.19021							0.944758	2.80703						
0.786612	2.33205	0.739906	2.19032							0.946376	2.80408						
0.788526	2.33128	0.741982	2.19042							0.947996	2.80115						
0.790442	2.33053	0.744058	2.19052							0.949618	2.79824						
0.792358	2.32978	0.746134	2.19063							0.951241	2.79534						
0.794275	2.32903	0.74821	2.19073							0.952866	2.79247						
0.796193	2.3283	0.750286	2.19083							0.954493	2.78962						
0.798111	2.32756	0.752361	2.19093							0.956121	2.7868						
0.800031	2.32684	0.754437	2.19103							0.957751	2.78399						
0.801951	2.32612	0.756513	2.19113							0.959383	2.7812						
0.803872	2.32541	0.758589	2.19123							0.961016	2.77843						
0.805793	2.3247	0.760665	2.19133							0.962651	2.77568						
0.807716	2.324	0.76274	2.19143							0.964287	2.77294						
0.809639	2.32331	0.764816	2.19152							0.965925	2.77023						
0.811563	2.32262	0.766892	2.19162							0.967564	2.76754						
0.813487	2.32193	0.768968	2.19172							0.969206	2.76487						
0.815413	2.32126	0.771043	2.19181							0.970848	2.76221						
0.817339	2.32058	0.773119	2.19191							0.972492	2.75957						
0.819266	2.31992	0.775195	2.192							0.974138	2.75695						
0.821193	2.31926	0.777271	2.1921							0.975786	2.75435						
0.823121	2.3186	0.779346	2.19219							0.977435	2.75177						
0.82505	2.31795	0.781422	2.19229							0.979085	2.74921						
0.82698	2.31731	0.783498	2.19238							0.980737	2.74666						
0.82891	2.31667	0.785573	2.19247							0.98239	2.74413						
0.830841	2.31604	0.787649	2.19256							0.984045	2.74162						
0.832773	2.31541	0.789725	2.19265							0.985702	2.73912						
0.834705	2.31478	0.7918	2.19274							0.98736	2.73665						
0.836639	2.31416	0.793876	2.19284							0.98902	2.73418						
0.838572	2.31355	0.795952	2.19292							0.990681	2.73174						
0.840507	2.31294	0.798027	2.19301							0.992343	2.72931						
0.842442	2.31234	0.800103	2.1931							0.994007	2.7269						
0.844378	2.31174	0.802179	2.19319							0.995673	2.72451						
0.846314	2.31115	0.804254	2.19328							0.99734	2.72213						
0.848251	2.31056	0.80633	2.19337							0.999008	2.71977						
0.850189	2.30997	0.808405	2.19345							1.00068	2.71742						
0.852127	2.30939	0.810481	2.19354														
0.854066	2.30882	0.812557	2.19363														
0.856006	2.30825	0.814632	2.19371														
0.857946	2.30768	0.816708	2.1938														
0.859887	2.30712	0.818783	2.19388														
0.861828	2.30656	0.820859	2.19397														
0.86377	2.30601	0.822934	2.19405														
0.865713	2.30546	0.82501	2.19413														
0.867656	2.30492	0.827085	2.19422														
0.8696	2.30438	0.829161	2.1943														
0.871545	2.30385	0.831237	2.19438														
0.87349	2.30331	0.833312	2.19446														
0.875435	2.30279	0.835387	2.19454														
0.877382	2.30226	0.837463	2.19462														
0.879328	2.30175	0.839538	2.1947														
0.881276	2.30123	0.841614	2.19478														
0.883224	2.30072	0.843689	2.19486														
0.885173	2.30021	0.845765	2.19494														
0.887122	2.29971	0.84784	2.19502														
0.889071	2.29921	0.849916	2.1951														
0.891022	2.29872	0.851991	2.19518														
0.892973	2.29823	0.854067	2.19526														
0.894924	2.29774	0.856142	2.19533														
0.896876	2.29726	0.858217	2.19541														
0.898828	2.29678	0.860293	2.19549														
0.900781	2.2963	0.862368	2.19556														
0.902735	2.29583	0.864444	2.19564														
0.904689	2.29536	0.866519	2.19571														
0.906644	2.29489	0.868594	2.19579														
0.908599	2.29443	0.87067	2.19586														
0.910555	2.29397	0.872745	2.19594														
0.912511	2.29352	0.87482	2.19601														
0.914468	2.29306	0.876896	2.19608														
0.916425	2.29262	0.878971	2.19616														
0.918383	2.29217	0.881046	2.19623														
0.920341	2.29173	0.883122	2.1963														
0.9223	2.29129	0.885197	2.19637														
0.924259	2.29086	0.887272	2.19645														
0.926219	2.29042	0.889348	2.19652														
0.928179	2.29	0.891423	2.19659														
0.93014	2.28957	0.893498	2.19666														
0.932101	2.28915	0.895573	2.19673														
0.934063	2.28873	0.897649	2.1968														
0.936025	2.28831	0.899724	2.19687														
0.937988	2.2879	0.901799	2.19694														
0.939951	2.28749	0.903874	2.19701														
0.941914	2.28708	0.90595	2.19708														
0.943878	2.28668	0.908025	2.19714														
0.945843	2.28628	0.9101	2.19721														
0.947808	2.28588	0.912175	2.19728														
0.949774	2.28548	0.91425	2.19735														
0.95174	2.28509	0.916326	2.19741														
0.953706	2.2847	0.918401	2.19748														
0.955673	2.28432	0.920476	2.19755														
0.95764	2.28393	0.922551	2.19761														
0.959608	2.28355	0.924626	2.19768														
0.961576	2.28317	0.926701	2.19774														
0.963545	2.2828	0.928777	2.19781														
0.965514	2.28242	0.930852	2.19787														
0.967484	2.28205	0.932927	2.19794														
0.969454	2.28169	0.935002	2.198														
0.971424	2.28132	0.937077	2.19807														
0.973395	2.28096	0.939152	2.19813														
0.975366	2.2806	0.941227	2.19819														
0.977338	2.28024	0.943302	2.19826														
0.97931	2.27989	0.945377	2.19832														
0.981283	2.27954	0.947452	2.19838														
0.983255	2.27919	0.949528	2.19844														
0.985229	2.27884	0.951603	2.19851														
0.987203	2.27849	0.953678	2.19857														
0.989177	2.27815	0.955753	2.19863														
0.991151	2.27781	0.957828	2.19869														
0.993126	2.27747	0.959903	2.19875														
0.995102	2.27714	0.961978	2.19881														
0.997078	2.27681	0.964053	2.19887														
0.999054	2.27647	0.966128	2.19893														
1.00103	2.27615	0.968203	2.19899														
		0.970278	2.19905														
		0.972353	2.19911														
		0.974428	2.19917														
		0.976503	2.19923														
		0.978578	2.19928														
		0.980653	2.19934														
		0.982728	2.1994														
		0.984802	2.19946														
		0.986877	2.19952														
		0.988952	2.19957														
		0.991027	2.19963														
		0.993102	2.19969														
		0.995177	2.19974														
		0.997252	2.1998														
		0.999327	2.19985														
		1.0014	2.19991														
