Sym0		Asym0		Sym1		Sym2		Sym3		Asym1		Asym2		Asym3		Asym4	
476  Points		492  Points		242  Points		146  Points		129  Points		394  Points		2  Points		165  Points		129  Points	
Freq (MHz)	Vph (m/ms)	Freq (MHz)	Vph (m/ms)	Freq (MHz)	Vph (m/ms)	Freq (MHz)	Vph (m/ms)	Freq (MHz)	Vph (m/ms)	Freq (MHz)	Vph (m/ms)	Freq (MHz)	Vph (m/ms)	Freq (MHz)	Vph (m/ms)	Freq (MHz)	Vph (m/ms)
0.00567202	7.32826	0.000472977	0.22356	0.279553	331.965	0.394754	766.469	0.559026	1207.14	0.139812	260.347	-1.55354e-008	8.41306	0.419276	831.527	0.698775	1862.06
0.0124985	7.32753	0.000974611	0.319822	0.279705	157.686	0.394835	272.916	0.559096	400.845	0.140186	95.4478	9.94741e-006	0.0324945	0.419368	292.055	0.698819	534.688
0.0193219	7.32618	0.00164678	0.413863	0.279965	103.48	0.394993	166.074	0.559238	240.378	0.140903	58.6996			0.419549	177.203	0.69891	312.2
0.0261409	7.32427	0.00248041	0.505099	0.280332	77.0735	0.395229	119.4	0.559451	171.706	0.141957	42.6029			0.419818	127.244	0.69905	220.496
0.0329535	7.32175	0.00346515	0.5931	0.280805	61.4602	0.395542	93.2484	0.559734	133.592	0.143339	33.6176			0.420175	99.3086	0.699238	170.461
0.0397584	7.31865	0.00458954	0.677509	0.281384	51.1552	0.395934	76.5311	0.560088	109.358	0.145036	27.9156			0.42062	81.473	0.699474	138.957
0.0465534	7.31493	0.00584148	0.75806	0.282066	43.8516	0.396406	64.9292	0.560512	92.5966	0.147034	23.9969			0.421153	69.105	0.699758	117.302
0.0533372	7.31061	0.00720904	0.834619	0.282851	38.41	0.396957	56.4109	0.561006	80.3163	0.149318	21.1532			0.421772	60.0295	0.70009	101.504
0.0601076	7.30565	0.00868008	0.907084	0.283735	34.2028	0.397591	49.8948	0.561571	70.9353	0.151872	19.0064			0.422478	53.09	0.700469	89.473
0.0668628	7.30003	0.0102433	0.97547	0.284718	30.8559	0.398307	44.7521	0.562205	63.5378	0.15468	17.3364			0.42327	47.6147	0.700896	80.0061
0.0736007	7.29374	0.0118879	1.03983	0.285798	28.1323	0.399107	40.5927	0.562908	57.5568	0.157726	16.0063			0.424147	43.187	0.70137	72.3642
0.0803192	7.28675	0.013604	1.10026	0.286971	25.8747	0.399993	37.1613	0.563681	52.6227	0.160992	14.9265			0.425109	39.5344	0.701891	66.0671
0.0870162	7.27905	0.0153821	1.1569	0.288235	23.9747	0.400965	34.2841	0.564522	48.4841	0.164464	14.0359			0.426154	36.4715	0.70246	60.7895
0.093689	7.27059	0.0172144	1.20992	0.289589	22.3549	0.402027	31.8385	0.565431	44.9642	0.168125	13.2915			0.427282	33.8675	0.703075	56.3032
0.100335	7.26135	0.0190932	1.2595	0.291029	20.9587	0.403179	29.7357	0.566408	41.9349	0.171963	12.6623			0.428491	31.6277	0.703737	52.4433
0.106952	7.2513	0.021012	1.30582	0.292554	19.7438	0.404424	27.9096	0.567452	39.3012	0.175963	12.125			0.429782	29.6818	0.704445	49.0879
0.113537	7.24038	0.022965	1.34907	0.294162	18.6778	0.405762	26.3104	0.568563	36.9912	0.180114	11.6623			0.431152	27.9763	0.705199	46.1445
0.120087	7.22857	0.0249472	1.38947	0.295849	17.7358	0.407197	24.8992	0.56974	34.9493	0.184402	11.2606			0.432601	26.4701	0.705999	43.5423
0.126598	7.21582	0.026954	1.42718	0.297615	16.8978	0.40873	23.6458	0.570983	33.1319	0.188817	10.9095			0.434128	25.1308	0.706844	41.2256
0.133067	7.20208	0.0289817	1.4624	0.299457	16.1482	0.410362	22.5261	0.572291	31.5046	0.193349	10.6008			0.435732	23.9329	0.707735	39.1501
0.13949	7.18728	0.030763	1.4912	0.301375	15.4742	0.412097	21.5206	0.573664	30.0395	0.197989	10.3276			0.437411	22.8555	0.70867	37.2804
0.145863	7.17138	0.0322906	1.51443	0.303367	14.8653	0.413935	20.6136	0.5751	28.7138	0.202728	10.0846			0.439164	21.8818	0.70965	35.5877
0.152181	7.15431	0.0335593	1.53279	0.305433	14.3131	0.415877	19.7921	0.5766	27.509	0.207556	9.86751			0.440989	20.998	0.710675	34.0483
0.15844	7.13599	0.0345656	1.54678	0.307573	13.8104	0.417926	19.0451	0.578163	26.4097	0.212468	9.67258			0.442887	20.1925	0.711743	32.6424
0.164635	7.11637	0.0353071	1.55678	0.309787	13.3513	0.420084	18.3637	0.579787	25.4028	0.217455	9.49682			0.444855	19.4558	0.712855	31.3536
0.170759	7.09535	0.0357823	1.56306	0.312076	12.9307	0.42235	17.7403	0.581473	24.4774	0.222512	9.33772			0.446892	18.7796	0.71401	30.1682
0.176808	7.07286	0.0364664	1.57192	0.314442	12.5445	0.424726	17.1682	0.58322	23.6244	0.227632	9.19314			0.448996	18.1572	0.715208	29.0743
0.182774	7.04883	0.0372109	1.58134	0.316887	12.1889	0.427214	16.642	0.585027	22.8358	0.23281	9.06129			0.451167	17.5825	0.716448	28.0619
0.188652	7.02315	0.0382252	1.59379	0.319414	11.8611	0.429813	16.1569	0.586893	22.1047	0.238039	8.94061			0.453403	17.0506	0.717731	27.1223
0.194434	6.99575	0.0395106	1.60899	0.322027	11.5582	0.432524	15.7086	0.588817	21.4254	0.243316	8.82981			0.455703	16.5569	0.719055	26.2482
0.200113	6.96653	0.0410681	1.62657	0.324728	11.278	0.435348	15.2937	0.590799	20.7926	0.248635	8.72775			0.458065	16.0978	0.720422	25.4331
0.205681	6.93542	0.0428992	1.64616	0.327524	11.0186	0.438283	14.9088	0.592839	20.2019	0.253992	8.63344			0.460488	15.6699	0.721829	24.6713
0.21113	6.90234	0.0450048	1.66734	0.33042	10.7782	0.44133	14.5513	0.594935	19.6495	0.258688	8.55692			0.46297	15.2702	0.723277	23.9579
0.216454	6.8672	0.047114	1.68725	0.333419	10.5552	0.444489	14.2187	0.597086	19.1318	0.26271	8.49545			0.465512	14.8963	0.724766	23.2885
0.221644	6.82997	0.0492259	1.70596	0.336528	10.3484	0.447758	13.9087	0.599293	18.6459	0.266047	8.44703			0.46811	14.5458	0.726295	22.6592
0.226692	6.79058	0.05134	1.72357	0.339753	10.1566	0.451136	13.6195	0.601553	18.189	0.268692	8.41018			0.470765	14.2167	0.727863	22.0668
0.231593	6.74902	0.0534555	1.74016	0.343098	9.97868	0.454623	13.3493	0.603867	17.7587	0.270641	8.38386			0.473474	13.9072	0.729472	21.508
0.236338	6.70526	0.055572	1.75581	0.346569	9.8137	0.458216	13.0965	0.606234	17.3528	0.27189	8.36734			0.476236	13.6157	0.731119	20.9802
0.240924	6.65935	0.0576893	1.77058	0.35017	9.66078	0.461915	12.8598	0.608653	16.9695	0.273687	8.34403			0.479052	13.3408	0.732806	20.4811
0.245346	6.6113	0.0598067	1.78454	0.353904	9.51911	0.465718	12.6378	0.611123	16.607	0.275642	8.31925			0.481918	13.0813	0.734531	20.0083
0.2496	6.56121	0.0619241	1.79774	0.357773	9.38792	0.469622	12.4295	0.613644	16.2637	0.278306	8.28647			0.484834	12.8358	0.736294	19.5599
0.253685	6.50916	0.0640414	1.81025	0.361779	9.26649	0.473626	12.2338	0.616215	15.9383	0.28168	8.24642			0.4878	12.6034	0.738096	19.1342
0.257599	6.45528	0.0661582	1.82209	0.365921	9.15413	0.477728	12.0498	0.618835	15.6294	0.285769	8.19996			0.490814	12.3832	0.739936	18.7295
0.261345	6.39972	0.0682745	1.83334	0.370198	9.0502	0.481925	11.8765	0.621504	15.3359	0.290574	8.14803			0.493875	12.1743	0.741814	18.3444
0.264924	6.34266	0.07039	1.84401	0.374608	8.95406	0.486215	11.7133	0.624221	15.0568	0.296098	8.09153			0.496983	11.9758	0.743729	17.9776
0.26834	6.28427	0.0725048	1.85416	0.379146	8.8651	0.490597	11.5594	0.626986	14.7911	0.30163	8.03805			0.500136	11.7872	0.745681	17.6278
0.271598	6.22475	0.0746188	1.86381	0.383201	8.79299	0.495067	11.4142	0.629797	14.5379	0.307167	7.98727			0.503334	11.6077	0.747671	17.2939
0.274704	6.1643	0.0767319	1.873	0.386729	8.73522	0.499623	11.277	0.632654	14.2964	0.312705	7.93894			0.506577	11.4367	0.749698	16.975
0.277664	6.10314	0.0788441	1.88176	0.389694	8.68985	0.504264	11.1473	0.635557	14.0658	0.318242	7.89283			0.509863	11.2738	0.751761	16.67
0.280486	6.04144	0.0809553	1.89012	0.392067	8.65543	0.508986	11.0246	0.638505	13.8456	0.323776	7.84871			0.513192	11.1183	0.753862	16.3782
0.283178	5.97942	0.0830657	1.89811	0.393828	8.63091	0.513787	10.9085	0.641497	13.635	0.329303	7.80639			0.516564	10.97	0.755999	16.0988
0.285747	5.91725	0.085175	1.90573	0.394962	8.61555	0.518665	10.7984	0.644534	13.4335	0.334822	7.7657			0.519978	10.8282	0.758173	15.831
0.2882	5.85509	0.0872834	1.91303	0.396602	8.59392	0.523618	10.6941	0.647614	13.2406	0.340329	7.72646			0.523434	10.6927	0.760383	15.5742
0.290547	5.79311	0.0893908	1.92001	0.398396	8.571	0.528642	10.5951	0.650738	13.0558	0.345822	7.68854			0.526932	10.5631	0.76263	15.3277
0.292794	5.73144	0.0914973	1.9267	0.400855	8.54076	0.533737	10.5011	0.653904	12.8786	0.351299	7.6518			0.530471	10.4391	0.764913	15.091
0.294949	5.67021	0.0936029	1.93311	0.403997	8.50399	0.538899	10.4118	0.657113	12.7086	0.356756	7.61612			0.534052	10.3203	0.767233	14.8635
0.297018	5.60953	0.0957076	1.93926	0.40784	8.4616	0.544126	10.3269	0.660364	12.5454	0.362192	7.58137			0.537673	10.2066	0.769589	14.6448
0.299009	5.54948	0.0978114	1.94517	0.412405	8.41458	0.549416	10.2462	0.663657	12.3887	0.367604	7.54746			0.541337	10.0975	0.771982	14.4345
0.300928	5.49016	0.0999144	1.95085	0.417713	8.36389	0.554767	10.1693	0.666992	12.2381	0.372989	7.51429			0.545041	9.99296	0.774411	14.2319
0.30278	5.43162	0.102017	1.9563	0.423089	8.31638	0.560176	10.096	0.670368	12.0933	0.378346	7.48177			0.548788	9.89266	0.776876	14.0369
0.304572	5.37394	0.104118	1.96155	0.428524	8.27174	0.565641	10.0261	0.673786	11.954	0.383671	7.44981			0.552576	9.79642	0.779378	13.849
0.306307	5.31715	0.106219	1.96661	0.434013	8.22968	0.571161	9.95949	0.677246	11.82	0.388962	7.41834			0.556406	9.70403	0.781916	13.6678
0.307991	5.26129	0.108318	1.97148	0.439548	8.18995	0.576732	9.89586	0.680747	11.691	0.394216	7.38728			0.560278	9.61533	0.78449	13.493
0.309628	5.20639	0.110417	1.97617	0.445123	8.1523	0.582352	9.83507	0.684289	11.5668	0.399431	7.35658			0.564193	9.53013	0.787101	13.3244
0.311223	5.15248	0.112516	1.9807	0.450732	8.11653	0.58802	9.77695	0.687874	11.4471	0.404605	7.32616			0.568151	9.44828	0.789748	13.1616
0.312778	5.09957	0.114614	1.98507	0.45637	8.08245	0.593732	9.72133	0.6915	11.3317	0.409736	7.29597			0.572152	9.36964	0.792432	13.0044
0.314297	5.04766	0.116711	1.98929	0.462031	8.04988	0.599488	9.66808	0.695168	11.2205	0.41482	7.26596			0.576196	9.29406	0.795151	12.8526
0.315783	4.99676	0.118807	1.99337	0.467711	8.01867	0.605283	9.61704	0.69888	11.1133	0.419856	7.23607			0.580283	9.22141	0.797907	12.7058
0.31724	4.94688	0.120903	1.99731	0.473404	7.98868	0.611116	9.56809	0.702634	11.0099	0.424841	7.20627			0.583881	9.16039	0.800699	12.5638
0.31867	4.89802	0.122998	2.00113	0.479108	7.95979	0.616985	9.52108	0.706432	10.9101	0.429772	7.17651			0.586974	9.11	0.803527	12.4265
0.320074	4.85015	0.125093	2.00482	0.484818	7.93187	0.622887	9.47592	0.710275	10.8139	0.434649	7.14676			0.58955	9.06942	0.806391	12.2937
0.321457	4.80329	0.127187	2.00839	0.49053	7.90483	0.628819	9.43247	0.714163	10.721	0.439468	7.11697			0.591599	9.03802	0.809291	12.1651
0.322819	4.7574	0.129281	2.01185	0.496242	7.87858	0.634779	9.39063	0.718098	10.6314	0.444228	7.08712			0.593112	9.0153	0.812227	12.0406
0.324162	4.7125	0.131374	2.01521	0.50195	7.85304	0.640764	9.35029	0.72208	10.5449	0.448927	7.05719			0.594083	9.00093	0.815199	11.92
0.325489	4.66855	0.133467	2.01846	0.50765	7.82812	0.646771	9.31136	0.726111	10.4614	0.453563	7.02714			0.595483	8.98049	0.818206	11.8032
0.3268	4.62555	0.135559	2.02162	0.513342	7.80377	0.652798	9.27374	0.730191	10.3809	0.458134	6.99696			0.59701	8.95857	0.821248	11.69
0.328098	4.58348	0.137651	2.02468	0.519021	7.77992	0.658064	9.24194	0.734324	10.3031	0.462639	6.96663			0.599097	8.92924	0.824325	11.5802
0.329384	4.54232	0.139743	2.02766	0.524687	7.75651	0.662561	9.21552	0.738509	10.2281	0.467076	6.93613			0.60175	8.89292	0.827438	11.4737
0.330659	4.50205	0.141834	2.03055	0.530335	7.7335	0.666284	9.19412	0.74275	10.1558	0.471445	6.90546			0.60498	8.85015	0.830585	11.3705
0.331923	4.46266	0.143924	2.03336	0.535965	7.71084	0.66923	9.17747	0.747048	10.0861	0.475743	6.87461			0.608801	8.80149	0.833766	11.2703
0.33318	4.42413	0.146015	2.03609	0.541575	7.68849	0.671398	9.16537	0.751405	10.0189	0.479971	6.84356			0.613225	8.74763	0.836982	11.173
0.334428	4.38644	0.148104	2.03874	0.547162	7.66641	0.672786	9.15769	0.755824	9.95417	0.484127	6.81233			0.617692	8.69578	0.840231	11.0786
0.33567	4.34958	0.150194	2.04133	0.552726	7.64456	0.674782	9.14674	0.760307	9.89183	0.488211	6.7809			0.622201	8.64586	0.843514	10.9869
0.336905	4.31351	0.152283	2.04384	0.558263	7.62292	0.676951	9.13495	0.764857	9.83185	0.492223	6.74928			0.626752	8.59778	0.84683	10.8979
0.337978	4.28273	0.154372	2.04629	0.563773	7.60146	0.679902	9.11909	0.769477	9.77418	0.496162	6.71748			0.631343	8.55147	0.850179	10.8114
0.33889	4.25695	0.156461	2.04867	0.569255	7.58014	0.683635	9.09931	0.774169	9.71876	0.500029	6.6855			0.635974	8.50684	0.853561	10.7273
0.339642	4.23594	0.158549	2.05099	0.574706	7.55895	0.688149	9.07578	0.778936	9.66556	0.503824	6.65335			0.640644	8.46383	0.856975	10.6455
0.340236	4.21953	0.160637	2.05326	0.580126	7.53787	0.693442	9.04869	0.783782	9.61453	0.507546	6.62104			0.645351	8.42234	0.86042	10.566
0.340672	4.20758	0.162725	2.05547	0.585513	7.51686	0.699509	9.01822	0.788709	9.56564	0.511196	6.58859			0.650094	8.38232	0.863897	10.4887
0.340951	4.19998	0.164812	2.05762	0.590866	7.49592	0.705565	8.98833	0.79307	9.52475	0.514776	6.556			0.654872	8.34369	0.867405	10.4135
0.341352	4.18912	0.166899	2.05972	0.596184	7.47503	0.711607	8.95897	0.79684	9.49113	0.518286	6.52329			0.659683	8.30639	0.870944	10.3403
0.341787	4.1774	0.168986	2.06177	0.601465	7.45417	0.717631	8.93005	0.799994	9.46418	0.521726	6.49047			0.664527	8.27035	0.874512	10.2691
0.342379	4.16161	0.171073	2.06377	0.606709	7.43333	0.723631	8.90152	0.802511	9.4434	0.525098	6.45757			0.6694	8.23551	0.878111	10.1998
0.343126	4.14188	0.173159	2.06572	0.611914	7.41249	0.729606	8.87332	0.804375	9.42842	0.528402	6.4246			0.674302	8.2018	0.881739	10.1323
0.344029	4.11837	0.175246	2.06763	0.61708	7.39164	0.73555	8.84539	0.805575	9.41897	0.531641	6.39157			0.67923	8.16917	0.885395	10.0665
0.345087	4.09127	0.177332	2.06949	0.622205	7.37078	0.741461	8.81768	0.807307	9.40556	0.534814	6.35851			0.684183	8.13755	0.889081	10.0025
0.3463	4.0608	0.179418	2.07131	0.627289	7.34988	0.747336	8.79014	0.809201	9.39122	0.537925	6.32542			0.68916	8.10691	0.892794	9.94004
0.347512	4.03098	0.181503	2.07309	0.632331	7.32894	0.75317	8.76274	0.811796	9.37211	0.540973	6.29233			0.694158	8.07717	0.896535	9.87921
0.348725	4.00179	0.183589	2.07483	0.637329	7.30796	0.758963	8.73544	0.815109	9.34859	0.543961	6.25925			0.699175	8.0483	0.900304	9.81992
0.349937	3.97323	0.185674	2.07653	0.642283	7.28692	0.764711	8.70822	0.819162	9.32108	0.54689	6.2262			0.70421	8.02024	0.90361	9.76946
0.351151	3.94527	0.187759	2.07819	0.647193	7.26582	0.770414	8.68106	0.823982	9.2901	0.549761	6.19319			0.70926	7.99295	0.906444	9.72731
0.352365	3.9179	0.189844	2.07982	0.652057	7.24465	0.776071	8.65395	0.829599	9.2562	0.552576	6.16025			0.714325	7.96638	0.908798	9.69305
0.35358	3.8911	0.191928	2.08141	0.656875	7.2234	0.781682	8.62689	0.835309	9.22402	0.555336	6.12738			0.719401	7.94048	0.910667	9.66632
0.354797	3.86486	0.194013	2.08297	0.661646	7.20208	0.787247	8.59988	0.841109	9.19348	0.558043	6.0946			0.724487	7.91523	0.912045	9.64688
0.356015	3.83917	0.196097	2.0845	0.66637	7.18068	0.792766	8.57292	0.846998	9.16453	0.560699	6.06192			0.729582	7.89057	0.912928	9.63452
0.357236	3.81402	0.198181	2.086	0.671046	7.1592	0.798243	8.54604	0.852974	9.13707	0.563305	6.02936			0.734683	7.86648	0.914201	9.61688
0.358459	3.78938	0.200266	2.08746	0.675674	7.13762	0.803677	8.51924	0.859033	9.11105	0.565862	5.99693			0.739789	7.84291	0.915587	9.59787
0.359684	3.76525	0.202349	2.0889	0.680254	7.11596	0.809072	8.49256	0.865173	9.08638	0.568372	5.96464			0.744898	7.81983	0.917478	9.57228
0.360912	3.74161	0.204433	2.0903	0.684784	7.09421	0.814431	8.46601	0.87139	9.06299	0.570837	5.9325			0.750009	7.79721	0.919878	9.54035
0.362143	3.71845	0.206517	2.09168	0.689265	7.07236	0.819755	8.43961	0.877681	9.04081	0.573258	5.90052			0.755118	7.77503	0.922792	9.50236
0.363377	3.69577	0.2086	2.09303	0.693696	7.05043	0.825047	8.4134	0.884041	9.01976	0.575636	5.86871			0.760226	7.75324	0.926228	9.45867
0.364614	3.67354	0.210684	2.09436	0.698077	7.02841	0.83031	8.38738	0.890466	8.99977	0.577972	5.83709			0.76533	7.73183	0.930194	9.40964
0.365855	3.65176	0.212767	2.09566	0.702409	7.00629	0.835548	8.36159	0.896954	8.98077	0.580269	5.80566			0.770429	7.71076	0.934185	9.36178
0.367099	3.63042	0.21485	2.09693	0.70669	6.98409	0.840762	8.33605	0.903499	8.9627	0.582527	5.77442			0.775521	7.69002	0.938199	9.31503
0.368347	3.6095	0.216933	2.09818	0.710921	6.96181	0.845955	8.31077	0.910099	8.94549	0.584748	5.74339			0.780605	7.66957	0.942237	9.26937
0.369598	3.589	0.219016	2.09941	0.715103	6.93944	0.85113	8.28577	0.91675	8.92909	0.586933	5.71258			0.785679	7.64941	0.946298	9.22477
0.370853	3.5689	0.221099	2.10061	0.719234	6.91699	0.856289	8.26106	0.923448	8.91344	0.589083	5.68198			0.790742	7.62949	0.950382	9.1812
0.372113	3.54919	0.223181	2.10179	0.723315	6.89446	0.861433	8.23665	0.93019	8.89849	0.591199	5.6516			0.795793	7.60981	0.954488	9.13862
0.373376	3.52987	0.225264	2.10296	0.727347	6.87187	0.866565	8.21255	0.936973	8.8842	0.593283	5.62145			0.800829	7.59035	0.958618	9.097
0.374643	3.51093	0.227346	2.10409	0.731329	6.8492	0.871685	8.18878	0.943794	8.87051	0.595335	5.59154			0.80585	7.57108	0.962769	9.05633
0.375915	3.49235	0.229428	2.10521	0.735261	6.82646	0.876796	8.16533	0.95065	8.85738	0.597358	5.56186			0.810855	7.552	0.966942	9.01656
0.377191	3.47414	0.231511	2.10631	0.739145	6.80367	0.881899	8.1422	0.957538	8.84478	0.599351	5.53243			0.815842	7.53308	0.971138	8.97769
0.378471	3.45627	0.233593	2.10739	0.74298	6.78082	0.886995	8.1194	0.964457	8.83267	0.601316	5.50324			0.82081	7.51431	0.975354	8.93967
0.379756	3.43874	0.235675	2.10845	0.746767	6.75791	0.892084	8.09693	0.971403	8.82102	0.603254	5.47429			0.825758	7.49567	0.979592	8.90249
0.381045	3.42155	0.237757	2.1095	0.750506	6.73496	0.897167	8.07479	0.978374	8.80979	0.605165	5.4456			0.830685	7.47716	0.983851	8.86612
0.382338	3.40468	0.239839	2.11052	0.754197	6.71197	0.902246	8.05297	0.985368	8.79895	0.607052	5.41716			0.83559	7.45875	0.988131	8.83055
0.383636	3.38813	0.24192	2.11153	0.757842	6.68894	0.907319	8.03146	0.992383	8.78848	0.608914	5.38897			0.840471	7.44045	0.992431	8.79574
0.384939	3.37189	0.244002	2.11252	0.76144	6.66588	0.912388	8.01027	0.999417	8.77834	0.610753	5.36104			0.845329	7.42223	0.996752	8.76169
0.386246	3.35595	0.246084	2.11349	0.764992	6.6428	0.917453	7.98938	1.00647	8.76852	0.612569	5.33337			0.85016	7.40408	1.00109	8.72836
0.387558	3.34031	0.248165	2.11445	0.768499	6.61969	0.922513	7.96879			0.614364	5.30595			0.854966	7.38601		
0.388875	3.32495	0.250246	2.11539	0.77196	6.59657	0.927569	7.9485			0.616137	5.27879			0.859745	7.36799		
0.390196	3.30988	0.252328	2.11632	0.775378	6.57344	0.93262	7.92848			0.617891	5.25189			0.864496	7.35001		
0.391522	3.29509	0.254409	2.11723	0.778752	6.5503	0.937667	7.90875			0.619624	5.22525			0.869218	7.33208		
0.392852	3.28056	0.25649	2.11812	0.782082	6.52717	0.942709	7.88927			0.62134	5.19887			0.873911	7.31419		
0.394188	3.2663	0.258571	2.11901	0.785371	6.50404	0.947745	7.87006			0.623037	5.17274			0.878574	7.29632		
0.395528	3.2523	0.260652	2.11987	0.788617	6.48092	0.952776	7.85109			0.624717	5.14688			0.883206	7.27847		
0.396873	3.23855	0.262733	2.12073	0.791823	6.45781	0.957801	7.83236			0.62638	5.12127			0.887807	7.26064		
0.398222	3.22504	0.264814	2.12157	0.794987	6.43473	0.962819	7.81387			0.628027	5.09592			0.892376	7.24282		
0.399577	3.21178	0.266895	2.1224	0.798112	6.41167	0.96783	7.79559			0.629659	5.07082			0.896913	7.225		
0.400936	3.19875	0.268976	2.12321	0.801198	6.38864	0.972833	7.77752			0.631276	5.04598			0.901417	7.20719		
0.4023	3.18595	0.271057	2.12402	0.804245	6.36565	0.977828	7.75966			0.632878	5.02139			0.905887	7.18938		
0.403669	3.17337	0.273137	2.12481	0.807254	6.34269	0.982814	7.74198			0.634467	4.99706			0.910323	7.17156		
0.405042	3.16101	0.275218	2.12559	0.810226	6.31978	0.987791	7.72449			0.636043	4.97298			0.914726	7.15373		
0.40642	3.14887	0.277298	2.12636	0.813161	6.29691	0.992757	7.70718			0.637606	4.94915			0.919094	7.1359		
0.407803	3.13694	0.279379	2.12711	0.816061	6.2741	0.997713	7.69003			0.639156	4.92556			0.923427	7.11805		
0.409191	3.12522	0.281459	2.12786	0.818925	6.25134	1.00266	7.67303			0.640695	4.90222			0.927725	7.10019		
0.410583	3.1137	0.283539	2.12859	0.821754	6.22864					0.642223	4.87913			0.931988	7.08231		
0.41198	3.10237	0.28562	2.12932	0.824549	6.206					0.64374	4.85628			0.936215	7.06442		
0.413382	3.09124	0.2877	2.13003	0.827311	6.18342					0.645246	4.83367			0.940408	7.04652		
0.414788	3.08029	0.28978	2.13073	0.83004	6.16092					0.646743	4.8113			0.944564	7.02859		
0.416199	3.06953	0.29186	2.13143	0.832737	6.13848					0.64823	4.78917			0.948685	7.01065		
0.417614	3.05895	0.29394	2.13211	0.835402	6.11613					0.649708	4.76727			0.95277	6.9927		
0.419035	3.04855	0.29602	2.13278	0.838037	6.09385					0.651177	4.74561			0.95682	6.97472		
0.420459	3.03832	0.2981	2.13345	0.840641	6.07165					0.652638	4.72418			0.960834	6.95674		
0.421889	3.02826	0.30018	2.1341	0.843215	6.04953					0.65409	4.70298			0.964812	6.93873		
0.423323	3.01837	0.30226	2.13475	0.84576	6.0275					0.655535	4.682			0.968755	6.92072		
0.424761	3.00864	0.30434	2.13539	0.848276	6.00556					0.656973	4.66125			0.972662	6.90269		
0.426204	2.99907	0.30642	2.13602	0.850765	5.98371					0.658403	4.64072			0.976534	6.88464		
0.427651	2.98965	0.3085	2.13664	0.853226	5.96195					0.659827	4.62041			0.980371	6.86659		
0.429103	2.98039	0.310579	2.13725	0.85566	5.94028					0.661244	4.60033			0.984173	6.84853		
0.430559	2.97128	0.312659	2.13786	0.858068	5.91872					0.662655	4.58045			0.987941	6.83046		
0.43202	2.96231	0.314739	2.13845	0.86045	5.89725					0.66406	4.56079			0.991674	6.81239		
0.433485	2.95349	0.316818	2.13904	0.862806	5.87588					0.66546	4.54134			0.995372	6.79431		
0.434954	2.9448	0.318898	2.13962	0.865138	5.85461					0.666854	4.5221			0.999037	6.77623		
0.436428	2.93626	0.320977	2.1402	0.867446	5.83345					0.668243	4.50307			1.00267	6.75815		
0.437906	2.92785	0.323057	2.14076	0.86973	5.81239					0.669627	4.48425						
0.439388	2.91957	0.325136	2.14132	0.87199	5.79143					0.671006	4.46562						
0.440875	2.91143	0.327215	2.14187	0.874228	5.77059					0.672381	4.4472						
0.442365	2.90341	0.329295	2.14242	0.876443	5.74985					0.673752	4.42897						
0.44386	2.89551	0.331374	2.14296	0.878637	5.72922					0.675119	4.41094						
0.445359	2.88774	0.333453	2.14349	0.880809	5.7087					0.676482	4.3931						
0.446863	2.88009	0.335533	2.14401	0.88296	5.6883					0.677841	4.37546						
0.44837	2.87255	0.337612	2.14453	0.885091	5.66801					0.679197	4.358						
0.449881	2.86513	0.339691	2.14504	0.887202	5.64782					0.68055	4.34073						
0.451397	2.85783	0.34177	2.14555	0.889293	5.62776					0.6819	4.32365						
0.452916	2.85063	0.343849	2.14605	0.891365	5.60781					0.683247	4.30675						
0.454439	2.84355	0.345928	2.14654	0.893418	5.58797					0.684591	4.29002						
0.455967	2.83657	0.348007	2.14703	0.895453	5.56825					0.685933	4.27348						
0.457498	2.82969	0.350086	2.14751	0.89747	5.54864					0.687272	4.25712						
0.459033	2.82292	0.352165	2.14799	0.899469	5.52915					0.688609	4.24092						
0.460572	2.81625	0.354244	2.14846	0.901451	5.50978					0.689944	4.2249						
0.462115	2.80967	0.356323	2.14893	0.903417	5.49053					0.691277	4.20905						
0.463662	2.8032	0.358402	2.14939	0.905366	5.47139					0.692609	4.19337						
0.465212	2.79682	0.360481	2.14984	0.907298	5.45237					0.693939	4.17786						
0.466766	2.79053	0.36256	2.15029	0.909216	5.43347					0.695267	4.1625						
0.468324	2.78434	0.364638	2.15073	0.911117	5.41469					0.696594	4.14731						
0.469886	2.77823	0.366717	2.15117	0.913004	5.39602					0.697919	4.13228						
0.471451	2.77222	0.368796	2.15161	0.914876	5.37748					0.699244	4.11741						
0.47302	2.76629	0.370874	2.15204	0.916734	5.35905					0.700567	4.1027						
0.474593	2.76044	0.372953	2.15246	0.918577	5.34074					0.701889	4.08813						
0.476169	2.75468	0.375032	2.15288	0.920407	5.32255					0.703211	4.07373						
0.477748	2.749	0.37711	2.1533	0.922224	5.30447					0.704532	4.05947						
0.479332	2.7434	0.379189	2.15371	0.924028	5.28651					0.705852	4.04536						
0.480918	2.73789	0.381268	2.15412	0.925818	5.26868					0.707172	4.0314						
0.482508	2.73244	0.383346	2.15452	0.927597	5.25095					0.708491	4.01758						
0.484102	2.72708	0.385425	2.15492	0.929363	5.23335					0.70981	4.0039						
0.485699	2.72179	0.387503	2.15531	0.931117	5.21586					0.711129	3.99037						
0.487299	2.71658	0.389582	2.1557	0.932859	5.19849					0.712447	3.97698						
0.488903	2.71143	0.39166	2.15609	0.93459	5.18124					0.713766	3.96372						
0.49051	2.70636	0.393738	2.15647	0.93631	5.1641					0.715084	3.9506						
0.49212	2.70136	0.395817	2.15684	0.93802	5.14708					0.716403	3.93762						
0.493734	2.69643	0.397895	2.15722	0.939718	5.13017					0.717721	3.92477						
0.49535	2.69156	0.399973	2.15759	0.941406	5.11338					0.71904	3.91205						
0.496971	2.68676	0.402052	2.15795	0.943085	5.0967					0.720359	3.89946						
0.498594	2.68203	0.40413	2.15831	0.944753	5.08014					0.721679	3.887						
0.50022	2.67736	0.406208	2.15867	0.946412	5.06369					0.722999	3.87466						
0.50185	2.67275	0.408287	2.15903	0.948061	5.04735					0.724319	3.86245						
0.503482	2.66821	0.410365	2.15938	0.949701	5.03113					0.72564	3.85037						
0.505118	2.66372	0.412443	2.15972	0.951332	5.01502					0.726961	3.8384						
0.506757	2.6593	0.414521	2.16007	0.952955	4.99902					0.728284	3.82656						
0.508398	2.65493	0.416599	2.16041	0.954569	4.98313					0.729606	3.81484						
0.510043	2.65063	0.418678	2.16075	0.956175	4.96735					0.73093	3.80323						
0.511691	2.64638	0.420756	2.16108	0.957772	4.95169					0.732254	3.79174						
0.513342	2.64218	0.422834	2.16141	0.959362	4.93613					0.73358	3.78036						
0.514995	2.63804	0.424912	2.16174	0.960944	4.92068					0.734906	3.7691						
0.516652	2.63396	0.42699	2.16206	0.962519	4.90534					0.736233	3.75795						
0.518311	2.62993	0.429068	2.16238	0.964086	4.89011					0.737561	3.74691						
0.519974	2.62595	0.431146	2.1627	0.965646	4.87498					0.73889	3.73598						
0.521639	2.62202	0.433224	2.16301	0.967199	4.85996					0.74022	3.72516						
0.523307	2.61814	0.435302	2.16333	0.968746	4.84505					0.741552	3.71444						
0.524977	2.61431	0.43738	2.16363	0.970285	4.83025					0.742884	3.70383						
0.526651	2.61053	0.439458	2.16394	0.971819	4.81554					0.744218	3.69332						
0.528327	2.6068	0.441536	2.16424	0.973346	4.80095					0.745553	3.68292						
0.530006	2.60312	0.443614	2.16454	0.974867	4.78645					0.746889	3.67262						
0.531687	2.59948	0.445692	2.16484	0.976382	4.77206					0.748227	3.66241						
0.533372	2.59589	0.44777	2.16513	0.977891	4.75777					0.749565	3.65231						
0.535058	2.59235	0.449847	2.16543	0.979395	4.74359					0.750906	3.64231						
0.536748	2.58885	0.451925	2.16572	0.980893	4.7295					0.752247	3.6324						
0.53844	2.58539	0.454003	2.166	0.982386	4.71551					0.75359	3.62259						
0.540135	2.58198	0.456081	2.16629	0.983873	4.70163					0.754935	3.61287						
0.541832	2.57861	0.458159	2.16657	0.985356	4.68784					0.756281	3.60324						
0.543532	2.57528	0.460236	2.16685	0.986834	4.67415					0.757628	3.59371						
0.545234	2.57199	0.462314	2.16712	0.988307	4.66056					0.758977	3.58427						
0.546939	2.56874	0.464392	2.1674	0.989775	4.64707					0.760328	3.57492						
0.548646	2.56553	0.46647	2.16767	0.991238	4.63367					0.76168	3.56566						
0.550355	2.56236	0.468547	2.16794	0.992698	4.62037					0.763034	3.55648						
0.552068	2.55923	0.470625	2.1682	0.994153	4.60716					0.764389	3.54739						
0.553782	2.55614	0.472703	2.16847	0.995604	4.59405					0.765746	3.53839						
0.555499	2.55309	0.47478	2.16873	0.99705	4.58103					0.767105	3.52948						
0.557218	2.55007	0.476858	2.16899	0.998493	4.56811					0.768465	3.52064						
0.55894	2.54709	0.478936	2.16924	0.999932	4.55527					0.769828	3.51189						
0.560664	2.54414	0.481013	2.1695	1.00137	4.54253					0.771191	3.50323						
0.56239	2.54123	0.483091	2.16975							0.772557	3.49464						
0.564118	2.53835	0.485168	2.17							0.773924	3.48613						
0.565849	2.53551	0.487246	2.17025							0.775293	3.4777						
0.567582	2.5327	0.489324	2.1705							0.776664	3.46935						
0.569317	2.52993	0.491401	2.17074							0.778037	3.46108						
0.571054	2.52718	0.493479	2.17098							0.779411	3.45288						
0.572794	2.52447	0.495556	2.17122							0.780788	3.44476						
0.574536	2.5218	0.497634	2.17146							0.782166	3.43672						
0.57628	2.51915	0.499711	2.1717							0.783546	3.42874						
0.578026	2.51653	0.501788	2.17193							0.784928	3.42084						
0.579774	2.51394	0.503866	2.17217							0.786312	3.41302						
0.581524	2.51139	0.505943	2.1724							0.787697	3.40526						
0.583276	2.50886	0.508021	2.17262							0.789085	3.39757						
0.585031	2.50636	0.510098	2.17285							0.790475	3.38996						
0.586787	2.50389	0.512176	2.17308							0.791866	3.38241						
0.588545	2.50145	0.514253	2.1733							0.793259	3.37493						
0.590306	2.49904	0.51633	2.17352							0.794655	3.36752						
0.592068	2.49665	0.518408	2.17374							0.796052	3.36017						
0.593833	2.49429	0.520485	2.17396							0.797451	3.35289						
0.595599	2.49196	0.522562	2.17417							0.798852	3.34568						
0.597367	2.48965	0.52464	2.17439							0.800255	3.33853						
0.599137	2.48737	0.526717	2.1746							0.80166	3.33144						
0.60091	2.48512	0.528794	2.17481							0.803067	3.32441						
0.602684	2.48289	0.530872	2.17502							0.804476	3.31745						
0.60446	2.48068	0.532949	2.17523							0.805887	3.31055						
0.606237	2.4785	0.535026	2.17543							0.8073	3.30371						
0.608017	2.47634	0.537103	2.17564							0.808715	3.29693						
0.609798	2.47421	0.53918	2.17584							0.810132	3.29021						
0.611581	2.4721	0.541258	2.17604							0.811551	3.28355						
0.613367	2.47001	0.543335	2.17624							0.812972	3.27694						
0.615153	2.46795	0.545412	2.17644							0.814395	3.2704						
0.616942	2.46591	0.547489	2.17663							0.81582	3.26391						
0.618732	2.46389	0.549566	2.17683							0.817247	3.25748						
0.620524	2.46189	0.551644	2.17702							0.818676	3.2511						
0.622318	2.45991	0.553721	2.17721							0.820107	3.24478						
0.624114	2.45796	0.555798	2.1774							0.82154	3.23851						
0.625911	2.45602	0.557875	2.17759							0.822975	3.23229						
0.62771	2.45411	0.559952	2.17778							0.824412	3.22613						
0.62951	2.45222	0.562029	2.17797							0.825851	3.22002						
0.631312	2.45034	0.564106	2.17815							0.827292	3.21397						
0.633116	2.44849	0.566183	2.17833							0.828735	3.20796						
0.634922	2.44666	0.56826	2.17852							0.83018	3.20201						
0.636729	2.44484	0.570337	2.1787							0.831627	3.1961						
0.638538	2.44305	0.572414	2.17888							0.833077	3.19025						
0.640348	2.44127	0.574491	2.17906							0.834528	3.18444						
0.64216	2.43952	0.576568	2.17923							0.835981	3.17869						
0.643973	2.43778	0.578645	2.17941							0.837436	3.17298						
0.645788	2.43606	0.580722	2.17958							0.838893	3.16732						
0.647605	2.43435	0.582799	2.17975							0.840353	3.16171						
0.649423	2.43267	0.584876	2.17993							0.841814	3.15614						
0.651242	2.431	0.586953	2.1801							0.843277	3.15063						
0.653063	2.42935	0.58903	2.18027							0.844743	3.14515						
0.654886	2.42771	0.591107	2.18043							0.84621	3.13972						
0.65671	2.42609	0.593184	2.1806							0.847679	3.13434						
0.658535	2.42449	0.595261	2.18077							0.849151	3.129						
0.660362	2.42291	0.597338	2.18093							0.850624	3.12371						
0.662191	2.42134	0.599415	2.1811							0.852099	3.11845						
0.66402	2.41979	0.601492	2.18126							0.853577	3.11325						
0.665852	2.41825	0.603569	2.18142							0.855056	3.10808						
0.667684	2.41673	0.605645	2.18158							0.856537	3.10295						
0.669518	2.41522	0.607722	2.18174							0.858021	3.09787						
0.671354	2.41373	0.609799	2.1819							0.859506	3.09283						
0.67319	2.41225	0.611876	2.18205							0.860993	3.08783						
0.675028	2.41079	0.613953	2.18221							0.862482	3.08287						
0.676868	2.40934	0.61603	2.18236							0.863974	3.07795						
0.678709	2.40791	0.618106	2.18252							0.865467	3.07307						
0.680551	2.40649	0.620183	2.18267							0.866962	3.06823						
0.682394	2.40509	0.62226	2.18282							0.868459	3.06343						
0.684239	2.40369	0.624337	2.18297							0.869958	3.05866						
0.686085	2.40232	0.626413	2.18312							0.871459	3.05394						
0.687933	2.40095	0.62849	2.18327							0.872962	3.04925						
0.689781	2.3996	0.630567	2.18342							0.874467	3.0446						
0.691631	2.39826	0.632644	2.18356							0.875974	3.03998						
0.693482	2.39694	0.63472	2.18371							0.877483	3.0354						
0.695335	2.39563	0.636797	2.18385							0.878994	3.03086						
0.697188	2.39433	0.638874	2.184							0.880507	3.02635						
0.699043	2.39304	0.64095	2.18414							0.882021	3.02188						
0.700899	2.39177	0.643027	2.18428							0.883538	3.01745						
0.702757	2.3905	0.645104	2.18442							0.885056	3.01305						
0.704615	2.38925	0.64718	2.18456							0.886577	3.00868						
0.706475	2.38802	0.649257	2.1847							0.888099	3.00435						
0.708336	2.38679	0.651334	2.18484							0.889623	3.00005						
0.710198	2.38557	0.65341	2.18498							0.89115	2.99578						
0.712061	2.38437	0.655487	2.18511							0.892678	2.99155						
0.713925	2.38318	0.657564	2.18525							0.894207	2.98735						
0.715791	2.382	0.65964	2.18538							0.895739	2.98318						
0.717658	2.38083	0.661717	2.18552							0.897273	2.97904						
0.719526	2.37967	0.663793	2.18565							0.898809	2.97494						
0.721394	2.37852	0.66587	2.18578							0.900346	2.97087						
0.723264	2.37738	0.667947	2.18591							0.901885	2.96682						
0.725136	2.37626	0.670023	2.18604							0.903426	2.96281						
0.727008	2.37514	0.6721	2.18617							0.904969	2.95883						
0.728881	2.37403	0.674176	2.1863							0.906514	2.95488						
0.730755	2.37294	0.676253	2.18643							0.908061	2.95096						
0.732631	2.37185	0.678329	2.18656							0.909609	2.94707						
0.734508	2.37078	0.680406	2.18668							0.91116	2.94321						
0.736385	2.36971	0.682482	2.18681							0.912712	2.93938						
0.738264	2.36865	0.684559	2.18693							0.914266	2.93557						
0.740143	2.36761	0.686635	2.18706							0.915822	2.9318						
0.742024	2.36657	0.688712	2.18718							0.917379	2.92805						
0.743906	2.36554	0.690788	2.1873							0.918939	2.92433						
0.745789	2.36452	0.692865	2.18742							0.9205	2.92064						
0.747672	2.36352	0.694941	2.18755							0.922063	2.91698						
0.749557	2.36252	0.697017	2.18767							0.923628	2.91334						
0.751443	2.36152	0.699094	2.18779							0.925195	2.90973						
0.753329	2.36054	0.70117	2.1879							0.926763	2.90615						
0.755217	2.35957	0.703247	2.18802							0.928333	2.90259						
0.757106	2.3586	0.705323	2.18814							0.929905	2.89906						
0.758995	2.35765	0.7074	2.18826							0.931479	2.89556						
0.760886	2.3567	0.709476	2.18837							0.933054	2.89208						
0.762778	2.35576	0.711552	2.18849							0.934631	2.88863						
0.76467	2.35483	0.713629	2.1886							0.93621	2.8852						
0.766564	2.35391	0.715705	2.18872							0.937791	2.88179						
0.768458	2.35299	0.717781	2.18883							0.939373	2.87842						
0.770353	2.35208	0.719858	2.18894							0.940957	2.87506						
0.772249	2.35119	0.721934	2.18905							0.942543	2.87173						
0.774146	2.35029	0.72401	2.18916							0.94413	2.86843						
0.776044	2.34941	0.726087	2.18928							0.94572	2.86514						
0.777943	2.34854	0.728163	2.18939							0.94731	2.86189						
0.779843	2.34767	0.730239	2.18949							0.948903	2.85865						
0.781744	2.34681	0.732316	2.1896							0.950497	2.85544						
0.783645	2.34595	0.734392	2.18971							0.952093	2.85225						
0.785548	2.34511	0.736468	2.18982							0.953691	2.84908						
0.787451	2.34427	0.738544	2.18993							0.95529	2.84594						
0.789355	2.34344	0.740621	2.19003							0.956891	2.84282						
0.79126	2.34261	0.742697	2.19014							0.958494	2.83972						
0.793166	2.3418	0.744773	2.19024							0.960098	2.83664						
0.795073	2.34099	0.746849	2.19035							0.961704	2.83359						
0.79698	2.34018	0.748926	2.19045							0.963312	2.83055						
0.798889	2.33939	0.751002	2.19055							0.964921	2.82754						
0.800798	2.3386	0.753078	2.19066							0.966532	2.82455						
0.802708	2.33781	0.755154	2.19076							0.968144	2.82158						
0.804619	2.33704	0.75723	2.19086							0.969758	2.81863						
0.80653	2.33627	0.759307	2.19096							0.971374	2.8157						
0.808443	2.3355	0.761383	2.19106							0.972991	2.81279						
0.810356	2.33475	0.763459	2.19116							0.97461	2.8099						
0.81227	2.334	0.765535	2.19126							0.97623	2.80704						
0.814184	2.33325	0.767611	2.19136							0.977853	2.80419						
0.8161	2.33251	0.769687	2.19146							0.979476	2.80136						
0.818016	2.33178	0.771764	2.19155							0.981101	2.79855						
0.819933	2.33105	0.77384	2.19165							0.982728	2.79576						
0.821851	2.33033	0.775916	2.19175							0.984356	2.79299						
0.82377	2.32962	0.777992	2.19184							0.985986	2.79024						
0.825689	2.32891	0.780068	2.19194							0.987618	2.78751						
0.827609	2.32821	0.782144	2.19203							0.989251	2.78479						
0.82953	2.32751	0.78422	2.19213							0.990885	2.7821						
0.831452	2.32682	0.786296	2.19222							0.992521	2.77942						
0.833374	2.32614	0.788372	2.19232							0.994159	2.77676						
0.835297	2.32546	0.790449	2.19241							0.995798	2.77412						
0.837221	2.32478	0.792525	2.1925							0.997439	2.7715						
0.839145	2.32411	0.794601	2.19259							0.999081	2.76889						
0.84107	2.32345	0.796677	2.19269							1.00072	2.7663						
0.842996	2.32279	0.798753	2.19278														
0.844923	2.32214	0.800829	2.19287														
0.84685	2.32149	0.802905	2.19296														
0.848778	2.32085	0.804981	2.19305														
0.850707	2.32021	0.807057	2.19314														
0.852636	2.31958	0.809133	2.19322														
0.854566	2.31895	0.811209	2.19331														
0.856497	2.31833	0.813285	2.1934														
0.858428	2.31771	0.815361	2.19349														
0.86036	2.3171	0.817437	2.19357														
0.862293	2.31649	0.819513	2.19366														
0.864226	2.31589	0.821589	2.19375														
0.86616	2.31529	0.823665	2.19383														
0.868095	2.3147	0.825741	2.19392														
0.87003	2.31411	0.827816	2.194														
0.871966	2.31352	0.829892	2.19408														
0.873902	2.31295	0.831968	2.19417														
0.875839	2.31237	0.834044	2.19425														
0.877777	2.3118	0.83612	2.19433														
0.879716	2.31123	0.838196	2.19442														
0.881655	2.31067	0.840272	2.1945														
0.883594	2.31011	0.842348	2.19458														
0.885535	2.30956	0.844424	2.19466														
0.887475	2.30901	0.846499	2.19474														
0.889417	2.30847	0.848575	2.19482														
0.891359	2.30793	0.850651	2.1949														
0.893302	2.30739	0.852727	2.19498														
0.895245	2.30686	0.854803	2.19506														
0.897189	2.30633	0.856879	2.19514														
0.899133	2.30581	0.858954	2.19522														
0.901078	2.30529	0.86103	2.19529														
0.903024	2.30477	0.863106	2.19537														
0.90497	2.30426	0.865182	2.19545														
0.906916	2.30375	0.867258	2.19553														
0.908864	2.30324	0.869333	2.1956														
0.910811	2.30274	0.871409	2.19568														
0.91276	2.30225	0.873485	2.19575														
0.914709	2.30175	0.875561	2.19583														
0.916658	2.30126	0.877637	2.1959														
0.918608	2.30078	0.879712	2.19598														
0.920559	2.3003	0.881788	2.19605														
0.92251	2.29982	0.883864	2.19613														
0.924462	2.29934	0.885939	2.1962														
0.926414	2.29887	0.888015	2.19627														
0.928366	2.2984	0.890091	2.19634														
0.93032	2.29794	0.892167	2.19642														
0.932273	2.29747	0.894242	2.19649														
0.934228	2.29702	0.896318	2.19656														
0.936182	2.29656	0.898394	2.19663														
0.938138	2.29611	0.900469	2.1967														
0.940094	2.29566	0.902545	2.19677														
0.94205	2.29522	0.904621	2.19684														
0.944007	2.29478	0.906696	2.19691														
0.945964	2.29434	0.908772	2.19698														
0.947922	2.2939	0.910848	2.19705														
0.94988	2.29347	0.912923	2.19712														
0.951839	2.29304	0.914999	2.19719														
0.953798	2.29262	0.917074	2.19726														
0.955758	2.29219	0.91915	2.19733														
0.957718	2.29177	0.921226	2.19739														
0.959679	2.29136	0.923301	2.19746														
0.96164	2.29094	0.925377	2.19753														
0.963602	2.29053	0.927452	2.1976														
0.965564	2.29012	0.929528	2.19766														
0.967526	2.28972	0.931603	2.19773														
0.96949	2.28932	0.933679	2.19779														
0.971453	2.28892	0.935755	2.19786														
0.973417	2.28852	0.93783	2.19792														
0.975381	2.28813	0.939906	2.19799														
0.977346	2.28774	0.941981	2.19805														
0.979312	2.28735	0.944057	2.19812														
0.981278	2.28696	0.946132	2.19818														
0.983244	2.28658	0.948208	2.19825														
0.98521	2.2862	0.950283	2.19831														
0.987178	2.28582	0.952359	2.19837														
0.989145	2.28545	0.954434	2.19843														
0.991113	2.28508	0.95651	2.1985														
0.993081	2.28471	0.958585	2.19856														
0.99505	2.28434	0.960661	2.19862														
0.99702	2.28398	0.962736	2.19868														
0.998989	2.28362	0.964812	2.19874														
1.00096	2.28326	0.966887	2.19881														
		0.968962	2.19887														
		0.971038	2.19893														
		0.973113	2.19899														
		0.975189	2.19905														
		0.977264	2.19911														
		0.979339	2.19917														
		0.981415	2.19923														
		0.98349	2.19929														
		0.985566	2.19934														
		0.987641	2.1994														
		0.989716	2.19946														
		0.991792	2.19952														
		0.993867	2.19958														
		0.995942	2.19963														
		0.998018	2.19969														
		1.00009	2.19975														
