Sym0		Asym0		Sym1		Sym2		Sym3		Sym4		Asym1		Asym2		Asym3	
452  Points		493  Points		175  Points		148  Points		135  Points		97  Points		277  Points		159  Points		128  Points	
Freq (MHz)	Vph (m/ms)	Freq (MHz)	Vph (m/ms)	Freq (MHz)	Vph (m/ms)	Freq (MHz)	Vph (m/ms)	Freq (MHz)	Vph (m/ms)	Freq (MHz)	Vph (m/ms)	Freq (MHz)	Vph (m/ms)	Freq (MHz)	Vph (m/ms)	Freq (MHz)	Vph (m/ms)
0.000290067	6.87793	0.000360175	0.189152	0.27954	416.792	0.532595	843.624	0.559021	1869.39	0.838528	2808.92	0.139847	195.378	0.419295	524.437	0.698779	1367.42
0.00669848	6.87822	0.000794487	0.280158	0.27969	174.545	0.532616	340.762	0.55909	454.273	0.838563	681.638	0.140242	85.1259	0.419413	242.266	0.698832	484.387
0.0131063	6.87792	0.00139164	0.369376	0.279961	110.478	0.532654	213.514	0.559242	258.617	0.838643	387.917	0.140947	54.6481	0.419618	157.579	0.698937	294.363
0.0195128	6.87735	0.00214436	0.456319	0.280354	80.8922	0.532711	155.472	0.559477	180.819	0.838765	271.128	0.141953	40.4326	0.419909	116.817	0.699093	211.455
0.0259175	6.87658	0.00304401	0.540587	0.280869	63.8705	0.532788	122.252	0.559795	139.051	0.838932	208.414	0.143254	32.2459	0.420287	92.8546	0.699299	165.015
0.0323197	6.87559	0.00408072	0.621812	0.281504	52.8232	0.532884	100.738	0.560194	112.999	0.839141	169.284	0.144839	26.9505	0.420751	77.0891	0.699557	135.324
0.0387188	6.87436	0.00524431	0.69977	0.282258	45.0829	0.533003	85.6712	0.560674	95.2035	0.839394	142.543	0.146696	23.2631	0.421301	65.9346	0.699866	114.71
0.045114	6.87291	0.00652391	0.774258	0.28313	39.3643	0.533143	74.5323	0.561232	82.2812	0.839691	123.115	0.148813	20.5609	0.421937	57.6308	0.700225	99.5644
0.051505	6.87124	0.00790891	0.845175	0.284119	34.9717	0.533309	65.9637	0.561869	72.4749	0.840031	108.362	0.151175	18.5052	0.422657	51.2121	0.700635	87.9689
0.0578908	6.86933	0.00938883	0.912475	0.285223	31.4957	0.533499	59.1688	0.562582	64.7816	0.840414	96.7797	0.15377	16.8959	0.423462	46.1048	0.701096	78.8078
0.0642709	6.86719	0.0109538	0.976176	0.286441	28.6795	0.533718	53.6493	0.563371	58.5869	0.84084	87.4465	0.156583	15.6072	0.424351	41.9466	0.701607	71.3888
0.0706445	6.86481	0.0125942	1.03632	0.28777	26.3542	0.533965	49.0778	0.564233	53.4935	0.841309	79.7663	0.1596	14.5562	0.425324	38.4973	0.702168	65.2593
0.077011	6.86218	0.0143013	1.093	0.28921	24.4038	0.534243	45.2301	0.565167	49.2332	0.841821	73.3366	0.162808	13.6858	0.426379	35.5913	0.70278	60.1111
0.0833695	6.85931	0.0160672	1.14633	0.290757	22.7461	0.534553	41.9476	0.566172	45.6183	0.842377	67.8758	0.166195	12.9558	0.427516	33.1111	0.703442	55.7267
0.0897195	6.85619	0.0178846	1.19646	0.29241	21.3214	0.534897	39.1148	0.567246	42.5134	0.842975	63.1808	0.169747	12.3367	0.428735	30.9707	0.704153	51.9488
0.0960598	6.8528	0.0197467	1.24353	0.294167	20.085	0.535277	36.6459	0.568389	39.8186	0.843616	59.1018	0.172969	11.8704	0.430034	29.1056	0.704915	48.6603
0.10239	6.84915	0.0216477	1.28769	0.296025	19.003	0.535693	34.4754	0.569598	37.4584	0.844299	55.5254	0.175803	11.5178	0.431412	27.4669	0.705726	45.7724
0.108709	6.84523	0.0235825	1.32912	0.297981	18.049	0.536148	32.5528	0.570872	35.3747	0.845025	52.3646	0.178203	11.2532	0.43287	26.0164	0.706586	43.2167
0.115016	6.84102	0.0255463	1.36796	0.300034	17.2026	0.536644	30.8383	0.572211	33.5223	0.845793	49.5513	0.180137	11.0592	0.434405	24.7242	0.707496	40.9394
0.12131	6.83653	0.027535	1.40439	0.30218	16.4471	0.53718	29.3004	0.573613	31.8652	0.846604	47.0316	0.181577	10.9245	0.436017	23.5663	0.708454	38.8978
0.12759	6.83173	0.0295451	1.43855	0.304418	15.7692	0.53776	27.9135	0.575077	30.3744	0.847456	44.7622	0.182507	10.8415	0.437705	22.5233	0.709461	37.0574
0.133855	6.82663	0.0315734	1.4706	0.306745	15.1582	0.538384	26.6567	0.576602	29.0266	0.848351	42.7077	0.183856	10.7266	0.439468	21.5794	0.710516	35.3903
0.140104	6.82121	0.0333536	1.49691	0.309158	14.605	0.539054	25.513	0.578187	27.8024	0.849287	40.8393	0.185336	10.607	0.441305	20.7216	0.71162	33.8733
0.146336	6.81546	0.0348793	1.51822	0.311655	14.1022	0.539771	24.468	0.579831	26.6859	0.850265	39.1331	0.187372	10.4528	0.443214	19.939	0.712772	32.4873
0.152549	6.80936	0.0361459	1.53511	0.314233	13.6437	0.540536	23.5097	0.581533	25.6638	0.851285	37.5691	0.189985	10.2706	0.445196	19.2224	0.713971	31.2163
0.158743	6.80291	0.0371502	1.54801	0.31689	13.2241	0.541351	22.6282	0.583293	24.7248	0.852346	36.1303	0.193198	10.0676	0.447248	18.5642	0.715217	30.0469
0.164916	6.79609	0.0378901	1.55725	0.319623	12.839	0.542217	21.8149	0.58511	23.8595	0.853447	34.8025	0.197037	9.85093	0.449369	17.9578	0.716511	28.9674
0.171066	6.78889	0.0383643	1.56306	0.322431	12.4845	0.543135	21.0623	0.586982	23.0598	0.85459	33.5735	0.201531	9.62716	0.451559	17.3976	0.717851	27.9681
0.177192	6.78128	0.0390468	1.57127	0.325311	12.1574	0.544107	20.3642	0.588909	22.3186	0.855774	32.4329	0.206112	9.42646	0.453816	16.8787	0.719238	27.0406
0.183293	6.77326	0.0397896	1.58	0.327877	11.8925	0.545135	19.7152	0.59089	21.6299	0.856998	31.3715	0.210775	9.24573	0.456139	16.3969	0.720671	26.1775
0.189367	6.7648	0.0408014	1.59158	0.330105	11.6801	0.546218	19.1104	0.592926	20.9886	0.858262	30.3816	0.215513	9.08238	0.458527	15.9486	0.72215	25.3726
0.195412	6.75588	0.0420833	1.60574	0.331976	11.5131	0.547359	18.5458	0.595014	20.3901	0.859567	29.4563	0.220321	8.93423	0.460978	15.5305	0.723675	24.6202
0.201426	6.74649	0.0436367	1.62217	0.333472	11.3863	0.548558	18.0177	0.597155	19.8303	0.860911	28.5896	0.225195	8.79941	0.463493	15.14	0.725244	23.9155
0.207407	6.7366	0.0454628	1.64054	0.334582	11.2959	0.549818	17.5228	0.599347	19.3058	0.862296	27.7762	0.230129	8.67635	0.466068	14.7745	0.726859	23.2543
0.213354	6.7262	0.0475625	1.66048	0.335297	11.2392	0.55114	17.0584	0.601591	18.8134	0.863719	27.0114	0.23512	8.5637	0.468704	14.4318	0.728517	22.6327
0.219263	6.71525	0.049666	1.67929	0.33633	11.1593	0.552524	16.6219	0.603885	18.3505	0.865182	26.2911	0.240163	8.4603	0.471398	14.11	0.73022	22.0475
0.225133	6.70373	0.0517724	1.69706	0.337461	11.0746	0.553972	16.2111	0.60623	17.9146	0.866684	25.6116	0.245256	8.36512	0.474151	13.8073	0.731967	21.4955
0.23096	6.69162	0.0538811	1.71384	0.339011	10.9627	0.555485	15.824	0.608624	17.5034	0.868225	24.9696	0.250393	8.27731	0.47696	13.5223	0.733757	20.9742
0.236743	6.67888	0.0559916	1.72971	0.340993	10.8264	0.557065	15.4587	0.611066	17.115	0.869804	24.3623	0.255572	8.19609	0.479824	13.2534	0.73559	20.4812
0.242479	6.6655	0.0581035	1.74473	0.34342	10.669	0.558713	15.1136	0.613557	16.7478	0.871422	23.7868	0.260791	8.12081	0.482743	12.9995	0.737466	20.0142
0.248165	6.65144	0.0602162	1.75896	0.346308	10.494	0.560429	14.7874	0.616096	16.4	0.873077	23.241	0.266045	8.05086	0.485715	12.7594	0.739383	19.5714
0.253797	6.63667	0.0623296	1.77246	0.349678	10.3052	0.562217	14.4786	0.618682	16.0703	0.874771	22.7225	0.271334	7.98574	0.488739	12.5321	0.741343	19.151
0.259373	6.62116	0.0644433	1.78526	0.353104	10.1281	0.564075	14.1861	0.621315	15.7573	0.876502	22.2295	0.276653	7.92498	0.491814	12.3167	0.743344	18.7513
0.26489	6.60489	0.0665571	1.79743	0.356587	9.96175	0.566006	13.9088	0.623995	15.46	0.87827	21.7601	0.282001	7.86818	0.494534	12.138	0.745386	18.3711
0.270343	6.58783	0.0686708	1.809	0.360125	9.80538	0.568011	13.6456	0.62672	15.1772	0.880076	21.3129	0.287375	7.81498	0.496882	11.9919	0.747469	18.0089
0.27573	6.56994	0.0707844	1.82	0.363719	9.65822	0.57009	13.3957	0.62949	14.9079	0.881918	20.8863	0.292774	7.76505	0.498844	11.8752	0.749592	17.6635
0.281047	6.5512	0.0728975	1.83048	0.367367	9.51957	0.572245	13.1583	0.632305	14.6513	0.883796	20.4789	0.298195	7.71811	0.500408	11.7855	0.751755	17.3339
0.286291	6.53158	0.0750101	1.84048	0.371069	9.38884	0.574477	12.9326	0.635165	14.4065	0.885711	20.0895	0.303637	7.6739	0.501565	11.7209	0.753958	17.0191
0.291458	6.51106	0.0771223	1.85001	0.374826	9.26547	0.576787	12.7178	0.638068	14.1729	0.887662	19.7171	0.309097	7.63219	0.502308	11.6802	0.756199	16.7181
0.296544	6.48961	0.0792338	1.85911	0.378638	9.14898	0.579174	12.5134	0.641015	13.9496	0.889649	19.3606	0.314575	7.59277	0.503381	11.6224	0.758479	16.4301
0.301547	6.46723	0.0813446	1.86781	0.382504	9.03892	0.581319	12.3432	0.644005	13.7362	0.891671	19.019	0.320068	7.55544	0.504554	11.5606	0.760797	16.1543
0.306463	6.44389	0.0834548	1.87612	0.386427	8.93489	0.583195	12.2037	0.647037	13.5319	0.893728	18.6914	0.325574	7.52004	0.506157	11.4783	0.763153	15.8899
0.311288	6.41959	0.0855642	1.88408	0.390405	8.83652	0.584779	12.092	0.650111	13.3364	0.89582	18.377	0.331094	7.48641	0.5082	11.377	0.765546	15.6364
0.31602	6.39432	0.0876728	1.8917	0.39444	8.74347	0.586054	12.006	0.653227	13.149	0.897946	18.0752	0.336624	7.45441	0.510692	11.2584	0.767976	15.3931
0.320657	6.36809	0.0897808	1.89901	0.398534	8.65545	0.587003	11.9441	0.656384	12.9693	0.900107	17.7851	0.342163	7.42392	0.513647	11.1244	0.770443	15.1595
0.325195	6.34089	0.0918879	1.90602	0.402685	8.57216	0.587615	11.9049	0.659582	12.7969	0.902302	17.5062	0.347711	7.3948	0.517078	10.9772	0.772946	14.9349
0.329633	6.31274	0.0939944	1.91274	0.406896	8.49335	0.588504	11.8494	0.66282	12.6314	0.90453	17.2379	0.353266	7.36697	0.52055	10.8366	0.775484	14.719
0.333969	6.28367	0.0961	1.91921	0.411168	8.41879	0.589479	11.7901	0.665675	12.4925	0.906792	16.9795	0.358827	7.34032	0.524064	10.7021	0.778058	14.5112
0.338203	6.25369	0.098205	1.92542	0.4155	8.34824	0.590822	11.7109	0.668132	12.3779	0.909087	16.7306	0.364392	7.31475	0.527617	10.5735	0.780667	14.3112
0.342332	6.22284	0.100309	1.93139	0.419894	8.28149	0.592547	11.6134	0.67018	12.2855	0.911415	16.4907	0.369961	7.29019	0.531209	10.4504	0.78331	14.1185
0.346357	6.19115	0.102413	1.93714	0.42435	8.21836	0.594675	11.4991	0.67181	12.2141	0.913775	16.2593	0.375532	7.26656	0.53484	10.3324	0.785987	13.9328
0.350278	6.15867	0.104515	1.94268	0.428868	8.15865	0.597228	11.37	0.673015	12.1624	0.916168	16.036	0.381104	7.24379	0.538507	10.2193	0.788698	13.7537
0.354095	6.12544	0.106618	1.94802	0.433449	8.10218	0.600232	11.228	0.673788	12.1297	0.918592	15.8204	0.386677	7.22181	0.542211	10.1109	0.791442	13.5809
0.357809	6.09152	0.108719	1.95316	0.438091	8.04878	0.603317	11.0924	0.674904	12.0832	0.921049	15.6122	0.392248	7.20057	0.545951	10.0067	0.794218	13.4141
0.361422	6.05695	0.11082	1.95813	0.442795	7.99829	0.606483	10.9628	0.676121	12.0333	0.923536	15.411	0.397817	7.18	0.549726	9.90675	0.797027	13.253
0.364935	6.02179	0.11292	1.96292	0.447559	7.95055	0.609728	10.8389	0.677785	11.9665	0.926055	15.2165	0.403384	7.16007	0.553534	9.81066	0.799868	13.0973
0.368349	5.9861	0.115019	1.96755	0.452383	7.90539	0.613052	10.7205	0.679901	11.8838	0.928605	15.0283	0.408946	7.1407	0.557376	9.71828	0.802741	12.9468
0.371667	5.94994	0.117118	1.97203	0.457265	7.86269	0.616455	10.6072	0.68248	11.7863	0.931184	14.8462	0.414503	7.12188	0.561251	9.62941	0.80527	12.8197
0.374892	5.91337	0.119217	1.97636	0.462203	7.82229	0.619936	10.4987	0.685532	11.6753	0.933795	14.6699	0.420054	7.10354	0.565158	9.54388	0.807444	12.7143
0.378026	5.87644	0.121314	1.98054	0.467196	7.78405	0.623493	10.395	0.68907	11.5523	0.936435	14.4992	0.425598	7.08566	0.569096	9.46151	0.809254	12.629
0.381072	5.83921	0.123412	1.9846	0.472241	7.74784	0.627126	10.2956	0.692646	11.4336	0.939104	14.3337	0.431134	7.06819	0.573064	9.38217	0.810694	12.5627
0.384032	5.80174	0.125509	1.98852	0.477337	7.71354	0.630833	10.2004	0.696259	11.3192	0.941803	14.1734	0.436661	7.0511	0.577063	9.30569	0.811757	12.5147
0.38691	5.76408	0.127605	1.99232	0.482481	7.68102	0.634614	10.1093	0.699908	11.2087	0.944531	14.0179	0.442179	7.03436	0.581091	9.23194	0.81244	12.4842
0.389708	5.72629	0.129701	1.99601	0.48767	7.65016	0.638467	10.0219	0.703595	11.1021	0.947288	13.867	0.447685	7.01793	0.585149	9.1608	0.813423	12.4408
0.39243	5.68841	0.131796	1.99959	0.492903	7.62086	0.64239	9.93815	0.707319	10.9992	0.950073	13.7207	0.453179	7.0018	0.589235	9.09215	0.814496	12.3941
0.395078	5.65049	0.133891	2.00306	0.498176	7.593	0.646382	9.85782	0.711079	10.8997	0.952886	13.5786	0.45866	6.98593	0.593348	9.02587	0.815961	12.3315
0.397656	5.61257	0.135985	2.00642	0.503486	7.5665	0.650441	9.78076	0.714876	10.8036	0.955727	13.4406	0.464128	6.97029	0.59749	8.96185	0.817824	12.2537
0.400167	5.5747	0.138079	2.00969	0.508832	7.54125	0.654566	9.70679	0.718709	10.7108	0.958596	13.3066	0.469581	6.95487	0.601658	8.9	0.820092	12.1615
0.402613	5.53691	0.140173	2.01287	0.514211	7.51716	0.658755	9.63578	0.722578	10.621	0.961118	13.1929	0.475018	6.93963	0.605854	8.84022	0.822772	12.0561
0.404997	5.49923	0.142266	2.01596	0.519619	7.49416	0.663006	9.56756	0.726484	10.5341	0.963284	13.0982	0.480438	6.92456	0.610075	8.78243	0.825875	11.9386
0.407322	5.46171	0.144359	2.01896	0.525056	7.47216	0.667317	9.50202	0.730426	10.4501	0.965087	13.0214	0.48584	6.90964	0.614323	8.72653	0.829006	11.8246
0.409592	5.42437	0.146452	2.02188	0.530517	7.45109	0.671685	9.439	0.734404	10.3688	0.966519	12.9616	0.491224	6.89485	0.618596	8.67245	0.832165	11.714
0.411525	5.392	0.148544	2.02472	0.536002	7.43088	0.676111	9.3784	0.738418	10.2901	0.967576	12.9181	0.496588	6.88016	0.622895	8.62012	0.835351	11.6066
0.413143	5.36455	0.150636	2.02748	0.541508	7.41148	0.68059	9.32008	0.742469	10.2139	0.968255	12.8905	0.501931	6.86557	0.627218	8.56947	0.838564	11.5024
0.414459	5.34195	0.152727	2.03018	0.547032	7.39281	0.685121	9.26394	0.746556	10.1402	0.969232	12.8512	0.507253	6.85104	0.631567	8.52042	0.841804	11.4011
0.415488	5.32415	0.154818	2.0328	0.552573	7.37483	0.689702	9.20986	0.750679	10.0688	0.970298	12.8088	0.512551	6.83658	0.63594	8.47292	0.845071	11.3027
0.416237	5.3111	0.156909	2.03535	0.558128	7.35749	0.694332	9.15774	0.754839	9.99962	0.971753	12.7518	0.517826	6.82216	0.640337	8.4269	0.848364	11.2071
0.416713	5.30277	0.159	2.03784	0.563697	7.34074	0.699006	9.10748	0.759036	9.93262	0.973601	12.6808	0.523077	6.80777	0.644759	8.38231	0.851682	11.1141
0.417394	5.29082	0.16109	2.04027	0.569276	7.32453	0.703725	9.05899	0.763271	9.86773	0.97585	12.5966	0.528302	6.7934	0.649204	8.3391	0.855026	11.0237
0.418128	5.27786	0.16318	2.04264	0.574865	7.30882	0.708485	9.01218	0.767542	9.80485	0.978506	12.4999	0.5335	6.77902	0.653674	8.29721	0.858395	10.9358
0.419117	5.2603	0.16527	2.04495	0.580462	7.29358	0.713284	8.96695	0.771851	9.74393	0.981577	12.3916	0.538671	6.76464	0.658167	8.2566	0.861789	10.8503
0.420354	5.2382	0.16736	2.0472	0.586065	7.27877	0.71812	8.92324	0.776199	9.68489	0.984674	12.2862	0.543813	6.75023	0.662683	8.21721	0.865207	10.767
0.421829	5.21163	0.169449	2.04941	0.591673	7.26437	0.722992	8.88095	0.780584	9.62769	0.987795	12.1835	0.548925	6.7358	0.667223	8.17902	0.86865	10.6859
0.423531	5.18069	0.171538	2.05155	0.597284	7.25033	0.727895	8.84002	0.785009	9.57226	0.990941	12.0834	0.554007	6.72131	0.671787	8.14196	0.872116	10.607
0.425449	5.14551	0.173627	2.05365	0.602898	7.23663	0.73283	8.80037	0.789472	9.51855	0.994111	11.9859	0.559058	6.70678	0.676373	8.10602	0.875606	10.5301
0.42733	5.11067	0.175716	2.0557	0.608514	7.22325	0.737793	8.76193	0.793975	9.4665	0.997305	11.8909	0.564076	6.69218	0.680982	8.07114	0.879119	10.4552
0.429176	5.07619	0.177804	2.05771	0.614129	7.21016	0.742782	8.72465	0.798518	9.41607	1.00052	11.7982	0.569061	6.67751	0.685615	8.03728	0.882655	10.3823
0.430989	5.04207	0.179893	2.05967	0.619742	7.19734	0.747795	8.68845	0.803102	9.36721			0.574012	6.66277	0.690269	8.00443	0.886214	10.3111
0.432772	5.00834	0.181981	2.06158	0.625354	7.18477	0.752831	8.65328	0.807727	9.31987			0.578928	6.64794	0.694947	7.97253	0.889795	10.2418
0.434525	4.97498	0.184068	2.06346	0.630963	7.17243	0.757886	8.61908	0.812393	9.27401			0.583808	6.63301	0.699647	7.94157	0.893399	10.1741
0.43625	4.94202	0.186156	2.06529	0.636567	7.16031	0.762959	8.58581	0.817101	9.2296			0.588652	6.61799	0.704369	7.91151	0.897024	10.1082
0.437949	4.90944	0.188244	2.06708	0.642167	7.14838	0.768049	8.5534	0.821852	9.18658			0.593459	6.60286	0.709114	7.88231	0.900671	10.0438
0.439622	4.87726	0.190331	2.06884	0.64776	7.13663	0.773152	8.52181	0.826646	9.14492			0.598227	6.58763	0.713881	7.85395	0.90434	9.98102
0.441272	4.84548	0.192418	2.07055	0.653347	7.12505	0.778267	8.491	0.831483	9.1046			0.602956	6.57228	0.718669	7.82641	0.908029	9.91974
0.442899	4.8141	0.194505	2.07224	0.658927	7.11362	0.783393	8.46092	0.836364	9.06556			0.607646	6.55681	0.723479	7.79965	0.91174	9.85992
0.444506	4.78312	0.196592	2.07388	0.664499	7.10233	0.788528	8.43153	0.84129	9.02778			0.612296	6.54122	0.72831	7.77366	0.915471	9.80151
0.446092	4.75254	0.198679	2.0755	0.670061	7.09117	0.79367	8.4028	0.84626	8.99122			0.616906	6.52552	0.733162	7.74839	0.919222	9.74447
0.447659	4.72236	0.200765	2.07708	0.675614	7.08012	0.798817	8.37468	0.851275	8.95585			0.621474	6.50968	0.738035	7.72384	0.922994	9.68876
0.449208	4.69258	0.202852	2.07863	0.681157	7.06919	0.803968	8.34715	0.856336	8.92164			0.626	6.49372	0.742929	7.69998	0.926786	9.63434
0.45074	4.6632	0.204938	2.08015	0.686689	7.05835	0.809121	8.32018	0.861442	8.88856			0.630484	6.47763	0.747843	7.67677	0.930598	9.58117
0.452256	4.63422	0.207024	2.08163	0.692209	7.04759	0.814276	8.29373	0.866594	8.85658			0.634926	6.46142	0.752777	7.65421	0.934429	9.5292
0.453758	4.60563	0.20911	2.08309	0.697717	7.03692	0.819432	8.26778	0.871792	8.82566			0.639325	6.44507	0.75773	7.63227	0.938279	9.47841
0.455245	4.57744	0.211196	2.08453	0.703212	7.02632	0.824586	8.2423	0.877035	8.79578			0.64368	6.4286	0.762702	7.61093	0.942149	9.42876
0.456718	4.54963	0.213282	2.08593	0.708695	7.01579	0.829739	8.21728	0.882324	8.76691			0.647992	6.412	0.767693	7.59017	0.946038	9.38022
0.458179	4.52222	0.215367	2.08731	0.714163	7.00531	0.834889	8.19269	0.887659	8.73901			0.65226	6.39527	0.772702	7.56996	0.949945	9.33274
0.459628	4.49518	0.217453	2.08866	0.719617	6.99488	0.840036	8.16852	0.893038	8.71206			0.656485	6.37842	0.777729	7.55029	0.953871	9.28631
0.461066	4.46853	0.219538	2.08999	0.725056	6.9845	0.845179	8.14474	0.898462	8.68603			0.660665	6.36145	0.782773	7.53114	0.957815	9.24089
0.462494	4.44225	0.221623	2.09129	0.73048	6.97415	0.850319	8.12135	0.903931	8.66088			0.664801	6.34436	0.787834	7.51249	0.961778	9.19646
0.463912	4.41635	0.223709	2.09257	0.735887	6.96383	0.855453	8.09833	0.909443	8.6366			0.668892	6.32715	0.792911	7.49432	0.965759	9.15298
0.46532	4.39081	0.225794	2.09383	0.741279	6.95354	0.860583	8.07566	0.914999	8.61315			0.672939	6.30982	0.798003	7.47661	0.969757	9.11043
0.46672	4.36564	0.227879	2.09506	0.746653	6.94328	0.865708	8.05335	0.920597	8.5905			0.676943	6.29239	0.803111	7.45935	0.973774	9.06878
0.468112	4.34083	0.229964	2.09627	0.75201	6.93302	0.870829	8.03137	0.926236	8.56863			0.680901	6.27484	0.808233	7.44252	0.977807	9.02801
0.469496	4.31637	0.232048	2.09746	0.757349	6.92278	0.875944	8.00972	0.931917	8.54751			0.684816	6.2572	0.813369	7.42611	0.981859	8.9881
0.470873	4.29227	0.234133	2.09863	0.76267	6.91255	0.881055	7.9884	0.937637	8.52711			0.688687	6.23945	0.818518	7.41008	0.985927	8.94902
0.472244	4.26851	0.236218	2.09978	0.767972	6.90232	0.886161	7.96739	0.943396	8.5074			0.692514	6.2216	0.82368	7.39444	0.990012	8.91074
0.473609	4.2451	0.238302	2.10091	0.773255	6.89209	0.891263	7.9467	0.949194	8.48836			0.696297	6.20366	0.828854	7.37917	0.994115	8.87326
0.474968	4.22202	0.240386	2.10202	0.778518	6.88185	0.896361	7.92631	0.955028	8.46997			0.700037	6.18564	0.834039	7.36425	0.998234	8.83654
0.476322	4.19928	0.242471	2.10311	0.783762	6.87161	0.901456	7.90622	0.960898	8.45219			0.703734	6.16753	0.839234	7.34966	1.00237	8.80057
0.477671	4.17686	0.244555	2.10419	0.788985	6.86135	0.906547	7.88643	0.966804	8.435			0.707388	6.14934	0.84444	7.3354		
0.479015	4.15477	0.246639	2.10524	0.794187	6.85108	0.911636	7.86693	0.972743	8.41839			0.710999	6.13108	0.849655	7.32144		
0.480356	4.133	0.248723	2.10628	0.799368	6.84079	0.916722	7.84773	0.978714	8.40232			0.714568	6.11274	0.854878	7.30778		
0.481692	4.11154	0.250807	2.1073	0.804527	6.83048	0.921806	7.82881	0.984718	8.38678			0.718095	6.09434	0.86011	7.29441		
0.483025	4.09039	0.252891	2.10831	0.809664	6.82015	0.926889	7.81018	0.990752	8.37174			0.721581	6.07588	0.865349	7.28131		
0.484356	4.06954	0.254975	2.1093	0.814779	6.80979	0.931971	7.79183	0.996815	8.35718			0.725025	6.05736	0.870594	7.26846		
0.485683	4.049	0.257059	2.11027	0.819871	6.7994	0.937052	7.77375	1.00291	8.34308			0.728429	6.03879	0.875846	7.25586		
0.487008	4.02875	0.259143	2.11123	0.82494	6.78898	0.942133	7.75596					0.731792	6.02017	0.881102	7.2435		
0.48833	4.0088	0.261226	2.11217	0.829985	6.77853	0.947214	7.73843					0.735115	6.00151	0.886364	7.23137		
0.489651	3.98913	0.26331	2.1131	0.835007	6.76804	0.952296	7.72118					0.738399	5.98281	0.891629	7.21945		
0.49097	3.96974	0.265393	2.11401	0.840004	6.75752	0.957378	7.70419					0.741644	5.96408	0.896898	7.20774		
0.492287	3.95063	0.267477	2.11491	0.844978	6.74696	0.962463	7.68747					0.74485	5.94532	0.902169	7.19622		
0.493603	3.93179	0.26956	2.1158	0.849926	6.73636	0.967549	7.671					0.748017	5.92653	0.907443	7.18489		
0.494918	3.91323	0.271644	2.11667	0.85485	6.72571	0.972637	7.6548					0.751148	5.90772	0.912718	7.17373		
0.496232	3.89492	0.273727	2.11753	0.859748	6.71503	0.977727	7.63885					0.754241	5.8889	0.917993	7.16274		
0.497546	3.87688	0.27581	2.11838	0.864621	6.7043	0.98282	7.62315					0.757297	5.87006	0.923269	7.15192		
0.498859	3.8591	0.277893	2.11922	0.869468	6.69353	0.987916	7.6077					0.760317	5.85121	0.928544	7.14124		
0.500171	3.84156	0.279976	2.12004	0.874289	6.68271	0.993016	7.59249					0.763302	5.83236	0.933819	7.13071		
0.501484	3.82428	0.282059	2.12085	0.879083	6.67184	0.998118	7.57753					0.766251	5.81351	0.939092	7.12032		
0.502796	3.80724	0.284142	2.12165	0.883851	6.66093	1.00322	7.5628					0.769166	5.79466	0.944362	7.11005		
0.504109	3.79043	0.286225	2.12244	0.888593	6.64997							0.772046	5.77582	0.94963	7.09991		
0.505422	3.77387	0.288308	2.12321	0.893308	6.63896							0.774893	5.75699	0.954894	7.08988		
0.506736	3.75754	0.290391	2.12398	0.897995	6.62791							0.777706	5.73817	0.960155	7.07996		
0.50805	3.74143	0.292474	2.12473	0.902656	6.6168							0.780487	5.71938	0.965411	7.07015		
0.509364	3.72555	0.294557	2.12548	0.907289	6.60565							0.783236	5.7006	0.970662	7.06043		
0.51068	3.7099	0.296639	2.12621	0.911894	6.59445							0.785953	5.68185	0.975908	7.0508		
0.511997	3.69445	0.298722	2.12693	0.916472	6.5832							0.78864	5.66312	0.981148	7.04126		
0.513314	3.67923	0.300805	2.12765	0.921022	6.5719							0.791295	5.64443	0.986381	7.0318		
0.514633	3.66421	0.302887	2.12835	0.925544	6.56056							0.793921	5.62577	0.991607	7.02242		
0.515953	3.6494	0.30497	2.12905	0.930039	6.54916							0.796517	5.60715	0.996826	7.0131		
0.517275	3.6348	0.307052	2.12973	0.934505	6.53772							0.799084	5.58856	1.00204	7.00385		
0.518598	3.62039	0.309135	2.13041	0.938943	6.52623							0.801623	5.57002				
0.519922	3.60618	0.311217	2.13108	0.943353	6.5147							0.804133	5.55153				
0.521249	3.59217	0.313299	2.13174	0.947735	6.50311							0.806617	5.53308				
0.522576	3.57834	0.315382	2.13239	0.952089	6.49149							0.809073	5.51469				
0.523906	3.5647	0.317464	2.13303	0.956414	6.47982							0.811502	5.49634				
0.525238	3.55125	0.319546	2.13366	0.960711	6.4681							0.813906	5.47805				
0.526571	3.53798	0.321628	2.13429	0.96498	6.45634							0.816284	5.45982				
0.527906	3.52488	0.323711	2.13491	0.969221	6.44454							0.818637	5.44165				
0.529244	3.51197	0.325793	2.13552	0.973433	6.4327							0.820966	5.42354				
0.530583	3.49922	0.327875	2.13612	0.977617	6.42082							0.823271	5.4055				
0.531925	3.48665	0.329957	2.13671	0.981773	6.40889							0.825552	5.38752				
0.533269	3.47424	0.332039	2.1373	0.985901	6.39693							0.82781	5.3696				
0.534615	3.46199	0.334121	2.13788	0.99	6.38493							0.830045	5.35176				
0.535963	3.44991	0.336203	2.13845	0.994072	6.3729							0.832258	5.33399				
0.537314	3.43799	0.338285	2.13902	0.998116	6.36083							0.83445	5.31628				
0.538667	3.42622	0.340367	2.13958	1.00213	6.34872							0.83662	5.29866				
0.540023	3.41461	0.342449	2.14013									0.838769	5.28111				
0.541381	3.40314	0.344531	2.14068									0.840898	5.26363				
0.542741	3.39183	0.346612	2.14122									0.843007	5.24624				
0.544104	3.38067	0.348694	2.14175									0.845096	5.22892				
0.54547	3.36964	0.350776	2.14228									0.847166	5.21169				
0.546838	3.35876	0.352858	2.1428									0.849218	5.19454				
0.548209	3.34802	0.354939	2.14331									0.851251	5.17747				
0.549582	3.33742	0.357021	2.14382									0.853266	5.16048				
0.550958	3.32696	0.359103	2.14433									0.855264	5.14358				
0.552337	3.31662	0.361184	2.14482									0.857245	5.12677				
0.553719	3.30642	0.363266	2.14532									0.859209	5.11004				
0.555103	3.29635	0.365347	2.1458									0.861156	5.0934				
0.55649	3.2864	0.367429	2.14628									0.863088	5.07685				
0.55788	3.27658	0.36951	2.14676									0.865004	5.06038				
0.559272	3.26688	0.371592	2.14723									0.866904	5.04401				
0.560667	3.2573	0.373673	2.14769									0.86879	5.02773				
0.562065	3.24785	0.375755	2.14815									0.870661	5.01153				
0.563466	3.2385	0.377836	2.14861									0.872518	4.99543				
0.56487	3.22928	0.379918	2.14906									0.874361	4.97942				
0.566277	3.22017	0.381999	2.1495									0.876191	4.9635				
0.567686	3.21117	0.38408	2.14994									0.878007	4.94768				
0.569098	3.20228	0.386162	2.15038									0.87981	4.93195				
0.570513	3.1935	0.388243	2.15081									0.881601	4.91631				
0.571931	3.18483	0.390324	2.15124									0.883379	4.90076				
0.573352	3.17626	0.392406	2.15166									0.885145	4.88531				
0.574776	3.1678	0.394487	2.15208									0.8869	4.86995				
0.576202	3.15944	0.396568	2.15249									0.888643	4.85469				
0.577632	3.15118	0.398649	2.1529									0.890375	4.83951				
0.579064	3.14302	0.40073	2.1533									0.892096	4.82444				
0.5805	3.13496	0.402812	2.15371									0.893806	4.80945				
0.581938	3.12699	0.404893	2.1541									0.895506	4.79456				
0.583379	3.11912	0.406974	2.15449									0.897196	4.77977				
0.584823	3.11134	0.409055	2.15488									0.898876	4.76507				
0.586269	3.10365	0.411136	2.15527									0.900546	4.75046				
0.587719	3.09605	0.413217	2.15565									0.902207	4.73595				
0.589172	3.08855	0.415298	2.15603									0.903859	4.72153				
0.590627	3.08113	0.417379	2.1564									0.905502	4.7072				
0.592085	3.07379	0.41946	2.15677									0.907137	4.69296				
0.593546	3.06655	0.421541	2.15713									0.908763	4.67882				
0.59501	3.05939	0.423622	2.1575									0.91038	4.66478				
0.596477	3.05231	0.425703	2.15786									0.91199	4.65082				
0.597947	3.04531	0.427784	2.15821									0.913592	4.63696				
0.59942	3.03839	0.429865	2.15856									0.915186	4.62319				
0.600895	3.03155	0.431946	2.15891									0.916773	4.60951				
0.602373	3.02479	0.434027	2.15926									0.918353	4.59592				
0.603854	3.01811	0.436108	2.1596									0.919926	4.58243				
0.605338	3.0115	0.438189	2.15994									0.921492	4.56902				
0.606825	3.00497	0.44027	2.16028									0.923051	4.55571				
0.608314	2.99851	0.44235	2.16061									0.924604	4.54249				
0.609807	2.99213	0.444431	2.16094									0.92615	4.52935				
0.611302	2.98581	0.446512	2.16126									0.927691	4.51631				
0.6128	2.97957	0.448593	2.16159									0.929225	4.50335				
0.614301	2.9734	0.450674	2.16191									0.930754	4.49048				
0.615804	2.96729	0.452754	2.16223									0.932277	4.47771				
0.61731	2.96126	0.454835	2.16254									0.933795	4.46502				
0.618819	2.95529	0.456916	2.16285									0.935308	4.45241				
0.620331	2.94938	0.458997	2.16316									0.936815	4.4399				
0.621845	2.94354	0.461077	2.16347									0.938317	4.42747				
0.623363	2.93777	0.463158	2.16377									0.939815	4.41512				
0.624882	2.93206	0.465239	2.16407									0.941308	4.40286				
0.626405	2.92641	0.467319	2.16437									0.942796	4.39069				
0.62793	2.92082	0.4694	2.16467									0.94428	4.3786				
0.629458	2.91529	0.471481	2.16496									0.945759	4.3666				
0.630989	2.90983	0.473561	2.16525									0.947235	4.35468				
0.632522	2.90442	0.475642	2.16554									0.948706	4.34284				
0.634058	2.89907	0.477723	2.16583									0.950173	4.33109				
0.635597	2.89378	0.479803	2.16611									0.951637	4.31941				
0.637138	2.88854	0.481884	2.16639									0.953097	4.30782				
0.638682	2.88336	0.483964	2.16667									0.954553	4.29631				
0.640228	2.87824	0.486045	2.16694									0.956006	4.28488				
0.641777	2.87316	0.488125	2.16722									0.957456	4.27353				
0.643329	2.86815	0.490206	2.16749									0.958902	4.26227				
0.644883	2.86318	0.492286	2.16776									0.960345	4.25108				
0.64644	2.85827	0.494367	2.16802									0.961786	4.23996				
0.647999	2.85341	0.496448	2.16829									0.963223	4.22893				
0.649561	2.8486	0.498528	2.16855									0.964657	4.21798				
0.651125	2.84384	0.500609	2.16881									0.966089	4.2071				
0.652692	2.83913	0.502689	2.16907									0.967518	4.19629				
0.654261	2.83447	0.504769	2.16933									0.968945	4.18557				
0.655833	2.82986	0.50685	2.16958									0.970369	4.17492				
0.657408	2.82529	0.50893	2.16983									0.971791	4.16434				
0.658984	2.82078	0.511011	2.17008									0.97321	4.15384				
0.660564	2.8163	0.513091	2.17033									0.974628	4.14341				
0.662145	2.81188	0.515172	2.17057									0.976043	4.13306				
0.663729	2.8075	0.517252	2.17082									0.977456	4.12278				
0.665316	2.80316	0.519332	2.17106									0.978868	4.11257				
0.666905	2.79887	0.521413	2.1713									0.980277	4.10243				
0.668496	2.79462	0.523493	2.17154									0.981685	4.09237				
0.67009	2.79041	0.525573	2.17177									0.98309	4.08237				
0.671686	2.78625	0.527654	2.17201									0.984495	4.07245				
0.673284	2.78213	0.529734	2.17224									0.985897	4.06259				
0.674885	2.77805	0.531814	2.17247									0.987299	4.05281				
0.676488	2.77401	0.533895	2.1727									0.988698	4.04309				
0.678094	2.77001	0.535975	2.17293									0.990097	4.03344				
0.679701	2.76605	0.538055	2.17315									0.991494	4.02386				
0.681311	2.76213	0.540136	2.17338									0.99289	4.01434				
0.682924	2.75825	0.542216	2.1736									0.994284	4.0049				
0.684538	2.7544	0.544296	2.17382									0.995678	3.99552				
0.686155	2.7506	0.546377	2.17404									0.99707	3.9862				
0.687774	2.74683	0.548457	2.17425									0.998462	3.97695				
0.689395	2.74309	0.550537	2.17447									0.999852	3.96776				
0.691019	2.7394	0.552617	2.17468									1.00124	3.95864				
0.692645	2.73574	0.554698	2.17489														
0.694273	2.73212	0.556778	2.17511														
0.695903	2.72853	0.558858	2.17531														
0.697535	2.72497	0.560938	2.17552														
0.69917	2.72145	0.563018	2.17573														
0.700806	2.71797	0.565099	2.17593														
0.702445	2.71451	0.567179	2.17613														
0.704086	2.71109	0.569259	2.17634														
0.705729	2.7077	0.571339	2.17654														
0.707374	2.70435	0.573419	2.17673														
0.709021	2.70103	0.575499	2.17693														
0.71067	2.69773	0.57758	2.17713														
0.712322	2.69447	0.57966	2.17732														
0.713975	2.69124	0.58174	2.17751														
0.71563	2.68804	0.58382	2.17771														
0.717288	2.68487	0.5859	2.1779														
0.718947	2.68173	0.58798	2.17808														
0.720609	2.67862	0.59006	2.17827														
0.722272	2.67554	0.59214	2.17846														
0.723938	2.67248	0.59422	2.17864														
0.725605	2.66946	0.5963	2.17883														
0.727275	2.66646	0.598381	2.17901														
0.728946	2.66349	0.600461	2.17919														
0.730619	2.66054	0.602541	2.17937														
0.732295	2.65763	0.604621	2.17955														
0.733972	2.65474	0.606701	2.17973														
0.735651	2.65188	0.608781	2.1799														
0.737332	2.64904	0.610861	2.18008														
0.739015	2.64623	0.612941	2.18025														
0.740699	2.64344	0.615021	2.18042														
0.742386	2.64068	0.617101	2.1806														
0.744074	2.63794	0.619181	2.18077														
0.745765	2.63523	0.621261	2.18093														
0.747457	2.63254	0.623341	2.1811														
0.749151	2.62988	0.625421	2.18127														
0.750847	2.62724	0.627501	2.18144														
0.752544	2.62462	0.629581	2.1816														
0.754243	2.62203	0.631661	2.18176														
0.755945	2.61946	0.633741	2.18193														
0.757647	2.61691	0.635821	2.18209														
0.759352	2.61439	0.637901	2.18225														
0.761058	2.61188	0.639981	2.18241														
0.762767	2.6094	0.64206	2.18257														
0.764476	2.60694	0.64414	2.18272														
0.766188	2.6045	0.64622	2.18288														
0.767901	2.60209	0.6483	2.18304														
0.769616	2.59969	0.65038	2.18319														
0.771333	2.59731	0.65246	2.18334														
0.773051	2.59496	0.65454	2.1835														
0.774771	2.59262	0.65662	2.18365														
0.776493	2.59031	0.6587	2.1838														
0.778216	2.58801	0.66078	2.18395														
0.779941	2.58574	0.662859	2.1841														
0.781668	2.58348	0.664939	2.18424														
0.783396	2.58125	0.667019	2.18439														
0.785126	2.57903	0.669099	2.18454														
0.786857	2.57683	0.671179	2.18468														
0.78859	2.57465	0.673259	2.18482														
0.790325	2.57249	0.675339	2.18497														
0.792061	2.57034	0.677418	2.18511														
0.793799	2.56822	0.679498	2.18525														
0.795538	2.56611	0.681578	2.18539														
0.797279	2.56402	0.683658	2.18553														
0.799021	2.56195	0.685738	2.18567														
0.800765	2.55989	0.687818	2.18581														
0.802511	2.55785	0.689897	2.18595														
0.804258	2.55583	0.691977	2.18608														
0.806006	2.55383	0.694057	2.18622														
0.807756	2.55184	0.696137	2.18635														
0.809507	2.54987	0.698217	2.18649														
0.81126	2.54791	0.700296	2.18662														
0.813014	2.54597	0.702376	2.18675														
0.81477	2.54404	0.704456	2.18688														
0.816528	2.54214	0.706536	2.18701														
0.818286	2.54024	0.708615	2.18714														
0.820046	2.53836	0.710695	2.18727														
0.821808	2.5365	0.712775	2.1874														
0.823571	2.53465	0.714855	2.18753														
0.825335	2.53282	0.716934	2.18766														
0.827101	2.531	0.719014	2.18778														
0.828868	2.5292	0.721094	2.18791														
0.830637	2.52741	0.723174	2.18803														
0.832406	2.52564	0.725253	2.18816														
0.834178	2.52388	0.727333	2.18828														
0.83595	2.52213	0.729413	2.1884														
0.837724	2.5204	0.731492	2.18853														
0.8395	2.51868	0.733572	2.18865														
0.841276	2.51697	0.735652	2.18877														
0.843054	2.51528	0.737732	2.18889														
0.844833	2.5136	0.739811	2.18901														
0.846614	2.51194	0.741891	2.18913														
0.848396	2.51029	0.743971	2.18924														
0.850179	2.50865	0.74605	2.18936														
0.851964	2.50702	0.74813	2.18948														
0.853749	2.5054	0.75021	2.18959														
0.855536	2.5038	0.752289	2.18971														
0.857325	2.50221	0.754369	2.18982														
0.859114	2.50064	0.756449	2.18994														
0.860905	2.49907	0.758528	2.19005														
0.862697	2.49752	0.760608	2.19016														
0.86449	2.49598	0.762687	2.19028														
0.866285	2.49445	0.764767	2.19039														
0.868081	2.49293	0.766847	2.1905														
0.869878	2.49143	0.768926	2.19061														
0.871676	2.48993	0.771006	2.19072														
0.873475	2.48845	0.773086	2.19083														
0.875276	2.48698	0.775165	2.19094														
0.877077	2.48552	0.777245	2.19104														
0.87888	2.48407	0.779324	2.19115														
0.880684	2.48263	0.781404	2.19126														
0.88249	2.4812	0.783484	2.19137														
0.884296	2.47979	0.785563	2.19147														
0.886104	2.47838	0.787643	2.19158														
0.887912	2.47698	0.789722	2.19168														
0.889722	2.4756	0.791802	2.19179														
0.891533	2.47422	0.793882	2.19189														
0.893345	2.47286	0.795961	2.19199														
0.895159	2.4715	0.798041	2.19209														
0.896973	2.47016	0.80012	2.1922														
0.898788	2.46882	0.8022	2.1923														
0.900605	2.4675	0.804279	2.1924														
0.902423	2.46618	0.806359	2.1925														
0.904241	2.46488	0.808438	2.1926														
0.906061	2.46358	0.810518	2.1927														
0.907882	2.46229	0.812598	2.1928														
0.909704	2.46102	0.814677	2.1929														
0.911527	2.45975	0.816757	2.19299														
0.913351	2.45849	0.818836	2.19309														
0.915177	2.45724	0.820916	2.19319														
0.917003	2.456	0.822995	2.19328														
0.91883	2.45477	0.825075	2.19338														
0.920658	2.45355	0.827154	2.19347														
0.922488	2.45233	0.829234	2.19357														
0.924318	2.45113	0.831313	2.19366														
0.926149	2.44993	0.833393	2.19376														
0.927982	2.44874	0.835472	2.19385														
0.929815	2.44756	0.837552	2.19394														
0.931649	2.44639	0.839631	2.19404														
0.933485	2.44523	0.841711	2.19413														
0.935321	2.44407	0.84379	2.19422														
0.937158	2.44293	0.84587	2.19431														
0.938997	2.44179	0.847949	2.1944														
0.940836	2.44066	0.850029	2.19449														
0.942676	2.43954	0.852108	2.19458														
0.944518	2.43842	0.854188	2.19467														
0.94636	2.43732	0.856267	2.19476														
0.948203	2.43622	0.858346	2.19485														
0.950047	2.43513	0.860426	2.19494														
0.951892	2.43404	0.862505	2.19502														
0.953738	2.43297	0.864585	2.19511														
0.955585	2.4319	0.866664	2.1952														
0.957433	2.43084	0.868744	2.19529														
0.959281	2.42978	0.870823	2.19537														
0.961131	2.42874	0.872903	2.19546														
0.962982	2.4277	0.874982	2.19554														
0.964833	2.42666	0.877061	2.19563														
0.966685	2.42564	0.879141	2.19571														
0.968539	2.42462	0.88122	2.19579														
0.970393	2.42361	0.8833	2.19588														
0.972248	2.42261	0.885379	2.19596														
0.974104	2.42161	0.887459	2.19604														
0.975961	2.42062	0.889538	2.19613														
0.977818	2.41963	0.891617	2.19621														
0.979677	2.41866	0.893697	2.19629														
0.981536	2.41769	0.895776	2.19637														
0.983396	2.41672	0.897856	2.19645														
0.985258	2.41576	0.899935	2.19653														
0.987119	2.41481	0.902014	2.19661														
0.988982	2.41387	0.904094	2.19669														
0.990846	2.41293	0.906173	2.19677														
0.99271	2.412	0.908252	2.19685														
0.994576	2.41107	0.910332	2.19693														
0.996442	2.41015	0.912411	2.19701														
0.998309	2.40924	0.914491	2.19709														
1.00018	2.40833	0.91657	2.19716														
		0.918649	2.19724														
		0.920729	2.19732														
		0.922808	2.19739														
		0.924887	2.19747														
		0.926967	2.19755														
		0.929046	2.19762														
		0.931125	2.1977														
		0.933205	2.19777														
		0.935284	2.19785														
		0.937363	2.19792														
		0.939443	2.19799														
		0.941522	2.19807														
		0.943601	2.19814														
		0.945681	2.19821														
		0.94776	2.19829														
		0.949839	2.19836														
		0.951919	2.19843														
		0.953998	2.1985														
		0.956077	2.19857														
		0.958157	2.19864														
		0.960236	2.19871														
		0.962315	2.19878														
		0.964394	2.19885														
		0.966474	2.19892														
		0.968553	2.19899														
		0.970632	2.19906														
		0.972712	2.19913														
		0.974791	2.1992														
		0.97687	2.19927														
		0.978949	2.19934														
		0.981029	2.1994														
		0.983108	2.19947														
		0.985187	2.19954														
		0.987266	2.1996														
		0.989346	2.19967														
		0.991425	2.19974														
		0.993504	2.1998														
		0.995583	2.19987														
		0.997663	2.19993														
		0.999742	2.2														
		1.00182	2.20006														
