Sym0		Asym0		Sym1		Sym2		Sym3		Asym1		Asym2		Asym3	
474  Points		493  Points		231  Points		149  Points		128  Points		385  Points		168  Points		131  Points	
Freq (MHz)	Vph (m/ms)	Freq (MHz)	Vph (m/ms)	Freq (MHz)	Vph (m/ms)	Freq (MHz)	Vph (m/ms)	Freq (MHz)	Vph (m/ms)	Freq (MHz)	Vph (m/ms)	Freq (MHz)	Vph (m/ms)	Freq (MHz)	Vph (m/ms)
0.00507164	7.15031	0.0003228	0.182629	0.279541	384.897	0.422958	773.748	0.559018	4756.33	0.139897	162.047	0.41927	1085.35	0.698785	1002.21
0.0117324	7.14959	0.000748524	0.277312	0.279679	168.688	0.423035	286.157	0.55906	532.831	0.140369	78.1998	0.419347	318.171	0.698844	429.017
0.0183904	7.14833	0.00134391	0.370129	0.279924	108.093	0.423183	175.593	0.559172	282.279	0.141167	51.7722	0.419509	186.474	0.698951	272.96
0.025044	7.14651	0.00210111	0.460507	0.280275	79.5929	0.423403	126.702	0.559351	192.044	0.142284	38.8926	0.419755	131.941	0.699106	200.183
0.0316917	7.14411	0.00301082	0.54799	0.280733	63.0428	0.423694	99.1464	0.559599	145.566	0.143711	31.309	0.420085	102.134	0.699309	158.071
0.0383319	7.14114	0.00406258	0.63221	0.281296	52.2394	0.424057	81.4694	0.559915	117.235	0.145435	26.3384	0.4205	83.3535	0.699559	130.619
0.0449629	7.13759	0.00524518	0.712884	0.281963	44.6395	0.424493	69.1717	0.560299	98.1655	0.147443	22.8471	0.420997	70.4425	0.699857	111.311
0.0515831	7.13345	0.0065471	0.789817	0.282732	39.0076	0.425003	60.1263	0.560751	84.4581	0.149721	20.2732	0.421578	61.0261	0.700202	96.9928
0.0581904	7.12869	0.00795679	0.862892	0.283603	34.671	0.425586	53.197	0.56127	74.1333	0.152254	18.3066	0.422241	53.8583	0.700594	85.9539
0.0647834	7.12332	0.00946315	0.932075	0.284574	31.2323	0.426245	47.7217	0.561857	66.0792	0.155026	16.7621	0.422987	48.2226	0.701033	77.185
0.0713599	7.11732	0.0110554	0.997381	0.285642	28.4413	0.426981	43.2886	0.562511	59.6229	0.158021	15.5223	0.423814	43.6776	0.70152	70.0525
0.0779182	7.11066	0.0127238	1.05889	0.286807	26.1329	0.427793	39.6278	0.563231	54.3336	0.161225	14.5092	0.424722	39.9365	0.702053	64.1385
0.084456	7.10333	0.0144587	1.11669	0.288065	24.1937	0.428684	36.5554	0.564018	49.9225	0.164623	13.6689	0.425711	36.805	0.702633	59.1562
0.0909712	7.09531	0.0162521	1.17094	0.289416	22.5432	0.429655	33.9415	0.564871	46.189	0.168201	12.9631	0.426779	34.1468	0.70326	54.9024
0.0974617	7.08657	0.0180961	1.22178	0.290858	21.1225	0.430707	31.6921	0.565789	42.989	0.171946	12.364	0.427925	31.8633	0.703933	51.2287
0.103925	7.07708	0.019984	1.26939	0.292387	19.888	0.431841	29.7369	0.566773	40.2168	0.175845	11.8504	0.429149	29.8815	0.704652	48.0248
0.110358	7.06682	0.0219095	1.31394	0.294003	18.8061	0.43306	28.0229	0.567822	37.7927	0.179887	11.4066	0.430451	28.1461	0.705417	45.2064
0.116759	7.05575	0.0238676	1.35563	0.295703	17.8509	0.434364	26.5091	0.568935	35.6557	0.184059	11.0201	0.431828	26.6148	0.706228	42.7083
0.123125	7.04385	0.0258534	1.39461	0.297485	17.0023	0.435754	25.1632	0.570111	33.7583	0.188354	10.6814	0.43328	25.2541	0.707084	40.4794
0.129452	7.03106	0.0278628	1.43108	0.299348	16.2438	0.437234	23.9595	0.571351	32.0628	0.192759	10.3827	0.434807	24.0377	0.707985	38.4786
0.135738	7.01736	0.0298921	1.4652	0.301291	15.5624	0.438803	22.8775	0.572654	30.5392	0.197268	10.1178	0.436406	22.9444	0.708932	36.673
0.141979	7.0027	0.0316743	1.49313	0.303313	14.9475	0.440464	21.9003	0.574019	29.163	0.201871	9.88165	0.438078	21.9567	0.709923	35.0357
0.148171	6.98703	0.0332023	1.51571	0.305411	14.3902	0.442218	21.0141	0.575446	27.9142	0.206562	9.67021	0.43982	21.0605	0.710959	33.5444
0.154311	6.97032	0.0344713	1.53357	0.307586	13.8832	0.444067	20.2072	0.576934	26.7762	0.211332	9.48003	0.441631	20.2441	0.712039	32.1808
0.160394	6.95249	0.0354776	1.54719	0.309836	13.4204	0.446011	19.4702	0.578482	25.7352	0.216175	9.30826	0.443512	19.4976	0.713163	30.9292
0.166416	6.9335	0.0362192	1.55694	0.312163	12.9967	0.448052	18.7949	0.58009	24.7797	0.22045	9.17172	0.445459	18.8127	0.71433	29.7766
0.172372	6.9133	0.0366945	1.56306	0.314566	12.6077	0.450192	18.1744	0.581758	23.8997	0.224132	9.06391	0.447473	18.1823	0.715541	28.712
0.178257	6.89183	0.0373784	1.5717	0.317046	12.2497	0.452431	17.6027	0.583484	23.087	0.227202	8.98018	0.449552	17.6005	0.716795	27.7258
0.184067	6.86902	0.038123	1.58089	0.319604	11.9194	0.454771	17.0748	0.585269	22.3342	0.229643	8.91718	0.451695	17.062	0.718091	26.8098
0.189796	6.84481	0.0391373	1.59306	0.322242	11.6142	0.457211	16.5862	0.58711	21.6353	0.231446	8.87255	0.4539	16.5624	0.71943	25.9568
0.195438	6.81915	0.0404225	1.60791	0.324961	11.3317	0.459754	16.1331	0.589009	20.9848	0.232603	8.84471	0.456167	16.0978	0.720811	25.1609
0.200987	6.79198	0.0419799	1.62512	0.327765	11.0698	0.462399	15.7123	0.590964	20.378	0.234272	8.80564	0.458494	15.6649	0.722233	24.4164
0.206438	6.76324	0.0438108	1.64432	0.330655	10.8268	0.465147	15.3206	0.592975	19.8109	0.236091	8.7644	0.46088	15.2607	0.723697	23.7188
0.211784	6.73287	0.0459161	1.66511	0.333634	10.6009	0.467997	14.9555	0.59504	19.2798	0.238574	8.71026	0.463324	14.8825	0.725202	23.0639
0.21702	6.70084	0.048025	1.68467	0.336706	10.3909	0.470951	14.6148	0.59716	18.7815	0.24173	8.64484	0.465825	14.528	0.726748	22.4479
0.222139	6.6671	0.0501369	1.70309	0.339873	10.1955	0.474007	14.2963	0.599334	18.3132	0.245567	8.56994	0.468381	14.1953	0.728334	21.8676
0.227135	6.63163	0.0522509	1.72045	0.34314	10.0136	0.477166	13.9982	0.60156	17.8724	0.250095	8.48747	0.470992	13.8824	0.72996	21.32
0.232004	6.59441	0.0543665	1.73682	0.34651	9.84431	0.480427	13.7189	0.603839	17.4569	0.255323	8.39933	0.473656	13.5878	0.731626	20.8026
0.236741	6.55543	0.0564832	1.75229	0.349985	9.68663	0.483789	13.4569	0.60617	17.0647	0.260583	8.31743	0.476373	13.31	0.733331	20.3129
0.24134	6.51471	0.0586006	1.76691	0.353568	9.5398	0.487251	13.2108	0.608553	16.6939	0.26587	8.24112	0.47914	13.0476	0.735075	19.849
0.245799	6.47229	0.0607184	1.78074	0.35678	9.42011	0.490812	12.9795	0.610986	16.3429	0.271182	8.16981	0.481958	12.7996	0.736858	19.4088
0.250113	6.42819	0.0628362	1.79383	0.359585	9.32379	0.494472	12.7618	0.613469	16.0104	0.276514	8.10302	0.484826	12.5649	0.738679	18.9908
0.254282	6.3825	0.0649539	1.80625	0.361951	9.24791	0.498228	12.5568	0.616002	15.6948	0.281864	8.04028	0.487741	12.3424	0.740538	18.5932
0.258304	6.33529	0.0670713	1.81802	0.363853	9.19023	0.50208	12.3636	0.618584	15.3952	0.287229	7.98121	0.490704	12.1314	0.742435	18.2147
0.262178	6.28667	0.0691882	1.82921	0.365268	9.14907	0.506025	12.1813	0.621215	15.1103	0.292607	7.92544	0.493713	11.931	0.744369	17.8541
0.265907	6.23674	0.0713045	1.83984	0.366181	9.12328	0.510062	12.0091	0.623893	14.8391	0.297993	7.87267	0.496769	11.7404	0.746341	17.5101
0.269491	6.18564	0.0734201	1.84995	0.367504	9.08694	0.514189	11.8464	0.62662	14.5809	0.303386	7.82261	0.499869	11.5592	0.748349	17.1816
0.272934	6.13349	0.0755349	1.85959	0.368956	9.04839	0.518404	11.6925	0.629393	14.3346	0.308784	7.77499	0.503013	11.3866	0.750393	16.8677
0.276239	6.08046	0.0776489	1.86876	0.370953	8.99751	0.522705	11.5469	0.632214	14.0997	0.314183	7.7296	0.506201	11.2221	0.752474	16.5675
0.27941	6.02667	0.079762	1.87752	0.373517	8.93565	0.527091	11.409	0.635081	13.8753	0.319581	7.68622	0.509432	11.0651	0.754591	16.2802
0.282453	5.97228	0.0818742	1.88588	0.376672	8.86437	0.531558	11.2782	0.637994	13.6609	0.324976	7.64467	0.512705	10.9153	0.756743	16.0049
0.285373	5.91744	0.0839854	1.89387	0.38045	8.78542	0.536104	11.1542	0.640953	13.4558	0.330365	7.60477	0.51602	10.7722	0.758931	15.741
0.288174	5.86228	0.0860958	1.90151	0.384884	8.70062	0.540728	11.0364	0.643958	13.2595	0.335746	7.56638	0.519376	10.6354	0.761153	15.4878
0.290865	5.80694	0.0882051	1.90882	0.38942	8.62157	0.545427	10.9246	0.647008	13.0716	0.341118	7.52934	0.522773	10.5046	0.763411	15.2447
0.293449	5.75156	0.0903137	1.91582	0.394054	8.54783	0.550198	10.8183	0.650104	12.8915	0.346477	7.49353	0.52621	10.3793	0.765703	15.0112
0.295934	5.69624	0.0924212	1.92253	0.398779	8.47898	0.555038	10.7171	0.653245	12.7188	0.351822	7.45882	0.529688	10.2594	0.768029	14.7867
0.298325	5.64111	0.0945279	1.92897	0.403593	8.41463	0.559947	10.6208	0.656431	12.5531	0.35715	7.42512	0.533206	10.1445	0.770389	14.5708
0.300629	5.58625	0.0966337	1.93514	0.408487	8.35439	0.56492	10.5291	0.659662	12.394	0.362459	7.39231	0.536764	10.0343	0.772783	14.363
0.302851	5.53176	0.0987386	1.94108	0.413458	8.29793	0.569955	10.4416	0.662938	12.2413	0.367748	7.36031	0.540361	9.92861	0.77521	14.1628
0.304995	5.47772	0.100843	1.94679	0.418498	8.24491	0.57505	10.3582	0.66626	12.0946	0.373013	7.32903	0.543997	9.8272	0.777671	13.97
0.307069	5.42419	0.102946	1.95227	0.423602	8.19504	0.580202	10.2785	0.669628	11.9535	0.378254	7.29838	0.547198	9.74214	0.780164	13.7841
0.309076	5.37125	0.105048	1.95756	0.428763	8.14804	0.585409	10.2023	0.673042	11.8179	0.383467	7.26831	0.549951	9.67196	0.782691	13.6048
0.311021	5.31893	0.10715	1.96264	0.433977	8.10364	0.590666	10.1295	0.676502	11.6875	0.388651	7.23873	0.552243	9.61549	0.78525	13.4317
0.312909	5.26729	0.109251	1.96755	0.439238	8.06162	0.595972	10.0597	0.680009	11.562	0.393803	7.20959	0.554066	9.57181	0.787842	13.2647
0.314744	5.21637	0.111351	1.97228	0.44454	8.02176	0.601324	9.9929	0.683564	11.4412	0.398922	7.18083	0.555412	9.54023	0.790466	13.1033
0.31653	5.16619	0.11345	1.97684	0.449878	7.98386	0.606718	9.92881	0.687167	11.3249	0.404006	7.15238	0.556277	9.52025	0.793122	12.9474
0.31827	5.11678	0.115549	1.98125	0.455248	7.94774	0.612152	9.86728	0.690819	11.2129	0.409052	7.12422	0.557523	9.49185	0.79581	12.7966
0.319967	5.06816	0.117647	1.9855	0.460645	7.91325	0.616916	9.81563	0.694522	11.105	0.41406	7.09627	0.558882	9.46139	0.798529	12.6508
0.321626	5.02034	0.119745	1.98962	0.466064	7.88021	0.620998	9.77296	0.698276	11.0012	0.419025	7.06851	0.560738	9.42064	0.80128	12.5097
0.323249	4.97334	0.121842	1.9936	0.471501	7.84851	0.624387	9.73857	0.702082	10.9011	0.423948	7.04089	0.5631	9.37021	0.804062	12.3732
0.324838	4.92717	0.123938	1.99745	0.476954	7.81803	0.627074	9.71193	0.705943	10.8048	0.428826	7.01338	0.565975	9.31083	0.806875	12.241
0.326397	4.88182	0.126034	2.00117	0.482417	7.78864	0.629054	9.69264	0.709859	10.712	0.433657	6.98594	0.569375	9.24331	0.809719	12.1129
0.327927	4.8373	0.128129	2.00478	0.487889	7.76024	0.630323	9.68043	0.713833	10.6226	0.43844	6.95854	0.573314	9.16858	0.812594	11.9888
0.329431	4.7936	0.130223	2.00828	0.493366	7.73276	0.632149	9.66305	0.717866	10.5365	0.443172	6.93116	0.577293	9.09666	0.815499	11.8685
0.330911	4.75073	0.132318	2.01167	0.498844	7.70609	0.634137	9.64438	0.721961	10.4537	0.447853	6.90377	0.581311	9.02744	0.818435	11.7519
0.332368	4.70867	0.134411	2.01496	0.504322	7.68017	0.636846	9.61937	0.726119	10.3739	0.45248	6.87634	0.585368	8.96079	0.8214	11.6388
0.333806	4.66743	0.136504	2.01815	0.509796	7.65493	0.640278	9.58832	0.730344	10.2972	0.457053	6.84886	0.589464	8.89662	0.824396	11.529
0.335224	4.62699	0.138597	2.02125	0.515265	7.6303	0.644438	9.55162	0.734637	10.2235	0.461569	6.8213	0.5936	8.8348	0.827421	11.4225
0.336626	4.58734	0.14069	2.02426	0.520726	7.60623	0.649329	9.50968	0.739002	10.1526	0.466029	6.79367	0.597775	8.77525	0.830476	11.3191
0.338011	4.54847	0.142781	2.02718	0.526177	7.58266	0.654953	9.46292	0.742866	10.0931	0.47043	6.76593	0.601988	8.71787	0.83356	11.2187
0.339207	4.51523	0.144873	2.03002	0.531617	7.55955	0.660586	9.41753	0.746206	10.044	0.474772	6.73808	0.606241	8.66257	0.836673	11.1211
0.340218	4.48735	0.146964	2.03279	0.537043	7.53685	0.666222	9.37339	0.749001	10.0045	0.479053	6.71012	0.610531	8.60926	0.839815	11.0263
0.341049	4.4646	0.149055	2.03547	0.542453	7.51453	0.671859	9.33039	0.751232	9.97405	0.483274	6.68204	0.614859	8.55786	0.842986	10.9342
0.341703	4.44682	0.151145	2.03809	0.547847	7.49254	0.677492	9.28843	0.752885	9.95203	0.487433	6.65383	0.619225	8.5083	0.846185	10.8446
0.342182	4.43386	0.153235	2.04063	0.553222	7.47086	0.683116	9.24742	0.753948	9.93811	0.49153	6.62549	0.623628	8.46048	0.849412	10.7575
0.342488	4.42561	0.155325	2.04311	0.558577	7.44945	0.688727	9.20725	0.755484	9.91834	0.495564	6.59702	0.628067	8.41435	0.852667	10.6728
0.342927	4.41382	0.157414	2.04553	0.563911	7.42828	0.694322	9.16785	0.757164	9.89716	0.499536	6.56843	0.632541	8.36982	0.85595	10.5904
0.343403	4.40109	0.159503	2.04788	0.569222	7.40733	0.699894	9.12912	0.759467	9.86888	0.503445	6.53971	0.63705	8.32683	0.859261	10.5102
0.344047	4.38393	0.161592	2.05017	0.574509	7.38658	0.705442	9.09101	0.762408	9.83396	0.507291	6.51087	0.641593	8.28531	0.862599	10.4322
0.34486	4.36247	0.16368	2.05241	0.579772	7.366	0.710961	9.05343	0.766009	9.79299	0.511075	6.48192	0.646169	8.2452	0.865529	10.3658
0.345838	4.33687	0.165769	2.05459	0.585008	7.34557	0.716447	9.01632	0.770297	9.74663	0.514796	6.45286	0.650777	8.20643	0.868044	10.3105
0.346979	4.30733	0.167857	2.05672	0.590216	7.32528	0.721899	8.97963	0.775302	9.69567	0.518455	6.42371	0.655415	8.16894	0.870134	10.2655
0.348282	4.27407	0.169944	2.05879	0.595396	7.3051	0.727312	8.94332	0.7804	9.64702	0.522052	6.39446	0.660083	8.13268	0.871794	10.2305
0.349579	4.24148	0.172032	2.06082	0.600547	7.28502	0.732686	8.90735	0.785592	9.60063	0.525588	6.36514	0.664779	8.09759	0.873018	10.205
0.350869	4.20955	0.174119	2.0628	0.605668	7.26502	0.738018	8.87169	0.790879	9.55642	0.529064	6.33575	0.669503	8.06361	0.873804	10.1888
0.352154	4.17826	0.176206	2.06474	0.610757	7.2451	0.743309	8.83632	0.796259	9.51432	0.532481	6.3063	0.674251	8.03069	0.874935	10.1657
0.353434	4.14761	0.178292	2.06662	0.615813	7.22523	0.748557	8.80123	0.801733	9.47426	0.535838	6.2768	0.679025	7.99878	0.876168	10.1409
0.354711	4.11756	0.180379	2.06847	0.620837	7.2054	0.753763	8.76641	0.8073	9.43615	0.539137	6.24727	0.683821	7.96783	0.877851	10.1074
0.355983	4.08812	0.182465	2.07028	0.625827	7.18562	0.758928	8.73187	0.812958	9.39992	0.54238	6.21771	0.688638	7.93779	0.879987	10.0657
0.357253	4.05927	0.184551	2.07204	0.630782	7.16585	0.764054	8.69761	0.818704	9.36546	0.545566	6.18814	0.693475	7.90861	0.882584	10.0161
0.35852	4.031	0.186637	2.07377	0.635702	7.1461	0.769142	8.66364	0.824536	9.33271	0.548697	6.15858	0.698331	7.88025	0.885647	9.95907
0.359786	4.00329	0.188723	2.07546	0.640585	7.12636	0.774194	8.62998	0.830452	9.30158	0.551775	6.12902	0.703203	7.85268	0.889187	9.8952
0.36105	3.97613	0.190808	2.07711	0.645432	7.10662	0.779213	8.59665	0.836446	9.27196	0.554799	6.09949	0.708091	7.82584	0.892752	9.83292
0.362312	3.94951	0.192894	2.07873	0.650241	7.08687	0.784202	8.56366	0.842518	9.2438	0.557771	6.07	0.712993	7.7997	0.896342	9.77218
0.363574	3.92342	0.194979	2.08031	0.655012	7.0671	0.789162	8.53103	0.848662	9.21699	0.560693	6.04055	0.717907	7.77422	0.899956	9.71292
0.364835	3.89784	0.197064	2.08186	0.659744	7.04732	0.794097	8.49878	0.854874	9.19145	0.563566	6.01116	0.722832	7.74936	0.903595	9.65511
0.366097	3.87277	0.199148	2.08338	0.664436	7.02751	0.79901	8.46693	0.861152	9.16712	0.56639	5.98184	0.727766	7.7251	0.907258	9.59869
0.367358	3.84819	0.201233	2.08486	0.669089	7.00766	0.803903	8.43549	0.867492	9.14392	0.569167	5.95259	0.732708	7.70139	0.910945	9.54362
0.36862	3.82408	0.203318	2.08632	0.673702	6.98779	0.808778	8.40449	0.873889	9.12177	0.571898	5.92343	0.737656	7.67821	0.914655	9.48987
0.369883	3.80045	0.205402	2.08775	0.678274	6.96788	0.813639	8.37392	0.880341	9.10061	0.574584	5.89438	0.742609	7.65552	0.918389	9.43738
0.371146	3.77727	0.207486	2.08915	0.682805	6.94792	0.818487	8.34381	0.886844	9.08038	0.577227	5.86542	0.747565	7.6333	0.922147	9.38613
0.372411	3.75455	0.20957	2.09052	0.687295	6.92793	0.823324	8.31416	0.893395	9.06101	0.579827	5.83659	0.752524	7.61152	0.925927	9.33606
0.373678	3.73226	0.211654	2.09187	0.691743	6.90789	0.828153	8.28497	0.89999	9.04246	0.582385	5.80787	0.757483	7.59015	0.92973	9.28716
0.374946	3.7104	0.213738	2.09319	0.696149	6.8878	0.832976	8.25626	0.906627	9.02466	0.584904	5.77929	0.762441	7.56917	0.933555	9.23939
0.376216	3.68895	0.215821	2.09448	0.700512	6.86766	0.837793	8.22803	0.913303	9.00758	0.587383	5.75084	0.767397	7.54855	0.937403	9.1927
0.377488	3.66792	0.217905	2.09575	0.704833	6.84748	0.842607	8.20027	0.920016	8.99116	0.589824	5.72254	0.77235	7.52827	0.941273	9.14708
0.378763	3.64728	0.219988	2.097	0.709112	6.82725	0.847418	8.17298	0.926762	8.97536	0.592228	5.6944	0.777298	7.50831	0.945164	9.10248
0.380039	3.62704	0.222072	2.09822	0.713348	6.80698	0.852228	8.14617	0.933539	8.96015	0.594596	5.6664	0.78224	7.48865	0.949078	9.05889
0.381319	3.60717	0.224155	2.09943	0.717541	6.78665	0.857037	8.11983	0.940345	8.94548	0.59693	5.63858	0.787174	7.46927	0.953012	9.01626
0.382601	3.58768	0.226238	2.10061	0.721692	6.76628	0.861848	8.09396	0.947178	8.93133	0.599229	5.61092	0.792101	7.45016	0.956969	8.97458
0.383886	3.56855	0.228321	2.10176	0.7258	6.74587	0.866659	8.06855	0.954036	8.91765	0.601496	5.58343	0.797017	7.43128	0.960946	8.93382
0.385173	3.54978	0.230404	2.1029	0.729865	6.72541	0.871472	8.04358	0.960917	8.90441	0.60373	5.55612	0.801924	7.41263	0.964944	8.89395
0.386464	3.53135	0.232486	2.10402	0.733887	6.70492	0.876287	8.01907	0.967818	8.8916	0.605934	5.52899	0.806818	7.39419	0.968962	8.85495
0.387758	3.51327	0.234569	2.10512	0.737867	6.68438	0.881105	7.99499	0.974738	8.87917	0.608108	5.50205	0.811699	7.37595	0.973001	8.81679
0.389056	3.49551	0.236651	2.10619	0.741805	6.66381	0.885926	7.97134	0.981674	8.8671	0.610252	5.4753	0.816567	7.35788	0.977061	8.77946
0.390356	3.47808	0.238734	2.10725	0.7457	6.6432	0.890749	7.94811	0.988626	8.85537	0.612368	5.44874	0.82142	7.33999	0.98114	8.74292
0.391661	3.46097	0.240816	2.1083	0.749554	6.62256	0.895576	7.92529	0.99559	8.84394	0.614457	5.42237	0.826257	7.32225	0.985239	8.70716
0.392968	3.44417	0.242898	2.10932	0.753366	6.6019	0.900405	7.90287	1.00257	8.83281	0.61652	5.3962	0.831077	7.30465	0.989358	8.67215
0.394279	3.42767	0.244981	2.11033	0.757136	6.5812	0.905238	7.88084			0.618556	5.37024	0.835879	7.28719	0.993497	8.63788
0.395594	3.41147	0.247063	2.11132	0.760866	6.56049	0.910072	7.85918			0.620568	5.34447	0.840662	7.26984	0.997654	8.60433
0.396913	3.39556	0.249145	2.11229	0.764554	6.53976	0.91491	7.83789			0.622555	5.31891	0.845427	7.25261	1.00183	8.57148
0.398235	3.37994	0.251226	2.11325	0.768203	6.51901	0.919749	7.81696			0.624519	5.29355	0.850171	7.23547		
0.399562	3.36459	0.253308	2.11419	0.771811	6.49825	0.92459	7.79637			0.626461	5.2684	0.854894	7.21843		
0.400892	3.34951	0.25539	2.11512	0.775379	6.47749	0.929433	7.77611			0.62838	5.24346	0.859595	7.20147		
0.402226	3.3347	0.257472	2.11603	0.778908	6.45671	0.934276	7.75618			0.630278	5.21872	0.864273	7.18459		
0.403564	3.32014	0.259553	2.11693	0.782398	6.43594	0.939121	7.73655			0.632156	5.1942	0.868929	7.16777		
0.404906	3.30584	0.261635	2.11781	0.78585	6.41517	0.943965	7.71723			0.634013	5.16989	0.87356	7.15102		
0.406252	3.29179	0.263716	2.11868	0.789264	6.3944	0.948808	7.69819			0.635852	5.14578	0.878167	7.13432		
0.407602	3.27799	0.265797	2.11954	0.79264	6.37364	0.953651	7.67943			0.637671	5.12189	0.882749	7.11767		
0.408956	3.26442	0.267879	2.12038	0.795979	6.3529	0.958492	7.66094			0.639473	5.09821	0.887305	7.10106		
0.410314	3.25108	0.26996	2.12121	0.799282	6.33217	0.963331	7.6427			0.641257	5.07474	0.891836	7.08449		
0.411677	3.23797	0.272041	2.12203	0.802548	6.31146	0.968167	7.62471			0.643024	5.05148	0.896339	7.06795		
0.413043	3.22509	0.274122	2.12283	0.805779	6.29077	0.973	7.60695			0.644775	5.02843	0.900815	7.05145		
0.414414	3.21242	0.276203	2.12363	0.808974	6.27011	0.977829	7.58942			0.64651	5.00559	0.905264	7.03497		
0.415789	3.19997	0.278284	2.12441	0.812135	6.24948	0.982653	7.57211			0.64823	4.98296	0.909685	7.0185		
0.417168	3.18772	0.280365	2.12518	0.815261	6.22888	0.987473	7.55501			0.649935	4.96054	0.914078	7.00206		
0.418551	3.17568	0.282446	2.12594	0.818354	6.20831	0.992286	7.5381			0.651625	4.93832	0.918442	6.98564		
0.419939	3.16385	0.284527	2.12669	0.821413	6.18779	0.997092	7.52138			0.653302	4.91632	0.922777	6.96922		
0.42133	3.1522	0.286607	2.12742	0.82444	6.1673	1.00189	7.50484			0.654966	4.89452	0.927083	6.95282		
0.422726	3.14075	0.288688	2.12815	0.827434	6.14686					0.656616	4.87293	0.931359	6.93642		
0.424126	3.12949	0.290769	2.12887	0.830397	6.12647					0.658255	4.85154	0.935606	6.92003		
0.425531	3.11842	0.292849	2.12957	0.833328	6.10612					0.659881	4.83035	0.939823	6.90365		
0.426939	3.10752	0.29493	2.13027	0.836229	6.08583					0.661495	4.80937	0.94401	6.88727		
0.428352	3.0968	0.29701	2.13095	0.839099	6.06559					0.663098	4.78859	0.948167	6.87089		
0.429769	3.08626	0.29909	2.13163	0.841939	6.04541					0.664691	4.76801	0.952294	6.85452		
0.43119	3.07588	0.301171	2.1323	0.844751	6.02528					0.666273	4.74763	0.95639	6.83814		
0.432615	3.06567	0.303251	2.13296	0.847533	6.00522					0.667845	4.72744	0.960456	6.82177		
0.434044	3.05563	0.305331	2.13361	0.850286	5.98522					0.669407	4.70746	0.964492	6.8054		
0.435478	3.04574	0.307411	2.13425	0.853012	5.96528					0.67096	4.68766	0.968497	6.78903		
0.436915	3.03601	0.309492	2.13488	0.855711	5.94542					0.672504	4.66806	0.972472	6.77266		
0.438357	3.02644	0.311572	2.13551	0.858382	5.92562					0.674039	4.64865	0.976416	6.75629		
0.439803	3.01702	0.313652	2.13612	0.861027	5.90589					0.675565	4.62944	0.980331	6.73993		
0.441253	3.00774	0.315732	2.13673	0.863645	5.88623					0.677084	4.61041	0.984215	6.72356		
0.442707	2.99861	0.317812	2.13733	0.866238	5.86665					0.678594	4.59156	0.988069	6.7072		
0.444165	2.98962	0.319892	2.13792	0.868806	5.84715					0.680098	4.57291	0.991893	6.69084		
0.445628	2.98077	0.321972	2.13851	0.871349	5.82772					0.681594	4.55443	0.995687	6.67449		
0.447094	2.97205	0.324051	2.13908	0.873867	5.80837					0.683083	4.53614	0.999451	6.65814		
0.448564	2.96347	0.326131	2.13965	0.876361	5.7891					0.684565	4.51803	1.00319	6.64179		
0.450038	2.95502	0.328211	2.14021	0.878832	5.76991					0.686041	4.5001				
0.451517	2.9467	0.330291	2.14077	0.88128	5.7508					0.687511	4.48235				
0.452999	2.93851	0.33237	2.14132	0.883705	5.73178					0.688974	4.46477				
0.454485	2.93044	0.33445	2.14186	0.886108	5.71284					0.690433	4.44737				
0.455975	2.92249	0.33653	2.14239	0.888489	5.69399					0.691885	4.43014				
0.457469	2.91466	0.338609	2.14292	0.890848	5.67522					0.693332	4.41308				
0.458967	2.90695	0.340689	2.14345	0.893186	5.65654					0.694775	4.39619				
0.460469	2.89935	0.342768	2.14396	0.895503	5.63795					0.696212	4.37947				
0.461974	2.89186	0.344848	2.14447	0.8978	5.61945					0.697645	4.36291				
0.463484	2.88449	0.346927	2.14497	0.900077	5.60104					0.699073	4.34652				
0.464997	2.87722	0.349007	2.14547	0.902334	5.58271					0.700497	4.33029				
0.466514	2.87006	0.351086	2.14596	0.904572	5.56448					0.701918	4.31422				
0.468035	2.86301	0.353165	2.14645	0.906791	5.54635					0.703334	4.29831				
0.469559	2.85606	0.355245	2.14693	0.908991	5.5283					0.704746	4.28255				
0.471087	2.84921	0.357324	2.1474	0.911173	5.51035					0.706155	4.26696				
0.472619	2.84245	0.359403	2.14787	0.913337	5.49249					0.707561	4.25152				
0.474154	2.8358	0.361482	2.14834	0.915484	5.47472					0.708963	4.23623				
0.475694	2.82924	0.363561	2.1488	0.917613	5.45705					0.710362	4.22109				
0.477236	2.82277	0.365641	2.14925	0.919725	5.43947					0.711759	4.2061				
0.478783	2.8164	0.36772	2.1497	0.921821	5.42199					0.713152	4.19126				
0.480332	2.81011	0.369799	2.15014	0.9239	5.4046					0.714543	4.17657				
0.481886	2.80392	0.371878	2.15058	0.925963	5.38731					0.715932	4.16202				
0.483443	2.79781	0.373957	2.15101	0.928011	5.37011					0.717318	4.14761				
0.485003	2.79179	0.376036	2.15144	0.930043	5.35301					0.718702	4.13334				
0.486567	2.78585	0.378115	2.15186	0.93206	5.33601					0.720084	4.11922				
0.488134	2.77999	0.380194	2.15228	0.934062	5.3191					0.721464	4.10523				
0.489705	2.77422	0.382273	2.1527	0.93605	5.30229					0.722842	4.09139				
0.491279	2.76852	0.384352	2.15311	0.938024	5.28557					0.724218	4.07767				
0.492857	2.7629	0.38643	2.15351	0.939983	5.26895					0.725593	4.06409				
0.494437	2.75736	0.388509	2.15392	0.941929	5.25243					0.726966	4.05065				
0.496022	2.7519	0.390588	2.15431	0.943862	5.236					0.728338	4.03733				
0.497609	2.74651	0.392667	2.15471	0.945781	5.21967					0.729709	4.02414				
0.4992	2.74119	0.394746	2.1551	0.947687	5.20343					0.731078	4.01109				
0.500794	2.73595	0.396824	2.15548	0.949581	5.1873					0.732446	3.99816				
0.502391	2.73078	0.398903	2.15586	0.951462	5.17125					0.733813	3.98535				
0.503991	2.72567	0.400982	2.15624	0.953332	5.15531					0.73518	3.97267				
0.505595	2.72063	0.40306	2.15661	0.955189	5.13946					0.736545	3.96011				
0.507201	2.71566	0.405139	2.15698	0.957034	5.1237					0.73791	3.94767				
0.508811	2.71076	0.407218	2.15735	0.958869	5.10804					0.739274	3.93535				
0.510424	2.70592	0.409296	2.15771	0.960692	5.09248					0.740637	3.92315				
0.51204	2.70115	0.411375	2.15807	0.962504	5.07701					0.742	3.91107				
0.513659	2.69644	0.413454	2.15842	0.964305	5.06164					0.743363	3.8991				
0.515281	2.69179	0.415532	2.15877	0.966096	5.04636					0.744725	3.88725				
0.516906	2.6872	0.417611	2.15912	0.967876	5.03117					0.746087	3.87551				
0.518534	2.68267	0.419689	2.15946	0.969647	5.01608					0.747448	3.86389				
0.520166	2.6782	0.421768	2.1598	0.971407	5.00108					0.74881	3.85237				
0.5218	2.67378	0.423846	2.16014	0.973158	4.98618					0.750171	3.84096				
0.523436	2.66943	0.425924	2.16047	0.974899	4.97137					0.751533	3.82967				
0.525076	2.66513	0.428003	2.1608	0.976631	4.95665					0.752894	3.81847				
0.526719	2.66088	0.430081	2.16113	0.978354	4.94203					0.754256	3.80739				
0.528364	2.65669	0.43216	2.16146	0.980068	4.9275					0.755617	3.79641				
0.530013	2.65255	0.434238	2.16178	0.981774	4.91306					0.756979	3.78553				
0.531664	2.64846	0.436316	2.1621	0.98347	4.89871					0.758342	3.77476				
0.533318	2.64443	0.438395	2.16241	0.985159	4.88445					0.759704	3.76408				
0.534975	2.64045	0.440473	2.16272	0.986839	4.87028					0.761067	3.75351				
0.536634	2.63651	0.442551	2.16303	0.988512	4.85621					0.762431	3.74303				
0.538296	2.63263	0.444629	2.16334	0.990176	4.84222					0.763795	3.73265				
0.539961	2.62879	0.446708	2.16364	0.991833	4.82833					0.765159	3.72237				
0.541628	2.625	0.448786	2.16394	0.993482	4.81452					0.766524	3.71219				
0.543299	2.62126	0.450864	2.16424	0.995125	4.8008					0.76789	3.7021				
0.544971	2.61757	0.452942	2.16454	0.99676	4.78717					0.769256	3.6921				
0.546647	2.61392	0.45502	2.16483	0.998387	4.77363					0.770623	3.6822				
0.548325	2.61031	0.457099	2.16512	1.00001	4.76017					0.771991	3.67238				
0.550005	2.60675	0.459177	2.16541							0.773359	3.66266				
0.551688	2.60323	0.461255	2.16569							0.774728	3.65303				
0.553374	2.59976	0.463333	2.16597							0.776099	3.64348				
0.555062	2.59632	0.465411	2.16625							0.77747	3.63402				
0.556753	2.59293	0.467489	2.16653							0.778842	3.62465				
0.558446	2.58958	0.469567	2.1668							0.780215	3.61536				
0.560142	2.58627	0.471645	2.16708							0.781589	3.60616				
0.561839	2.583	0.473723	2.16735							0.782964	3.59704				
0.56354	2.57976	0.475801	2.16761							0.78434	3.58801				
0.565243	2.57657	0.477879	2.16788							0.785717	3.57905				
0.566948	2.57341	0.479957	2.16814							0.787095	3.57018				
0.568655	2.57029	0.482035	2.1684							0.788475	3.56139				
0.570365	2.56721	0.484113	2.16866							0.789855	3.55267				
0.572077	2.56416	0.486191	2.16892							0.791237	3.54403				
0.573792	2.56115	0.488269	2.16917							0.79262	3.53548				
0.575508	2.55818	0.490347	2.16942							0.794005	3.52699				
0.577227	2.55523	0.492424	2.16967							0.79539	3.51858				
0.578948	2.55233	0.494502	2.16992							0.796777	3.51025				
0.580672	2.54945	0.49658	2.17016							0.798165	3.50199				
0.582397	2.54661	0.498658	2.17041							0.799555	3.49381				
0.584125	2.5438	0.500736	2.17065							0.800946	3.48569				
0.585855	2.54103	0.502814	2.17089							0.802338	3.47765				
0.587587	2.53828	0.504891	2.17112							0.803731	3.46968				
0.589322	2.53557	0.506969	2.17136							0.805127	3.46178				
0.591058	2.53289	0.509047	2.17159							0.806523	3.45395				
0.592796	2.53023	0.511125	2.17182							0.807921	3.44619				
0.594537	2.52761	0.513202	2.17205							0.80932	3.43849				
0.59628	2.52502	0.51528	2.17228							0.810721	3.43086				
0.598024	2.52245	0.517358	2.17251							0.812124	3.4233				
0.599771	2.51992	0.519435	2.17273							0.813528	3.4158				
0.60152	2.51741	0.521513	2.17295							0.814933	3.40837				
0.60327	2.51493	0.523591	2.17317							0.81634	3.401				
0.605023	2.51248	0.525668	2.17339							0.817749	3.3937				
0.606778	2.51005	0.527746	2.17361							0.819159	3.38645				
0.608534	2.50766	0.529824	2.17383							0.820571	3.37927				
0.610293	2.50528	0.531901	2.17404							0.821984	3.37216				
0.612053	2.50294	0.533979	2.17425							0.823399	3.3651				
0.613816	2.50062	0.536056	2.17446							0.824815	3.3581				
0.61558	2.49832	0.538134	2.17467							0.826234	3.35116				
0.617346	2.49605	0.540212	2.17488							0.827653	3.34428				
0.619114	2.49381	0.542289	2.17508							0.829075	3.33746				
0.620884	2.49158	0.544367	2.17529							0.830498	3.3307				
0.622655	2.48939	0.546444	2.17549							0.831923	3.32399				
0.624429	2.48721	0.548522	2.17569							0.833349	3.31734				
0.626204	2.48506	0.550599	2.17589							0.834777	3.31075				
0.627981	2.48293	0.552677	2.17609							0.836207	3.30421				
0.62976	2.48083	0.554754	2.17628							0.837638	3.29773				
0.63154	2.47874	0.556832	2.17648							0.839072	3.2913				
0.633323	2.47668	0.558909	2.17667							0.840507	3.28492				
0.635107	2.47464	0.560987	2.17686							0.841943	3.2786				
0.636893	2.47262	0.563064	2.17705							0.843382	3.27232				
0.63868	2.47063	0.565141	2.17724							0.844822	3.26611				
0.640469	2.46865	0.567219	2.17743							0.846263	3.25994				
0.64226	2.4667	0.569296	2.17762							0.847707	3.25382				
0.644053	2.46476	0.571374	2.1778							0.849152	3.24775				
0.645847	2.46284	0.573451	2.17798							0.850599	3.24174				
0.647642	2.46095	0.575528	2.17817							0.852048	3.23577				
0.64944	2.45907	0.577606	2.17835							0.853499	3.22985				
0.651239	2.45722	0.579683	2.17853							0.854951	3.22398				
0.65304	2.45538	0.58176	2.17871							0.856405	3.21815				
0.654842	2.45356	0.583838	2.17888							0.857861	3.21238				
0.656646	2.45176	0.585915	2.17906							0.859318	3.20665				
0.658451	2.44998	0.587992	2.17923							0.860778	3.20097				
0.660258	2.44821	0.590069	2.17941							0.862239	3.19533				
0.662066	2.44647	0.592147	2.17958							0.863702	3.18974				
0.663876	2.44474	0.594224	2.17975							0.865167	3.18419				
0.665688	2.44303	0.596301	2.17992							0.866633	3.17869				
0.667501	2.44133	0.598378	2.18009							0.868101	3.17323				
0.669315	2.43966	0.600456	2.18025							0.869571	3.16781				
0.671131	2.438	0.602533	2.18042							0.871043	3.16244				
0.672948	2.43635	0.60461	2.18058							0.872517	3.15711				
0.674767	2.43472	0.606687	2.18075							0.873992	3.15182				
0.676588	2.43311	0.608765	2.18091							0.875469	3.14658				
0.678409	2.43152	0.610842	2.18107							0.876948	3.14138				
0.680232	2.42994	0.612919	2.18123							0.878429	3.13621				
0.682057	2.42837	0.614996	2.18139							0.879912	3.13109				
0.683883	2.42682	0.617073	2.18155							0.881396	3.12601				
0.68571	2.42529	0.61915	2.18171							0.882882	3.12097				
0.687539	2.42377	0.621227	2.18186							0.88437	3.11596				
0.689369	2.42227	0.623305	2.18202							0.88586	3.111				
0.691201	2.42078	0.625382	2.18217							0.887351	3.10607				
0.693033	2.4193	0.627459	2.18233							0.888844	3.10119				
0.694867	2.41784	0.629536	2.18248							0.890339	3.09634				
0.696703	2.41639	0.631613	2.18263							0.891836	3.09153				
0.69854	2.41496	0.63369	2.18278							0.893335	3.08675				
0.700378	2.41354	0.635767	2.18293							0.894835	3.08201				
0.702217	2.41213	0.637844	2.18308							0.896337	3.07731				
0.704058	2.41074	0.639921	2.18322							0.897841	3.07265				
0.7059	2.40936	0.641998	2.18337							0.899347	3.06802				
0.707743	2.408	0.644075	2.18351							0.900854	3.06342				
0.709588	2.40664	0.646152	2.18366							0.902363	3.05887				
0.711433	2.4053	0.648229	2.1838							0.903874	3.05434				
0.71328	2.40397	0.650306	2.18394							0.905387	3.04985				
0.715128	2.40266	0.652383	2.18408							0.906902	3.04539				
0.716978	2.40136	0.65446	2.18422							0.908418	3.04097				
0.718829	2.40006	0.656537	2.18436							0.909936	3.03658				
0.72068	2.39879	0.658614	2.1845							0.911456	3.03223				
0.722533	2.39752	0.660691	2.18464							0.912977	3.0279				
0.724388	2.39626	0.662768	2.18478							0.914501	3.02361				
0.726243	2.39502	0.664845	2.18491							0.916026	3.01935				
0.7281	2.39379	0.666922	2.18505							0.917552	3.01513				
0.729957	2.39256	0.668999	2.18518							0.919081	3.01093				
0.731816	2.39135	0.671076	2.18532							0.920611	3.00677				
0.733676	2.39016	0.673152	2.18545							0.922143	3.00263				
0.735537	2.38897	0.675229	2.18558							0.923677	2.99853				
0.7374	2.38779	0.677306	2.18571							0.925212	2.99446				
0.739263	2.38662	0.679383	2.18584							0.92675	2.99042				
0.741127	2.38547	0.68146	2.18597							0.928289	2.9864				
0.742993	2.38432	0.683537	2.1861							0.929829	2.98242				
0.74486	2.38319	0.685614	2.18623							0.931372	2.97847				
0.746727	2.38206	0.68769	2.18635							0.932916	2.97454				
0.748596	2.38095	0.689767	2.18648							0.934461	2.97065				
0.750466	2.37984	0.691844	2.18661							0.936009	2.96678				
0.752337	2.37875	0.693921	2.18673							0.937558	2.96294				
0.754209	2.37766	0.695998	2.18685							0.939109	2.95913				
0.756082	2.37659	0.698074	2.18698							0.940661	2.95534				
0.757956	2.37552	0.700151	2.1871							0.942216	2.95159				
0.759832	2.37447	0.702228	2.18722							0.943772	2.94786				
0.761708	2.37342	0.704305	2.18734							0.945329	2.94415				
0.763585	2.37238	0.706382	2.18746							0.946889	2.94048				
0.765463	2.37135	0.708458	2.18758							0.948449	2.93683				
0.767342	2.37033	0.710535	2.1877							0.950012	2.9332				
0.769223	2.36932	0.712612	2.18782							0.951576	2.92961				
0.771104	2.36832	0.714688	2.18794							0.953142	2.92604				
0.772986	2.36732	0.716765	2.18805							0.95471	2.92249				
0.774869	2.36634	0.718842	2.18817							0.956279	2.91897				
0.776753	2.36536	0.720919	2.18828							0.95785	2.91547				
0.778638	2.3644	0.722995	2.1884							0.959423	2.912				
0.780524	2.36344	0.725072	2.18851							0.960997	2.90855				
0.782411	2.36248	0.727149	2.18863							0.962573	2.90513				
0.784299	2.36154	0.729225	2.18874							0.96415	2.90173				
0.786188	2.36061	0.731302	2.18885							0.965729	2.89836				
0.788078	2.35968	0.733379	2.18896							0.96731	2.89501				
0.789968	2.35876	0.735455	2.18907							0.968892	2.89168				
0.79186	2.35785	0.737532	2.18918							0.970476	2.88837				
0.793752	2.35695	0.739609	2.18929							0.972062	2.88509				
0.795646	2.35605	0.741685	2.1894							0.973649	2.88183				
0.79754	2.35516	0.743762	2.18951							0.975238	2.8786				
0.799435	2.35428	0.745838	2.18962							0.976828	2.87538				
0.801331	2.35341	0.747915	2.18972							0.97842	2.87219				
0.803228	2.35254	0.749992	2.18983							0.980013	2.86902				
0.805126	2.35168	0.752068	2.18994							0.981608	2.86588				
0.807025	2.35083	0.754145	2.19004							0.983205	2.86275				
0.808924	2.34999	0.756221	2.19015							0.984803	2.85965				
0.810825	2.34915	0.758298	2.19025							0.986403	2.85656				
0.812726	2.34832	0.760374	2.19035							0.988004	2.8535				
0.814628	2.34749	0.762451	2.19046							0.989607	2.85046				
0.816531	2.34668	0.764527	2.19056							0.991212	2.84744				
0.818434	2.34587	0.766604	2.19066							0.992818	2.84444				
0.820339	2.34506	0.76868	2.19076							0.994425	2.84146				
0.822244	2.34427	0.770757	2.19086							0.996034	2.8385				
0.82415	2.34348	0.772833	2.19096							0.997645	2.83556				
0.826057	2.34269	0.77491	2.19106							0.999257	2.83265				
0.827965	2.34191	0.776986	2.19116							1.00087	2.82975				
0.829874	2.34114	0.779063	2.19126												
0.831783	2.34038	0.781139	2.19136												
0.833693	2.33962	0.783216	2.19145												
0.835604	2.33887	0.785292	2.19155												
0.837516	2.33812	0.787369	2.19165												
0.839428	2.33738	0.789445	2.19174												
0.841342	2.33664	0.791522	2.19184												
0.843256	2.33592	0.793598	2.19193												
0.84517	2.33519	0.795674	2.19203												
0.847086	2.33448	0.797751	2.19212												
0.849002	2.33376	0.799827	2.19221												
0.850919	2.33306	0.801904	2.19231												
0.852837	2.33236	0.80398	2.1924												
0.854755	2.33166	0.806056	2.19249												
0.856674	2.33097	0.808133	2.19258												
0.858594	2.33029	0.810209	2.19267												
0.860515	2.32961	0.812285	2.19276												
0.862436	2.32894	0.814362	2.19285												
0.864358	2.32827	0.816438	2.19294												
0.866281	2.32761	0.818515	2.19303												
0.868204	2.32695	0.820591	2.19312												
0.870128	2.3263	0.822667	2.19321												
0.872053	2.32565	0.824743	2.1933												
0.873978	2.32501	0.82682	2.19338												
0.875905	2.32437	0.828896	2.19347												
0.877831	2.32374	0.830972	2.19356												
0.879759	2.32312	0.833049	2.19364												
0.881687	2.32249	0.835125	2.19373												
0.883616	2.32187	0.837201	2.19381												
0.885545	2.32126	0.839277	2.1939												
0.887475	2.32065	0.841354	2.19398												
0.889406	2.32005	0.84343	2.19406												
0.891338	2.31945	0.845506	2.19415												
0.89327	2.31886	0.847582	2.19423												
0.895202	2.31827	0.849659	2.19431												
0.897135	2.31768	0.851735	2.19439												
0.899069	2.3171	0.853811	2.19447												
0.901004	2.31652	0.855887	2.19456												
0.902939	2.31595	0.857963	2.19464												
0.904875	2.31538	0.86004	2.19472												
0.906811	2.31482	0.862116	2.1948												
0.908748	2.31426	0.864192	2.19488												
0.910686	2.3137	0.866268	2.19496												
0.912624	2.31315	0.868344	2.19503												
0.914563	2.31261	0.870421	2.19511												
0.916502	2.31206	0.872497	2.19519												
0.918442	2.31152	0.874573	2.19527												
0.920383	2.31099	0.876649	2.19534												
0.922324	2.31046	0.878725	2.19542												
0.924266	2.30993	0.880801	2.1955												
0.926208	2.30941	0.882877	2.19557												
0.928151	2.30889	0.884953	2.19565												
0.930094	2.30837	0.88703	2.19573												
0.932038	2.30786	0.889106	2.1958												
0.933983	2.30735	0.891182	2.19587												
0.935928	2.30685	0.893258	2.19595												
0.937874	2.30635	0.895334	2.19602												
0.93982	2.30585	0.89741	2.1961												
0.941767	2.30536	0.899486	2.19617												
0.943714	2.30487	0.901562	2.19624												
0.945662	2.30438	0.903638	2.19631												
0.94761	2.3039	0.905714	2.19639												
0.949559	2.30342	0.90779	2.19646												
0.951508	2.30294	0.909866	2.19653												
0.953458	2.30247	0.911942	2.1966												
0.955409	2.302	0.914018	2.19667												
0.95736	2.30154	0.916094	2.19674												
0.959311	2.30107	0.91817	2.19681												
0.961263	2.30061	0.920246	2.19688												
0.963216	2.30016	0.922322	2.19695												
0.965169	2.2997	0.924398	2.19702												
0.967123	2.29926	0.926474	2.19709												
0.969077	2.29881	0.92855	2.19716												
0.971031	2.29837	0.930626	2.19723												
0.972986	2.29793	0.932702	2.19729												
0.974942	2.29749	0.934778	2.19736												
0.976898	2.29706	0.936854	2.19743												
0.978854	2.29662	0.93893	2.1975												
0.980811	2.2962	0.941006	2.19756												
0.982769	2.29577	0.943082	2.19763												
0.984727	2.29535	0.945158	2.1977												
0.986685	2.29493	0.947234	2.19776												
0.988644	2.29451	0.949309	2.19783												
0.990603	2.2941	0.951385	2.19789												
0.992563	2.29369	0.953461	2.19796												
0.994524	2.29328	0.955537	2.19802												
0.996484	2.29288	0.957613	2.19808												
0.998446	2.29248	0.959689	2.19815												
1.00041	2.29208	0.961765	2.19821												
		0.963841	2.19828												
		0.965916	2.19834												
		0.967992	2.1984												
		0.970068	2.19846												
		0.972144	2.19853												
		0.97422	2.19859												
		0.976296	2.19865												
		0.978371	2.19871												
		0.980447	2.19877												
		0.982523	2.19883												
		0.984599	2.19889												
		0.986675	2.19895												
		0.98875	2.19901												
		0.990826	2.19907												
		0.992902	2.19913												
		0.994978	2.19919												
		0.997053	2.19925												
		0.999129	2.19931												
		1.0012	2.19937												
