Sym0		Asym0		Sym1		Sym2		Sym3		Sym4		Asym1		Asym2		Asym3		Asym4	
494  Points		499  Points		364  Points		214  Points		177  Points		148  Points		444  Points		268  Points		189  Points		150  Points	
Freq (MHz)	Vph (m/ms)	Freq (MHz)	Vph (m/ms)	Freq (MHz)	Vph (m/ms)	Freq (MHz)	Vph (m/ms)	Freq (MHz)	Vph (m/ms)	Freq (MHz)	Vph (m/ms)	Freq (MHz)	Vph (m/ms)	Freq (MHz)	Vph (m/ms)	Freq (MHz)	Vph (m/ms)	Freq (MHz)	Vph (m/ms)
0.00191888	5.32387	0.000270986	0.144478	0.279507	326.447	0.33044	1314.53	0.559028	708.318	0.838526	12007.5	0.139768	389.955	0.419271	645.286	0.660873	8765.52	0.698784	896.15
0.00687869	5.32356	0.000605045	0.215524	0.279502	156.329	0.330518	279.373	0.559069	324.865	0.838535	837.256	0.139938	108.469	0.419314	265.147	0.660883	656.23	0.698832	408.326
0.0118373	5.32296	0.00106818	0.285685	0.279494	102.77	0.330698	156.376	0.559141	210.788	0.838563	433.764	0.140299	63.1461	0.419391	166.88	0.66091	340.889	0.698917	264.426
0.0167939	5.32208	0.00165681	0.354723	0.279483	76.5437	0.330979	108.644	0.559244	156.025	0.838607	292.716	0.140848	44.664	0.419504	121.778	0.660954	230.259	0.699038	195.543
0.0217475	5.32088	0.0023665	0.422408	0.279472	60.9803	0.331359	83.2947	0.559378	123.865	0.838669	220.899	0.141583	34.6575	0.419652	95.887	0.661014	173.852	0.699195	155.151
0.0266973	5.31936	0.00319207	0.488525	0.279461	50.6759	0.331838	67.5862	0.559542	102.711	0.838748	177.389	0.142498	28.4037	0.419835	79.0915	0.661093	139.652	0.699388	128.606
0.0316425	5.31753	0.00412794	0.552913	0.279453	43.3504	0.332414	56.9052	0.559737	87.7412	0.838844	148.206	0.14359	24.1385	0.420053	67.3171	0.661188	116.703	0.699617	109.831
0.036582	5.31537	0.00516798	0.615419	0.279448	37.8755	0.333086	49.1767	0.559962	76.5907	0.838957	127.275	0.144851	21.0531	0.420306	58.607	0.661301	100.239	0.699881	95.8528
0.0415149	5.31289	0.00630595	0.675938	0.27945	33.6291	0.333851	43.3294	0.560218	67.9645	0.839088	111.531	0.146276	18.7246	0.420594	51.9041	0.661431	87.8516	0.700182	85.0424
0.0464402	5.31007	0.00753539	0.73438	0.279461	30.2399	0.334707	38.7543	0.560504	61.0938	0.839236	99.2581	0.147858	16.9102	0.420917	46.5874	0.661579	78.1948	0.700517	76.4338
0.051357	5.30691	0.00884989	0.790693	0.279482	27.4725	0.335652	35.0795	0.560821	55.4928	0.839401	89.4237	0.149588	15.4607	0.421275	42.2682	0.661744	70.4557	0.700888	69.4175
0.0562641	5.3034	0.0102431	0.844841	0.279517	25.1707	0.336683	32.065	0.561168	50.8402	0.839584	81.367	0.151461	14.2793	0.421667	38.6907	0.661928	64.1152	0.701295	63.5898
0.0611605	5.29952	0.0117088	0.896815	0.279567	23.2265	0.3378	29.5494	0.561545	46.9144	0.839783	74.6462	0.153469	13.3003	0.422093	35.6796	0.66213	58.826	0.701735	58.673
0.0660451	5.29527	0.0132412	0.946631	0.279636	21.5632	0.338998	27.4195	0.561952	43.5579	0.84	68.9549	0.155604	12.4778	0.422553	33.1109	0.662351	54.347	0.702211	54.4696
0.0709166	5.29064	0.0148344	0.994305	0.279726	20.1243	0.340277	25.5941	0.56239	40.6558	0.840234	64.0736	0.157859	11.7787	0.423048	30.8941	0.66259	50.5057	0.702721	50.8353
0.0757737	5.2856	0.0164833	1.03989	0.27984	18.8678	0.341632	24.0133	0.562858	38.122	0.840485	59.8412	0.160228	11.1783	0.423576	28.9622	0.662848	47.1751	0.703265	47.6622
0.0806151	5.28016	0.0181826	1.08341	0.279979	17.7614	0.343064	22.6318	0.563355	35.8908	0.840753	56.1364	0.162704	10.6582	0.424138	27.2638	0.663126	44.26	0.703844	44.8683
0.0854395	5.27429	0.0199279	1.12495	0.280147	16.7803	0.344568	21.4148	0.563883	33.9115	0.841038	52.8667	0.165279	10.2041	0.424734	25.7593	0.663423	41.6874	0.704455	42.3896
0.0902453	5.26797	0.0217147	1.16457	0.280347	15.9046	0.346143	20.3352	0.56444	32.144	0.84134	49.9598	0.167948	9.80496	0.425363	24.4177	0.663739	39.4006	0.705101	40.1761
0.0950309	5.26119	0.023539	1.20233	0.28058	15.1187	0.347788	19.3715	0.565026	30.5561	0.841659	47.3586	0.170706	9.45183	0.426025	23.2141	0.664076	37.3546	0.705779	38.1875
0.0997947	5.25392	0.0253971	1.23831	0.280849	14.4098	0.3495	18.5065	0.565643	29.1221	0.841995	45.0175	0.173546	9.13769	0.426719	22.1286	0.664433	35.5135	0.706491	36.3914
0.104535	5.24615	0.0272855	1.27257	0.281156	13.7675	0.351277	17.7261	0.566288	27.8208	0.842349	42.8994	0.176463	8.85681	0.427447	21.1447	0.66481	33.8481	0.707235	34.7615
0.109249	5.23784	0.0292012	1.3052	0.281505	13.1831	0.353117	17.0188	0.566963	26.6348	0.842719	40.9741	0.179453	8.6045	0.428206	20.249	0.665209	32.3346	0.708011	33.2758
0.113937	5.22898	0.0311414	1.33628	0.281898	12.6496	0.35502	16.3752	0.567667	25.5496	0.843106	39.2164	0.18251	8.37687	0.428998	19.4304	0.665628	30.9531	0.70882	31.9162
0.118594	5.21954	0.0331034	1.36586	0.282338	12.1609	0.356983	15.7873	0.5684	24.553	0.84351	37.6055	0.185631	8.17068	0.429822	18.6794	0.666069	29.6874	0.70966	30.6675
0.123219	5.20949	0.0350849	1.39403	0.282827	11.712	0.359004	15.2484	0.569162	23.6347	0.843931	36.1238	0.18881	7.98324	0.430677	17.9883	0.666532	28.5235	0.710533	29.5168
0.12781	5.19879	0.037084	1.42086	0.283369	11.2985	0.361083	14.7529	0.569953	22.786	0.844369	34.7564	0.192044	7.81225	0.431564	17.3501	0.667016	27.4498	0.711436	28.4531
0.132363	5.18741	0.0390984	1.44641	0.283965	10.9167	0.363218	14.2959	0.570772	21.9993	0.844824	33.4907	0.19533	7.65575	0.432482	16.7593	0.667523	26.4563	0.712371	27.467
0.136877	5.17533	0.0411266	1.47075	0.28462	10.5635	0.365407	13.8733	0.57162	21.2682	0.845295	32.3159	0.198664	7.5121	0.43343	16.2108	0.668052	25.5344	0.713336	26.5504
0.141347	5.1625	0.0431671	1.49394	0.285336	10.2361	0.36765	13.4816	0.572496	20.5872	0.845783	31.2224	0.202042	7.37985	0.43441	15.7003	0.668603	24.6767	0.714333	25.6964
0.145771	5.14888	0.0449539	1.51326	0.286117	9.93218	0.369944	13.1176	0.5734	19.9512	0.846288	30.2023	0.20502	7.27293	0.43542	15.2242	0.669178	23.8768	0.715359	24.8988
0.150146	5.13444	0.046483	1.52911	0.286966	9.64956	0.37229	12.7786	0.574332	19.3562	0.84681	29.2484	0.207582	7.18734	0.43646	14.7791	0.669776	23.1293	0.716416	24.1524
0.154468	5.11913	0.0477511	1.54179	0.287886	9.38645	0.374685	12.4622	0.575292	18.7983	0.847348	28.3545	0.209716	7.12013	0.437531	14.3622	0.670397	22.4291	0.717503	23.4524
0.158733	5.10291	0.048756	1.55157	0.288882	9.14123	0.377129	12.1665	0.57628	18.2742	0.847903	27.5152	0.211412	7.06912	0.438631	13.9711	0.671042	21.772	0.718619	22.7947
0.162937	5.08575	0.049496	1.55861	0.289958	8.91249	0.37962	11.8895	0.577296	17.7811	0.848475	26.7257	0.212665	7.03275	0.439761	13.6034	0.67171	21.1542	0.719765	22.1757
0.167077	5.06759	0.0499701	1.56306	0.291116	8.69898	0.382158	11.6296	0.578339	17.3163	0.849063	25.9818	0.213469	7.00997	0.44092	13.2571	0.672403	20.5724	0.720941	21.5921
0.171148	5.0484	0.0506523	1.56937	0.292361	8.49956	0.384742	11.3855	0.579409	16.8775	0.849667	25.2795	0.214627	6.97786	0.442108	12.9306	0.67312	20.0235	0.722146	21.0411
0.175146	5.02813	0.0513946	1.57612	0.293697	8.31323	0.38737	11.1557	0.580506	16.4627	0.850288	24.6157	0.21589	6.94381	0.443326	12.6223	0.673861	19.505	0.723379	20.52
0.179066	5.00677	0.0524054	1.58512	0.295129	8.1391	0.390042	10.9391	0.581631	16.07	0.850925	23.9871	0.217614	6.89884	0.444572	12.3307	0.674627	19.0144	0.724642	20.0265
0.182905	4.98425	0.0536858	1.59622	0.296659	7.97635	0.392757	10.7347	0.582782	15.6977	0.851579	23.3912	0.219804	6.84409	0.445847	12.0545	0.675417	18.5496	0.725933	19.5586
0.186658	4.96058	0.055237	1.60923	0.298292	7.82425	0.395514	10.5416	0.58396	15.3443	0.852249	22.8255	0.222467	6.78086	0.44715	11.7927	0.676233	18.1086	0.727252	19.1143
0.190321	4.93572	0.0570601	1.62393	0.300031	7.68213	0.398312	10.359	0.585165	15.0086	0.852936	22.2877	0.225608	6.71055	0.448482	11.5442	0.677073	17.6897	0.7286	18.692
0.19389	4.90965	0.0591563	1.6401	0.30188	7.54937	0.40115	10.186	0.586396	14.6891	0.853639	21.7759	0.229236	6.63459	0.449842	11.308	0.677939	17.2914	0.729976	18.2901
0.197362	4.88238	0.0612562	1.65555	0.303582	7.44086	0.404028	10.022	0.587653	14.3849	0.854358	21.2883	0.232886	6.56324	0.451231	11.0833	0.678829	16.9123	0.73138	17.9073
0.200734	4.85392	0.0633593	1.67033	0.305102	7.35337	0.406945	9.86631	0.588936	14.0948	0.855093	20.8232	0.236555	6.49608	0.452648	10.8694	0.679745	16.5509	0.732812	17.5422
0.204003	4.82428	0.0654652	1.68447	0.306407	7.28435	0.4099	9.71843	0.590246	13.8181	0.855844	20.3791	0.240242	6.43276	0.454092	10.6655	0.680687	16.2062	0.734272	17.1936
0.207167	4.79349	0.0675732	1.69801	0.30747	7.23182	0.412893	9.5778	0.591581	13.5537	0.856611	19.9547	0.243946	6.37293	0.455565	10.4709	0.681654	15.877	0.735759	16.8606
0.210225	4.7616	0.0696832	1.71097	0.308269	7.19431	0.415922	9.44396	0.592942	13.301	0.857395	19.5487	0.247663	6.31631	0.457066	10.2852	0.682646	15.5624	0.737274	16.5421
0.213177	4.72866	0.0717947	1.72339	0.308789	7.1708	0.418987	9.31646	0.594329	13.0591	0.858194	19.1599	0.251393	6.26262	0.458595	10.1077	0.683664	15.2615	0.738816	16.2373
0.216022	4.69474	0.0739073	1.73529	0.309546	7.13765	0.422087	9.19491	0.595741	12.8276	0.85901	18.7873	0.255133	6.21163	0.460153	9.9379	0.684708	14.9734	0.740386	15.9453
0.218761	4.65992	0.076021	1.74671	0.310384	7.10247	0.425222	9.07894	0.597179	12.6056	0.859841	18.4299	0.258883	6.16311	0.461738	9.77544	0.685778	14.6973	0.741983	15.6654
0.221396	4.62428	0.0781354	1.75766	0.311548	7.05603	0.428392	8.96821	0.598642	12.3928	0.860689	18.0869	0.262639	6.11686	0.463352	9.61986	0.686873	14.4326	0.743607	15.3968
0.22393	4.58792	0.0802502	1.76818	0.313059	6.99953	0.431594	8.8624	0.600131	12.1885	0.861552	17.7574	0.266401	6.07271	0.464994	9.47075	0.687994	14.1786	0.745258	15.1389
0.226365	4.55094	0.0823654	1.77828	0.314946	6.93442	0.43483	8.76122	0.601644	11.9923	0.862431	17.4406	0.270167	6.03048	0.466665	9.32777	0.68914	13.9346	0.746936	14.8912
0.228705	4.51344	0.0844806	1.78798	0.317242	6.86229	0.438098	8.66442	0.603183	11.8038	0.863325	17.1358	0.273936	5.99002	0.468364	9.19059	0.690313	13.7002	0.748641	14.653
0.230954	4.47553	0.0865959	1.79731	0.319985	6.78488	0.441398	8.57173	0.604746	11.6225	0.864236	16.8424	0.277705	5.9512	0.470092	9.05888	0.69151	13.4748	0.750373	14.4239
0.233116	4.43732	0.0887111	1.80628	0.32284	6.71281	0.444729	8.48293	0.606335	11.448	0.865162	16.5598	0.281474	5.91389	0.47185	8.93237	0.692734	13.258	0.752131	14.2033
0.235196	4.3989	0.0908259	1.81491	0.325805	6.64572	0.44809	8.39781	0.607948	11.2801	0.866104	16.2874	0.28524	5.87796	0.473636	8.81079	0.693983	13.0492	0.753917	13.9909
0.237199	4.36038	0.0929404	1.82322	0.328877	6.58326	0.451482	8.31617	0.609587	11.1183	0.867062	16.0246	0.289003	5.84332	0.475452	8.6939	0.695257	12.8481	0.755729	13.7861
0.23913	4.32186	0.0950546	1.83122	0.33205	6.52509	0.454903	8.23781	0.61125	10.9623	0.868035	15.771	0.292761	5.80986	0.477299	8.58146	0.696557	12.6542	0.757567	13.5887
0.240994	4.28341	0.0971682	1.83894	0.335321	6.47088	0.458354	8.16258	0.612938	10.8119	0.869023	15.5262	0.296513	5.77749	0.479175	8.47326	0.697882	12.4673	0.759433	13.3983
0.242795	4.24512	0.0992812	1.84637	0.338683	6.42034	0.461834	8.09031	0.61465	10.6668	0.870027	15.2896	0.300257	5.74612	0.481082	8.36909	0.699232	12.2869	0.761324	13.2144
0.244538	4.20707	0.101394	1.85354	0.342133	6.37317	0.465341	8.02085	0.616387	10.5268	0.871047	15.0609	0.303991	5.71567	0.48302	8.26878	0.700608	12.1128	0.763243	13.0369
0.246228	4.16932	0.103505	1.86045	0.345663	6.32909	0.468877	7.95405	0.61815	10.3915	0.872082	14.8397	0.307715	5.68608	0.484989	8.17215	0.702008	11.9446	0.765188	12.8654
0.24787	4.13193	0.105616	1.86713	0.349269	6.28785	0.472439	7.88979	0.619936	10.2608	0.873132	14.6257	0.311427	5.65727	0.486989	8.07902	0.703433	11.782	0.767159	12.6996
0.249467	4.09495	0.107727	1.87358	0.352945	6.24921	0.476029	7.82794	0.621748	10.1345	0.874198	14.4186	0.315125	5.62917	0.489022	7.98926	0.704883	11.6249	0.769156	12.5392
0.251023	4.05843	0.109836	1.87981	0.356686	6.21295	0.479645	7.76838	0.623585	10.0124	0.875279	14.2179	0.318808	5.60174	0.491087	7.90271	0.706358	11.4729	0.77118	12.3841
0.252543	4.02241	0.111945	1.88583	0.360486	6.17886	0.483287	7.71102	0.625446	9.8943	0.876375	14.0235	0.322475	5.57491	0.493185	7.81924	0.707856	11.3259	0.773231	12.234
0.254029	3.98692	0.114053	1.89165	0.364339	6.14674	0.486955	7.65573	0.627333	9.77999	0.877487	13.835	0.326125	5.54863	0.495316	7.73871	0.709379	11.1835	0.775308	12.0887
0.255486	3.95199	0.11616	1.89728	0.368241	6.11643	0.490172	7.60918	0.629244	9.66935	0.878613	13.6522	0.329755	5.52285	0.497201	7.67085	0.710926	11.0457	0.777411	11.9479
0.256915	3.91763	0.118267	1.90273	0.372187	6.08776	0.492929	7.57064	0.631181	9.5622	0.879755	13.4749	0.333365	5.49753	0.498828	7.61465	0.712496	10.9121	0.77954	11.8115
0.25832	3.88388	0.120372	1.908	0.376172	6.06059	0.49522	7.53954	0.633143	9.45842	0.880913	13.3028	0.336954	5.47263	0.500188	7.56927	0.714091	10.7827	0.781696	11.6793
0.259703	3.85073	0.122477	1.91311	0.380192	6.03476	0.497037	7.51543	0.63513	9.35787	0.882085	13.1357	0.34052	5.44811	0.501272	7.53409	0.715708	10.6572	0.783878	11.5511
0.261067	3.81821	0.124581	1.91806	0.384242	6.01017	0.498377	7.49797	0.637143	9.26041	0.883272	12.9733	0.344062	5.42392	0.502075	7.5086	0.717349	10.5354	0.786087	11.4268
0.262414	3.78631	0.126684	1.92286	0.388319	5.98669	0.499236	7.48691	0.639182	9.16592	0.884474	12.8156	0.347579	5.40004	0.502591	7.49246	0.719013	10.4173	0.788321	11.3061
0.263575	3.75903	0.128786	1.92751	0.392418	5.96423	0.500474	7.47117	0.641247	9.07429	0.885692	12.6623	0.351068	5.37644	0.503336	7.46947	0.720699	10.3027	0.790582	11.189
0.264557	3.73615	0.130888	1.93203	0.396537	5.94268	0.501821	7.45426	0.643338	8.98541	0.886924	12.5133	0.35453	5.35308	0.50415	7.44479	0.722408	10.1914	0.792869	11.0754
0.265363	3.7175	0.132989	1.9364	0.400672	5.92196	0.503659	7.4316	0.645455	8.89918	0.888171	12.3683	0.357963	5.32993	0.505264	7.41172	0.72414	10.0833	0.795182	10.965
0.265998	3.70292	0.135089	1.94065	0.40482	5.90199	0.505992	7.40349	0.647599	8.8155	0.889433	12.2272	0.361366	5.30698	0.506686	7.37069	0.725893	9.97824	0.797522	10.8577
0.266463	3.69229	0.137188	1.94478	0.408978	5.8827	0.508824	7.3703	0.64977	8.73428	0.89071	12.0899	0.364738	5.28419	0.508422	7.32223	0.727668	9.87615	0.799888	10.7535
0.266761	3.68553	0.139286	1.94879	0.413143	5.86402	0.512162	7.33242	0.651968	8.65542	0.892002	11.9563	0.368077	5.26155	0.510485	7.26697	0.729465	9.77691	0.802279	10.6523
0.267187	3.67587	0.141384	1.95269	0.417312	5.84589	0.516014	7.29033	0.654194	8.57885	0.893309	11.8261	0.371383	5.23904	0.512886	7.20558	0.731283	9.68039	0.804697	10.5538
0.267649	3.66545	0.143481	1.95647	0.421484	5.82826	0.519889	7.24964	0.656447	8.5045	0.894631	11.6993	0.374655	5.21663	0.515324	7.14628	0.733122	9.5865	0.807141	10.4581
0.268276	3.65141	0.145577	1.96015	0.425655	5.81107	0.523785	7.21029	0.658728	8.43227	0.895967	11.5757	0.377892	5.19431	0.517798	7.089	0.734982	9.49514	0.809611	10.365
0.269066	3.63385	0.147673	1.96373	0.429823	5.79428	0.527702	7.17223	0.661038	8.36211	0.897318	11.4553	0.381093	5.17207	0.520309	7.03366	0.736862	9.40622	0.812107	10.2744
0.270017	3.61293	0.149768	1.96722	0.433988	5.77785	0.531641	7.1354	0.663377	8.29395	0.898684	11.3379	0.384257	5.14989	0.522857	6.98019	0.738763	9.31964	0.81463	10.1862
0.271129	3.58883	0.151862	1.97061	0.438145	5.76173	0.5356	7.09975	0.665746	8.22772	0.900065	11.2234	0.387383	5.12777	0.525443	6.92853	0.740684	9.23532	0.817178	10.1004
0.272401	3.56173	0.153955	1.97391	0.442294	5.74589	0.539579	7.06524	0.668144	8.16335	0.901461	11.1117	0.390472	5.10568	0.528065	6.87861	0.742624	9.15319	0.819751	10.0169
0.273668	3.53523	0.156048	1.97713	0.446433	5.7303	0.543577	7.03181	0.670572	8.10081	0.902871	11.0027	0.393522	5.08363	0.530725	6.83036	0.744585	9.07316	0.822351	9.93551
0.274931	3.50931	0.158141	1.98026	0.45056	5.71493	0.547595	6.99943	0.673031	8.04002	0.904295	10.8963	0.396533	5.0616	0.533422	6.78372	0.746564	8.99516	0.824977	9.85628
0.276192	3.48398	0.160232	1.98331	0.454674	5.69975	0.551631	6.96804	0.675521	7.98094	0.905735	10.7925	0.399504	5.0396	0.536155	6.73864	0.748563	8.91911	0.827628	9.7791
0.277452	3.45921	0.162323	1.98629	0.458772	5.68474	0.555686	6.9376	0.677717	7.93081	0.907189	10.6912	0.402436	5.01761	0.538926	6.69506	0.75058	8.84496	0.830305	9.70391
0.27871	3.435	0.164414	1.98919	0.462855	5.66987	0.559758	6.90809	0.679608	7.88904	0.908658	10.5922	0.405327	4.99563	0.541732	6.65292	0.752617	8.77264	0.833008	9.63062
0.279968	3.41133	0.166503	1.99202	0.466919	5.65511	0.563847	6.87945	0.681185	7.85517	0.910141	10.4955	0.408178	4.97366	0.544575	6.61217	0.754671	8.70208	0.835736	9.5592
0.281227	3.3882	0.168593	1.99478	0.470965	5.64046	0.567952	6.85165	0.682441	7.8288	0.911639	10.401	0.41099	4.9517	0.547453	6.57277	0.756744	8.63324	0.838489	9.48956
0.282486	3.36559	0.170681	1.99747	0.47499	5.62589	0.572073	6.82466	0.68337	7.80964	0.913151	10.3087	0.413761	4.92974	0.550366	6.53464	0.758835	8.56604	0.841268	9.42167
0.283746	3.3435	0.17277	2.0001	0.478994	5.61139	0.57621	6.79844	0.683967	7.79748	0.914678	10.2184	0.416492	4.9078	0.553313	6.49776	0.760943	8.50044	0.844072	9.35545
0.285008	3.3219	0.174857	2.00267	0.482975	5.59695	0.580361	6.77297	0.684827	7.78014	0.91622	10.1302	0.419183	4.88587	0.556294	6.46206	0.763069	8.43638	0.846901	9.29087
0.286273	3.30079	0.176944	2.00518	0.486933	5.58253	0.584525	6.74819	0.685767	7.76147	0.917776	10.044	0.421834	4.86395	0.559308	6.42751	0.765212	8.37382	0.849756	9.22786
0.28754	3.28016	0.179031	2.00762	0.490866	5.56815	0.588703	6.7241	0.687052	7.73639	0.919347	9.9596	0.424446	4.84205	0.562354	6.39406	0.767373	8.31271	0.852635	9.16639
0.28881	3.26	0.181117	2.01002	0.494774	5.55378	0.592892	6.70065	0.688688	7.70516	0.920932	9.87708	0.427019	4.82017	0.565432	6.36165	0.769551	8.25301	0.855539	9.1064
0.290083	3.24029	0.183203	2.01236	0.498655	5.53941	0.597094	6.67781	0.690685	7.66812	0.922532	9.79635	0.429554	4.79832	0.56854	6.33026	0.771745	8.19466	0.858468	9.04784
0.291359	3.22103	0.185288	2.01464	0.502509	5.52504	0.601306	6.65557	0.693052	7.62566	0.924146	9.71735	0.43205	4.7765	0.571677	6.29984	0.773956	8.13763	0.861421	8.99068
0.292639	3.2022	0.187372	2.01688	0.506335	5.51066	0.605527	6.63388	0.695802	7.57823	0.925775	9.64004	0.43451	4.75472	0.574843	6.27035	0.775897	8.08898	0.864399	8.93488
0.293923	3.18379	0.189457	2.01906	0.510132	5.49626	0.609757	6.61273	0.698588	7.53214	0.927419	9.56436	0.436933	4.73297	0.578036	6.24175	0.777561	8.04826	0.867401	8.88039
0.295212	3.1658	0.191541	2.0212	0.5139	5.48183	0.613996	6.59208	0.701411	7.48737	0.929077	9.49027	0.439319	4.71128	0.581255	6.21399	0.778943	8.01509	0.870427	8.82717
0.296505	3.1482	0.193624	2.0233	0.517638	5.46736	0.61824	6.57192	0.704273	7.44389	0.930749	9.41773	0.441671	4.68964	0.5845	6.18705	0.780041	7.98918	0.873477	8.77519
0.297802	3.13101	0.195707	2.02534	0.521346	5.45286	0.622491	6.55221	0.707173	7.40165	0.932436	9.34668	0.443987	4.66806	0.587768	6.16089	0.78085	7.97031	0.876551	8.72441
0.299104	3.11419	0.197789	2.02735	0.525022	5.43832	0.626747	6.53294	0.710113	7.36064	0.934138	9.2771	0.44627	4.64655	0.591059	6.13547	0.78137	7.95831	0.879649	8.6748
0.300411	3.09775	0.199872	2.02931	0.528667	5.42373	0.631006	6.51407	0.713092	7.32083	0.935854	9.20893	0.448521	4.62511	0.594372	6.11076	0.782117	7.94116	0.88277	8.62632
0.301722	3.08167	0.201953	2.03123	0.532279	5.40909	0.635268	6.49559	0.716113	7.28218	0.937585	9.14215	0.450739	4.60375	0.597705	6.08672	0.782932	7.92267	0.885914	8.57894
0.303039	3.06594	0.204035	2.03311	0.53586	5.3944	0.639531	6.47747	0.719176	7.24469	0.93933	9.07671	0.452925	4.58247	0.601058	6.06333	0.784043	7.89775	0.889081	8.53262
0.304361	3.05056	0.206116	2.03496	0.539407	5.37965	0.643794	6.4597	0.722281	7.20831	0.94109	9.01257	0.455082	4.56129	0.604428	6.04056	0.785454	7.86661	0.892272	8.48735
0.305689	3.03552	0.208196	2.03677	0.542921	5.36485	0.648057	6.44224	0.725429	7.17303	0.942865	8.94971	0.457208	4.54021	0.607814	6.01836	0.787169	7.82951	0.895484	8.44308
0.307021	3.0208	0.210277	2.03854	0.546403	5.34999	0.652317	6.42508	0.728621	7.13883	0.944654	8.88809	0.459307	4.51924	0.611216	5.99673	0.789191	7.78674	0.89872	8.3998
0.308359	3.00641	0.212357	2.04027	0.54985	5.33508	0.656574	6.4082	0.731857	7.10568	0.946458	8.82768	0.461377	4.49837	0.614632	5.97562	0.791526	7.73864	0.901977	8.35747
0.309703	2.99232	0.214436	2.04197	0.553264	5.32011	0.660826	6.39159	0.73514	7.07356	0.948276	8.76844	0.46342	4.47762	0.618061	5.95502	0.793877	7.69156	0.905257	8.31606
0.311052	2.97854	0.216516	2.04364	0.556643	5.30508	0.665073	6.37521	0.738468	7.04244	0.950109	8.71036	0.465438	4.45699	0.621502	5.93489	0.796243	7.64547	0.908132	8.28072
0.312406	2.96506	0.218595	2.04528	0.559989	5.28999	0.669312	6.35905	0.741842	7.01232	0.951957	8.65338	0.46743	4.43648	0.624953	5.91522	0.798625	7.60035	0.910597	8.25112
0.313766	2.95187	0.220673	2.04689	0.563301	5.27485	0.673543	6.34311	0.745264	6.98317	0.95382	8.5975	0.469398	4.41611	0.628413	5.89597	0.801022	7.55616	0.912643	8.227
0.315132	2.93895	0.222752	2.04846	0.566578	5.25965	0.677765	6.32735	0.748734	6.95496	0.955698	8.54268	0.471342	4.39587	0.631881	5.87714	0.803435	7.5129	0.914267	8.20815
0.316503	2.92631	0.22483	2.05001	0.569822	5.2444	0.681977	6.31177	0.752252	6.92768	0.95759	8.4889	0.473264	4.37577	0.635356	5.85869	0.805863	7.47052	0.915464	8.19442
0.31788	2.91394	0.226908	2.05152	0.573031	5.2291	0.686177	6.29634	0.755818	6.90131	0.959497	8.43613	0.475164	4.35581	0.638837	5.8406	0.808307	7.42901	0.916232	8.18569
0.319262	2.90183	0.228985	2.05301	0.576207	5.21375	0.690364	6.28107	0.759433	6.87583	0.961172	8.39095	0.477042	4.336	0.642321	5.82286	0.810766	7.38834	0.917338	8.17321
0.32065	2.88998	0.231062	2.05448	0.579349	5.19836	0.694538	6.26593	0.763098	6.85121	0.962608	8.35302	0.478901	4.31634	0.64581	5.80545	0.81324	7.3485	0.918542	8.15975
0.322044	2.87837	0.233139	2.05591	0.582457	5.18292	0.698697	6.25091	0.766811	6.82744	0.963802	8.32205	0.48074	4.29684	0.6493	5.78835	0.81573	7.30945	0.920183	8.1416
0.323444	2.867	0.235216	2.05732	0.585531	5.16743	0.702841	6.236	0.770574	6.8045	0.96475	8.29781	0.48256	4.27748	0.652792	5.77154	0.818235	7.2712	0.922267	8.11892
0.324849	2.85587	0.237292	2.05871	0.588572	5.15191	0.706969	6.2212	0.774386	6.78236	0.965449	8.28013	0.484362	4.25829	0.656283	5.755	0.820755	7.2337	0.924796	8.09189
0.326259	2.84497	0.239369	2.06007	0.59158	5.13635	0.711079	6.20649	0.778247	6.761	0.965897	8.26888	0.486147	4.23926	0.659774	5.73873	0.823291	7.19695	0.927778	8.06072
0.327676	2.83429	0.241444	2.0614	0.594556	5.12076	0.715173	6.19186	0.782156	6.74041	0.966544	8.25278	0.487915	4.22039	0.663262	5.72269	0.825842	7.16093	0.931219	8.02564
0.329098	2.82383	0.24352	2.06272	0.597499	5.10514	0.719249	6.17732	0.786114	6.72056	0.967248	8.2354	0.489667	4.20168	0.666748	5.70689	0.828408	7.12562	0.934679	7.9913
0.330525	2.81359	0.245596	2.06401	0.600409	5.0895	0.723306	6.16285	0.79012	6.70143	0.968209	8.21194	0.491404	4.18314	0.670229	5.6913	0.83099	7.091	0.938158	7.95766
0.331958	2.80355	0.247671	2.06528	0.603288	5.07383	0.727345	6.14846	0.794173	6.68299	0.969429	8.18257	0.493126	4.16477	0.673706	5.67592	0.833587	7.05705	0.941657	7.92471
0.333396	2.79372	0.249746	2.06652	0.606135	5.05814	0.731365	6.13413	0.798273	6.66523	0.970913	8.14749	0.494834	4.14657	0.677176	5.66072	0.8362	7.02377	0.945175	7.89243
0.334841	2.78408	0.25182	2.06775	0.608952	5.04244	0.735366	6.11986	0.802418	6.64812	0.972664	8.10695	0.496529	4.12853	0.68064	5.64571	0.838828	6.99114	0.948711	7.8608
0.33629	2.77464	0.253895	2.06896	0.611737	5.02672	0.739347	6.10566	0.806608	6.63165	0.974687	8.06122	0.49821	4.11067	0.684096	5.63086	0.841472	6.95913	0.952265	7.8298
0.337745	2.76539	0.255969	2.07014	0.614492	5.011	0.74331	6.09151	0.810841	6.61578	0.976727	8.01631	0.499879	4.09298	0.687544	5.61617	0.844131	6.92774	0.955837	7.79943
0.339205	2.75632	0.258043	2.07131	0.617217	4.99527	0.747254	6.07743	0.815117	6.60049	0.978781	7.97222	0.501536	4.07545	0.690982	5.60162	0.846806	6.89696	0.959427	7.76965
0.340671	2.74743	0.260117	2.07246	0.619913	4.97954	0.751179	6.0634	0.819435	6.58577	0.980852	7.92891	0.503182	4.0581	0.69441	5.58721	0.849497	6.86677	0.963034	7.74046
0.342142	2.73871	0.262191	2.07358	0.62258	4.96381	0.755085	6.04944	0.823793	6.57159	0.982937	7.88637	0.504817	4.04092	0.697827	5.57292	0.852203	6.83715	0.966658	7.71183
0.343618	2.73017	0.264264	2.07469	0.625218	4.94809	0.758972	6.03553	0.828191	6.55792	0.985039	7.84459	0.506441	4.02392	0.701232	5.55876	0.854925	6.8081	0.970298	7.68376
0.3451	2.72179	0.266337	2.07579	0.627828	4.93237	0.762842	6.02169	0.832626	6.54476	0.987157	7.80356	0.508055	4.00708	0.704625	5.5447	0.857662	6.7796	0.973955	7.65623
0.346587	2.71358	0.268411	2.07686	0.630411	4.91667	0.766694	6.00791	0.837097	6.53207	0.98929	7.76325	0.50966	3.99042	0.708005	5.53075	0.860415	6.75163	0.977627	7.62922
0.348078	2.70552	0.270483	2.07792	0.632966	4.90099	0.770528	5.99419	0.841604	6.51984	0.99144	7.72365	0.511256	3.97392	0.711371	5.51689	0.863184	6.7242	0.981315	7.60272
0.349576	2.69762	0.272556	2.07897	0.635495	4.88533	0.774345	5.98054	0.846145	6.50804	0.993606	7.68474	0.512843	3.9576	0.714722	5.50312	0.865969	6.69728	0.985017	7.57671
0.351078	2.68988	0.274629	2.07999	0.637997	4.86969	0.778145	5.96695	0.850717	6.49665	0.995788	7.64652	0.514422	3.94144	0.718059	5.48943	0.868769	6.67087	0.988734	7.55119
0.352585	2.68228	0.276701	2.081	0.640474	4.85408	0.781929	5.95343	0.855321	6.48567	0.997987	7.60897	0.515993	3.92546	0.721379	5.47581	0.871585	6.64496	0.992466	7.52614
0.354097	2.67482	0.278773	2.082	0.642926	4.83849	0.785697	5.93998	0.859955	6.47506	1.0002	7.57207	0.517557	3.90964	0.724684	5.46227	0.874417	6.61952	0.996211	7.50154
0.355615	2.66751	0.280845	2.08298	0.645353	4.82294	0.789448	5.9266	0.864617	6.4648			0.519113	3.89399	0.727972	5.44878	0.877264	6.59457	0.99997	7.47738
0.357137	2.66034	0.282917	2.08394	0.647757	4.80743	0.793185	5.91329	0.869305	6.4549			0.520663	3.87851	0.731242	5.43536	0.880126	6.57007	1.00374	7.45365
0.358664	2.6533	0.284988	2.0849	0.650136	4.79195	0.796906	5.90005	0.87402	6.44531			0.522206	3.86319	0.734495	5.42199	0.883004	6.54603		
0.360196	2.64639	0.28706	2.08583	0.652492	4.77652	0.800612	5.88688	0.878758	6.43603			0.523743	3.84804	0.73773	5.40867	0.885898	6.52242		
0.361733	2.63961	0.289131	2.08676	0.654826	4.76113	0.804304	5.87379	0.883519	6.42705			0.525274	3.83305	0.740946	5.39539	0.888806	6.49926		
0.363274	2.63296	0.291202	2.08767	0.657137	4.74579	0.807981	5.86077	0.888302	6.41834			0.526799	3.81822	0.744143	5.38216	0.89173	6.47651		
0.36482	2.62643	0.293273	2.08856	0.659427	4.73049	0.811644	5.84782	0.893106	6.4099			0.528319	3.80355	0.74732	5.36896	0.894669	6.45419		
0.366371	2.62002	0.295344	2.08945	0.661696	4.71525	0.815294	5.83494	0.897928	6.4017			0.529834	3.78905	0.750478	5.3558	0.897623	6.43226		
0.367927	2.61373	0.297415	2.09032	0.663944	4.70007	0.818929	5.82214	0.902769	6.39374			0.531345	3.7747	0.753616	5.34267	0.900591	6.41073		
0.369487	2.60755	0.299485	2.09118	0.666172	4.68494	0.822551	5.8094	0.907626	6.386			0.532851	3.76051	0.756734	5.32957	0.903574	6.38959		
0.371051	2.60149	0.301556	2.09202	0.668379	4.66987	0.826159	5.79674	0.912498	6.37847			0.534353	3.74647	0.759831	5.3165	0.906572	6.36883		
0.37262	2.59554	0.303626	2.09286	0.670568	4.65486	0.829753	5.78415	0.917385	6.37114			0.53585	3.73259	0.762908	5.30345	0.909584	6.34843		
0.374194	2.58969	0.305696	2.09368	0.672738	4.63991	0.833334	5.77163	0.922285	6.36399			0.537344	3.71886	0.765963	5.29042	0.912609	6.3284		
0.375772	2.58395	0.307766	2.09449	0.674889	4.62503	0.836902	5.75917	0.927197	6.35701			0.538835	3.70528	0.768998	5.27742	0.915648	6.30871		
0.377354	2.57831	0.309836	2.09529	0.677022	4.61021	0.840456	5.74679	0.932119	6.3502			0.540322	3.69186	0.772011	5.26444	0.918701	6.28937		
0.378941	2.57277	0.311905	2.09608	0.679138	4.59546	0.843996	5.73446	0.937052	6.34354			0.541806	3.67858	0.775002	5.25148	0.921767	6.27037		
0.380532	2.56734	0.313975	2.09686	0.681237	4.58078	0.847523	5.7222	0.941992	6.33702			0.543287	3.66545	0.777973	5.23853	0.924846	6.25169		
0.382127	2.56199	0.316044	2.09763	0.683319	4.56618	0.851037	5.71001	0.94694	6.33062			0.544765	3.65246	0.780921	5.2256	0.927937	6.23333		
0.383726	2.55674	0.318114	2.09839	0.685384	4.55164	0.854537	5.69787	0.951894	6.32435			0.546241	3.63962	0.783849	5.21269	0.931041	6.21528		
0.385329	2.55159	0.320183	2.09914	0.687434	4.53718	0.858023	5.6858	0.956853	6.31819			0.547714	3.62692	0.786754	5.1998	0.934156	6.19753		
0.386937	2.54652	0.322252	2.09987	0.689468	4.52279	0.861496	5.67378	0.961816	6.31212			0.549185	3.61436	0.789638	5.18692	0.937284	6.18008		
0.388548	2.54154	0.324321	2.1006	0.691487	4.50848	0.864954	5.66181	0.966781	6.30615			0.550654	3.60194	0.7925	5.17405	0.940422	6.16291		
0.390164	2.53665	0.32639	2.10132	0.693491	4.49425	0.868399	5.6499	0.971747	6.30025			0.552121	3.58967	0.795341	5.1612	0.943571	6.14602		
0.391784	2.53185	0.328458	2.10203	0.695481	4.48009	0.871829	5.63805	0.976712	6.29442			0.553587	3.57752	0.79816	5.14837	0.946731	6.1294		
0.393407	2.52712	0.330527	2.10273	0.697457	4.46602	0.875245	5.62624	0.981676	6.28865			0.555051	3.56551	0.800958	5.13556	0.9499	6.11305		
0.395034	2.52248	0.332595	2.10342	0.699419	4.45202	0.878647	5.61448	0.986636	6.28293			0.556513	3.55364	0.803735	5.12276	0.95308	6.09695		
0.396666	2.51791	0.334663	2.10411	0.701368	4.43811	0.882034	5.60276	0.991592	6.27724			0.557974	3.5419	0.80649	5.10997	0.956268	6.0811		
0.398301	2.51343	0.336732	2.10478	0.703304	4.42427	0.885406	5.5911	0.996541	6.27158			0.559434	3.53029	0.809225	5.09721	0.959465	6.0655		
0.399939	2.50902	0.3388	2.10544	0.705227	4.41052	0.888763	5.57947	1.00148	6.26594			0.560893	3.5188	0.811938	5.08446	0.96267	6.05013		
0.401582	2.50468	0.340868	2.1061	0.707138	4.39685	0.892105	5.56788					0.562351	3.50745	0.814631	5.07173	0.965884	6.03498		
0.403228	2.50042	0.342935	2.10675	0.709036	4.38326	0.895432	5.55634					0.563808	3.49622	0.817303	5.05902	0.969104	6.02006		
0.404878	2.49623	0.345003	2.10739	0.710923	4.36976	0.898744	5.54483					0.565264	3.48511	0.819954	5.04633	0.972332	6.00535		
0.406531	2.49211	0.347071	2.10802	0.712799	4.35634	0.90204	5.53336					0.56672	3.47413	0.822586	5.03367	0.975566	5.99085		
0.408188	2.48806	0.349138	2.10865	0.714663	4.343	0.90532	5.52192					0.568175	3.46327	0.825197	5.02102	0.978805	5.97655		
0.409849	2.48407	0.351206	2.10927	0.716517	4.32975	0.908584	5.51051					0.56963	3.45254	0.827789	5.0084	0.982051	5.96245		
0.411513	2.48015	0.353273	2.10988	0.71836	4.31659	0.911832	5.49914					0.571085	3.44192	0.830361	4.9958	0.985301	5.94853		
0.41318	2.47629	0.35534	2.11048	0.720192	4.30351	0.915064	5.4878					0.572539	3.43141	0.832914	4.98322	0.988555	5.9348		
0.414851	2.4725	0.357407	2.11107	0.722015	4.29051	0.91828	5.47648					0.573994	3.42103	0.835448	4.97068	0.991814	5.92124		
0.416525	2.46877	0.359474	2.11166	0.723828	4.2776	0.921479	5.46519					0.575448	3.41076	0.837963	4.95815	0.995076	5.90785		
0.418203	2.4651	0.361541	2.11224	0.725631	4.26478	0.924661	5.45393					0.576903	3.4006	0.840459	4.94566	0.99834	5.89463		
0.419884	2.46149	0.363608	2.11282	0.727425	4.25204	0.927827	5.44269					0.578357	3.39055	0.842937	4.9332	1.00161	5.88157		
0.421568	2.45794	0.365675	2.11338	0.72921	4.23938	0.930976	5.43148					0.579812	3.38061	0.845397	4.92076				
0.423255	2.45444	0.367741	2.11395	0.730986	4.22681	0.934108	5.42029					0.581267	3.37079	0.84784	4.90836				
0.424946	2.45101	0.369808	2.1145	0.732754	4.21433	0.937223	5.40912					0.582723	3.36107	0.850264	4.89599				
0.42664	2.44762	0.371874	2.11505	0.734513	4.20193	0.94032	5.39797					0.584179	3.35146	0.852672	4.88365				
0.428337	2.44429	0.37394	2.11559	0.736264	4.18962	0.943401	5.38684					0.585635	3.34195	0.855062	4.87135				
0.430036	2.44101	0.376007	2.11612	0.738007	4.17739	0.946464	5.37574					0.587092	3.33255	0.857435	4.85908				
0.431739	2.43779	0.378073	2.11665	0.739742	4.16525	0.94951	5.36465					0.58855	3.32324	0.859793	4.84684				
0.433445	2.43461	0.380139	2.11718	0.74147	4.15319	0.952538	5.35358					0.590008	3.31405	0.862133	4.83465				
0.435154	2.43149	0.382205	2.11769	0.743191	4.14121	0.955549	5.34252					0.591467	3.30495	0.864458	4.82249				
0.436866	2.42841	0.384271	2.11821	0.744905	4.12932	0.958542	5.33149					0.592928	3.29595	0.866768	4.81037				
0.438581	2.42538	0.386336	2.11871	0.746611	4.11752	0.961518	5.32047					0.594388	3.28704	0.869062	4.79829				
0.440299	2.4224	0.388402	2.11921	0.748311	4.1058	0.964477	5.30946					0.59585	3.27824	0.87134	4.78625				
0.44202	2.41947	0.390468	2.11971	0.750004	4.09416	0.967417	5.29848					0.597313	3.26952	0.873604	4.77425				
0.443743	2.41658	0.392533	2.1202	0.751691	4.0826	0.970341	5.2875					0.598777	3.26091	0.875854	4.7623				
0.445469	2.41373	0.394599	2.12068	0.753372	4.07113	0.973246	5.27655					0.600242	3.25238	0.878088	4.75038				
0.447198	2.41093	0.396664	2.12116	0.755046	4.05974	0.976134	5.26561					0.601708	3.24395	0.880309	4.73851				
0.44893	2.40817	0.398729	2.12163	0.756715	4.04843	0.979005	5.25469					0.603175	3.23561	0.882516	4.72669				
0.450665	2.40545	0.400794	2.1221	0.758378	4.0372	0.981859	5.24378					0.604644	3.22736	0.88471	4.71491				
0.452402	2.40277	0.402859	2.12256	0.760036	4.02606	0.984695	5.23289					0.606113	3.21919	0.88689	4.70317				
0.454142	2.40014	0.404924	2.12302	0.761688	4.01499	0.987513	5.22201					0.607584	3.21111	0.889056	4.69148				
0.455884	2.39754	0.406989	2.12348	0.763335	4.00401	0.990315	5.21115					0.609057	3.20312	0.89121	4.67984				
0.457629	2.39498	0.409054	2.12392	0.764976	3.99311	0.993099	5.20031					0.61053	3.19522	0.893352	4.66825				
0.459377	2.39246	0.411119	2.12437	0.766613	3.98228	0.995867	5.18948					0.612005	3.18739	0.895481	4.6567				
0.461127	2.38998	0.413184	2.12481	0.768245	3.97154	0.998617	5.17867					0.613482	3.17965	0.897598	4.6452				
0.462879	2.38753	0.415248	2.12524	0.769872	3.96087	1.00135	5.16788					0.61496	3.172	0.899702	4.63375				
0.464635	2.38512	0.417313	2.12567	0.771495	3.95029							0.616439	3.16442	0.901795	4.62235				
0.466392	2.38275	0.419377	2.1261	0.773113	3.93978							0.61792	3.15692	0.903877	4.611				
0.468152	2.38041	0.421442	2.12652	0.774727	3.92935							0.619402	3.14951	0.905947	4.5997				
0.469914	2.37811	0.423506	2.12694	0.776337	3.91899							0.620886	3.14217	0.908007	4.58845				
0.471679	2.37583	0.42557	2.12735	0.777942	3.90871							0.622372	3.1349	0.910055	4.57725				
0.473446	2.3736	0.427634	2.12776	0.779544	3.89851							0.623859	3.12772	0.912093	4.5661				
0.475216	2.37139	0.429698	2.12816	0.781142	3.88839							0.625348	3.1206	0.91412	4.55501				
0.476987	2.36922	0.431762	2.12856	0.782736	3.87833							0.626839	3.11357	0.916137	4.54396				
0.478761	2.36707	0.433826	2.12896	0.784327	3.86836							0.628331	3.1066	0.918144	4.53297				
0.480538	2.36496	0.43589	2.12935	0.785914	3.85845							0.629825	3.09971	0.920141	4.52203				
0.482316	2.36288	0.437954	2.12974	0.787498	3.84863							0.631321	3.09289	0.922128	4.51114				
0.484097	2.36083	0.440018	2.13012	0.789078	3.83887							0.632818	3.08614	0.924106	4.5003				
0.48588	2.3588	0.442081	2.1305	0.790656	3.82919							0.634317	3.07946	0.926074	4.48952				
0.487665	2.35681	0.444145	2.13088	0.79223	3.81958							0.635818	3.07284	0.928034	4.47879				
0.489452	2.35484	0.446208	2.13125	0.793801	3.81004							0.637321	3.0663	0.929984	4.46811				
0.491241	2.3529	0.448272	2.13162	0.795369	3.80057							0.638825	3.05982	0.931925	4.45748				
0.493032	2.35099	0.450335	2.13199	0.796935	3.79117							0.640331	3.05341	0.933858	4.44691				
0.494826	2.34911	0.452398	2.13235	0.798498	3.78184							0.64184	3.04706	0.935782	4.43639				
0.496621	2.34725	0.454461	2.13271	0.800058	3.77259							0.64335	3.04078	0.937698	4.42592				
0.498418	2.34542	0.456525	2.13307	0.801616	3.7634							0.644861	3.03457	0.939606	4.41551				
0.500218	2.34361	0.458588	2.13342	0.803171	3.75428							0.646375	3.02841	0.941506	4.40515				
0.502019	2.34183	0.460651	2.13377	0.804724	3.74523							0.647891	3.02232	0.943398	4.39484				
0.503823	2.34007	0.462714	2.13411	0.806275	3.73624							0.649408	3.01629	0.945282	4.38459				
0.505628	2.33834	0.464776	2.13446	0.807823	3.72733							0.650928	3.01032	0.947158	4.37439				
0.507435	2.33663	0.466839	2.1348	0.809369	3.71848							0.652449	3.00441	0.949027	4.36424				
0.509244	2.33494	0.468902	2.13513	0.810914	3.70969							0.653972	2.99856	0.950889	4.35415				
0.511055	2.33327	0.470965	2.13546	0.812456	3.70097							0.655497	2.99277	0.952744	4.34411				
0.512868	2.33163	0.473027	2.13579	0.813997	3.69232							0.657024	2.98703	0.954591	4.33412				
0.514683	2.33001	0.47509	2.13612	0.815535	3.68373							0.658553	2.98135	0.956432	4.32419				
0.516499	2.32842	0.477152	2.13644	0.817072	3.67521							0.660084	2.97573	0.958266	4.3143				
0.518318	2.32684	0.479215	2.13676	0.818607	3.66674							0.661617	2.97017	0.960093	4.30447				
0.520138	2.32529	0.481277	2.13708	0.820141	3.65835							0.663152	2.96466	0.961914	4.2947				
0.52196	2.32375	0.483339	2.1374	0.821673	3.65001							0.664689	2.9592	0.963728	4.28497				
0.523783	2.32224	0.485401	2.13771	0.823203	3.64174							0.666228	2.9538	0.965536	4.2753				
0.525609	2.32074	0.487464	2.13802	0.824732	3.63353							0.667768	2.94845	0.967338	4.26568				
0.527436	2.31927	0.489526	2.13832	0.82626	3.62537							0.669311	2.94316	0.969134	4.25612				
0.529264	2.31782	0.491588	2.13863	0.827787	3.61728							0.670856	2.93792	0.970924	4.2466				
0.531095	2.31638	0.49365	2.13893	0.829312	3.60925							0.672403	2.93272	0.972708	4.23714				
0.532927	2.31496	0.495712	2.13923	0.830836	3.60128							0.673951	2.92758	0.974486	4.22772				
0.53476	2.31357	0.497773	2.13952	0.832359	3.59337							0.675502	2.92249	0.976259	4.21836				
0.536596	2.31219	0.499835	2.13981	0.83388	3.58552							0.677055	2.91745	0.978026	4.20906				
0.538433	2.31082	0.501897	2.1401	0.835401	3.57773							0.678609	2.91245	0.979788	4.1998				
0.540271	2.30948	0.503959	2.14039	0.836921	3.56999							0.680166	2.90751	0.981544	4.19059				
0.542111	2.30815	0.50602	2.14068	0.83844	3.56231							0.681724	2.90261	0.983295	4.18144				
0.543953	2.30684	0.508082	2.14096	0.839958	3.55469							0.683285	2.89776	0.985042	4.17233				
0.545796	2.30555	0.510143	2.14124	0.841475	3.54713							0.684848	2.89296	0.986783	4.16328				
0.547641	2.30427	0.512205	2.14152	0.842991	3.53962							0.686412	2.8882	0.988519	4.15427				
0.549487	2.30301	0.514266	2.14179	0.844507	3.53216							0.687979	2.88348	0.99025	4.14532				
0.551335	2.30177	0.516327	2.14207	0.846022	3.52476							0.689547	2.87882	0.991977	4.13641				
0.553184	2.30054	0.518388	2.14234	0.847537	3.51742							0.691118	2.87419	0.993699	4.12756				
0.555034	2.29933	0.52045	2.1426	0.84905	3.51013							0.69269	2.86962	0.995417	4.11875				
0.556886	2.29813	0.522511	2.14287	0.850564	3.50289							0.694265	2.86508	0.99713	4.11				
0.55874	2.29695	0.524572	2.14313	0.852076	3.49571							0.695841	2.86059	0.998838	4.10129				
0.560595	2.29578	0.526633	2.1434	0.853589	3.48858							0.69742	2.85614	1.00054	4.09263				
0.562451	2.29463	0.528694	2.14365	0.8551	3.4815							0.699001	2.85173						
0.564309	2.29349	0.530755	2.14391	0.856612	3.47448							0.700583	2.84736						
0.566168	2.29236	0.532815	2.14417	0.858123	3.4675							0.702167	2.84304						
0.568029	2.29125	0.534876	2.14442	0.859634	3.46058							0.703754	2.83875						
0.569891	2.29016	0.536937	2.14467	0.861144	3.45371							0.705342	2.8345						
0.571754	2.28907	0.538998	2.14492	0.862655	3.44688							0.706933	2.8303						
0.573618	2.288	0.541058	2.14517	0.864165	3.44011							0.708525	2.82613						
0.575484	2.28695	0.543119	2.14541	0.865675	3.43339							0.710119	2.822						
0.577351	2.2859	0.545179	2.14565	0.867185	3.42671							0.711715	2.81791						
0.57922	2.28487	0.54724	2.14589	0.868695	3.42009							0.713314	2.81386						
0.581089	2.28385	0.5493	2.14613	0.870204	3.41351							0.714914	2.80985						
0.58296	2.28285	0.55136	2.14637	0.871714	3.40698							0.716516	2.80587						
0.584832	2.28185	0.55342	2.1466	0.873224	3.4005							0.71812	2.80193						
0.586706	2.28087	0.555481	2.14684	0.874733	3.39406							0.719726	2.79802						
0.588581	2.2799	0.557541	2.14707	0.876243	3.38768							0.721334	2.79415						
0.590456	2.27894	0.559601	2.1473	0.877753	3.38133							0.722943	2.79032						
0.592334	2.278	0.561661	2.14752	0.879263	3.37504							0.724555	2.78652						
0.594212	2.27706	0.563721	2.14775	0.880773	3.36879							0.726169	2.78275						
0.596091	2.27614	0.565781	2.14797	0.882284	3.36258							0.727784	2.77902						
0.597972	2.27522	0.567841	2.14819	0.883794	3.35642							0.729402	2.77532						
0.599854	2.27432	0.5699	2.14841	0.885305	3.3503							0.731021	2.77166						
0.601737	2.27343	0.57196	2.14863	0.886816	3.34423							0.732643	2.76803						
0.603621	2.27255	0.57402	2.14885	0.888327	3.3382							0.734266	2.76443						
0.605506	2.27168	0.57608	2.14906	0.889839	3.33221							0.735891	2.76086						
0.607392	2.27082	0.578139	2.14928	0.891351	3.32627							0.737518	2.75733						
0.60928	2.26997	0.580199	2.14949	0.892863	3.32037							0.739147	2.75383						
0.611168	2.26913	0.582258	2.1497	0.894376	3.31451							0.740777	2.75036						
0.613058	2.2683	0.584318	2.1499	0.895889	3.30869							0.74241	2.74691						
0.614948	2.26747	0.586377	2.15011	0.897403	3.30292							0.744044	2.7435						
0.61684	2.26666	0.588436	2.15032	0.898916	3.29718							0.745681	2.74012						
0.618733	2.26586	0.590495	2.15052	0.900431	3.29149							0.747319	2.73677						
0.620627	2.26507	0.592555	2.15072	0.901946	3.28584							0.748959	2.73345						
0.622522	2.26428	0.594614	2.15092	0.903461	3.28022							0.750601	2.73016						
0.624418	2.26351	0.596673	2.15112	0.904977	3.27465							0.752244	2.7269						
0.626314	2.26274	0.598732	2.15132	0.906494	3.26912							0.75389	2.72367						
0.628212	2.26199	0.600791	2.15151	0.908011	3.26362							0.755537	2.72046						
0.630111	2.26124	0.60285	2.15171	0.909528	3.25816							0.757186	2.71728						
0.632011	2.2605	0.604909	2.1519	0.911046	3.25275							0.758837	2.71413						
0.633912	2.25977	0.606968	2.15209	0.912565	3.24737							0.76049	2.71101						
0.635814	2.25904	0.609026	2.15228	0.914085	3.24203							0.762144	2.70791						
0.637717	2.25833	0.611085	2.15247	0.915605	3.23672							0.7638	2.70484						
0.63962	2.25762	0.613144	2.15266	0.917125	3.23145							0.765459	2.7018						
0.641525	2.25692	0.615203	2.15284	0.918647	3.22622							0.767118	2.69878						
0.643431	2.25623	0.617261	2.15303	0.920169	3.22103							0.76878	2.69579						
0.645337	2.25555	0.61932	2.15321	0.921692	3.21587							0.770443	2.69283						
0.647245	2.25487	0.621378	2.15339	0.923215	3.21075							0.772108	2.68989						
0.649153	2.2542	0.623437	2.15357	0.924739	3.20566							0.773775	2.68697						
0.651062	2.25354	0.625495	2.15375	0.926265	3.20061							0.775444	2.68408						
0.652972	2.25289	0.627553	2.15393	0.92779	3.1956							0.777114	2.68122						
0.654884	2.25224	0.629611	2.1541	0.929317	3.19062							0.778786	2.67838						
0.656795	2.2516	0.63167	2.15428	0.930844	3.18567							0.78046	2.67556						
0.658708	2.25097	0.633728	2.15445	0.932372	3.18076							0.782135	2.67277						
0.660622	2.25034	0.635786	2.15462	0.933901	3.17588							0.783813	2.67						
0.662536	2.24973	0.637844	2.15479	0.935431	3.17104							0.785492	2.66725						
0.664452	2.24911	0.639902	2.15496	0.936962	3.16622							0.787172	2.66453						
0.666368	2.24851	0.64196	2.15513	0.938493	3.16145							0.788854	2.66183						
0.668285	2.24791	0.644018	2.1553	0.940026	3.1567							0.790538	2.65915						
0.670203	2.24732	0.646076	2.15546	0.941559	3.15199							0.792224	2.6565						
0.672122	2.24673	0.648134	2.15563	0.943093	3.14731							0.793911	2.65386						
0.674041	2.24615	0.650191	2.15579	0.944628	3.14266							0.7956	2.65125						
0.675961	2.24558	0.652249	2.15596	0.946164	3.13804							0.797291	2.64866						
0.677882	2.24501	0.654307	2.15612	0.947701	3.13346							0.798983	2.64609						
0.679804	2.24445	0.656364	2.15628	0.949238	3.1289							0.800677	2.64355						
0.681727	2.2439	0.658422	2.15644	0.950777	3.12438							0.802372	2.64102						
0.68365	2.24335	0.660479	2.15659	0.952317	3.11989							0.804069	2.63851						
0.685574	2.24281	0.662537	2.15675	0.953857	3.11542							0.805768	2.63603						
0.687499	2.24227	0.664594	2.15691	0.955399	3.11099							0.807468	2.63357						
0.689425	2.24174	0.666652	2.15706	0.956941	3.10659							0.80917	2.63112						
0.691351	2.24121	0.668709	2.15722	0.958485	3.10222							0.810874	2.6287						
0.693279	2.24069	0.670766	2.15737	0.960029	3.09787							0.812579	2.62629						
0.695207	2.24018	0.672824	2.15752	0.961575	3.09356							0.814286	2.62391						
0.697135	2.23967	0.674881	2.15767	0.963121	3.08927							0.815994	2.62154						
0.699065	2.23917	0.676938	2.15782	0.964668	3.08502							0.817704	2.61919						
0.700995	2.23867	0.678995	2.15797	0.966217	3.08079							0.819415	2.61687						
0.702925	2.23817	0.681052	2.15811	0.967766	3.07659							0.821128	2.61456						
0.704857	2.23769	0.683109	2.15826	0.969317	3.07242							0.822843	2.61227						
0.706789	2.2372	0.685166	2.15841	0.970868	3.06828							0.824559	2.60999						
0.708722	2.23672	0.687223	2.15855	0.972421	3.06416							0.826276	2.60774						
0.710656	2.23625	0.689279	2.15869	0.973975	3.06007							0.827995	2.60551						
0.71259	2.23578	0.691336	2.15883	0.975529	3.05601							0.829716	2.60329						
0.714525	2.23532	0.693393	2.15898	0.977085	3.05198							0.831438	2.60109						
0.716461	2.23486	0.69545	2.15912	0.978642	3.04797							0.833162	2.5989						
0.718397	2.23441	0.697506	2.15926	0.980199	3.04399							0.834887	2.59674						
0.720334	2.23396	0.699563	2.15939	0.981758	3.04003							0.836614	2.59459						
0.722271	2.23351	0.701619	2.15953	0.983318	3.03611							0.838342	2.59246						
0.72421	2.23307	0.703676	2.15967	0.984879	3.0322							0.840071	2.59034						
0.726148	2.23264	0.705732	2.1598	0.986441	3.02833							0.841802	2.58825						
0.728088	2.23221	0.707789	2.15994	0.988005	3.02447							0.843535	2.58616						
0.730028	2.23178	0.709845	2.16007	0.989569	3.02065							0.845269	2.5841						
0.731969	2.23136	0.711901	2.1602	0.991134	3.01685							0.847004	2.58205						
0.73391	2.23094	0.713957	2.16034	0.992701	3.01307							0.848741	2.58002						
0.735852	2.23052	0.716014	2.16047	0.994268	3.00932							0.850479	2.578						
0.737795	2.23011	0.71807	2.1606	0.995837	3.00559							0.852219	2.576						
0.739738	2.22971	0.720126	2.16073	0.997407	3.00189							0.85396	2.57401						
0.741682	2.22931	0.722182	2.16085	0.998978	2.99821							0.855703	2.57204						
0.743626	2.22891	0.724238	2.16098	1.00055	2.99455							0.857447	2.57009						
0.745571	2.22852	0.726294	2.16111									0.859192	2.56815						
0.747517	2.22813	0.72835	2.16123									0.860939	2.56622						
0.749463	2.22774	0.730406	2.16136									0.862687	2.56431						
0.75141	2.22736	0.732461	2.16148									0.864437	2.56241						
0.753357	2.22698	0.734517	2.16161									0.866188	2.56053						
0.755305	2.22661	0.736573	2.16173									0.86794	2.55867						
0.757253	2.22624	0.738628	2.16185									0.869694	2.55681						
0.759202	2.22587	0.740684	2.16197									0.871449	2.55497						
0.761152	2.22551	0.74274	2.16209									0.873205	2.55315						
0.763102	2.22515	0.744795	2.16221									0.874963	2.55134						
0.765053	2.22479	0.746851	2.16233									0.876722	2.54954						
0.767004	2.22444	0.748906	2.16245									0.878483	2.54776						
0.768956	2.22409	0.750961	2.16256									0.880244	2.54599						
0.770908	2.22374	0.753017	2.16268									0.882007	2.54423						
0.772861	2.2234	0.755072	2.1628									0.883772	2.54249						
0.774814	2.22306	0.757127	2.16291									0.885538	2.54076						
0.776768	2.22272	0.759182	2.16303									0.887305	2.53904						
0.778722	2.22239	0.761238	2.16314									0.889073	2.53734						
0.780677	2.22206	0.763293	2.16325									0.890842	2.53564						
0.782632	2.22174	0.765348	2.16336									0.892613	2.53396						
0.784588	2.22141	0.767403	2.16347									0.894385	2.5323						
0.786545	2.22109	0.769458	2.16358									0.896159	2.53064						
0.788502	2.22078	0.771512	2.16369									0.897934	2.529						
0.790459	2.22046	0.773567	2.1638									0.899709	2.52737						
0.792417	2.22015	0.775622	2.16391									0.901487	2.52575						
0.794375	2.21984	0.777677	2.16402									0.903265	2.52415						
0.796334	2.21954	0.779732	2.16413									0.905045	2.52255						
0.798293	2.21924	0.781786	2.16423									0.906826	2.52097						
0.800253	2.21894	0.783841	2.16434									0.908608	2.5194						
0.802213	2.21864	0.785895	2.16444									0.910391	2.51784						
0.804174	2.21835	0.78795	2.16455									0.912176	2.51629						
0.806135	2.21806	0.790004	2.16465									0.913962	2.51475						
0.808097	2.21777	0.792059	2.16475									0.915749	2.51323						
0.810059	2.21748	0.794113	2.16486									0.917537	2.51171						
0.812021	2.2172	0.796168	2.16496									0.919326	2.51021						
0.813984	2.21692	0.798222	2.16506									0.921117	2.50871						
0.815948	2.21664	0.800276	2.16516									0.922908	2.50723						
0.817912	2.21637	0.80233	2.16526									0.924701	2.50576						
0.819876	2.2161	0.804384	2.16536									0.926495	2.5043						
0.821841	2.21583	0.806439	2.16545									0.928291	2.50285						
0.823806	2.21556	0.808493	2.16555									0.930087	2.50141						
0.825771	2.2153	0.810547	2.16565									0.931885	2.49998						
0.827737	2.21503	0.812601	2.16575									0.933684	2.49856						
0.829704	2.21477	0.814655	2.16584									0.935483	2.49715						
0.831671	2.21452	0.816708	2.16594									0.937284	2.49575						
0.833638	2.21426	0.818762	2.16603									0.939087	2.49436						
0.835606	2.21401	0.820816	2.16613									0.94089	2.49298						
0.837574	2.21376	0.82287	2.16622									0.942694	2.49161						
0.839542	2.21351	0.824924	2.16631									0.9445	2.49025						
0.841511	2.21327	0.826977	2.16641									0.946306	2.4889						
0.84348	2.21302	0.829031	2.1665									0.948114	2.48756						
0.84545	2.21278	0.831084	2.16659									0.949923	2.48623						
0.84742	2.21254	0.833138	2.16668									0.951733	2.48491						
0.849391	2.2123	0.835191	2.16677									0.953544	2.48359						
0.851361	2.21207	0.837245	2.16686									0.955356	2.48229						
0.853333	2.21184	0.839298	2.16695									0.957169	2.48099						
0.855304	2.21161	0.841351	2.16704									0.958983	2.47971						
0.857276	2.21138	0.843405	2.16713									0.960799	2.47843						
0.859249	2.21115	0.845458	2.16721									0.962615	2.47716						
0.861222	2.21093	0.847511	2.1673									0.964433	2.4759						
0.863195	2.21071	0.849564	2.16739									0.966251	2.47465						
0.865168	2.21049	0.851617	2.16747									0.968071	2.47341						
0.867142	2.21027	0.85367	2.16756									0.969891	2.47218						
0.869116	2.21005	0.855723	2.16764									0.971713	2.47095						
0.871091	2.20984	0.857776	2.16773									0.973536	2.46974						
0.873066	2.20962	0.859829	2.16781									0.975359	2.46853						
0.875041	2.20941	0.861882	2.16789									0.977184	2.46733						
0.877017	2.20921	0.863935	2.16798									0.97901	2.46614						
0.878993	2.209	0.865988	2.16806									0.980836	2.46495						
0.880969	2.20879	0.868041	2.16814									0.982664	2.46378						
0.882946	2.20859	0.870093	2.16822									0.984493	2.46261						
0.884923	2.20839	0.872146	2.1683									0.986323	2.46145						
0.8869	2.20819	0.874198	2.16838									0.988153	2.4603						
0.888878	2.20799	0.876251	2.16846									0.989985	2.45916						
0.890856	2.2078	0.878303	2.16854									0.991818	2.45802						
0.892835	2.2076	0.880356	2.16862									0.993652	2.45689						
0.894813	2.20741	0.882408	2.1687									0.995486	2.45577						
0.896792	2.20722	0.884461	2.16878									0.997322	2.45466						
0.898772	2.20703	0.886513	2.16886									0.999158	2.45355						
0.900751	2.20684	0.888565	2.16893									1.001	2.45245						
0.902731	2.20665	0.890618	2.16901																
0.904712	2.20647	0.89267	2.16909																
0.906692	2.20629	0.894722	2.16916																
0.908673	2.20611	0.896774	2.16924																
0.910655	2.20593	0.898826	2.16931																
0.912636	2.20575	0.900878	2.16939																
0.914618	2.20557	0.90293	2.16946																
0.9166	2.2054	0.904982	2.16953																
0.918583	2.20522	0.907034	2.16961																
0.920566	2.20505	0.909086	2.16968																
0.922549	2.20488	0.911138	2.16975																
0.924532	2.20471	0.913189	2.16982																
0.926516	2.20455	0.915241	2.16989																
0.9285	2.20438	0.917293	2.16997																
0.930484	2.20421	0.919344	2.17004																
0.932469	2.20405	0.921396	2.17011																
0.934454	2.20389	0.923447	2.17018																
0.936439	2.20373	0.925499	2.17025																
0.938424	2.20357	0.92755	2.17031																
0.94041	2.20341	0.929602	2.17038																
0.942396	2.20326	0.931653	2.17045																
0.944383	2.2031	0.933704	2.17052																
0.946369	2.20295	0.935756	2.17059																
0.948356	2.20279	0.937807	2.17065																
0.950343	2.20264	0.939858	2.17072																
0.95233	2.20249	0.941909	2.17078																
0.954318	2.20234	0.94396	2.17085																
0.956306	2.2022	0.946011	2.17092																
0.958294	2.20205	0.948062	2.17098																
0.960283	2.20191	0.950113	2.17105																
0.962271	2.20176	0.952164	2.17111																
0.96426	2.20162	0.954215	2.17117																
0.966249	2.20148	0.956266	2.17124																
0.968239	2.20134	0.958317	2.1713																
0.970229	2.2012	0.960368	2.17136																
0.972219	2.20106	0.962418	2.17143																
0.974209	2.20093	0.964469	2.17149																
0.976199	2.20079	0.966519	2.17155																
0.97819	2.20066	0.96857	2.17161																
0.980181	2.20052	0.970621	2.17167																
0.982172	2.20039	0.972671	2.17173																
0.984164	2.20026	0.974721	2.17179																
0.986155	2.20013	0.976772	2.17185																
0.988147	2.2	0.978822	2.17191																
0.99014	2.19987	0.980873	2.17197																
0.992132	2.19975	0.982923	2.17203																
0.994125	2.19962	0.984973	2.17209																
0.996118	2.19949	0.987023	2.17215																
0.998111	2.19937	0.989073	2.1722																
1.0001	2.19925	0.991123	2.17226																
		0.993173	2.17232																
		0.995223	2.17238																
		0.997273	2.17243																
		0.999323	2.17249																
		1.00137	2.17254																
