Sym0		Sym1		Sym2		Sym3		Asym1		Asym2		Asym3	
421  Points		421  Points		379  Points		244  Points		403  Points		386  Points		255  Points	
Freq (MHz)	Vph (m/ms)	Freq (MHz)	Vph (m/ms)	Freq (MHz)	Vph (m/ms)	Freq (MHz)	Vph (m/ms)	Freq (MHz)	Vph (m/ms)	Freq (MHz)	Vph (m/ms)	Freq (MHz)	Vph (m/ms)
1.00194	2.42504	1.00254	2.42512	0.43302	960.798	0.866019	1041.5	0.216516	413.384	1.00101	2.64072	0.683227	4958.34
0.999393	2.42471	0.999986	2.42478	0.433089	299.361	0.865995	473.859	0.21659	142.513	0.999323	2.64321	0.683314	602.666
0.996845	2.42438	0.997437	2.42446	0.433231	177.355	0.865952	306.688	0.216735	86.1492	0.997652	2.64576	0.683535	320.933
0.994301	2.42407	0.994892	2.42414	0.433444	126.047	0.865891	226.698	0.216952	61.7773	0.996002	2.64838	0.683887	218.783
0.991761	2.42376	0.992351	2.42383	0.433729	97.8016	0.865812	179.793	0.217239	48.1912	0.994371	2.65106	0.684362	166.031
0.989225	2.42346	0.989814	2.42353	0.434083	79.9298	0.865715	148.962	0.217597	39.5351	0.992759	2.65381	0.684951	133.834
0.986694	2.42318	0.987282	2.42324	0.434506	67.6081	0.8656	127.151	0.218024	33.5426	0.991166	2.65662	0.685646	112.145
0.984168	2.4229	0.984755	2.42296	0.434996	58.6023	0.865467	110.905	0.21852	29.1518	0.989589	2.6595	0.686436	96.5456
0.981646	2.42263	0.982232	2.42269	0.435551	51.7351	0.865317	98.3349	0.219083	25.7989	0.98803	2.66243	0.687311	84.7906
0.979129	2.42237	0.979713	2.42243	0.43617	46.3277	0.86515	88.3192	0.219713	23.1569	0.986487	2.66543	0.688263	75.6166
0.976616	2.42212	0.9772	2.42218	0.436851	41.9608	0.864966	80.1507	0.220407	21.0232	0.98496	2.66849	0.689283	68.2591
0.974109	2.42189	0.974691	2.42194	0.437591	38.3617	0.864766	73.3613	0.221166	19.2653	0.983448	2.6716	0.690363	62.2282
0.971606	2.42166	0.972188	2.42171	0.438387	35.3453	0.864549	67.6285	0.221987	17.7931	0.981951	2.67477	0.691497	57.1954
0.969109	2.42145	0.969689	2.4215	0.43924	32.7815	0.864316	62.7233	0.222869	16.5431	0.980468	2.678	0.692679	52.9324
0.966617	2.42125	0.967196	2.4213	0.440144	30.5761	0.864068	58.4784	0.223811	15.4693	0.978999	2.68128	0.693903	49.2754
0.964131	2.42106	0.964708	2.42111	0.4411	28.6595	0.863804	54.7686	0.22481	14.5375	0.977543	2.68461	0.695165	46.1041
0.96165	2.42089	0.962226	2.42093	0.442103	26.9788	0.863525	51.4987	0.225865	13.722	0.976099	2.688	0.69646	43.3279
0.959175	2.42073	0.95975	2.42076	0.443153	25.4933	0.863233	48.5947	0.226975	13.0026	0.974669	2.69144	0.697786	40.8775
0.956705	2.42058	0.957279	2.42061	0.444246	24.1713	0.862926	45.9983	0.228138	12.3637	0.97325	2.69494	0.69914	38.6987
0.954242	2.42045	0.954814	2.42047	0.445382	22.9873	0.862605	43.663	0.229351	11.7929	0.971843	2.69848	0.700517	36.7489
0.951784	2.42033	0.952355	2.42035	0.446557	21.921	0.862272	41.5513	0.230613	11.2801	0.970448	2.70208	0.701918	34.9939
0.949333	2.42022	0.949902	2.42025	0.44777	20.956	0.861926	39.6324	0.231923	10.8172	0.969063	2.70573	0.703338	33.4059
0.946888	2.42014	0.947456	2.42016	0.449019	20.0784	0.861568	37.881	0.233279	10.3974	0.967689	2.70943	0.704777	31.9622
0.94445	2.42006	0.945016	2.42008	0.450301	19.2772	0.861198	36.2762	0.234679	10.0152	0.966326	2.71318	0.706233	30.6441
0.942018	2.42001	0.942583	2.42002	0.451617	18.5429	0.860817	34.8001	0.236121	9.66586	0.964973	2.71698	0.707705	29.4357
0.939593	2.41997	0.940156	2.41998	0.452962	17.8674	0.860426	33.4378	0.237604	9.34551	0.963629	2.72083	0.709191	28.3241
0.937175	2.41995	0.937736	2.41996	0.454337	17.2442	0.860024	32.1767	0.239125	9.05079	0.962296	2.72472	0.71069	27.2981
0.934764	2.41995	0.935324	2.41995	0.455739	16.6673	0.859613	31.0059	0.240684	8.77884	0.960972	2.72867	0.712201	26.3481
0.93236	2.41997	0.932918	2.41996	0.457167	16.1319	0.859192	29.916	0.242279	8.52721	0.959657	2.73267	0.713724	25.4661
0.929964	2.42	0.93052	2.41999	0.45862	15.6337	0.858763	28.8988	0.243908	8.29379	0.958351	2.73671	0.715257	24.6449
0.927574	2.42006	0.928129	2.42004	0.460096	15.169	0.858326	27.9474	0.245569	8.07674	0.957054	2.7408	0.7168	23.8786
0.925193	2.42013	0.925746	2.42011	0.461594	14.7345	0.857882	27.0555	0.247262	7.87445	0.955765	2.74494	0.718352	23.1618
0.922819	2.42023	0.92337	2.42021	0.463112	14.3274	0.857431	26.2177	0.248761	7.70911	0.954485	2.74913	0.719912	22.4898
0.920453	2.42035	0.921003	2.42032	0.46465	13.9453	0.856973	25.4292	0.250056	7.57554	0.953213	2.75336	0.72148	21.8587
0.918096	2.42049	0.918643	2.42045	0.466207	13.5859	0.856509	24.6859	0.251139	7.46988	0.95195	2.75765	0.723056	21.2647
0.915746	2.42065	0.916291	2.42061	0.467782	13.2473	0.85604	23.9838	0.252002	7.38922	0.950694	2.76198	0.724638	20.7048
0.913405	2.42083	0.913948	2.42079	0.469372	12.9277	0.855565	23.3198	0.25264	7.33147	0.949446	2.76636	0.726227	20.176
0.911072	2.42104	0.911613	2.42099	0.470979	12.6256	0.855087	22.6907	0.253051	7.29518	0.948205	2.77078	0.727821	19.6758
0.908748	2.42128	0.909287	2.42122	0.4726	12.3396	0.854604	22.094	0.253643	7.24391	0.946972	2.77526	0.729421	19.202
0.906432	2.42153	0.906969	2.42147	0.474235	12.0684	0.854118	21.5271	0.25429	7.18934	0.945746	2.77978	0.731027	18.7526
0.904125	2.42181	0.904661	2.42175	0.475883	11.811	0.85363	20.9879	0.255174	7.11701	0.944528	2.78435	0.732637	18.3257
0.901828	2.42212	0.902361	2.42205	0.477543	11.5662	0.853139	20.4744	0.256301	7.02849	0.943316	2.78897	0.734251	17.9196
0.899539	2.42245	0.90007	2.42237	0.479215	11.3333	0.852646	19.9849	0.257675	6.92565	0.942112	2.79363	0.73587	17.5329
0.89726	2.42282	0.897789	2.42273	0.480897	11.1114	0.852152	19.5177	0.259302	6.81051	0.940914	2.79835	0.737492	17.1642
0.89499	2.4232	0.895516	2.42311	0.482589	10.8996	0.851657	19.0713	0.261189	6.68518	0.939723	2.80311	0.739118	16.8123
0.892729	2.42362	0.893254	2.42352	0.484291	10.6974	0.851161	18.6443	0.263096	6.56659	0.938538	2.80792	0.740747	16.4761
0.890478	2.42406	0.891	2.42396	0.486002	10.5041	0.850666	18.2356	0.265022	6.4542	0.93736	2.81277	0.742379	16.1545
0.888236	2.42453	0.888757	2.42442	0.487721	10.3191	0.850171	17.844	0.266965	6.34756	0.936188	2.81768	0.744014	15.8466
0.886005	2.42504	0.886523	2.42492	0.489447	10.1419	0.849677	17.4684	0.268925	6.24624	0.935023	2.82263	0.74565	15.5516
0.883783	2.42557	0.884299	2.42544	0.49118	9.97202	0.849184	17.108	0.270901	6.14985	0.933863	2.82763	0.747289	15.2686
0.881571	2.42613	0.882085	2.426	0.49292	9.80898	0.848694	16.7618	0.272891	6.05806	0.932709	2.83268	0.74893	14.9969
0.87937	2.42672	0.87988	2.42658	0.494666	9.65241	0.848206	16.429	0.274895	5.97053	0.931561	2.83778	0.750573	14.7359
0.877178	2.42734	0.877686	2.4272	0.496417	9.5019	0.847721	16.1088	0.276912	5.88698	0.930419	2.84293	0.752216	14.4849
0.874996	2.428	0.875502	2.42784	0.498173	9.35712	0.847239	15.8006	0.278941	5.80714	0.929283	2.84812	0.753861	14.2434
0.872825	2.42869	0.873329	2.42852	0.499933	9.21774	0.846761	15.5037	0.28098	5.73077	0.928152	2.85337	0.755507	14.0108
0.870664	2.42941	0.871165	2.42924	0.501697	9.08345	0.846287	15.2175	0.28303	5.65765	0.927026	2.85866	0.757153	13.7867
0.868513	2.43016	0.869012	2.42998	0.503465	8.95399	0.845818	14.9414	0.285089	5.58756	0.925905	2.864	0.7588	13.5706
0.866373	2.43095	0.86687	2.43076	0.505236	8.82908	0.845353	14.675	0.287157	5.52032	0.92479	2.86939	0.760447	13.362
0.864243	2.43177	0.864737	2.43157	0.507009	8.7085	0.844895	14.4178	0.289233	5.45575	0.92368	2.87483	0.762094	13.1606
0.862124	2.43262	0.862615	2.43242	0.508785	8.592	0.844442	14.1692	0.291315	5.3937	0.922574	2.88032	0.76374	12.966
0.860014	2.43351	0.860504	2.4333	0.510562	8.47939	0.843995	13.9289	0.293404	5.334	0.921474	2.88586	0.765386	12.7779
0.857916	2.43443	0.858403	2.43421	0.512341	8.37047	0.843555	13.6965	0.295498	5.27653	0.920378	2.89144	0.767032	12.5959
0.855828	2.43539	0.856312	2.43516	0.514121	8.26505	0.843122	13.4716	0.297597	5.22115	0.919287	2.89708	0.768676	12.4198
0.85375	2.43638	0.854232	2.43615	0.515901	8.16296	0.842697	13.2539	0.2997	5.16775	0.9182	2.90277	0.770319	12.2492
0.851683	2.43741	0.852162	2.43717	0.517681	8.06404	0.84228	13.043	0.301807	5.11621	0.917117	2.9085	0.771961	12.0839
0.849626	2.43848	0.850103	2.43822	0.519232	7.98031	0.841871	12.8387	0.303916	5.06642	0.916039	2.91429	0.773602	11.9237
0.84758	2.43958	0.848054	2.43932	0.520554	7.91067	0.84147	12.6406	0.306028	5.0183	0.914964	2.92012	0.77524	11.7683
0.845544	2.44071	0.846016	2.44045	0.521647	7.85425	0.841079	12.4484	0.308141	4.97175	0.913894	2.92601	0.776877	11.6175
0.843518	2.44189	0.843988	2.44161	0.522511	7.81037	0.840697	12.262	0.310255	4.92668	0.912827	2.93194	0.778511	11.4711
0.841502	2.4431	0.84197	2.44281	0.523146	7.7785	0.840325	12.0811	0.31237	4.88303	0.911765	2.93793	0.780143	11.3288
0.839497	2.44434	0.839962	2.44405	0.523553	7.75828	0.839963	11.9054	0.314484	4.8407	0.910705	2.94396	0.781772	11.1906
0.837502	2.44563	0.837965	2.44532	0.524136	7.72945	0.839612	11.7347	0.316597	4.79965	0.909649	2.95005	0.783398	11.0563
0.835517	2.44695	0.835977	2.44664	0.524771	7.69842	0.839272	11.5689	0.318709	4.75979	0.908596	2.95618	0.785021	10.9256
0.833542	2.4483	0.834	2.44798	0.525634	7.65673	0.838943	11.4078	0.320818	4.72107	0.907547	2.96237	0.786641	10.7985
0.831576	2.4497	0.832032	2.44937	0.526724	7.60484	0.838625	11.2511	0.322925	4.68343	0.9065	2.9686	0.788257	10.6747
0.829621	2.45113	0.830075	2.45079	0.528042	7.54328	0.83832	11.0987	0.325029	4.64681	0.905456	2.97489	0.789869	10.5542
0.827675	2.4526	0.828126	2.45225	0.529585	7.47268	0.838028	10.9504	0.327129	4.61118	0.904415	2.98122	0.791478	10.4368
0.825739	2.4541	0.826188	2.45375	0.531355	7.39373	0.837748	10.8061	0.329225	4.57647	0.903377	2.98761	0.793082	10.3223
0.823812	2.45565	0.824259	2.45528	0.533121	7.31689	0.837481	10.6656	0.331316	4.54264	0.90234	2.99404	0.794682	10.2108
0.821894	2.45722	0.822339	2.45685	0.534884	7.24209	0.837228	10.5289	0.333402	4.50965	0.901306	3.00053	0.796277	10.102
0.819986	2.45884	0.820429	2.45846	0.536643	7.16922	0.836988	10.3956	0.335481	4.47746	0.900274	3.00706	0.797867	9.99587
0.818087	2.4605	0.818528	2.46011	0.538398	7.09822	0.836763	10.2658	0.337555	4.44603	0.899244	3.01365	0.799452	9.89229
0.816196	2.46219	0.816635	2.46179	0.540149	7.029	0.836552	10.1394	0.339621	4.41532	0.898215	3.02028	0.801032	9.79116
0.814315	2.46391	0.814751	2.46351	0.541895	6.9615	0.836356	10.0161	0.34168	4.3853	0.897188	3.02697	0.802607	9.69241
0.812442	2.46568	0.812876	2.46526	0.543636	6.89563	0.836176	9.89586	0.343731	4.35595	0.896162	3.0337	0.804175	9.59593
0.810577	2.46748	0.81101	2.46705	0.545372	6.83134	0.836011	9.77864	0.345774	4.32721	0.895137	3.04048	0.805738	9.50165
0.808721	2.46931	0.809151	2.46888	0.547102	6.76857	0.835861	9.6643	0.347808	4.29908	0.894113	3.04731	0.807295	9.40949
0.806872	2.47118	0.807301	2.47074	0.548827	6.70725	0.835728	9.55275	0.349832	4.27152	0.89309	3.05419	0.808845	9.31936
0.805032	2.47309	0.805459	2.47264	0.550545	6.64734	0.835612	9.4439	0.351847	4.24449	0.892068	3.06112	0.810388	9.23121
0.803199	2.47503	0.803624	2.47458	0.552256	6.58876	0.835512	9.33766	0.353851	4.21799	0.891045	3.0681	0.811925	9.14496
0.801373	2.47701	0.801797	2.47655	0.553961	6.53149	0.835429	9.23395	0.355845	4.19198	0.890023	3.07513	0.813455	9.06054
0.799555	2.47902	0.799977	2.47855	0.555658	6.47545	0.835364	9.13269	0.357827	4.16645	0.889	3.0822	0.814977	8.9779
0.797744	2.48107	0.798164	2.48059	0.557348	6.42062	0.835317	9.0338	0.359798	4.14136	0.887978	3.08932	0.816492	8.89697
0.795939	2.48315	0.796358	2.48266	0.55903	6.36694	0.835288	8.93721	0.361756	4.11671	0.886954	3.09649	0.817999	8.81769
0.794141	2.48526	0.794559	2.48477	0.560704	6.31438	0.835277	8.84286	0.363702	4.09247	0.88593	3.10371	0.819499	8.74001
0.79235	2.48741	0.792766	2.48691	0.56237	6.26289	0.835284	8.75067	0.365635	4.06862	0.884904	3.11097	0.82099	8.66388
0.790564	2.48959	0.790978	2.48908	0.564027	6.21243	0.835311	8.66058	0.367554	4.04514	0.883878	3.11828	0.822473	8.58925
0.788784	2.4918	0.789197	2.49128	0.565675	6.16297	0.835357	8.57253	0.36946	4.02203	0.882849	3.12564	0.823947	8.51606
0.78701	2.49404	0.787422	2.49351	0.567313	6.11447	0.835413	8.49741	0.371352	3.99926	0.881819	3.13304	0.825225	8.45343
0.78524	2.49631	0.785651	2.49578	0.568943	6.0669	0.835472	8.43454	0.373229	3.97682	0.880786	3.14048	0.826309	8.40086
0.783476	2.49861	0.783886	2.49808	0.570562	6.02023	0.83553	8.38333	0.375091	3.95469	0.879752	3.14797	0.827201	8.35794
0.781716	2.50095	0.782125	2.5004	0.572171	5.97442	0.83558	8.34334	0.376938	3.93286	0.878714	3.15551	0.827904	8.32436
0.779961	2.50331	0.780368	2.50276	0.57377	5.92945	0.835621	8.31422	0.37877	3.91132	0.877673	3.16308	0.82842	8.29986
0.778209	2.50569	0.778616	2.50514	0.575358	5.88528	0.835648	8.2957	0.380585	3.89006	0.876629	3.1707	0.828749	8.28426
0.776461	2.50811	0.776867	2.50755	0.576936	5.8419	0.835689	8.26924	0.382384	3.86906	0.875582	3.17836	0.829222	8.26196
0.774716	2.51055	0.775122	2.50998	0.578502	5.79927	0.835736	8.2407	0.384167	3.84832	0.87453	3.18607	0.829734	8.23787
0.772974	2.51302	0.773379	2.51244	0.580057	5.75737	0.835804	8.20224	0.385934	3.82782	0.873475	3.19381	0.830429	8.20536
0.771235	2.51551	0.771639	2.51493	0.5816	5.71618	0.835897	8.15419	0.387683	3.80755	0.872414	3.20159	0.831305	8.16465
0.769497	2.51802	0.769901	2.51744	0.583132	5.67567	0.83602	8.09695	0.389415	3.78751	0.871349	3.20941	0.83236	8.11603
0.767762	2.52056	0.768165	2.51997	0.584651	5.63582	0.83618	8.03098	0.39113	3.76769	0.870279	3.21728	0.833589	8.05981
0.766027	2.52311	0.76643	2.52252	0.586158	5.59662	0.836382	7.95681	0.392827	3.74808	0.869203	3.22517	0.834991	7.99635
0.764293	2.52569	0.764696	2.52509	0.587653	5.55803	0.836606	7.88423	0.394506	3.72867	0.868121	3.23311	0.836383	7.934
0.762559	2.52828	0.762962	2.52768	0.589135	5.52005	0.836851	7.81321	0.396168	3.70945	0.867033	3.24108	0.837764	7.87272
0.760826	2.53089	0.761229	2.53028	0.590604	5.48264	0.837118	7.74369	0.397812	3.69043	0.865938	3.24908	0.839135	7.81248
0.759091	2.53351	0.759494	2.5329	0.59206	5.44581	0.837407	7.67564	0.399437	3.67158	0.864836	3.25712	0.840494	7.75324
0.757356	2.53615	0.757759	2.53554	0.593502	5.40952	0.837719	7.60903	0.401045	3.65292	0.863726	3.26519	0.841843	7.69498
0.755618	2.5388	0.756022	2.53818	0.594932	5.37376	0.838052	7.54381	0.402634	3.63442	0.862609	3.27329	0.843181	7.63767
0.753878	2.54146	0.754283	2.54084	0.596347	5.33852	0.838408	7.47995	0.404206	3.61609	0.861484	3.28142	0.844508	7.58129
0.752136	2.54413	0.752541	2.54351	0.597749	5.30377	0.838787	7.41742	0.405759	3.59793	0.86035	3.28959	0.845823	7.52581
0.75039	2.5468	0.750796	2.54618	0.599137	5.26952	0.839188	7.35617	0.407294	3.57992	0.859207	3.29777	0.847127	7.4712
0.74864	2.54948	0.749047	2.54886	0.600511	5.23574	0.839612	7.29619	0.408811	3.56207	0.858055	3.30599	0.848419	7.41744
0.746886	2.55217	0.747294	2.55154	0.601871	5.20242	0.840059	7.23743	0.41031	3.54438	0.856893	3.31423	0.8497	7.3645
0.745126	2.55485	0.745536	2.55423	0.603216	5.16954	0.840529	7.17987	0.411792	3.52683	0.855721	3.3225	0.850968	7.31237
0.743361	2.55753	0.743772	2.55691	0.604548	5.1371	0.841023	7.12348	0.413256	3.50943	0.854539	3.33079	0.852225	7.26102
0.741589	2.56021	0.742001	2.55959	0.605865	5.10508	0.841539	7.06822	0.414702	3.49218	0.853345	3.3391	0.85347	7.21044
0.73981	2.56288	0.740224	2.56226	0.607167	5.07348	0.842079	7.01408	0.416131	3.47506	0.85214	3.34743	0.854702	7.1606
0.738023	2.56554	0.738439	2.56492	0.608455	5.04227	0.842642	6.96101	0.417543	3.45809	0.850924	3.35578	0.855923	7.11148
0.736228	2.56819	0.736646	2.56758	0.609728	5.01146	0.843228	6.90901	0.418939	3.44126	0.849695	3.36415	0.857131	7.06307
0.734424	2.57083	0.734845	2.57022	0.610987	4.98103	0.843838	6.85804	0.420317	3.42457	0.848454	3.37254	0.858327	7.01535
0.732611	2.57346	0.733033	2.57285	0.612231	4.95096	0.844471	6.80807	0.42168	3.40801	0.847199	3.38094	0.859511	6.96829
0.730787	2.57606	0.731212	2.57546	0.61346	4.92127	0.845127	6.75909	0.423027	3.39159	0.845932	3.38935	0.860682	6.92189
0.728952	2.57865	0.72938	2.57805	0.614675	4.89192	0.845807	6.71106	0.424358	3.37531	0.84465	3.39778	0.861841	6.87613
0.727106	2.58121	0.727536	2.58062	0.615875	4.86293	0.84651	6.66397	0.425674	3.35917	0.843355	3.40621	0.862987	6.831
0.725248	2.58375	0.725681	2.58316	0.61706	4.83427	0.847236	6.6178	0.426974	3.34316	0.842045	3.41466	0.864122	6.78647
0.723377	2.58626	0.723813	2.58568	0.618231	4.80594	0.847985	6.57252	0.428261	3.32728	0.84072	3.42311	0.865243	6.74254
0.721493	2.58875	0.721932	2.58817	0.619388	4.77794	0.848757	6.52811	0.429533	3.31154	0.83938	3.43157	0.866353	6.69919
0.719595	2.5912	0.720038	2.59063	0.62053	4.75025	0.849552	6.48454	0.430792	3.29593	0.838025	3.44004	0.86745	6.65641
0.717684	2.59362	0.718129	2.59306	0.621657	4.72287	0.85037	6.44181	0.432037	3.28046	0.836654	3.44851	0.868535	6.61418
0.715758	2.596	0.716207	2.59545	0.622771	4.6958	0.85121	6.39989	0.43327	3.26513	0.835266	3.45698	0.869608	6.5725
0.713816	2.59835	0.714269	2.59781	0.62387	4.66902	0.852074	6.35876	0.43449	3.24993	0.833862	3.46546	0.870669	6.53135
0.71186	2.60066	0.712316	2.60012	0.624956	4.64254	0.852959	6.31841	0.435699	3.23487	0.832441	3.47393	0.871718	6.49072
0.709888	2.60292	0.710348	2.6024	0.626027	4.61634	0.853867	6.2788	0.436896	3.21995	0.831004	3.48241	0.872755	6.4506
0.707901	2.60515	0.708364	2.60464	0.627085	4.59043	0.854796	6.23994	0.438082	3.20516	0.829549	3.49088	0.87378	6.41098
0.705897	2.60733	0.706364	2.60683	0.62813	4.56479	0.855748	6.20179	0.439258	3.19051	0.828076	3.49935	0.874794	6.37185
0.703877	2.60947	0.704348	2.60898	0.629161	4.53943	0.856721	6.16434	0.440423	3.176	0.826586	3.50782	0.875796	6.33321
0.701841	2.61157	0.702316	2.61108	0.630178	4.51433	0.857715	6.12758	0.441579	3.16163	0.825077	3.51628	0.876787	6.29503
0.699789	2.61362	0.700267	2.61315	0.631183	4.48949	0.85873	6.09149	0.442727	3.1474	0.823551	3.52474	0.877766	6.25732
0.69772	2.61562	0.698203	2.61516	0.632175	4.46492	0.859767	6.05606	0.443865	3.13331	0.822006	3.53319	0.878735	6.22006
0.695635	2.61758	0.696121	2.61713	0.633155	4.4406	0.860824	6.02126	0.444996	3.11936	0.820443	3.54163	0.879693	6.18325
0.693534	2.61949	0.694024	2.61905	0.634122	4.41653	0.861901	5.98708	0.446119	3.10555	0.818862	3.55007	0.88064	6.14687
0.691417	2.62136	0.691911	2.62093	0.635077	4.39271	0.862998	5.95351	0.447236	3.09188	0.817262	3.5585	0.881578	6.11093
0.689284	2.62318	0.689782	2.62276	0.63602	4.36913	0.864115	5.92054	0.448346	3.07836	0.815644	3.56692	0.882505	6.07541
0.687136	2.62495	0.687637	2.62454	0.636952	4.3458	0.865252	5.88814	0.449449	3.06498	0.814006	3.57533	0.883422	6.04031
0.684972	2.62668	0.685476	2.62628	0.637872	4.3227	0.866407	5.85631	0.450548	3.05174	0.812351	3.58374	0.88433	6.00561
0.682793	2.62836	0.683301	2.62797	0.638781	4.29984	0.867582	5.82503	0.451641	3.03864	0.810676	3.59214	0.885228	5.97132
0.680599	2.63	0.68111	2.62962	0.63968	4.27721	0.868775	5.79429	0.45273	3.02569	0.808983	3.60053	0.886117	5.93743
0.67839	2.63159	0.678905	2.63123	0.640567	4.25481	0.869985	5.76408	0.453814	3.01288	0.807272	3.60891	0.886998	5.90393
0.676168	2.63315	0.676686	2.63279	0.641445	4.23263	0.871214	5.73438	0.454895	3.00022	0.805542	3.61728	0.88787	5.87081
0.673931	2.63466	0.674452	2.63431	0.642313	4.21069	0.87246	5.70518	0.455973	2.9877	0.803794	3.62565	0.888734	5.83808
0.671681	2.63612	0.672206	2.63579	0.643171	4.18896	0.873723	5.67646	0.457049	2.97533	0.802028	3.63401	0.889591	5.80572
0.669419	2.63755	0.669946	2.63722	0.64402	4.16745	0.875003	5.64823	0.458121	2.9631	0.800244	3.64236	0.890439	5.77372
0.667143	2.63894	0.667673	2.63862	0.644859	4.14616	0.876299	5.62046	0.459193	2.95102	0.798442	3.65071	0.891281	5.7421
0.664855	2.6403	0.665388	2.63998	0.64569	4.12509	0.877611	5.59314	0.460262	2.93908	0.796623	3.65906	0.892116	5.71083
0.662555	2.64161	0.663091	2.64131	0.646513	4.10423	0.878939	5.56627	0.461331	2.92729	0.794787	3.6674	0.892945	5.67992
0.660244	2.64289	0.660782	2.6426	0.647327	4.08358	0.880282	5.53983	0.462399	2.91564	0.792933	3.67574	0.893768	5.64936
0.657921	2.64414	0.658462	2.64385	0.648134	4.06314	0.881639	5.51381	0.463467	2.90414	0.791063	3.68408	0.894585	5.61915
0.655588	2.64535	0.656132	2.64507	0.648933	4.0429	0.883011	5.4882	0.464536	2.89278	0.789176	3.69242	0.895397	5.58928
0.653245	2.64653	0.65379	2.64626	0.649725	4.02287	0.884396	5.46299	0.465605	2.88156	0.787274	3.70077	0.896204	5.55975
0.650891	2.64768	0.651439	2.64742	0.650511	4.00305	0.885795	5.43818	0.466675	2.87049	0.785355	3.70912	0.897006	5.53056
0.648529	2.6488	0.649079	2.64854	0.65129	3.98343	0.887208	5.41374	0.467746	2.85956	0.783421	3.71747	0.897805	5.5017
0.646156	2.64989	0.646709	2.64964	0.652062	3.964	0.888633	5.38968	0.46882	2.84877	0.781473	3.72583	0.8986	5.47316
0.643775	2.65096	0.64433	2.65071	0.652829	3.94478	0.89007	5.36598	0.469895	2.83813	0.779509	3.73421	0.899392	5.44496
0.641386	2.65199	0.641942	2.65175	0.653591	3.92576	0.891519	5.34264	0.470973	2.82763	0.777532	3.74259	0.900181	5.41707
0.638988	2.65301	0.639546	2.65277	0.654347	3.90692	0.89298	5.31964	0.472054	2.81727	0.77554	3.75099	0.900968	5.3895
0.636583	2.65399	0.637143	2.65377	0.655098	3.88829	0.894451	5.29698	0.473138	2.80706	0.773535	3.7594	0.901754	5.36225
0.63417	2.65496	0.634732	2.65474	0.655845	3.86984	0.895934	5.27464	0.474225	2.79698	0.771517	3.76783	0.902537	5.33531
0.63175	2.6559	0.632313	2.65568	0.656588	3.85159	0.897426	5.25263	0.475316	2.78704	0.769487	3.77629	0.90332	5.30868
0.629323	2.65682	0.629888	2.65661	0.657327	3.83353	0.898928	5.23092	0.476411	2.77724	0.767445	3.78476	0.904103	5.28236
0.626889	2.65773	0.627456	2.65752	0.658062	3.81565	0.90044	5.20953	0.477511	2.76758	0.765391	3.79327	0.904886	5.25635
0.62445	2.65861	0.625017	2.6584	0.658794	3.79796	0.90196	5.18842	0.478615	2.75806	0.763326	3.8018	0.905669	5.23063
0.622004	2.65947	0.622573	2.65927	0.659524	3.78046	0.903489	5.16761	0.479725	2.74868	0.76125	3.81036	0.906453	5.20522
0.619552	2.66032	0.620122	2.66012	0.66025	3.76314	0.905026	5.14708	0.480839	2.73943	0.759164	3.81896	0.907239	5.1801
0.617095	2.66115	0.617666	2.66096	0.660975	3.746	0.906571	5.12683	0.48196	2.73032	0.757069	3.8276	0.908027	5.15528
0.614632	2.66196	0.615205	2.66177	0.661697	3.72904	0.908123	5.10684	0.483086	2.72135	0.754964	3.83628	0.908817	5.13076
0.612164	2.66276	0.612738	2.66258	0.662418	3.71227	0.909682	5.08711	0.484218	2.71251	0.752851	3.845	0.90961	5.10652
0.609692	2.66355	0.610267	2.66337	0.663137	3.69567	0.911247	5.06764	0.485357	2.7038	0.750729	3.85377	0.910407	5.08257
0.607215	2.66432	0.607791	2.66414	0.663855	3.67925	0.912819	5.04841	0.486502	2.69523	0.7486	3.86259	0.911208	5.05891
0.604733	2.66508	0.60531	2.6649	0.664573	3.66301	0.914396	5.02943	0.487655	2.68678	0.746464	3.87146	0.912013	5.03554
0.602247	2.66582	0.602825	2.66565	0.66529	3.64694	0.915978	5.01068	0.488814	2.67847	0.744321	3.88039	0.912824	5.01245
0.599757	2.66656	0.600336	2.66639	0.666007	3.63104	0.917565	4.99216	0.489982	2.6703	0.742172	3.88938	0.91364	4.98964
0.597264	2.66728	0.597844	2.66711	0.666724	3.61532	0.919156	4.97387	0.491157	2.66225	0.740017	3.89844	0.914462	4.96711
0.594766	2.668	0.595347	2.66783	0.667441	3.59977	0.920751	4.95579	0.492339	2.65433	0.737857	3.90757	0.915291	4.94486
0.592265	2.6687	0.592847	2.66854	0.668159	3.58438	0.92235	4.93792	0.493531	2.64654	0.735693	3.91676	0.916127	4.92289
0.589761	2.6694	0.590343	2.66924	0.668878	3.56917	0.923952	4.92026	0.494731	2.63888	0.733524	3.92604	0.916971	4.90119
0.587253	2.67008	0.587836	2.66992	0.669598	3.55412	0.925557	4.9028	0.49594	2.63135	0.731352	3.93539	0.917823	4.87976
0.584742	2.67076	0.585326	2.67061	0.67032	3.53924	0.927164	4.88554	0.497158	2.62395	0.729177	3.94483	0.918683	4.85861
0.582229	2.67144	0.582813	2.67128	0.671044	3.52453	0.928774	4.86847	0.498385	2.61667	0.726999	3.95436	0.919554	4.83773
0.579712	2.6721	0.580298	2.67195	0.671769	3.50998	0.930385	4.85158	0.499623	2.60952	0.72482	3.96398	0.920434	4.81712
0.577193	2.67276	0.577779	2.67261	0.672497	3.49559	0.931997	4.83488	0.50087	2.6025	0.722639	3.97369	0.921324	4.79677
0.574672	2.67342	0.575258	2.67326	0.673227	3.48136	0.93361	4.81835	0.502128	2.5956	0.720456	3.98351	0.922225	4.7767
0.572148	2.67406	0.572735	2.67391	0.673961	3.46729	0.935223	4.80199	0.503397	2.58883	0.718274	3.99344	0.923138	4.75688
0.569622	2.67471	0.570209	2.67456	0.674697	3.45339	0.936837	4.7858	0.504678	2.58219	0.716091	4.00347	0.924063	4.73733
0.567093	2.67535	0.567681	2.6752	0.675437	3.43964	0.93845	4.76977	0.50597	2.57567	0.71391	4.01362	0.925	4.71805
0.564563	2.67599	0.565151	2.67584	0.67618	3.42604	0.940063	4.75391	0.507274	2.56929	0.711729	4.0239	0.925951	4.69902
0.562031	2.67662	0.56262	2.67647	0.676927	3.41261	0.941675	4.73819	0.508591	2.56303	0.70955	4.03429	0.926915	4.68026
0.559497	2.67725	0.560086	2.6771	0.677678	3.39933	0.943285	4.72262	0.509922	2.5569	0.707373	4.04482	0.927893	4.66175
0.556961	2.67788	0.55755	2.67773	0.678434	3.3862	0.944894	4.7072	0.511266	2.5509	0.705199	4.05549	0.928886	4.64351
0.554423	2.67851	0.555013	2.67836	0.679194	3.37322	0.9465	4.69193	0.512625	2.54503	0.703028	4.0663	0.929894	4.62552
0.551884	2.67913	0.552475	2.67899	0.679959	3.3604	0.948104	4.67679	0.514	2.5393	0.700861	4.07725	0.930918	4.60778
0.549344	2.67976	0.549935	2.67961	0.680729	3.34772	0.949706	4.66178	0.515391	2.5337	0.698698	4.08836	0.931958	4.5903
0.546802	2.68038	0.547393	2.68024	0.681504	3.3352	0.951304	4.64691	0.516798	2.52825	0.69654	4.09963	0.933015	4.57307
0.544259	2.68101	0.544851	2.68086	0.682285	3.32282	0.952899	4.63216	0.518224	2.52293	0.694388	4.11106	0.934089	4.55609
0.541715	2.68163	0.542307	2.68149	0.683071	3.31059	0.95449	4.61754	0.51967	2.51776	0.692241	4.12266	0.935181	4.53936
0.53917	2.68226	0.539762	2.68211	0.683863	3.29851	0.956077	4.60304	0.521136	2.51273	0.690101	4.13444	0.936291	4.52288
0.536624	2.68288	0.537216	2.68274	0.684662	3.28658	0.957659	4.58865	0.522624	2.50787	0.687969	4.1464	0.93742	4.50665
0.534077	2.68351	0.534669	2.68337	0.685467	3.27478	0.959237	4.57438	0.524136	2.50316	0.685843	4.15856	0.938568	4.49067
0.531529	2.68414	0.532121	2.684	0.686279	3.26313	0.96081	4.56022	0.525673	2.49861	0.683726	4.17091	0.939735	4.47493
0.528981	2.68478	0.529573	2.68463	0.687098	3.25163	0.962377	4.54617	0.527239	2.49425	0.681618	4.18347	0.940923	4.45943
0.526431	2.68542	0.527024	2.68527	0.687924	3.24026	0.963939	4.53222	0.528834	2.49006	0.679519	4.19624	0.942131	4.44418
0.523882	2.68606	0.524474	2.68591	0.688757	3.22904	0.965495	4.51838	0.530461	2.48606	0.67743	4.20923	0.94336	4.42917
0.521331	2.6867	0.521924	2.68655	0.689598	3.21795	0.967045	4.50463	0.532123	2.48226	0.675351	4.22245	0.94461	4.41439
0.518781	2.68735	0.519374	2.6872	0.690447	3.20701	0.968588	4.49099	0.533822	2.47867	0.673284	4.2359	0.945881	4.39986
0.51623	2.68801	0.516823	2.68785	0.691303	3.1962	0.970124	4.47743	0.535562	2.47531	0.671228	4.24959	0.947175	4.38555
0.513679	2.68867	0.514272	2.68851	0.692168	3.18553	0.971654	4.46397	0.537346	2.47217	0.669184	4.26354	0.948491	4.37149
0.511127	2.68933	0.51172	2.68918	0.693042	3.175	0.973176	4.4506	0.539175	2.46927	0.667153	4.27774	0.949829	4.35765
0.508576	2.69001	0.509169	2.68985	0.693925	3.1646	0.974691	4.43731	0.541053	2.46662	0.665136	4.29222	0.951191	4.34405
0.506025	2.69069	0.506618	2.69053	0.694816	3.15434	0.976197	4.42411	0.542982	2.46422	0.663132	4.30697	0.952575	4.33067
0.503473	2.69137	0.504066	2.69121	0.695717	3.14421	0.977696	4.41099	0.544963	2.46208	0.661143	4.32202	0.953983	4.31752
0.500922	2.69207	0.501515	2.69191	0.696627	3.13422	0.979187	4.39795	0.546997	2.4602	0.659169	4.33735	0.955414	4.30459
0.498371	2.69277	0.498964	2.69261	0.697547	3.12435	0.980669	4.38499	0.549084	2.45858	0.657211	4.353	0.956869	4.29189
0.495821	2.69349	0.496413	2.69332	0.698477	3.11463	0.982142	4.37211	0.551225	2.4572	0.65527	4.36896	0.958348	4.2794
0.49327	2.69421	0.493863	2.69404	0.699418	3.10503	0.983606	4.3593	0.553416	2.45606	0.653345	4.38525	0.959851	4.26714
0.490721	2.69495	0.491313	2.69478	0.700369	3.09556	0.985062	4.34656	0.555657	2.45516	0.651439	4.40188	0.961379	4.25509
0.488172	2.69569	0.488764	2.69552	0.701331	3.08623	0.986508	4.3339	0.557944	2.45446	0.64955	4.41886	0.96293	4.24325
0.485623	2.69645	0.486216	2.69628	0.702303	3.07702	0.987945	4.3213	0.560274	2.45396	0.647681	4.4362	0.964506	4.23162
0.483076	2.69722	0.483668	2.69704	0.703288	3.06795	0.989372	4.30877	0.562644	2.45364	0.64583	4.45392	0.966107	4.2202
0.480529	2.69801	0.481121	2.69783	0.704284	3.059	0.990789	4.2963	0.565051	2.45348	0.644	4.47201	0.967731	4.20898
0.477983	2.69881	0.478575	2.69862	0.705292	3.05018	0.992196	4.28391	0.567491	2.45346	0.642191	4.49051	0.96938	4.19797
0.475439	2.69962	0.47603	2.69943	0.706312	3.04149	0.993593	4.27157	0.569961	2.45357	0.640403	4.50941	0.971053	4.18715
0.472895	2.70045	0.473486	2.70026	0.707344	3.03293	0.994981	4.25929	0.572459	2.4538	0.638638	4.52874	0.972751	4.17654
0.470353	2.7013	0.470944	2.7011	0.70839	3.0245	0.996357	4.24708	0.57498	2.45413	0.636894	4.54851	0.974472	4.16611
0.467812	2.70216	0.468402	2.70196	0.709449	3.01619	0.997724	4.23492	0.577522	2.45455	0.635174	4.56872	0.976218	4.15588
0.465272	2.70305	0.465863	2.70284	0.710521	3.00801	0.99908	4.22282	0.580084	2.45504	0.633478	4.5894	0.977987	4.14583
0.462735	2.70395	0.463324	2.70374	0.711607	2.99996	1.00042	4.21078	0.582663	2.45561	0.631806	4.61056	0.97978	4.13597
0.460199	2.70487	0.460788	2.70466	0.712708	2.99204			0.585258	2.45623	0.630159	4.63221	0.981597	4.12629
0.457664	2.70582	0.458253	2.7056	0.713822	2.98424			0.587866	2.45691	0.628538	4.65437	0.983437	4.11678
0.455132	2.70679	0.455721	2.70656	0.714952	2.97657			0.590486	2.45763	0.626943	4.67706	0.9853	4.10746
0.452602	2.70778	0.45319	2.70755	0.716097	2.96902			0.593116	2.45838	0.625375	4.70028	0.987185	4.0983
0.450074	2.7088	0.450662	2.70856	0.717258	2.9616			0.595757	2.45918	0.623834	4.72406	0.989093	4.08931
0.447549	2.70984	0.448136	2.7096	0.718435	2.95431			0.598406	2.46	0.622321	4.74842	0.991023	4.08049
0.445026	2.71092	0.445612	2.71066	0.719628	2.94715			0.601063	2.46084	0.620836	4.77337	0.992975	4.07183
0.442506	2.71202	0.443091	2.71176	0.720838	2.94011			0.603728	2.46171	0.61938	4.79893	0.994948	4.06332
0.439989	2.71315	0.440573	2.71289	0.722065	2.9332			0.606398	2.4626	0.617954	4.82511	0.996943	4.05497
0.437475	2.71432	0.438059	2.71405	0.72331	2.92642			0.609074	2.4635	0.616557	4.85194	0.998958	4.04678
0.434964	2.71553	0.435547	2.71524	0.724573	2.91976			0.611755	2.46442	0.615191	4.87943	1.00099	4.03873
0.432456	2.71677	0.433039	2.71647	0.725855	2.91323			0.614441	2.46535	0.613856	4.90761		
0.429953	2.71805	0.430534	2.71774	0.727155	2.90683			0.617131	2.46629	0.612551	4.93649		
0.427453	2.71937	0.428034	2.71905	0.728475	2.90056			0.619825	2.46723	0.611279	4.9661		
0.424958	2.72073	0.425537	2.72041	0.729815	2.89442			0.622523	2.46818	0.610038	4.99645		
0.422466	2.72214	0.423045	2.72181	0.731175	2.8884			0.625223	2.46914	0.60883	5.02757		
0.41998	2.7236	0.420557	2.72325	0.732556	2.88251			0.627927	2.4701	0.607655	5.05948		
0.417498	2.72511	0.418075	2.72475	0.733958	2.87675			0.630633	2.47106	0.606513	5.0922		
0.415022	2.72667	0.415597	2.7263	0.735381	2.87112			0.633341	2.47203	0.605404	5.12575		
0.412551	2.72829	0.413125	2.72791	0.736827	2.86562			0.636051	2.47299	0.604328	5.16016		
0.410086	2.72997	0.410659	2.72958	0.738294	2.86025			0.638764	2.47396	0.603287	5.19546		
0.407628	2.73172	0.408199	2.73131	0.739785	2.85501			0.641478	2.47492	0.602279	5.23166		
0.405176	2.73353	0.405745	2.7331	0.741299	2.8499			0.644194	2.47589	0.601306	5.26879		
0.402731	2.73542	0.403299	2.73497	0.742836	2.84491			0.646912	2.47685	0.600367	5.30688		
0.400294	2.73738	0.400859	2.73692	0.744397	2.84006			0.64963	2.47781	0.599463	5.34595		
0.397864	2.73943	0.398428	2.73894	0.745982	2.83533			0.65235	2.47877	0.598593	5.38604		
0.395443	2.74156	0.396005	2.74105	0.747591	2.83073			0.655072	2.47972	0.597758	5.42716		
0.393031	2.74378	0.39359	2.74325	0.749225	2.82626			0.657794	2.48067	0.596958	5.46936		
0.390628	2.7461	0.391185	2.74555	0.750884	2.82191			0.660517	2.48162	0.596193	5.51265		
0.388235	2.74852	0.38879	2.74795	0.752568	2.8177			0.663241	2.48257	0.595462	5.55708		
0.385853	2.75106	0.386405	2.75046	0.754277	2.8136			0.665965	2.48351	0.594767	5.60266		
0.383482	2.75371	0.384032	2.75308	0.75601	2.80963			0.668691	2.48444	0.594106	5.64944		
0.381123	2.75649	0.38167	2.75583	0.757769	2.80578			0.671417	2.48537	0.59348	5.69745		
0.378777	2.7594	0.379321	2.75871	0.759553	2.80205			0.674143	2.4863	0.592888	5.74672		
0.376444	2.76245	0.376985	2.76173	0.761362	2.79844			0.67687	2.48722	0.59233	5.79728		
0.374126	2.76565	0.374664	2.76489	0.763196	2.79495			0.679597	2.48813	0.591807	5.84918		
0.371823	2.76902	0.372357	2.76822	0.765055	2.79157			0.682325	2.48904	0.591319	5.90246		
0.369537	2.77255	0.370067	2.77172	0.766937	2.78831			0.685053	2.48995	0.590864	5.95714		
0.367268	2.77627	0.367794	2.77539	0.768844	2.78516			0.687781	2.49085	0.590443	6.01328		
0.365017	2.78019	0.365538	2.77926	0.770775	2.78211			0.69051	2.49174	0.590055	6.07092		
0.362785	2.78432	0.363302	2.78334	0.772729	2.77918			0.693238	2.49263	0.589701	6.13009		
0.360574	2.78867	0.361086	2.78763	0.774707	2.77634			0.695967	2.49351	0.589379	6.19086		
0.358385	2.79325	0.358892	2.79217	0.776706	2.77361			0.698696	2.49438	0.589091	6.25325		
0.356219	2.79809	0.356721	2.79695	0.778728	2.77097			0.701425	2.49525	0.588835	6.31732		
0.354078	2.80321	0.354574	2.80199	0.780771	2.76843			0.704153	2.49612	0.588611	6.38313		
0.351963	2.80861	0.352452	2.80732	0.782836	2.76598			0.706882	2.49697	0.588419	6.45073		
0.349875	2.81431	0.350358	2.81296	0.784921	2.76362			0.709611	2.49782	0.588259	6.52017		
0.347816	2.82035	0.348292	2.81891	0.787026	2.76135			0.71234	2.49867	0.58813	6.5915		
0.345787	2.82673	0.346256	2.82521	0.78915	2.75916			0.715068	2.49951	0.588032	6.6648		
0.343791	2.83348	0.344252	2.83188	0.791293	2.75705			0.717797	2.50034	0.587965	6.74013		
0.341828	2.84062	0.342281	2.83893	0.793453	2.75502			0.720525	2.50117	0.587927	6.81754		
0.339901	2.84818	0.340345	2.84638	0.795632	2.75306			0.723253	2.50198	0.58792	6.89712		
0.33801	2.85617	0.338446	2.85427	0.797827	2.75118			0.725981	2.5028	0.587942	6.97893		
0.336158	2.86463	0.336585	2.86262	0.800039	2.74936			0.728709	2.5036	0.587993	7.06304		
0.334346	2.87358	0.334763	2.87146	0.802266	2.74761			0.731436	2.5044	0.588073	7.14954		
0.332575	2.88304	0.332983	2.8808	0.804509	2.74592			0.734163	2.5052	0.588182	7.23851		
0.330847	2.89305	0.331245	2.89067	0.806765	2.7443			0.73689	2.50599	0.588318	7.33004		
0.329164	2.90362	0.329551	2.90111	0.809036	2.74273			0.739616	2.50677	0.588483	7.42422		
0.327526	2.91478	0.327903	2.91213	0.81132	2.74122			0.742342	2.50754	0.588674	7.52114		
0.325935	2.92656	0.326301	2.92377	0.813617	2.73976			0.745068	2.50831	0.588863	7.60792		
0.324392	2.93899	0.324747	2.93604	0.815927	2.73835			0.747793	2.50907	0.589039	7.68366		
0.322897	2.95209	0.32324	2.94898	0.818248	2.73699			0.750518	2.50982	0.589197	7.74754		
0.321452	2.96588	0.321784	2.96261	0.82058	2.73568			0.753242	2.51057	0.589328	7.79888		
0.320057	2.9804	0.320377	2.97696	0.822923	2.73441			0.755965	2.51131	0.589428	7.8371		
0.318712	2.99566	0.31902	2.99204	0.825277	2.73318			0.758689	2.51205	0.589523	7.87262		
0.317417	3.01168	0.317714	3.00789	0.82764	2.732			0.761411	2.51277	0.589591	7.89754		
0.316174	3.02851	0.316458	3.02452	0.830013	2.73085			0.764133	2.5135	0.5897	7.93681		
0.314981	3.04614	0.315254	3.04197	0.832395	2.72974			0.766855	2.51421	0.589853	7.9909		
0.313839	3.06462	0.3141	3.06025	0.834785	2.72867			0.769576	2.51492	0.590055	8.06045		
0.312747	3.08395	0.312997	3.07938	0.837184	2.72763			0.772296	2.51562	0.590312	8.1463		
0.311706	3.10417	0.311944	3.09939	0.83959	2.72662			0.775015	2.51631	0.590631	8.24951		
0.310714	3.12529	0.31094	3.1203	0.842004	2.72564			0.777734	2.517	0.591019	8.3714		
0.309771	3.14734	0.309986	3.14213	0.844425	2.7247			0.780452	2.51768	0.591432	8.49712		
0.308877	3.17034	0.30908	3.1649	0.846853	2.72378			0.78317	2.51836	0.591868	8.62683		
0.30803	3.1943	0.308223	3.18864	0.849288	2.72289			0.785886	2.51902	0.592327	8.76071		
0.30723	3.21926	0.307412	3.21337	0.851729	2.72202			0.788602	2.51969	0.592809	8.89893		
0.306477	3.24524	0.306648	3.23911	0.854175	2.72118			0.791317	2.52034	0.593314	9.0417		
0.30577	3.27226	0.30593	3.26588	0.856628	2.72036			0.794031	2.52099	0.59384	9.1892		
0.305107	3.30034	0.305257	3.29372	0.859086	2.71956			0.796744	2.52163	0.594388	9.34167		
0.304488	3.32952	0.304628	3.32264	0.861549	2.71878			0.799457	2.52226	0.594958	9.49932		
0.303912	3.35982	0.304042	3.35267	0.864017	2.71803			0.802168	2.52289	0.595549	9.66241		
0.303379	3.39126	0.303499	3.38385	0.866489	2.71729			0.804878	2.5235	0.59616	9.8312		
0.302887	3.42388	0.302997	3.41619	0.868966	2.71658			0.807588	2.52412	0.596792	10.006		
0.302436	3.45772	0.302537	3.44974	0.871448	2.71588			0.810296	2.52472	0.597443	10.187		
0.302024	3.49279	0.302116	3.48452	0.873933	2.7152			0.813003	2.52532	0.598114	10.3746		
0.301653	3.52914	0.301736	3.52058	0.876423	2.71453			0.815709	2.52591	0.598804	10.5692		
0.301319	3.5668	0.301393	3.55793	0.878916	2.71388			0.818414	2.52649	0.599513	10.7711		
0.301024	3.60582	0.301089	3.59663	0.881412	2.71324			0.821118	2.52707	0.600241	10.9807		
0.300765	3.64623	0.300822	3.63671	0.883912	2.71262			0.82382	2.52764	0.600987	11.1984		
0.300543	3.68807	0.300592	3.67821	0.886416	2.71201			0.826521	2.5282	0.60175	11.4246		
0.300357	3.73139	0.300397	3.72119	0.888922	2.71142			0.829221	2.52875	0.602532	11.6599		
0.300206	3.77624	0.300238	3.76568	0.891431	2.71084			0.831919	2.5293	0.60333	11.9048		
0.300089	3.82267	0.300113	3.81173	0.893943	2.71027			0.834616	2.52984	0.604145	12.1599		
0.300007	3.87072	0.300023	3.8594	0.896457	2.70971			0.837312	2.53037	0.604976	12.4257		
0.299957	3.92046	0.299965	3.90875	0.898974	2.70916			0.840005	2.53089	0.605823	12.703		
0.29994	3.97195	0.299941	3.95982	0.901493	2.70862			0.842698	2.53141	0.606686	12.9925		
0.299955	4.02524	0.299949	4.01269	0.904015	2.70809			0.845388	2.53191	0.607565	13.2949		
0.300002	4.08041	0.299988	4.06741	0.906538	2.70757			0.848077	2.53241	0.608458	13.6111		
0.300079	4.13751	0.300059	4.12406	0.909064	2.70706			0.850764	2.5329	0.609366	13.942		
0.300172	4.18892	0.300159	4.18271	0.911591	2.70656			0.853449	2.53338	0.610288	14.2887		
0.300268	4.23399	0.30029	4.24343	0.914121	2.70607			0.856132	2.53386	0.611224	14.6523		
0.300361	4.27214	0.300451	4.30631	0.916651	2.70558			0.858813	2.53432	0.612173	15.0341		
0.300442	4.3029	0.30064	4.37143	0.919184	2.70511			0.861492	2.53478	0.613136	15.4353		
0.300505	4.32585	0.300858	4.43888	0.921718	2.70463			0.864169	2.53522	0.614111	15.8574		
0.300567	4.34722	0.301103	4.50876	0.924253	2.70417			0.866843	2.53566	0.615098	16.3022		
0.300612	4.36224	0.301376	4.58117	0.92679	2.70371			0.869515	2.53609	0.616097	16.7714		
0.300685	4.38594	0.301676	4.65623	0.929327	2.70326			0.872185	2.5365	0.617107	17.2671		
0.30079	4.41865	0.302002	4.73404	0.931866	2.70282			0.874852	2.53691	0.618128	17.7915		
0.300933	4.46084	0.302354	4.81472	0.934406	2.70238			0.877516	2.53731	0.619159	18.3471		
0.301119	4.5131	0.302731	4.89842	0.936947	2.70194			0.880177	2.53769	0.6202	18.9369		
0.301357	4.5762	0.303133	4.98527	0.939489	2.70151			0.882835	2.53807	0.62125	19.5639		
0.301655	4.65107	0.303559	5.07542	0.942031	2.70109			0.88549	2.53843	0.622309	20.2319		
0.301979	4.72869	0.304009	5.16902	0.944574	2.70067			0.888142	2.53879	0.623376	20.9448		
0.302329	4.80918	0.304482	5.26624	0.947118	2.70025			0.890791	2.53913	0.624449	21.7073		
0.302705	4.89267	0.304977	5.36728	0.949663	2.69984			0.893435	2.53946	0.62553	22.5247		
0.303105	4.9793	0.305495	5.47231	0.952207	2.69943			0.896076	2.53977	0.626615	23.4032		
0.30353	5.06922	0.306034	5.58155	0.954752	2.69902			0.898713	2.54008	0.627706	24.3497		
0.303978	5.16258	0.306594	5.69522	0.957298	2.69862			0.901346	2.54037	0.6288	25.3725		
0.304449	5.25956	0.307175	5.81357	0.959844	2.69822			0.903974	2.54064	0.629898	26.4811		
0.304943	5.36033	0.307775	5.93684	0.962389	2.69782			0.906598	2.5409	0.630996	27.6866		
0.305459	5.46508	0.308394	6.06531	0.964935	2.69743			0.909217	2.54115	0.632095	29.0023		
0.305997	5.57403	0.309032	6.1993	0.967481	2.69703			0.911831	2.54138	0.633193	30.4439		
0.306556	5.6874	0.309687	6.33911	0.970027	2.69664			0.914439	2.54159	0.634287	32.0305		
0.307135	5.80542	0.31036	6.4851	0.972573	2.69626			0.917042	2.54179	0.635377	33.7848		
0.307734	5.92835	0.31105	6.63765	0.975119	2.69587			0.919638	2.54197	0.63646	35.7349		
0.308352	6.05647	0.311755	6.79718	0.977664	2.69548			0.922229	2.54213	0.637533	37.9156		
0.308988	6.19007	0.312382	6.94223	0.980209	2.6951			0.924812	2.54227	0.638594	40.37		
0.309643	6.32947	0.312926	7.07057	0.982753	2.69472			0.927389	2.5424	0.63964	43.1533		
0.310314	6.47504	0.313381	7.18011	0.985297	2.69433			0.929958	2.5425	0.640667	46.3363		
0.311003	6.62714	0.313744	7.26902	0.987841	2.69395			0.932519	2.54257	0.641671	50.0116		
0.311707	6.78618	0.314014	7.33571	0.990384	2.69357			0.935072	2.54263	0.642647	54.3032		
0.312427	6.9526	0.314263	7.39809	0.992926	2.69319			0.937616	2.54266	0.64359	59.3805		
0.313161	7.12691	0.314437	7.44208	0.995467	2.6928			0.940151	2.54267	0.644493	65.4814		
0.313909	7.30962	0.31471	7.51179	0.998008	2.69242			0.942676	2.54265	0.645349	72.9509		
0.31467	7.50132	0.315085	7.60859	1.00055	2.69204			0.94519	2.5426	0.646151	82.3088		
0.315443	7.70264	0.315562	7.73439					0.947694	2.54252	0.64689	94.3772		
0.316227	7.91428	0.316145	7.89179					0.950186	2.54241	0.647556	110.537		
0.317022	8.13701	0.316836	8.0842					0.952666	2.54227	0.648141	133.3		
0.317826	8.37168	0.317639	8.31602					0.955133	2.5421	0.648633	167.769		
0.31864	8.61923	0.31845	8.56048					0.957586	2.54189	0.649024	226.124		
0.31946	8.8807	0.319269	8.81862					0.960026	2.54165	0.649306	346.447		
0.320288	9.15726	0.320095	9.09156					0.96245	2.54136	0.649472	739.581		
0.321121	9.45019	0.320927	9.38056					0.964859	2.54104				
0.321959	9.76095	0.321764	9.68704					0.967252	2.54068				
0.3228	10.0912	0.322604	10.0126					0.969628	2.54027				
0.323643	10.4427	0.323447	10.359					0.971986	2.53982				
0.324487	10.8176	0.324291	10.7282					0.974325	2.53933				
0.325331	11.2182	0.325135	11.1227					0.976646	2.53879				
0.326173	11.6473	0.325978	11.5449					0.978948	2.5382				
0.327012	12.1079	0.326818	11.9978					0.981229	2.53756				
0.327847	12.6036	0.327653	12.485					0.98349	2.53687				
0.328675	13.1385	0.328483	13.0104					0.98573	2.53613				
0.329495	13.7174	0.329305	13.5786					0.987949	2.53534				
0.330305	14.3461	0.330118	14.1952					0.990146	2.53451				
0.331104	15.031	0.33092	14.8664					0.992322	2.53362				
0.33189	15.7802	0.331709	15.5998					0.994477	2.53268				
0.332661	16.6031	0.332483	16.4047					0.99661	2.53169				
0.333415	17.5112	0.333241	17.2919					0.998723	2.53065				
0.334149	18.5185	0.33398	18.2747					1.00081	2.52957				
0.334862	19.6423	0.334698	19.3697										
0.335551	20.9041	0.335393	20.5971										
0.336215	22.331	0.336063	21.9829										
0.33685	23.9582	0.336705	23.5599										
0.337455	25.8312	0.337318	25.371										
0.338028	28.0106	0.337898	27.4728										
0.338566	30.579	0.338444	29.9419										
0.339066	33.6515	0.338953	32.8847										
0.339527	37.3938	0.339424	36.4529										
0.339947	42.0531	0.339853	40.8709										
0.340324	48.0158	0.34024	46.4856										
0.340655	55.921	0.340582	53.8619										
0.340939	66.9073	0.340877	63.9878										
0.341175	83.22	0.341124	78.7599										
0.341361	109.987	0.341322	102.34										
0.341496	162.029	0.341469	145.98										
0.34158	307.288	0.341565	254.307										
0.341612	2955.78	0.341609	984.187										
