Sym0		Sym1		Sym2		Sym3		Asym1		Asym2		Asym3	
421  Points		421  Points		379  Points		258  Points		411  Points		392  Points		259  Points	
Freq (MHz)	Vph (m/ms)	Freq (MHz)	Vph (m/ms)	Freq (MHz)	Vph (m/ms)	Freq (MHz)	Vph (m/ms)	Freq (MHz)	Vph (m/ms)	Freq (MHz)	Vph (m/ms)	Freq (MHz)	Vph (m/ms)
1.00026	2.41836	1.00015	2.41834	0.433021	879.186	0.866013	969.527	0.216514	465.153	1.00092	2.60262	0.652223	2882.14
0.99764	2.41785	0.997535	2.41783	0.433085	290.944	0.865971	458.366	0.216583	148.193	0.998642	2.60343	0.653124	534.331
0.995023	2.41734	0.994919	2.41732	0.433213	174.361	0.865899	300.109	0.216723	88.1879	0.996383	2.6043	0.65446	295.022
0.992409	2.41684	0.992305	2.41682	0.433405	124.52	0.865797	223.069	0.216934	62.815	0.994149	2.60525	0.655903	204.053
0.989798	2.41634	0.989694	2.41632	0.433661	96.8724	0.865666	177.488	0.217215	48.8173	0.991941	2.60626	0.657388	156.134
0.987191	2.41585	0.987086	2.41583	0.433979	79.2997	0.865505	147.361	0.217567	39.9528	0.989758	2.60735	0.658895	126.554
0.984586	2.41536	0.984482	2.41535	0.434359	67.1481	0.865316	125.967	0.217987	33.8404	0.987603	2.60852	0.660417	106.477
0.981984	2.41488	0.98188	2.41486	0.434799	58.2474	0.865098	109.988	0.218475	29.3742	0.985475	2.60976	0.661951	91.9572
0.979385	2.41441	0.979282	2.41439	0.435299	51.4494	0.864853	97.5975	0.21903	25.971	0.983377	2.61109	0.663495	80.9684
0.97679	2.41394	0.976687	2.41392	0.435856	46.0895	0.86458	87.7083	0.219652	23.2936	0.981307	2.61251	0.665047	72.3624
0.974198	2.41347	0.974095	2.41345	0.43647	41.7565	0.864281	79.6318	0.220338	21.1341	0.979267	2.61401	0.666608	65.4401
0.97161	2.41301	0.971506	2.41299	0.43714	38.1822	0.863957	72.9109	0.221087	19.3567	0.977256	2.61559	0.668175	59.7515
0.969025	2.41256	0.968922	2.41254	0.437862	35.1843	0.863608	67.2303	0.221899	17.8695	0.975276	2.61727	0.66975	54.994
0.966444	2.41212	0.966341	2.4121	0.438636	32.6346	0.863234	62.3655	0.222771	16.6076	0.973326	2.61904	0.67133	50.9564
0.963866	2.41168	0.963763	2.41166	0.439461	30.4402	0.862837	58.1522	0.223702	15.5243	0.971406	2.6209	0.672917	47.4868
0.961292	2.41125	0.96119	2.41123	0.440333	28.5322	0.862418	54.4676	0.224691	14.5848	0.969515	2.62284	0.674511	44.4733
0.958722	2.41082	0.95862	2.41081	0.441252	26.8583	0.861978	51.2179	0.225735	13.7628	0.967655	2.62488	0.676109	41.8315
0.956157	2.41041	0.956054	2.41039	0.442216	25.3784	0.861517	48.3302	0.226833	13.038	0.965823	2.62701	0.677714	39.4968
0.953595	2.41	0.953493	2.40999	0.443223	24.0608	0.861036	45.7471	0.227983	12.3945	0.96402	2.62923	0.679323	37.4185
0.951037	2.4096	0.950935	2.40959	0.444271	22.8805	0.860537	43.4227	0.229184	11.8197	0.962246	2.63154	0.680938	35.5567
0.948484	2.40922	0.948382	2.4092	0.445358	21.8174	0.86002	41.3199	0.230434	11.3036	0.960498	2.63394	0.682557	33.8792
0.945936	2.40884	0.945834	2.40882	0.446483	20.8549	0.859486	39.4084	0.23173	10.8377	0.958778	2.63642	0.684182	32.36
0.943392	2.40847	0.94329	2.40845	0.447644	19.9796	0.858937	37.6631	0.233072	10.4152	0.957083	2.63899	0.68581	30.9777
0.940852	2.40811	0.940751	2.40809	0.44884	19.1803	0.858372	36.0634	0.234458	10.0307	0.955413	2.64164	0.687444	29.7146
0.938318	2.40776	0.938216	2.40774	0.450069	18.4476	0.857794	34.5915	0.235885	9.67931	0.953768	2.64437	0.689081	28.556
0.935788	2.40742	0.935687	2.40741	0.451329	17.7737	0.857202	33.2328	0.237353	9.35709	0.952146	2.64719	0.690722	27.4894
0.933263	2.40709	0.933163	2.40708	0.452619	17.1517	0.856599	31.9748	0.238859	9.06069	0.950547	2.65008	0.692368	26.5042
0.930744	2.40678	0.930643	2.40677	0.453938	16.576	0.855984	30.8065	0.240401	8.78721	0.94897	2.65305	0.694017	25.5916
0.92823	2.40647	0.92813	2.40646	0.455283	16.0417	0.855359	29.7187	0.241979	8.53418	0.947414	2.65609	0.695669	24.7437
0.925721	2.40618	0.925621	2.40617	0.456655	15.5445	0.854725	28.7033	0.243591	8.29948	0.945878	2.65922	0.697325	23.954
0.923218	2.40591	0.923118	2.4059	0.458051	15.0807	0.854082	27.7534	0.245235	8.08124	0.944362	2.66241	0.698984	23.2167
0.920721	2.40564	0.920621	2.40563	0.45947	14.6471	0.853431	26.8628	0.246909	7.87785	0.942865	2.66567	0.700646	22.5266
0.918229	2.40539	0.91813	2.40538	0.460911	14.2409	0.852774	26.0262	0.248613	7.68788	0.941386	2.66901	0.702311	21.8795
0.915744	2.40516	0.915645	2.40515	0.462373	13.8596	0.85211	25.2387	0.250344	7.51011	0.939925	2.67241	0.703979	21.2714
0.913265	2.40494	0.913166	2.40493	0.463855	13.5009	0.851441	24.4962	0.251874	7.36426	0.93848	2.67588	0.705649	20.6989
0.910792	2.40473	0.910694	2.40473	0.465356	13.163	0.850767	23.795	0.253193	7.24608	0.937051	2.67942	0.707322	20.159
0.908326	2.40455	0.908227	2.40454	0.466875	12.8441	0.85009	23.1316	0.254295	7.15236	0.935638	2.68302	0.708997	19.649
0.905866	2.40437	0.905768	2.40437	0.46841	12.5427	0.849409	22.5032	0.255172	7.08068	0.934241	2.68668	0.710673	19.1664
0.903413	2.40422	0.903315	2.40421	0.469962	12.2573	0.848726	21.907	0.25582	7.02928	0.932858	2.69041	0.712352	18.7091
0.900967	2.40408	0.90087	2.40408	0.471528	11.9867	0.848041	21.3407	0.256236	6.99695	0.931489	2.6942	0.714032	18.2751
0.898529	2.40396	0.898431	2.40396	0.473108	11.7299	0.847355	20.8021	0.256837	6.95123	0.930133	2.69805	0.715714	17.8628
0.896097	2.40387	0.896	2.40386	0.474702	11.4858	0.846669	20.2891	0.257492	6.90251	0.928791	2.70197	0.717398	17.4705
0.893673	2.40379	0.893577	2.40378	0.476308	11.2534	0.845983	19.8001	0.258388	6.83785	0.927461	2.70594	0.719082	17.0969
0.891257	2.40373	0.891161	2.40372	0.477926	11.0321	0.845298	19.3333	0.259528	6.75858	0.926144	2.70997	0.720768	16.7405
0.888849	2.40369	0.888753	2.40369	0.479555	10.8209	0.844614	18.8874	0.260916	6.66628	0.924839	2.71406	0.722454	16.4003
0.886448	2.40367	0.886353	2.40367	0.481194	10.6192	0.843932	18.461	0.262558	6.5627	0.923546	2.71821	0.724141	16.0751
0.884056	2.40368	0.883961	2.40368	0.482842	10.4264	0.843253	18.0528	0.264459	6.44964	0.922263	2.72242	0.725829	15.764
0.881672	2.4037	0.881577	2.40371	0.4845	10.2419	0.842577	17.6617	0.266376	6.34235	0.920992	2.72669	0.727517	15.4661
0.879297	2.40376	0.879202	2.40376	0.486165	10.0652	0.841905	17.2867	0.26831	6.2404	0.919732	2.73101	0.729205	15.1806
0.87693	2.40383	0.876836	2.40383	0.487838	9.89576	0.841237	16.9268	0.270258	6.14339	0.918482	2.73538	0.730893	14.9066
0.874573	2.40393	0.874479	2.40394	0.489519	9.7332	0.840574	16.5812	0.272221	6.051	0.917242	2.73982	0.732581	14.6436
0.872224	2.40406	0.87213	2.40406	0.491205	9.57706	0.839916	16.249	0.274196	5.96288	0.916012	2.74431	0.734268	14.3908
0.869885	2.40421	0.869791	2.40422	0.492897	9.42699	0.839264	15.9294	0.276182	5.87875	0.914791	2.74886	0.735955	14.1477
0.867554	2.40439	0.867462	2.4044	0.494595	9.28263	0.838618	15.6218	0.27818	5.79834	0.91358	2.75346	0.737641	13.9137
0.865234	2.4046	0.865142	2.4046	0.496297	9.14365	0.837979	15.3256	0.280188	5.7214	0.912378	2.75812	0.739326	13.6883
0.862923	2.40483	0.862831	2.40484	0.498004	9.00976	0.837348	15.04	0.282204	5.64772	0.911186	2.76283	0.741011	13.4711
0.860623	2.40509	0.860531	2.40511	0.499714	8.88067	0.836724	14.7647	0.284229	5.57707	0.910001	2.7676	0.742693	13.2615
0.858332	2.40539	0.858241	2.4054	0.501427	8.75612	0.836108	14.499	0.286262	5.50928	0.908826	2.77242	0.744375	13.0593
0.856051	2.40571	0.85596	2.40573	0.503143	8.63588	0.835501	14.2425	0.288301	5.44416	0.907659	2.7773	0.746054	12.864
0.853781	2.40607	0.853691	2.40608	0.504861	8.51972	0.834902	13.9947	0.290345	5.38156	0.9065	2.78223	0.747732	12.6752
0.851521	2.40645	0.851431	2.40647	0.506581	8.40743	0.834314	13.7551	0.292395	5.32131	0.905349	2.78722	0.749408	12.4927
0.849272	2.40687	0.849183	2.40689	0.508302	8.2988	0.833735	13.5235	0.29445	5.26329	0.904205	2.79226	0.751081	12.3161
0.847034	2.40733	0.846945	2.40734	0.510023	8.19367	0.833167	13.2994	0.296507	5.20736	0.90307	2.79736	0.752752	12.1451
0.844807	2.40781	0.844718	2.40783	0.511745	8.09185	0.832609	13.0825	0.298568	5.1534	0.901942	2.80251	0.754421	11.9795
0.842591	2.40833	0.842503	2.40835	0.513467	7.99319	0.832062	12.8725	0.30063	5.1013	0.900821	2.80772	0.756086	11.8191
0.840386	2.40889	0.840298	2.40891	0.515188	7.89753	0.831527	12.669	0.302694	5.05096	0.899707	2.81298	0.757749	11.6634
0.838192	2.40948	0.838105	2.4095	0.516909	7.80474	0.831004	12.4718	0.304759	5.00227	0.898601	2.8183	0.759408	11.5125
0.83601	2.4101	0.835923	2.41013	0.518627	7.71467	0.830494	12.2805	0.306824	4.95515	0.897501	2.82367	0.761064	11.366
0.833839	2.41077	0.833752	2.4108	0.520124	7.63831	0.829996	12.095	0.308888	4.90951	0.896408	2.82909	0.762716	11.2237
0.831679	2.41147	0.831594	2.4115	0.521398	7.57472	0.829511	11.915	0.31095	4.86527	0.895322	2.83458	0.764364	11.0855
0.829532	2.41221	0.829446	2.41224	0.522451	7.52314	0.82904	11.7403	0.313011	4.82237	0.894242	2.84011	0.766009	10.9511
0.827396	2.41299	0.827311	2.41302	0.523282	7.48299	0.828582	11.5706	0.315069	4.78071	0.893169	2.84571	0.767649	10.8205
0.825272	2.4138	0.825187	2.41384	0.523893	7.45381	0.828139	11.4058	0.317124	4.74025	0.892101	2.85135	0.769284	10.6934
0.823159	2.41466	0.823075	2.41469	0.524284	7.43529	0.827711	11.2456	0.319175	4.70093	0.89104	2.85706	0.770915	10.5697
0.821059	2.41556	0.820975	2.41559	0.524846	7.40886	0.827297	11.0899	0.321222	4.66267	0.889984	2.86282	0.77254	10.4493
0.81897	2.41649	0.818887	2.41653	0.525456	7.38042	0.826899	10.9385	0.323264	4.62543	0.888934	2.86863	0.774161	10.3321
0.816893	2.41747	0.816811	2.41751	0.526285	7.34217	0.826517	10.7913	0.3253	4.58916	0.88789	2.8745	0.775777	10.2178
0.814828	2.41849	0.814746	2.41853	0.527332	7.29451	0.826151	10.648	0.32733	4.55381	0.886851	2.88042	0.777386	10.1064
0.812775	2.41955	0.812694	2.41959	0.528596	7.23792	0.825801	10.5086	0.329353	4.51933	0.885818	2.8864	0.77899	9.9978
0.810734	2.42065	0.810653	2.42069	0.530077	7.17294	0.825468	10.3729	0.331368	4.48568	0.884789	2.89244	0.780588	9.89186
0.808705	2.42179	0.808624	2.42184	0.531771	7.10017	0.825152	10.2408	0.333376	4.45282	0.883766	2.89853	0.78218	9.78848
0.806688	2.42298	0.806607	2.42302	0.53346	7.02925	0.824853	10.1121	0.335375	4.42071	0.882748	2.90468	0.783765	9.68757
0.804682	2.4242	0.804602	2.42425	0.535145	6.96009	0.824573	9.98669	0.337365	4.38932	0.881734	2.91089	0.785344	9.58903
0.802688	2.42548	0.802609	2.42553	0.536823	6.89264	0.82431	9.86451	0.339346	4.3586	0.880725	2.91715	0.786916	9.49278
0.800706	2.42679	0.800627	2.42684	0.538496	6.82681	0.824066	9.74543	0.341316	4.32854	0.87972	2.92346	0.78848	9.39872
0.798735	2.42815	0.798657	2.4282	0.540162	6.76254	0.823841	9.62934	0.343276	4.29909	0.87872	2.92984	0.790038	9.30679
0.796776	2.42955	0.796698	2.4296	0.541822	6.69977	0.823635	9.51615	0.345224	4.27022	0.877723	2.93627	0.791587	9.2169
0.794829	2.43099	0.794751	2.43105	0.543474	6.63844	0.823448	9.40575	0.347161	4.24192	0.876731	2.94275	0.793129	9.12898
0.792892	2.43248	0.792815	2.43254	0.545119	6.5785	0.823281	9.29806	0.349086	4.21415	0.875742	2.94929	0.794663	9.04297
0.790967	2.43401	0.79089	2.43407	0.546756	6.51989	0.823135	9.19299	0.350998	4.18688	0.874757	2.95589	0.796189	8.95879
0.789053	2.43559	0.788977	2.43565	0.548385	6.46256	0.823008	9.09046	0.352896	4.16011	0.873776	2.96255	0.797706	8.87638
0.78715	2.43721	0.787074	2.43727	0.550006	6.40646	0.822903	8.99038	0.354781	4.13379	0.872798	2.96926	0.799215	8.79568
0.785258	2.43887	0.785182	2.43894	0.551618	6.35155	0.822818	8.89269	0.356652	4.10792	0.871823	2.97602	0.800714	8.71664
0.783376	2.44057	0.783301	2.44064	0.553221	6.29778	0.822754	8.7973	0.358509	4.08246	0.870851	2.98285	0.802205	8.63919
0.781505	2.44232	0.781431	2.44239	0.554814	6.2451	0.822712	8.70416	0.36035	4.05741	0.869881	2.98973	0.803686	8.56329
0.779644	2.44412	0.77957	2.44419	0.556397	6.19349	0.822692	8.61318	0.362176	4.03275	0.868914	2.99666	0.805158	8.48888
0.777794	2.44595	0.77772	2.44603	0.557971	6.14289	0.822694	8.52431	0.363986	4.00845	0.86795	3.00365	0.80662	8.41592
0.775954	2.44783	0.77588	2.44791	0.559534	6.09329	0.822718	8.43748	0.36578	3.9845	0.866988	3.0107	0.808072	8.34435
0.774123	2.44975	0.77405	2.44983	0.561086	6.04463	0.822765	8.35264	0.367558	3.96089	0.866028	3.0178	0.809514	8.27414
0.772302	2.45172	0.772229	2.4518	0.562627	5.99688	0.822835	8.26973	0.369318	3.9376	0.865069	3.02496	0.810945	8.20524
0.77049	2.45373	0.770418	2.45381	0.564157	5.95002	0.822927	8.18869	0.371062	3.91461	0.864112	3.03218	0.812366	8.1376
0.768688	2.45578	0.768616	2.45586	0.565675	5.90401	0.823027	8.11955	0.372788	3.89192	0.863157	3.03945	0.813596	8.07967
0.766895	2.45787	0.766823	2.45795	0.567182	5.85883	0.823126	8.06169	0.374496	3.86952	0.862202	3.04677	0.814637	8.031
0.76511	2.46	0.765039	2.46009	0.568676	5.81444	0.823218	8.01456	0.376186	3.84739	0.861249	3.05415	0.815494	7.99125
0.763334	2.46218	0.763264	2.46227	0.570157	5.77082	0.823297	7.97775	0.377857	3.82551	0.860296	3.06159	0.816168	7.96012
0.761567	2.46439	0.761496	2.46448	0.571627	5.72794	0.823358	7.95094	0.379511	3.80389	0.859344	3.06908	0.816663	7.9374
0.759807	2.46665	0.759737	2.46674	0.573083	5.68579	0.823399	7.9339	0.381145	3.78251	0.858392	3.07662	0.816978	7.92294
0.758055	2.46895	0.757985	2.46904	0.574526	5.64433	0.823461	7.90954	0.382761	3.76137	0.85744	3.08422	0.817431	7.90224
0.756311	2.47128	0.756241	2.47138	0.575955	5.60354	0.82353	7.88327	0.384357	3.74044	0.856487	3.09187	0.817921	7.87989
0.754574	2.47366	0.754504	2.47375	0.577371	5.5634	0.823629	7.84788	0.385935	3.71974	0.855534	3.09958	0.818586	7.84971
0.752843	2.47607	0.752774	2.47617	0.578773	5.5239	0.823763	7.80366	0.387493	3.69924	0.85458	3.10733	0.819422	7.8119
0.75112	2.47852	0.751051	2.47862	0.580161	5.485	0.823937	7.75098	0.389032	3.67895	0.853626	3.11514	0.820428	7.7667
0.749403	2.48101	0.749334	2.48111	0.581535	5.4467	0.824159	7.69027	0.390551	3.65886	0.852669	3.12301	0.8216	7.7144
0.747691	2.48353	0.747623	2.48363	0.582894	5.40897	0.824436	7.62202	0.392052	3.63896	0.851711	3.13092	0.822933	7.65533
0.745986	2.48609	0.745918	2.48619	0.584239	5.3718	0.824737	7.55524	0.393533	3.61925	0.850751	3.13888	0.824254	7.59723
0.744286	2.48869	0.744218	2.48879	0.585569	5.33517	0.825064	7.48988	0.394995	3.59973	0.849789	3.1469	0.825564	7.54007
0.74259	2.49131	0.742523	2.49142	0.586884	5.29907	0.825415	7.42593	0.396438	3.58038	0.848824	3.15496	0.82686	7.48384
0.7409	2.49398	0.740832	2.49408	0.588185	5.26347	0.825791	7.36333	0.397863	3.5612	0.847856	3.16307	0.828144	7.42849
0.739213	2.49667	0.739146	2.49678	0.58947	5.22837	0.826192	7.30206	0.399268	3.5422	0.846885	3.17123	0.829416	7.37402
0.737531	2.4994	0.737464	2.4995	0.590739	5.19375	0.826619	7.24207	0.400655	3.52337	0.84591	3.17944	0.830675	7.32038
0.735851	2.50215	0.735784	2.50226	0.591994	5.1596	0.82707	7.18335	0.402023	3.50471	0.844932	3.1877	0.831921	7.26757
0.734175	2.50493	0.734108	2.50505	0.593233	5.1259	0.827547	7.12584	0.403373	3.48621	0.843949	3.196	0.833154	7.21556
0.732501	2.50775	0.732435	2.50786	0.594457	5.09265	0.828049	7.06954	0.404706	3.46787	0.842961	3.20435	0.834374	7.16432
0.73083	2.51058	0.730763	2.5107	0.595665	5.05982	0.828576	7.01439	0.406021	3.4497	0.841969	3.21274	0.835581	7.11385
0.72916	2.51345	0.729093	2.51356	0.596858	5.02742	0.829129	6.96038	0.407318	3.43168	0.840971	3.22117	0.836774	7.06411
0.727491	2.51633	0.727424	2.51645	0.598035	4.99542	0.829707	6.90747	0.408599	3.41383	0.839967	3.22965	0.837955	7.01509
0.725822	2.51924	0.725756	2.51936	0.599197	4.96383	0.83031	6.85564	0.409864	3.39613	0.838957	3.23816	0.839122	6.96677
0.724154	2.52217	0.724087	2.52229	0.600343	4.93262	0.830938	6.80487	0.411112	3.37859	0.83794	3.24672	0.840277	6.91914
0.722485	2.52512	0.722418	2.52523	0.601474	4.9018	0.831591	6.75511	0.412344	3.3612	0.836917	3.25532	0.841417	6.87217
0.720815	2.52808	0.720748	2.5282	0.602589	4.87135	0.832269	6.70636	0.413561	3.34397	0.835886	3.26396	0.842545	6.82585
0.719143	2.53106	0.719076	2.53118	0.603689	4.84126	0.832971	6.65858	0.414764	3.3269	0.834847	3.27263	0.843659	6.78017
0.717469	2.53405	0.717402	2.53417	0.604773	4.81152	0.833699	6.61176	0.415951	3.30998	0.8338	3.28134	0.84476	6.7351
0.715792	2.53705	0.715725	2.53717	0.605843	4.78213	0.834451	6.56586	0.417125	3.29322	0.832745	3.29008	0.845848	6.69065
0.714112	2.54006	0.714045	2.54019	0.606897	4.75309	0.835228	6.52086	0.418286	3.27662	0.83168	3.29885	0.846923	6.64678
0.712428	2.54308	0.71236	2.5432	0.607936	4.72437	0.836028	6.47675	0.419434	3.26017	0.830605	3.30766	0.847985	6.6035
0.710738	2.5461	0.710671	2.54623	0.608961	4.69599	0.836853	6.4335	0.420569	3.24388	0.829521	3.31649	0.849034	6.56078
0.709043	2.54913	0.708975	2.54925	0.60997	4.66792	0.837702	6.39108	0.421692	3.22775	0.828426	3.32536	0.85007	6.51861
0.707342	2.55215	0.707274	2.55227	0.610966	4.64017	0.838574	6.34949	0.422804	3.21178	0.827321	3.33425	0.851093	6.47699
0.705634	2.55517	0.705565	2.55529	0.611946	4.61272	0.83947	6.30869	0.423905	3.19596	0.826204	3.34317	0.852104	6.4359
0.703918	2.55818	0.703849	2.5583	0.612913	4.58558	0.840389	6.26867	0.424996	3.1803	0.825075	3.35211	0.853102	6.39532
0.702194	2.56119	0.702125	2.56131	0.613866	4.55874	0.84133	6.22942	0.426078	3.16481	0.823934	3.36108	0.854088	6.35526
0.70046	2.56418	0.700391	2.5643	0.614805	4.53219	0.842295	6.1909	0.427149	3.14947	0.82278	3.37007	0.855062	6.3157
0.698717	2.56716	0.698647	2.56728	0.615731	4.50593	0.843281	6.15311	0.428213	3.13429	0.821613	3.37907	0.856023	6.27662
0.696963	2.57012	0.696893	2.57024	0.616643	4.47995	0.84429	6.11602	0.429268	3.11927	0.820433	3.38809	0.856973	6.23803
0.695198	2.57306	0.695128	2.57318	0.617542	4.45425	0.84532	6.07962	0.430316	3.10442	0.819238	3.39713	0.857912	6.19991
0.693421	2.57598	0.69335	2.5761	0.618429	4.42883	0.846372	6.04388	0.431357	3.08973	0.818029	3.40619	0.858839	6.16226
0.691632	2.57888	0.69156	2.57899	0.619303	4.40368	0.847445	6.00881	0.432391	3.07519	0.816805	3.41526	0.859755	6.12505
0.689829	2.58174	0.689757	2.58186	0.620165	4.37879	0.848538	5.97437	0.433419	3.06083	0.815565	3.42433	0.86066	6.0883
0.688012	2.58458	0.687939	2.58469	0.621015	4.35417	0.849652	5.94055	0.434442	3.04662	0.81431	3.43342	0.861554	6.05199
0.686181	2.58738	0.686107	2.58749	0.621853	4.32982	0.850786	5.90734	0.43546	3.03258	0.813039	3.44252	0.862439	6.01611
0.684334	2.59014	0.68426	2.59025	0.62268	4.30571	0.851939	5.87472	0.436474	3.0187	0.811751	3.45162	0.863313	5.98065
0.682472	2.59287	0.682397	2.59298	0.623496	4.28187	0.853111	5.84267	0.437484	3.00498	0.810446	3.46073	0.864178	5.94562
0.680594	2.59556	0.680518	2.59566	0.624302	4.25827	0.854302	5.81119	0.43849	2.99143	0.809124	3.46984	0.865033	5.911
0.678699	2.5982	0.678623	2.5983	0.625097	4.23492	0.855512	5.78025	0.439494	2.97804	0.807784	3.47896	0.86588	5.87679
0.676787	2.6008	0.67671	2.6009	0.625882	4.21182	0.85674	5.74985	0.440495	2.96482	0.806426	3.48807	0.866718	5.84297
0.674858	2.60335	0.674781	2.60345	0.626657	4.18896	0.857985	5.71997	0.441495	2.95176	0.805049	3.49718	0.867547	5.80956
0.672912	2.60585	0.672833	2.60595	0.627424	4.16634	0.859247	5.6906	0.442493	2.93886	0.803654	3.50629	0.868369	5.77653
0.670947	2.60831	0.670868	2.6084	0.628181	4.14396	0.860525	5.66172	0.443491	2.92613	0.80224	3.5154	0.869183	5.74389
0.668965	2.61071	0.668886	2.61081	0.628929	4.12182	0.861821	5.63333	0.444487	2.91356	0.800807	3.52451	0.86999	5.71163
0.666965	2.61306	0.666885	2.61315	0.62967	4.09991	0.863131	5.6054	0.445484	2.90115	0.799355	3.5336	0.87079	5.67974
0.664947	2.61536	0.664866	2.61545	0.630402	4.07823	0.864458	5.57793	0.446481	2.8889	0.797883	3.54269	0.871584	5.64823
0.66291	2.61761	0.662829	2.61769	0.631127	4.05678	0.865799	5.55091	0.447479	2.87682	0.796391	3.55178	0.872373	5.61708
0.660856	2.6198	0.660774	2.61988	0.631844	4.03555	0.867154	5.52433	0.448479	2.8649	0.79488	3.56086	0.873155	5.58629
0.658784	2.62194	0.658701	2.62202	0.632555	4.01455	0.868524	5.49816	0.449479	2.85314	0.793348	3.56992	0.873933	5.55586
0.656695	2.62402	0.656611	2.6241	0.63326	3.99378	0.869907	5.47241	0.450482	2.84154	0.791797	3.57898	0.874707	5.52579
0.654588	2.62605	0.654503	2.62613	0.633958	3.97322	0.871303	5.44707	0.451488	2.8301	0.790225	3.58803	0.875476	5.49607
0.652463	2.62803	0.652378	2.62811	0.63465	3.95289	0.872712	5.42211	0.452496	2.81883	0.788633	3.59707	0.876242	5.46669
0.650322	2.62996	0.650236	2.63003	0.635337	3.93277	0.874133	5.39754	0.453508	2.80771	0.78702	3.6061	0.877005	5.43766
0.648164	2.63183	0.648078	2.63191	0.63602	3.91287	0.875565	5.37334	0.454523	2.79674	0.785388	3.61512	0.877765	5.40897
0.64599	2.63366	0.645903	2.63373	0.636697	3.89318	0.877009	5.3495	0.455542	2.78594	0.783736	3.62413	0.878523	5.38062
0.6438	2.63543	0.643712	2.6355	0.63737	3.8737	0.878463	5.32601	0.456565	2.77529	0.782063	3.63313	0.879279	5.3526
0.641595	2.63716	0.641506	2.63722	0.638039	3.85444	0.879928	5.30287	0.457593	2.7648	0.780371	3.64212	0.880035	5.32491
0.639374	2.63883	0.639285	2.6389	0.638705	3.83538	0.881403	5.28006	0.458626	2.75447	0.778658	3.6511	0.88079	5.29755
0.63714	2.64046	0.63705	2.64053	0.639367	3.81653	0.882886	5.25758	0.459664	2.74428	0.776927	3.66007	0.881545	5.27052
0.63489	2.64205	0.6348	2.64211	0.640027	3.79789	0.884379	5.23541	0.460707	2.73426	0.775176	3.66904	0.8823	5.24381
0.632628	2.64359	0.632537	2.64365	0.640684	3.77945	0.88588	5.21356	0.461757	2.72438	0.773405	3.678	0.883815	5.19135
0.630352	2.64509	0.63026	2.64515	0.641339	3.76121	0.887389	5.19201	0.462813	2.71466	0.771616	3.68695	0.884576	5.1656
0.628063	2.64654	0.627971	2.6466	0.641992	3.74318	0.888906	5.17075	0.463875	2.70508	0.769809	3.69591	0.885339	5.14016
0.625762	2.64796	0.625669	2.64802	0.642643	3.72534	0.890429	5.14977	0.464944	2.69566	0.767983	3.70486	0.886106	5.11503
0.623449	2.64934	0.623356	2.64939	0.643294	3.7077	0.891959	5.12908	0.46602	2.68639	0.766139	3.71381	0.886876	5.09021
0.621124	2.65068	0.621031	2.65073	0.643943	3.69026	0.893496	5.10865	0.467104	2.67726	0.764277	3.72276	0.887651	5.0657
0.618788	2.65199	0.618695	2.65204	0.644592	3.67302	0.895037	5.08849	0.468195	2.66828	0.762399	3.73171	0.888432	5.0415
0.616442	2.65326	0.616348	2.65331	0.645241	3.65596	0.896584	5.06858	0.469294	2.65945	0.760503	3.74067	0.889218	5.0176
0.614086	2.6545	0.613992	2.65454	0.64589	3.6391	0.898136	5.04892	0.470402	2.65077	0.758591	3.74963	0.89001	4.994
0.61172	2.6557	0.611625	2.65575	0.64654	3.62244	0.899692	5.02951	0.471518	2.64223	0.756663	3.75861	0.890809	4.9707
0.609345	2.65688	0.60925	2.65692	0.64719	3.60596	0.901252	5.01033	0.472643	2.63383	0.75472	3.7676	0.891615	4.94771
0.60696	2.65803	0.606865	2.65807	0.647841	3.58966	0.902815	4.99138	0.473778	2.62558	0.752761	3.7766	0.89243	4.925
0.604567	2.65915	0.604472	2.65919	0.648494	3.57356	0.904381	4.97266	0.474922	2.61747	0.750788	3.78561	0.893253	4.9026
0.602166	2.66024	0.60207	2.66028	0.649149	3.55764	0.90595	4.95415	0.476076	2.60951	0.748801	3.79465	0.894085	4.88049
0.599757	2.66131	0.599661	2.66135	0.649805	3.54191	0.90752	4.93585	0.47724	2.60168	0.7468	3.80371	0.894928	4.85867
0.597341	2.66235	0.597244	2.66239	0.650465	3.52635	0.909092	4.91777	0.478415	2.594	0.744786	3.8128	0.895781	4.83714
0.594917	2.66337	0.59482	2.66341	0.651126	3.51098	0.910666	4.89988	0.479601	2.58646	0.742759	3.82191	0.896645	4.81591
0.592486	2.66437	0.592389	2.66441	0.651791	3.49579	0.91224	4.88218	0.480798	2.57907	0.740721	3.83105	0.89752	4.79496
0.590049	2.66535	0.589952	2.66539	0.652459	3.48078	0.913815	4.86468	0.482007	2.57181	0.73867	3.84023	0.898409	4.7743
0.587605	2.66631	0.587508	2.66634	0.65313	3.46594	0.915389	4.84736	0.483229	2.5647	0.736609	3.84945	0.899309	4.75392
0.585156	2.66725	0.585058	2.66728	0.653805	3.45129	0.916963	4.83022	0.484463	2.55773	0.734537	3.85871	0.900224	4.73383
0.582701	2.66817	0.582602	2.6682	0.654485	3.4368	0.918536	4.81325	0.485711	2.55091	0.732456	3.86801	0.901153	4.71403
0.58024	2.66907	0.580141	2.66911	0.655169	3.42249	0.920108	4.79645	0.486974	2.54423	0.730365	3.87736	0.902096	4.6945
0.577774	2.66996	0.577675	2.67	0.655857	3.40836	0.921678	4.77982	0.488251	2.5377	0.728265	3.88677	0.903055	4.67526
0.575303	2.67084	0.575204	2.67087	0.656551	3.39439	0.923246	4.76335	0.489544	2.53131	0.726157	3.89623	0.90403	4.6563
0.572827	2.6717	0.572728	2.67173	0.65725	3.38059	0.924812	4.74703	0.490853	2.52508	0.724042	3.90575	0.905022	4.63761
0.570347	2.67254	0.570247	2.67258	0.657954	3.36697	0.926374	4.73086	0.49218	2.519	0.721919	3.91534	0.90603	4.61921
0.567862	2.67338	0.567762	2.67341	0.658664	3.35351	0.927934	4.71484	0.493526	2.51307	0.71979	3.92499	0.907056	4.60107
0.565373	2.6742	0.565274	2.67423	0.65938	3.34022	0.929489	4.69897	0.494892	2.50731	0.717655	3.93472	0.908101	4.58322
0.56288	2.67501	0.562781	2.67504	0.660103	3.32709	0.931041	4.68323	0.496279	2.50172	0.715514	3.94452	0.909164	4.56563
0.560384	2.67581	0.560284	2.67584	0.660832	3.31413	0.932588	4.66763	0.49769	2.4963	0.713369	3.95441	0.910247	4.54832
0.557884	2.6766	0.557784	2.67664	0.661568	3.30133	0.934131	4.65216	0.499126	2.49106	0.711219	3.96438	0.91135	4.53128
0.55538	2.67739	0.55528	2.67742	0.662312	3.28869	0.935668	4.63681	0.50059	2.486	0.709065	3.97445	0.912473	4.5145
0.552874	2.67816	0.552773	2.67819	0.663063	3.27622	0.9372	4.62159	0.502083	2.48115	0.706909	3.9846	0.913617	4.498
0.550364	2.67893	0.550264	2.67896	0.663821	3.2639	0.938726	4.60649	0.50361	2.4765	0.70475	3.99486	0.914782	4.48176
0.547851	2.67969	0.547751	2.67972	0.664588	3.25175	0.940246	4.59151	0.505172	2.47207	0.702589	4.00523	0.91597	4.46578
0.545336	2.68045	0.545235	2.68048	0.665363	3.23975	0.94176	4.57664	0.506774	2.46788	0.700426	4.0157	0.917179	4.45007
0.542818	2.6812	0.542717	2.68123	0.666147	3.22791	0.943267	4.56188	0.508419	2.46394	0.698263	4.02629	0.918412	4.43462
0.540297	2.68194	0.540197	2.68197	0.666939	3.21623	0.944766	4.54723	0.510111	2.46027	0.6961	4.037	0.919667	4.41943
0.537775	2.68268	0.537674	2.68271	0.667741	3.2047	0.946259	4.53268	0.511854	2.45687	0.693937	4.04784	0.920946	4.40449
0.535249	2.68342	0.535149	2.68345	0.668552	3.19333	0.947743	4.51824	0.513652	2.45377	0.691774	4.05881	0.922249	4.38981
0.532722	2.68415	0.532622	2.68418	0.669373	3.18211	0.94922	4.50389	0.515509	2.45098	0.689614	4.06991	0.923576	4.37538
0.530193	2.68489	0.530092	2.68492	0.670204	3.17105	0.950688	4.48964	0.517426	2.4485	0.687455	4.08116	0.924928	4.36121
0.527663	2.68562	0.527562	2.68565	0.671045	3.16014	0.952148	4.47548	0.519407	2.44635	0.685299	4.09256	0.926304	4.34728
0.52513	2.68634	0.525029	2.68637	0.671897	3.14938	0.953599	4.46142	0.521452	2.44451	0.683146	4.10412	0.927706	4.3336
0.522596	2.68707	0.522495	2.6871	0.67276	3.13877	0.95504	4.44744	0.523561	2.44299	0.680997	4.11584	0.929132	4.32017
0.52006	2.6878	0.519959	2.68783	0.673635	3.12831	0.956473	4.43354	0.525731	2.44176	0.678853	4.12772	0.930585	4.30697
0.517523	2.68853	0.517422	2.68856	0.674521	3.118	0.957896	4.41973	0.527959	2.44082	0.676713	4.13978	0.932062	4.29402
0.514985	2.68926	0.514884	2.68929	0.675419	3.10785	0.959309	4.406	0.530243	2.44015	0.674579	4.15203	0.933566	4.2813
0.512446	2.68999	0.512344	2.69002	0.676329	3.09784	0.960712	4.39236	0.532578	2.43971	0.672451	4.16446	0.935095	4.26881
0.509905	2.69072	0.509804	2.69075	0.677252	3.08798	0.962105	4.37878	0.534958	2.43948	0.67033	4.17709	0.936651	4.25656
0.507364	2.69145	0.507262	2.69148	0.678188	3.07826	0.963487	4.36529	0.53738	2.43944	0.668216	4.18993	0.938232	4.24453
0.504821	2.69219	0.50472	2.69222	0.679137	3.0687	0.964859	4.35186	0.539839	2.43957	0.666111	4.20297	0.939839	4.23273
0.502278	2.69294	0.502177	2.69297	0.6801	3.05928	0.96622	4.33851	0.54233	2.43985	0.664014	4.21624	0.941472	4.22115
0.499735	2.69368	0.499633	2.69371	0.681077	3.05001	0.967571	4.32523	0.54485	2.44025	0.661926	4.22973	0.943131	4.20979
0.49719	2.69443	0.497089	2.69446	0.682068	3.04089	0.96891	4.31202	0.547396	2.44077	0.659848	4.24346	0.944815	4.19864
0.494646	2.69519	0.494544	2.69522	0.683075	3.03191	0.970238	4.29887	0.549963	2.44137	0.65778	4.25743	0.946526	4.1877
0.492101	2.69596	0.491999	2.69599	0.684096	3.02308	0.971554	4.28579	0.55255	2.44206	0.655724	4.27166	0.948261	4.17698
0.489555	2.69673	0.489454	2.69676	0.685133	3.0144	0.972859	4.27278	0.555155	2.44282	0.653679	4.28615	0.950022	4.16645
0.48701	2.6975	0.486908	2.69754	0.686187	3.00586	0.974153	4.25982	0.557774	2.44363	0.651646	4.30091	0.951808	4.15613
0.484464	2.69829	0.484363	2.69832	0.687257	2.99747	0.975435	4.24693	0.560406	2.4445	0.649627	4.31596	0.953619	4.14601
0.481919	2.69909	0.481817	2.69912	0.688344	2.98922	0.976705	4.2341	0.56305	2.4454	0.647621	4.33129	0.955454	4.13608
0.479373	2.69989	0.479272	2.69992	0.689448	2.98112	0.977963	4.22133	0.565704	2.44635	0.645629	4.34693	0.957314	4.12633
0.476828	2.70071	0.476726	2.70074	0.69057	2.97317	0.97921	4.20861	0.568367	2.44733	0.643653	4.36288	0.959197	4.11678
0.474283	2.70153	0.474182	2.70157	0.691711	2.96537	0.980444	4.19596	0.571039	2.44833	0.641692	4.37915	0.961105	4.10741
0.471739	2.70237	0.471637	2.7024	0.692871	2.95771	0.981667	4.18336	0.573717	2.44935	0.639747	4.39576	0.963035	4.09821
0.469195	2.70322	0.469093	2.70326	0.69405	2.9502	0.982877	4.17081	0.576402	2.45039	0.637819	4.41271	0.964989	4.08919
0.466652	2.70409	0.46655	2.70412	0.695248	2.94283	0.984076	4.15832	0.579092	2.45145	0.635909	4.43002	0.966965	4.08034
0.464109	2.70496	0.464008	2.705	0.696468	2.93562	0.985263	4.14589	0.581788	2.45252	0.634016	4.4477	0.968963	4.07166
0.461567	2.70586	0.461466	2.7059	0.697707	2.92855	0.986437	4.13351	0.584488	2.4536	0.632143	4.46576	0.970983	4.06314
0.459026	2.70677	0.458925	2.70681	0.698969	2.92163	0.9876	4.12118	0.587192	2.45469	0.63029	4.48422	0.973024	4.05478
0.456487	2.7077	0.456385	2.70773	0.700252	2.91486	0.988751	4.1089	0.5899	2.45579	0.628456	4.50309	0.975085	4.04658
0.453948	2.70864	0.453847	2.70868	0.701558	2.90823	0.98989	4.09668	0.592611	2.45688	0.626644	4.52238	0.977168	4.03853
0.451411	2.70961	0.45131	2.70965	0.702886	2.90176	0.991017	4.08451	0.595326	2.45799	0.624853	4.5421	0.97927	4.03063
0.448876	2.71059	0.448774	2.71063	0.704238	2.89543	0.992133	4.07239	0.598043	2.45909	0.623085	4.56228	0.981391	4.02287
0.446341	2.7116	0.44624	2.71164	0.705613	2.88926	0.993237	4.06032	0.600762	2.4602	0.621339	4.58292	0.983532	4.01525
0.443809	2.71263	0.443708	2.71267	0.707013	2.88323	0.994329	4.0483	0.603483	2.4613	0.619617	4.60404	0.985691	4.00776
0.441279	2.71368	0.441177	2.71372	0.708438	2.87735	0.99541	4.03633	0.606207	2.46241	0.617919	4.62566	0.987868	4.00041
0.43875	2.71476	0.438649	2.7148	0.709888	2.87163	0.996479	4.02442	0.608932	2.46351	0.616247	4.64779	0.990062	3.99319
0.436224	2.71587	0.436123	2.71591	0.711363	2.86605	0.997537	4.01255	0.611659	2.46461	0.614599	4.67046	0.992274	3.9861
0.4337	2.717	0.433599	2.71705	0.712865	2.86062	0.998584	4.00073	0.614387	2.46571	0.612979	4.69367	0.994501	3.97913
0.431178	2.71816	0.431077	2.71821	0.714393	2.85534	0.99962	3.98896	0.617117	2.4668	0.611385	4.71744	0.996745	3.97228
0.428659	2.71936	0.428558	2.71941	0.715947	2.8502	1.00065	3.97725	0.619847	2.46789	0.609818	4.74179	0.999004	3.96554
0.426143	2.72059	0.426042	2.72064	0.717528	2.84521			0.622579	2.46898	0.60828	4.76675	1.00128	3.95891
0.42363	2.72185	0.42353	2.7219	0.719136	2.84037			0.625312	2.47006	0.60677	4.79233		
0.42112	2.72315	0.42102	2.7232	0.720772	2.83568			0.628046	2.47114	0.60529	4.81854		
0.418614	2.72449	0.418514	2.72455	0.722435	2.83113			0.63078	2.47221	0.60384	4.84542		
0.416111	2.72587	0.416011	2.72593	0.724125	2.82672			0.633515	2.47327	0.60242	4.87297		
0.413612	2.7273	0.413512	2.72736	0.725842	2.82245			0.636251	2.47433	0.601031	4.90122		
0.411117	2.72877	0.411018	2.72883	0.727587	2.81832			0.638987	2.47538	0.599674	4.9302		
0.408627	2.73029	0.408528	2.73035	0.729359	2.81432			0.641724	2.47643	0.598349	4.95992		
0.406141	2.73186	0.406042	2.73193	0.731159	2.81046			0.644461	2.47747	0.597056	4.99041		
0.403661	2.73349	0.403562	2.73356	0.732985	2.80674			0.647198	2.4785	0.595797	5.02169		
0.401185	2.73518	0.401087	2.73525	0.734837	2.80314			0.649936	2.47953	0.59457	5.05378		
0.398715	2.73693	0.398617	2.737	0.736716	2.79967			0.652673	2.48054	0.593378	5.08671		
0.396252	2.73874	0.396153	2.73881	0.73862	2.79632			0.655411	2.48156	0.59222	5.1205		
0.393794	2.74062	0.393696	2.7407	0.74055	2.79309			0.658149	2.48256	0.591097	5.15518		
0.391344	2.74257	0.391246	2.74265	0.742505	2.78999			0.660888	2.48356	0.590008	5.19078		
0.3889	2.74461	0.388802	2.74469	0.744484	2.78699			0.663626	2.48455	0.588955	5.22732		
0.386464	2.74672	0.386367	2.74681	0.746486	2.78411			0.666364	2.48553	0.587937	5.26483		
0.384036	2.74893	0.383939	2.74902	0.748512	2.78133			0.669102	2.48651	0.586955	5.30334		
0.381617	2.75122	0.38152	2.75132	0.750561	2.77866			0.67184	2.48748	0.586009	5.34288		
0.379206	2.75362	0.37911	2.75372	0.752631	2.77609			0.674578	2.48844	0.5851	5.38347		
0.376806	2.75612	0.37671	2.75623	0.754722	2.77361			0.677316	2.48939	0.584226	5.42515		
0.374416	2.75874	0.37432	2.75885	0.756834	2.77123			0.680053	2.49033	0.583389	5.46795		
0.372036	2.76147	0.371941	2.76158	0.758966	2.76894			0.682791	2.49127	0.582589	5.51191		
0.369669	2.76434	0.369574	2.76445	0.761118	2.76673			0.685528	2.4922	0.581825	5.55705		
0.367313	2.76734	0.36722	2.76746	0.763287	2.76461			0.688265	2.49312	0.581098	5.60341		
0.364971	2.77048	0.364878	2.77061	0.765475	2.76257			0.691001	2.49404	0.580408	5.65103		
0.362643	2.77378	0.36255	2.77391	0.76768	2.7606			0.693737	2.49494	0.579754	5.69994		
0.36033	2.77724	0.360238	2.77739	0.769901	2.75871			0.696473	2.49584	0.579136	5.75018		
0.358033	2.78089	0.357941	2.78103	0.772138	2.75688			0.699208	2.49673	0.578556	5.80179		
0.355752	2.78472	0.355661	2.78487	0.77439	2.75513			0.701943	2.49762	0.578012	5.85481		
0.35349	2.78875	0.3534	2.78891	0.776657	2.75343			0.704678	2.49849	0.577503	5.90928		
0.351246	2.793	0.351157	2.79317	0.778937	2.7518			0.707412	2.49936	0.577032	5.96525		
0.349023	2.79747	0.348935	2.79766	0.781231	2.75023			0.710145	2.50022	0.576596	6.02276		
0.346821	2.8022	0.346734	2.80239	0.783538	2.74871			0.712878	2.50107	0.576195	6.08185		
0.344642	2.80718	0.344556	2.80739	0.785857	2.74725			0.715611	2.50191	0.575831	6.14258		
0.342488	2.81245	0.342402	2.81267	0.788188	2.74583			0.718343	2.50275	0.575501	6.20499		
0.340359	2.81802	0.340274	2.81825	0.79053	2.74447			0.721074	2.50358	0.575207	6.26914		
0.338257	2.8239	0.338174	2.82415	0.792882	2.74315			0.723804	2.5044	0.574947	6.33508		
0.336184	2.83013	0.336102	2.83039	0.795244	2.74188			0.726534	2.50521	0.574722	6.40287		
0.334142	2.83672	0.334061	2.83699	0.797617	2.74064			0.729263	2.50601	0.574531	6.47256		
0.332131	2.8437	0.332052	2.84399	0.799998	2.73945			0.731992	2.50681	0.574373	6.54422		
0.330155	2.85109	0.330076	2.8514	0.802388	2.7383			0.73472	2.5076	0.574249	6.61792		
0.328214	2.85892	0.328137	2.85924	0.804787	2.73718			0.737447	2.50838	0.574159	6.6937		
0.32631	2.86721	0.326234	2.86755	0.807194	2.73609			0.740173	2.50915	0.5741	6.77166		
0.324445	2.87599	0.324371	2.87636	0.809608	2.73504			0.742898	2.50991	0.574075	6.85185		
0.32262	2.8853	0.322548	2.88568	0.812029	2.73402			0.745622	2.51067	0.574081	6.93437		
0.320838	2.89515	0.320768	2.89556	0.814458	2.73304			0.748346	2.51141	0.574119	7.01927		
0.3191	2.90558	0.319032	2.90601	0.816893	2.73208			0.751068	2.51215	0.574188	7.10666		
0.317408	2.91662	0.317341	2.91708	0.819334	2.73114			0.75379	2.51289	0.574288	7.19662		
0.315762	2.9283	0.315698	2.92878	0.821782	2.73024			0.75651	2.51361	0.5744	7.27717		
0.314165	2.94065	0.314102	2.94116	0.824235	2.72935			0.75923	2.51432	0.574514	7.34749		
0.312617	2.9537	0.312556	2.95424	0.826693	2.7285			0.761948	2.51503	0.57462	7.4068		
0.31112	2.96748	0.311061	2.96805	0.829157	2.72766			0.764665	2.51573	0.574712	7.45447		
0.309674	2.98202	0.309617	2.98262	0.831626	2.72685			0.767381	2.51642	0.574784	7.48997		
0.30828	2.99735	0.308226	2.99798	0.834099	2.72605			0.770096	2.5171	0.574854	7.52295		
0.306939	3.01349	0.306887	3.01415	0.836577	2.72528			0.77281	2.51777	0.574904	7.54609		
0.305652	3.03048	0.305601	3.03118	0.839059	2.72452			0.775522	2.51843	0.574985	7.58257		
0.304417	3.04835	0.304369	3.04908	0.841544	2.72379			0.778233	2.51909	0.575102	7.6328		
0.303236	3.06712	0.30319	3.06788	0.844034	2.72307			0.780942	2.51974	0.57526	7.6974		
0.302109	3.08681	0.302065	3.08762	0.846528	2.72236			0.78365	2.52037	0.575464	7.77713		
0.301035	3.10746	0.300993	3.1083	0.849025	2.72168			0.786357	2.521	0.575724	7.87299		
0.300014	3.12909	0.299974	3.12997	0.851525	2.721			0.789062	2.52162	0.576048	7.9862		
0.299045	3.15173	0.299007	3.15265	0.854028	2.72034			0.791765	2.52223	0.576399	8.10296		
0.298128	3.17539	0.298092	3.17636	0.856534	2.7197			0.794466	2.52284	0.576777	8.22342		
0.297262	3.20012	0.297228	3.20113	0.859043	2.71907			0.797166	2.52343	0.577181	8.34773		
0.296446	3.22593	0.296415	3.22698	0.861555	2.71844			0.799864	2.52401	0.577612	8.47606		
0.295681	3.25285	0.295651	3.25395	0.864069	2.71784			0.80256	2.52458	0.578068	8.60858		
0.294963	3.28092	0.294936	3.28206	0.866585	2.71724			0.805255	2.52515	0.57855	8.74547		
0.294294	3.31015	0.294269	3.31134	0.869104	2.71665			0.807946	2.5257	0.579056	8.88693		
0.293672	3.34057	0.293648	3.34182	0.871625	2.71607			0.810636	2.52624	0.579587	9.03316		
0.293096	3.37223	0.293074	3.37352	0.874147	2.71551			0.813324	2.52677	0.580142	9.18438		
0.292566	3.40515	0.292545	3.40649	0.876672	2.71495			0.816009	2.5273	0.580721	9.34084		
0.292079	3.43935	0.29206	3.44075	0.879198	2.7144			0.818692	2.52781	0.581323	9.50276		
0.291636	3.47489	0.291619	3.47634	0.881726	2.71386			0.821372	2.52831	0.581949	9.67044		
0.291235	3.51179	0.29122	3.51329	0.884255	2.71333			0.82405	2.5288	0.582596	9.84413		
0.290875	3.55009	0.290862	3.55165	0.886786	2.7128			0.826725	2.52927	0.583266	10.0242		
0.290557	3.58984	0.290545	3.59146	0.889318	2.71228			0.829397	2.52974	0.583958	10.2108		
0.290277	3.63108	0.290267	3.63276	0.891851	2.71177			0.832066	2.53019	0.584672	10.4045		
0.290037	3.67385	0.290028	3.67559	0.894385	2.71126			0.834732	2.53064	0.585407	10.6056		
0.289835	3.7182	0.289828	3.72	0.89692	2.71076			0.837394	2.53106	0.586162	10.8144		
0.28967	3.76418	0.289664	3.76605	0.899456	2.71027			0.840053	2.53148	0.586939	11.0314		
0.289542	3.81184	0.289537	3.81378	0.901993	2.70978			0.842708	2.53188	0.587735	11.2572		
0.289449	3.86125	0.289446	3.86326	0.90453	2.7093			0.84536	2.53227	0.588551	11.492		
0.289391	3.91246	0.289389	3.91455	0.907068	2.70882			0.848007	2.53264	0.589387	11.7366		
0.289367	3.96554	0.289367	3.9677	0.909607	2.70834			0.85065	2.533	0.590242	11.9915		
0.289376	4.02055	0.289377	4.02279	0.912146	2.70787			0.853289	2.53335	0.591116	12.2572		
0.289411	4.07012	0.289421	4.07988	0.914685	2.7074			0.855922	2.53367	0.592008	12.5346		
0.28946	4.11361	0.289496	4.13906	0.917224	2.70694			0.858551	2.53398	0.592919	12.8244		
0.289514	4.15047	0.289603	4.20041	0.919764	2.70648			0.861175	2.53428	0.593848	13.1273		
0.289565	4.18019	0.289741	4.264	0.922303	2.70602			0.863793	2.53455	0.594794	13.4442		
0.289607	4.20237	0.289908	4.32993	0.924843	2.70557			0.866406	2.53481	0.595758	13.7761		
0.289649	4.22304	0.290105	4.3983	0.927382	2.70511			0.869012	2.53505	0.596739	14.1241		
0.289681	4.23756	0.29033	4.4692	0.929922	2.70466			0.871612	2.53527	0.597737	14.4893		
0.289732	4.26049	0.290583	4.54275	0.932461	2.70421			0.874205	2.53546	0.598751	14.873		
0.289809	4.29216	0.290864	4.61906	0.934999	2.70376			0.87679	2.53564	0.599782	15.2766		
0.289916	4.33301	0.291171	4.69825	0.937537	2.70332			0.879368	2.53579	0.600829	15.7015		
0.290061	4.38364	0.291504	4.78045	0.940075	2.70287			0.881938	2.53592	0.601891	16.1497		
0.29025	4.44481	0.291862	4.86581	0.942611	2.70243			0.8845	2.53602	0.602969	16.6228		
0.290494	4.51744	0.292246	4.95447	0.945148	2.70198			0.887052	2.53609	0.604062	17.1232		
0.290765	4.5928	0.292653	5.04659	0.947683	2.70154			0.889595	2.53614	0.605171	17.653		
0.291063	4.671	0.293084	5.14235	0.950217	2.70109			0.892127	2.53616	0.606294	18.215		
0.291388	4.75216	0.293537	5.24191	0.95275	2.70065			0.894649	2.53615	0.607431	18.8121		
0.291738	4.83643	0.294013	5.34548	0.955282	2.7002			0.89716	2.5361	0.608583	19.4476		
0.292113	4.92395	0.29451	5.45327	0.957813	2.69975			0.899658	2.53603	0.609748	20.1254		
0.292512	5.01488	0.295028	5.56551	0.960343	2.6993			0.902144	2.53591	0.610928	20.8498		
0.292935	5.10938	0.295566	5.68242	0.962871	2.69885			0.904617	2.53576	0.612121	21.6256		
0.293381	5.20763	0.296123	5.80429	0.965397	2.6984			0.907075	2.53558	0.613327	22.4585		
0.293849	5.30981	0.296699	5.93137	0.967922	2.69795			0.909518	2.53535	0.614546	23.355		
0.294339	5.41615	0.297293	6.06399	0.970445	2.69749			0.911946	2.53508	0.615779	24.3225		
0.29485	5.52684	0.297904	6.20246	0.972966	2.69703			0.914358	2.53476	0.617023	25.3697		
0.295381	5.64214	0.298532	6.34716	0.975485	2.69657			0.916752	2.5344	0.61828	26.507		
0.295932	5.76229	0.299175	6.49845	0.978003	2.69611			0.919128	2.53399	0.61955	27.7462		
0.296502	5.88757	0.299748	6.63599	0.980517	2.69564			0.921485	2.53353	0.620831	29.1017		
0.297089	6.01827	0.300244	6.75768	0.98303	2.69516			0.923823	2.53302	0.622124	30.5905		
0.297695	6.15472	0.300661	6.86154	0.98554	2.69469			0.92614	2.53246	0.623428	32.2333		
0.298317	6.29725	0.300993	6.94582	0.988047	2.6942			0.928436	2.53184	0.624744	34.0551		
0.298955	6.44625	0.30124	7.00905	0.990551	2.69372			0.930711	2.53117	0.626071	36.0867		
0.299608	6.60213	0.301468	7.06818	0.993053	2.69323			0.932963	2.53044	0.627409	38.3664		
0.300275	6.76532	0.301628	7.10987	0.995551	2.69273			0.935193	2.52966	0.628757	40.9426		
0.300956	6.93632	0.301878	7.17595	0.998046	2.69222			0.937399	2.52881	0.630115	43.8768		
0.30165	7.11565	0.302221	7.26768	1.00054	2.69171			0.939582	2.52791	0.631484	47.2491		
0.302355	7.3039	0.302659	7.38689					0.941742	2.52695	0.632862	51.1653		
0.303071	7.5017	0.303193	7.53602					0.943877	2.52593	0.634249	55.7683		
0.303798	7.70975	0.303827	7.71828					0.94599	2.52485	0.635646	61.2558		
0.304533	7.92883	0.304562	7.93781					0.948078	2.52372	0.637052	67.9095		
0.305276	8.15978	0.305306	8.16927					0.950144	2.52253	0.638465	76.145		
0.306027	8.40357	0.306057	8.41358					0.952188	2.52129	0.639886	86.6017		
0.306783	8.66123	0.306813	8.67182					0.954209	2.51999	0.641313	100.318		
0.307544	8.93394	0.307575	8.94516					0.956209	2.51865	0.642745	119.098		
0.308309	9.22302	0.30834	9.23492					0.958189	2.51726	0.644178	146.379		
0.309076	9.52993	0.309107	9.54258					0.960149	2.51582	0.645606	189.62		
0.309845	9.85634	0.309876	9.8698					0.96209	2.51435	0.647014	268.613		
0.310614	10.2041	0.310645	10.2185					0.964013	2.51283	0.648351	458.946		
0.311383	10.5754	0.311413	10.5907					0.96592	2.51128	0.64938	1558.5		
0.312148	10.9726	0.312179	10.989					0.967811	2.5097				
0.31291	11.3984	0.31294	11.416					0.969688	2.50809				
0.313666	11.8561	0.313696	11.8751					0.971551	2.50645				
0.314416	12.3494	0.314446	12.3699					0.973401	2.50479				
0.315157	12.8825	0.315187	12.9047					0.97524	2.50311				
0.315889	13.4604	0.315918	13.4845					0.977069	2.50141				
0.316609	14.0891	0.316637	14.1153					0.978888	2.49969				
0.317316	14.7754	0.317344	14.8042					0.980699	2.49796				
0.318008	15.5278	0.318036	15.5594					0.982502	2.49622				
0.318684	16.3563	0.318711	16.3911					0.984298	2.49447				
0.319342	17.2731	0.319368	17.3117					0.986089	2.49272				
0.319979	18.2931	0.320004	18.3362					0.987874	2.49096				
0.320595	19.4349	0.320619	19.4834					0.989655	2.4892				
0.321187	20.722	0.32121	20.7768					0.991433	2.48744				
0.321753	22.1841	0.321775	22.2467					0.993207	2.48568				
0.322293	23.8599	0.322313	23.9319					0.994979	2.48392				
0.322802	25.8	0.322822	25.8839					0.996749	2.48217				
0.323282	28.0732	0.3233	28.1721					0.998518	2.48042				
0.323728	30.7736	0.323745	30.892					1.00029	2.47868				
0.32414	34.0353	0.324156	34.1797										
0.324516	38.0548	0.324531	38.2348										
0.324855	43.1324	0.324868	43.363										
0.325155	49.7517	0.325166	50.058										
0.325415	58.7442	0.325425	59.1707										
0.325634	71.6702	0.325642	72.3048										
0.325811	91.8428	0.325817	92.8859										
0.325945	127.748	0.32595	129.773										
0.326036	209.61	0.326039	215.112										
0.326083	582.898	0.326084	627.51										
