Sym0		Asym0		Sym1		Sym2		Sym3		Asym1		Asym2		Asym3	
422  Points		428  Points		422  Points		382  Points		313  Points		428  Points		394  Points		266  Points	
Freq (MHz)	Vph (m/ms)	Freq (MHz)	Vph (m/ms)	Freq (MHz)	Vph (m/ms)	Freq (MHz)	Vph (m/ms)	Freq (MHz)	Vph (m/ms)	Freq (MHz)	Vph (m/ms)	Freq (MHz)	Vph (m/ms)	Freq (MHz)	Vph (m/ms)
1.00137	2.41381	0.21651	698.194	1.00006	2.41347	0.433013	2764	0.866022	3417.52	0.216528	274.016	1.00198	2.594	0.649523	2350.24
0.998672	2.41311	0.216567	165.809	0.997368	2.41276	0.43305	375.687	0.865941	693.069	0.216619	121.272	0.999364	2.59392	0.649606	510.541
0.995977	2.4124	0.216694	94.1269	0.994674	2.41206	0.433141	201.582	0.865755	385.559	0.21678	77.9154	0.996752	2.59385	0.649795	286.454
0.993282	2.41169	0.216891	65.761	0.99198	2.41135	0.433286	137.782	0.865468	266.998	0.217011	57.4365	0.994143	2.59378	0.650088	199.143
0.99059	2.41098	0.217158	50.57	0.989288	2.41064	0.433487	104.688	0.865083	204.149	0.217311	45.5168	0.991539	2.59373	0.650482	152.679
0.987898	2.41028	0.217493	41.1123	0.986597	2.40994	0.433741	84.4383	0.864608	165.206	0.217679	37.7239	0.988938	2.59368	0.650971	123.842
0.985209	2.40957	0.217896	34.6624	0.983908	2.40923	0.434049	70.7749	0.864049	138.702	0.218115	32.2353	0.986342	2.59365	0.651552	104.206
0.98252	2.40886	0.218367	29.9861	0.981221	2.40852	0.434409	60.9369	0.863414	119.494	0.218618	28.1638	0.98375	2.59363	0.652218	89.9794
0.979834	2.40816	0.218904	26.4432	0.978535	2.40782	0.434821	53.5174	0.862712	104.932	0.219186	25.0259	0.981164	2.59362	0.652965	79.1995
0.977149	2.40745	0.219506	23.6682	0.975851	2.40711	0.435285	47.724	0.861948	93.5109	0.21982	22.5354	0.978583	2.59362	0.653786	70.7516
0.974465	2.40675	0.220173	21.4377	0.973168	2.40641	0.435799	43.0763	0.861131	84.3118	0.220516	20.5123	0.976007	2.59364	0.654675	63.9544
0.971784	2.40604	0.220901	19.6072	0.970487	2.4057	0.436362	39.2662	0.860266	76.7432	0.221275	18.8375	0.973438	2.59368	0.655628	58.3682
0.969104	2.40534	0.221691	18.079	0.967808	2.405	0.436974	36.0868	0.85936	70.4065	0.222093	17.4294	0.970876	2.59374	0.656639	53.6967
0.966425	2.40464	0.222541	16.7849	0.965131	2.4043	0.437632	33.3943	0.858419	65.0233	0.222971	16.2297	0.968321	2.59381	0.657702	49.733
0.963749	2.40393	0.223449	15.6757	0.962455	2.40359	0.438336	31.0855	0.857447	60.3932	0.223907	15.1961	0.965773	2.59391	0.658815	46.3279
0.961074	2.40323	0.224413	14.7152	0.959782	2.40289	0.439085	29.0842	0.856449	56.3684	0.224898	14.2969	0.963234	2.59403	0.659971	43.3714
0.958402	2.40253	0.225433	13.8758	0.95711	2.4022	0.439878	27.3334	0.855428	52.8375	0.225943	13.508	0.960704	2.59418	0.661168	40.7808
0.955731	2.40184	0.226505	13.1364	0.954441	2.4015	0.440712	25.7891	0.854388	49.7147	0.227041	12.8108	0.958184	2.59435	0.662402	38.4921
0.953063	2.40114	0.227629	12.4807	0.951773	2.40081	0.441587	24.4172	0.853333	46.9332	0.228189	12.1905	0.955673	2.59455	0.66367	36.4558
0.950397	2.40045	0.228803	11.8954	0.949108	2.40011	0.442502	23.1906	0.852264	44.44	0.229386	11.6353	0.953174	2.59478	0.664968	34.6323
0.947732	2.39975	0.230024	11.3701	0.946445	2.39942	0.443455	22.0876	0.851184	42.1924	0.23063	11.1358	0.950687	2.59504	0.666295	32.9901
0.94507	2.39906	0.231292	10.8963	0.943784	2.39873	0.444445	21.0906	0.850096	40.1559	0.231919	10.6842	0.948212	2.59535	0.667648	31.5034
0.942411	2.39838	0.232604	10.467	0.941125	2.39805	0.44547	20.1852	0.849002	38.3021	0.233252	10.2742	0.945751	2.59568	0.669025	30.1513
0.939753	2.39769	0.233959	10.0764	0.938469	2.39736	0.44653	19.3594	0.847902	36.6075	0.234627	9.90041	0.943304	2.59607	0.670423	28.9163
0.937098	2.39701	0.235355	9.71953	0.935815	2.39668	0.447622	18.6034	0.846799	35.0526	0.236042	9.55839	0.940873	2.59649	0.671842	27.7839
0.934446	2.39633	0.23679	9.39245	0.933164	2.396	0.448746	17.9088	0.845694	33.6207	0.237495	9.24438	0.938458	2.59697	0.673279	26.7419
0.931796	2.39565	0.238263	9.09167	0.930515	2.39533	0.4499	17.2684	0.844589	32.2978	0.238986	8.95519	0.936061	2.59749	0.674733	25.7797
0.929148	2.39498	0.239771	8.81423	0.927869	2.39466	0.451083	16.6763	0.843483	31.072	0.240511	8.68807	0.933683	2.59807	0.676203	24.8888
0.926504	2.39431	0.241314	8.5576	0.925226	2.39399	0.452294	16.1272	0.84238	29.9331	0.242069	8.44068	0.931324	2.59871	0.677687	24.0613
0.923862	2.39364	0.242889	8.3196	0.922585	2.39332	0.453531	15.6167	0.841278	28.8721	0.243659	8.21096	0.928987	2.59942	0.679185	23.2908
0.921223	2.39298	0.244495	8.09833	0.919947	2.39266	0.454794	15.1409	0.84018	27.8813	0.24528	7.99715	0.926673	2.60019	0.680695	22.5717
0.918587	2.39232	0.246131	7.89213	0.917313	2.39201	0.456082	14.6965	0.839086	26.9541	0.246929	7.7977	0.924382	2.60103	0.682217	21.8988
0.915953	2.39167	0.247794	7.69957	0.914681	2.39135	0.457392	14.2804	0.837996	26.0845	0.248606	7.61124	0.922116	2.60195	0.683749	21.268
0.913323	2.39102	0.249484	7.51937	0.912052	2.39071	0.458724	13.89	0.836912	25.2674	0.250308	7.43659	0.919877	2.60294	0.685291	20.6754
0.910696	2.39038	0.2512	7.35041	0.909427	2.39007	0.460078	13.5232	0.835835	24.4982	0.251812	7.29319	0.917665	2.60402	0.686841	20.1177
0.908072	2.38974	0.252938	7.19169	0.906805	2.38943	0.461451	13.1777	0.834764	23.7728	0.253107	7.17691	0.915482	2.60519	0.6884	19.5918
0.905452	2.3891	0.254699	7.04232	0.904186	2.3888	0.462843	12.8519	0.8337	23.0876	0.254188	7.08464	0.913329	2.60645	0.689967	19.0951
0.902835	2.38848	0.256482	6.90153	0.901571	2.38817	0.464254	12.5442	0.832644	22.4394	0.255048	7.01403	0.911207	2.60781	0.69154	18.6252
0.900222	2.38785	0.258283	6.7686	0.898959	2.38756	0.465681	12.253	0.831596	21.8253	0.255683	6.96339	0.909117	2.60927	0.69312	18.1801
0.897612	2.38724	0.260103	6.64291	0.896351	2.38694	0.467124	11.977	0.830557	21.2428	0.256091	6.93153	0.90706	2.61083	0.694706	17.7577
0.895006	2.38663	0.261941	6.52388	0.893747	2.38634	0.468582	11.7153	0.829527	20.6894	0.25668	6.88646	0.905036	2.61249	0.696297	17.3565
0.892404	2.38603	0.263794	6.411	0.891147	2.38574	0.470055	11.4665	0.828507	20.1631	0.257322	6.83842	0.903047	2.61427	0.697893	16.9748
0.889806	2.38543	0.265662	6.30382	0.888551	2.38515	0.471541	11.2299	0.827498	19.6619	0.258199	6.77463	0.901093	2.61615	0.699493	16.6113
0.887212	2.38485	0.267544	6.2019	0.885958	2.38457	0.473039	11.0046	0.826498	19.1841	0.259314	6.69639	0.899174	2.61815	0.701097	16.2647
0.884622	2.38427	0.269439	6.10486	0.883371	2.38399	0.474549	10.7897	0.82551	18.7282	0.260672	6.60525	0.89729	2.62026	0.702704	15.9338
0.882036	2.3837	0.271345	6.01237	0.880787	2.38343	0.47607	10.5846	0.824533	18.2927	0.262277	6.50289	0.89544	2.62249	0.704314	15.6176
0.879455	2.38314	0.273262	5.9241	0.878208	2.38287	0.477602	10.3886	0.823568	17.8762	0.264133	6.39108	0.893626	2.62484	0.705927	15.3151
0.876878	2.38259	0.275188	5.83976	0.875634	2.38232	0.479142	10.2011	0.822614	17.4777	0.266004	6.28489	0.891847	2.62729	0.707542	15.0255
0.874307	2.38205	0.277123	5.75909	0.873064	2.38179	0.480692	10.0215	0.821673	17.0959	0.267888	6.18388	0.890101	2.62987	0.709159	14.7479
0.87174	2.38151	0.279065	5.68184	0.8705	2.38126	0.482249	9.84949	0.820745	16.7299	0.269785	6.0877	0.888389	2.63256	0.710778	14.4816
0.869178	2.38099	0.281014	5.6078	0.86794	2.38075	0.483813	9.68443	0.81983	16.3787	0.271693	5.99599	0.886709	2.63536	0.712397	14.2259
0.866621	2.38049	0.282969	5.53676	0.865386	2.38024	0.485385	9.52596	0.818929	16.0415	0.273612	5.90846	0.885062	2.63827	0.714018	13.9802
0.864069	2.37999	0.284928	5.46852	0.862837	2.37975	0.486962	9.37368	0.818041	15.7175	0.27554	5.82481	0.883445	2.64129	0.715638	13.7439
0.861523	2.3795	0.286891	5.40292	0.860294	2.37927	0.488544	9.22723	0.817168	15.4059	0.277476	5.74478	0.881858	2.64442	0.717259	13.5164
0.858983	2.37903	0.288858	5.33979	0.857756	2.37881	0.490131	9.08627	0.816308	15.106	0.27942	5.66813	0.880301	2.64766	0.718879	13.2974
0.856448	2.37857	0.290826	5.27897	0.855224	2.37836	0.491722	8.95049	0.815464	14.8173	0.28137	5.59465	0.878771	2.651	0.720499	13.0863
0.853919	2.37813	0.292796	5.22035	0.852699	2.37792	0.493316	8.81961	0.814635	14.5391	0.283325	5.52413	0.877269	2.65445	0.722118	12.8826
0.851397	2.3777	0.294766	5.16378	0.850179	2.3775	0.494913	8.69336	0.813822	14.2709	0.285285	5.45639	0.875792	2.65799	0.723736	12.6861
0.848881	2.37729	0.296736	5.10914	0.847666	2.37709	0.496513	8.57149	0.813024	14.0121	0.287249	5.39125	0.874341	2.66163	0.725352	12.4962
0.846371	2.37689	0.298705	5.05633	0.84516	2.3767	0.498114	8.45377	0.812242	13.7624	0.289216	5.32855	0.872913	2.66537	0.726966	12.3127
0.843868	2.37651	0.300672	5.00523	0.84266	2.37633	0.499715	8.33998	0.811477	13.5213	0.291185	5.26815	0.871509	2.6692	0.728579	12.1353
0.841372	2.37614	0.302636	4.95576	0.840167	2.37597	0.501318	8.22991	0.810728	13.2883	0.293155	5.2099	0.870127	2.67312	0.730188	11.9637
0.838883	2.37579	0.304597	4.90783	0.837682	2.37563	0.50292	8.12339	0.809997	13.063	0.295125	5.15369	0.868766	2.67713	0.731795	11.7975
0.836402	2.37547	0.306554	4.86134	0.835204	2.37532	0.504522	8.02023	0.809283	12.8452	0.297095	5.09939	0.867426	2.68123	0.733399	11.6365
0.833928	2.37516	0.308506	4.81622	0.832734	2.37502	0.506122	7.92027	0.808587	12.6344	0.299063	5.0469	0.866106	2.68542	0.735	11.4805
0.831461	2.37487	0.310452	4.77239	0.830271	2.37474	0.507721	7.82335	0.807908	12.4303	0.30103	4.99611	0.864804	2.68969	0.736597	11.3291
0.829003	2.37461	0.312392	4.72979	0.827817	2.37449	0.509318	7.72933	0.807248	12.2327	0.302994	4.94693	0.86352	2.69404	0.73819	11.1823
0.826553	2.37436	0.314324	4.68835	0.825371	2.37425	0.510912	7.63806	0.806607	12.0413	0.304954	4.89926	0.862254	2.69848	0.739779	11.0398
0.824111	2.37414	0.316249	4.64801	0.822933	2.37404	0.512298	7.56068	0.805985	11.8557	0.30691	4.85302	0.861005	2.70299	0.741364	10.9015
0.821678	2.37394	0.318166	4.60871	0.820504	2.37386	0.513478	7.49624	0.805382	11.6758	0.30886	4.80814	0.859772	2.70759	0.742944	10.767
0.819254	2.37377	0.320073	4.5704	0.818085	2.3737	0.514452	7.44396	0.804799	11.5012	0.310805	4.76455	0.858554	2.71226	0.744518	10.6363
0.816839	2.37362	0.321971	4.53302	0.815674	2.37356	0.515221	7.40326	0.804236	11.3319	0.312744	4.72216	0.857352	2.71701	0.746088	10.5092
0.814433	2.3735	0.323857	4.49653	0.813273	2.37345	0.515786	7.37369	0.803693	11.1675	0.314675	4.68093	0.856164	2.72184	0.747651	10.3855
0.812037	2.37341	0.325733	4.46089	0.810882	2.37337	0.516147	7.35491	0.803171	11.0079	0.316599	4.64078	0.85499	2.72674	0.749209	10.2651
0.809651	2.37334	0.327597	4.42604	0.808501	2.37332	0.516665	7.32813	0.80267	10.8529	0.318514	4.60166	0.85383	2.73171	0.750761	10.1479
0.807275	2.37331	0.329449	4.39196	0.80613	2.3733	0.517228	7.29929	0.80219	10.7023	0.320419	4.56353	0.852682	2.73677	0.752306	10.0337
0.804909	2.3733	0.331288	4.3586	0.803769	2.37331	0.517993	7.26051	0.801732	10.5559	0.322315	4.52631	0.851548	2.74189	0.753844	9.92237
0.802555	2.37333	0.333113	4.32592	0.801419	2.37335	0.518958	7.21219	0.801295	10.4136	0.3242	4.48998	0.850425	2.74709	0.755375	9.81387
0.800211	2.37339	0.334924	4.2939	0.799081	2.37343	0.520123	7.1548	0.800881	10.2752	0.326074	4.45449	0.849315	2.75235	0.756899	9.70804
0.797878	2.37348	0.33672	4.26249	0.796753	2.37354	0.521485	7.08889	0.800489	10.1406	0.327935	4.41978	0.848216	2.75769	0.758416	9.60479
0.795556	2.37361	0.338501	4.23168	0.794438	2.37368	0.523041	7.01507	0.80012	10.0096	0.329785	4.38583	0.847128	2.7631	0.759924	9.50401
0.793246	2.37377	0.340266	4.20143	0.792133	2.37386	0.524591	6.94311	0.799775	9.88214	0.331621	4.3526	0.846051	2.76859	0.761425	9.40561
0.790948	2.37397	0.342014	4.17171	0.789841	2.37408	0.526134	6.87292	0.799452	9.75806	0.333444	4.32004	0.844985	2.77414	0.762917	9.3095
0.788662	2.37421	0.343746	4.14251	0.787561	2.37434	0.527668	6.80443	0.799154	9.63725	0.335252	4.28813	0.843929	2.77976	0.7644	9.2156
0.786389	2.37448	0.34546	4.11379	0.785294	2.37463	0.529195	6.73758	0.798879	9.5196	0.337045	4.25684	0.842883	2.78546	0.765874	9.12381
0.784128	2.3748	0.347156	4.08553	0.783039	2.37496	0.530712	6.67229	0.798629	9.40499	0.338823	4.22613	0.841847	2.79122	0.76734	9.03407
0.78188	2.37515	0.348834	4.05772	0.780797	2.37534	0.532221	6.6085	0.798403	9.29333	0.340585	4.19598	0.84082	2.79705	0.768795	8.9463
0.779645	2.37555	0.350494	4.03033	0.778569	2.37576	0.53372	6.54616	0.798202	9.18451	0.34233	4.16636	0.839803	2.80295	0.770241	8.86043
0.777423	2.37599	0.352134	4.00334	0.776354	2.37622	0.535209	6.4852	0.798027	9.07844	0.344059	4.13724	0.838794	2.80892	0.771677	8.77639
0.775215	2.37648	0.353755	3.97673	0.774152	2.37673	0.536688	6.42557	0.797877	8.97504	0.34577	4.10861	0.837794	2.81497	0.773103	8.69412
0.77302	2.37701	0.355357	3.9505	0.771964	2.37728	0.538156	6.36722	0.797752	8.87421	0.347463	4.08044	0.836803	2.82108	0.774518	8.61355
0.770839	2.37758	0.356938	3.92462	0.76979	2.37788	0.539614	6.3101	0.797654	8.77588	0.349138	4.0527	0.835819	2.82725	0.775922	8.53463
0.768672	2.37821	0.358499	3.89909	0.76763	2.37852	0.541059	6.25416	0.797581	8.67997	0.350794	4.02538	0.834844	2.8335	0.777315	8.4573
0.76652	2.37888	0.360039	3.87387	0.765484	2.37922	0.542493	6.19935	0.797535	8.58639	0.352431	3.99847	0.833877	2.83982	0.778697	8.38151
0.764381	2.3796	0.361559	3.84898	0.763352	2.37996	0.543914	6.14565	0.797516	8.49509	0.354048	3.97193	0.832917	2.84621	0.780068	8.3072
0.762257	2.38036	0.363057	3.82438	0.761235	2.38075	0.545323	6.093	0.797523	8.40598	0.355646	3.94577	0.831965	2.85266	0.781427	8.23433
0.760148	2.38118	0.364535	3.80007	0.759132	2.3816	0.546719	6.04136	0.797558	8.31901	0.357223	3.91995	0.83102	2.85918	0.782773	8.16285
0.758053	2.38205	0.365991	3.77605	0.757045	2.38249	0.548102	5.99071	0.79762	8.23411	0.358781	3.89447	0.830081	2.86578	0.784108	8.09271
0.755972	2.38297	0.367427	3.7523	0.754971	2.38344	0.549471	5.94099	0.797709	8.15122	0.360317	3.86932	0.82915	2.87244	0.78543	8.02387
0.753907	2.38395	0.368841	3.72881	0.752913	2.38444	0.550826	5.89219	0.797825	8.07027	0.361833	3.84448	0.828225	2.87917	0.786572	7.96491
0.751856	2.38498	0.370234	3.70558	0.75087	2.38549	0.552167	5.84427	0.79795	8.00128	0.363328	3.81993	0.827307	2.88597	0.787538	7.91539
0.74982	2.38606	0.371605	3.6826	0.748841	2.3866	0.553494	5.7972	0.798072	7.94358	0.364802	3.79568	0.826395	2.89284	0.788332	7.87494
0.747799	2.38719	0.372956	3.65985	0.746827	2.38776	0.554806	5.75094	0.798185	7.89661	0.366254	3.77171	0.825488	2.89978	0.788956	7.84326
0.745793	2.38838	0.374285	3.63735	0.744828	2.38898	0.556103	5.70548	0.798282	7.85995	0.367686	3.748	0.824588	2.90678	0.789412	7.82015
0.743802	2.38963	0.375594	3.61508	0.742844	2.39025	0.557384	5.66078	0.798358	7.83326	0.369096	3.72456	0.823693	2.91386	0.789704	7.80543
0.741825	2.39093	0.376882	3.59303	0.740875	2.39158	0.55865	5.61682	0.798408	7.81629	0.370485	3.70138	0.822804	2.92101	0.790121	7.78438
0.739864	2.39228	0.37815	3.57121	0.73892	2.39296	0.559901	5.57358	0.798482	7.79206	0.371853	3.67844	0.821919	2.92822	0.790574	7.76164
0.737917	2.3937	0.379398	3.5496	0.73698	2.3944	0.561135	5.53103	0.798567	7.76592	0.373199	3.65574	0.82104	2.9355	0.791186	7.73093
0.735984	2.39517	0.380626	3.52821	0.735055	2.3959	0.562354	5.48914	0.798688	7.73073	0.374525	3.63328	0.820165	2.94286	0.791957	7.69247
0.734066	2.3967	0.381834	3.50703	0.733144	2.39745	0.563556	5.44791	0.79885	7.68678	0.37583	3.61105	0.819295	2.95028	0.792881	7.64649
0.732163	2.39828	0.383024	3.48607	0.731248	2.39907	0.564741	5.40731	0.799061	7.63445	0.377115	3.58904	0.81843	2.95777	0.793956	7.5933
0.730274	2.39992	0.384194	3.46531	0.729365	2.40074	0.565911	5.36732	0.799328	7.57419	0.378379	3.56726	0.817568	2.96533	0.795177	7.53322
0.728399	2.40162	0.385347	3.44475	0.727497	2.40246	0.567063	5.32792	0.79966	7.50649	0.379623	3.54569	0.81671	2.97296	0.796384	7.47412
0.726538	2.40338	0.386481	3.42441	0.725643	2.40425	0.568199	5.28909	0.800021	7.44032	0.380847	3.52434	0.815856	2.98066	0.797577	7.416
0.724691	2.40519	0.387598	3.40426	0.723802	2.40609	0.569318	5.25083	0.800411	7.37562	0.382052	3.5032	0.815006	2.98843	0.798755	7.35881
0.722857	2.40706	0.388699	3.38432	0.721975	2.40799	0.57042	5.2131	0.800828	7.31235	0.383238	3.48227	0.814158	2.99626	0.79992	7.30253
0.721037	2.40899	0.389783	3.36458	0.720162	2.40995	0.571505	5.17591	0.801274	7.25048	0.384405	3.46155	0.813314	3.00417	0.80107	7.24713
0.719231	2.41098	0.390851	3.34504	0.718361	2.41196	0.572574	5.13922	0.801748	7.18997	0.385554	3.44103	0.812472	3.01214	0.802206	7.1926
0.717437	2.41302	0.391904	3.3257	0.716574	2.41403	0.573625	5.10304	0.802251	7.13078	0.386686	3.42072	0.811633	3.02018	0.803328	7.1389
0.715656	2.41513	0.392942	3.30657	0.714799	2.41616	0.574659	5.06734	0.802781	7.07288	0.3878	3.40062	0.810796	3.02829	0.804435	7.08602
0.713888	2.41728	0.393967	3.28763	0.713037	2.41835	0.575677	5.03211	0.80334	7.01623	0.388897	3.38071	0.809961	3.03647	0.805528	7.03393
0.712132	2.4195	0.394978	3.2689	0.711287	2.42059	0.576677	4.99735	0.803926	6.9608	0.389978	3.36101	0.809128	3.04471	0.806606	6.98261
0.710388	2.42177	0.395976	3.25036	0.709549	2.42289	0.577661	4.96304	0.80454	6.90655	0.391044	3.34151	0.808296	3.05302	0.80767	6.93205
0.708656	2.4241	0.396961	3.23203	0.707823	2.42524	0.578628	4.92917	0.805181	6.85346	0.392094	3.32221	0.807465	3.0614	0.808719	6.88222
0.706936	2.42648	0.397936	3.2139	0.706108	2.42765	0.579579	4.89573	0.80585	6.80149	0.39313	3.30311	0.806635	3.06985	0.809754	6.83311
0.705227	2.42892	0.398899	3.19597	0.704404	2.43011	0.580513	4.8627	0.806546	6.75061	0.394152	3.28421	0.805806	3.07836	0.810774	6.7847
0.703529	2.43141	0.399852	3.17824	0.702712	2.43263	0.581431	4.83009	0.807269	6.7008	0.39516	3.26551	0.804977	3.08694	0.81178	6.73696
0.701842	2.43396	0.400795	3.16072	0.701029	2.43521	0.582333	4.79789	0.808018	6.65202	0.396156	3.24701	0.804148	3.09559	0.812772	6.6899
0.700165	2.43656	0.401729	3.14339	0.699357	2.43783	0.583219	4.76607	0.808794	6.60425	0.39714	3.22872	0.803319	3.1043	0.81375	6.64348
0.698498	2.43921	0.402655	3.12627	0.697695	2.44051	0.584089	4.73465	0.809595	6.55747	0.398112	3.21062	0.802488	3.11307	0.814714	6.5977
0.696841	2.44192	0.403573	3.10935	0.696043	2.44324	0.584943	4.7036	0.810423	6.51164	0.399073	3.19273	0.801657	3.12191	0.815664	6.55254
0.695193	2.44468	0.404483	3.09264	0.694399	2.44603	0.585783	4.67292	0.811276	6.46674	0.400024	3.17504	0.800825	3.13081	0.8166	6.50799
0.693554	2.44749	0.405388	3.07612	0.692765	2.44886	0.586607	4.64261	0.812154	6.42275	0.400966	3.15755	0.79999	3.13977	0.817523	6.46404
0.691924	2.45035	0.406286	3.05981	0.691139	2.45175	0.587417	4.61266	0.813057	6.37964	0.401898	3.14026	0.799154	3.1488	0.818433	6.42066
0.690303	2.45326	0.407179	3.04371	0.689521	2.45468	0.588212	4.58306	0.813985	6.33739	0.402822	3.12318	0.798315	3.15789	0.819329	6.37786
0.688689	2.45622	0.408067	3.0278	0.687912	2.45767	0.588993	4.5538	0.814936	6.29597	0.403739	3.10629	0.797473	3.16703	0.820213	6.33561
0.687083	2.45923	0.408951	3.0121	0.686309	2.4607	0.58976	4.52489	0.815912	6.25537	0.404649	3.08962	0.796628	3.17624	0.821084	6.29392
0.685484	2.46228	0.409832	2.99661	0.684713	2.46377	0.590514	4.49631	0.81691	6.21556	0.405552	3.07314	0.795779	3.18551	0.821942	6.25276
0.683892	2.46538	0.41071	2.98131	0.683124	2.4669	0.591254	4.46806	0.817931	6.17653	0.406449	3.05687	0.794926	3.19483	0.822789	6.21213
0.682306	2.46853	0.411585	2.96622	0.681542	2.47007	0.591982	4.44014	0.818975	6.13824	0.407341	3.0408	0.794069	3.20422	0.823623	6.17202
0.680726	2.47172	0.412459	2.95133	0.679964	2.47328	0.592697	4.41254	0.82004	6.10068	0.408228	3.02493	0.793207	3.21365	0.824446	6.13241
0.679152	2.47495	0.413331	2.93664	0.678392	2.47653	0.593399	4.38525	0.821127	6.06383	0.409112	3.00927	0.792339	3.22314	0.825258	6.09331
0.677582	2.47823	0.414202	2.92215	0.676825	2.47983	0.59409	4.35828	0.822235	6.02768	0.409992	2.99381	0.791466	3.23269	0.82606	6.0547
0.676017	2.48154	0.415074	2.90787	0.675262	2.48316	0.59477	4.33161	0.823364	5.9922	0.410869	2.97855	0.790586	3.24229	0.82685	6.01657
0.674456	2.4849	0.415945	2.89378	0.673702	2.48654	0.595439	4.30525	0.824512	5.95737	0.411744	2.9635	0.7897	3.25193	0.827631	5.97892
0.672898	2.48829	0.416817	2.87989	0.672146	2.48994	0.596097	4.27919	0.82568	5.92319	0.412617	2.94864	0.788806	3.26163	0.828402	5.94174
0.671343	2.49172	0.417691	2.86621	0.670592	2.49339	0.596745	4.25343	0.826867	5.88962	0.413489	2.93399	0.787905	3.27138	0.829164	5.90502
0.669791	2.49518	0.418566	2.85271	0.66904	2.49687	0.597383	4.22796	0.828073	5.85666	0.414361	2.91954	0.786996	3.28117	0.829917	5.86875
0.66824	2.49867	0.419444	2.83942	0.66749	2.50037	0.598011	4.20279	0.829296	5.82428	0.415232	2.90529	0.786077	3.29101	0.830662	5.83293
0.66669	2.5022	0.420324	2.82632	0.665941	2.50391	0.598631	4.1779	0.830537	5.79248	0.416104	2.89124	0.78515	3.30089	0.831399	5.79756
0.665141	2.50575	0.421207	2.81342	0.664391	2.50748	0.599242	4.15329	0.831795	5.76123	0.416976	2.87739	0.784212	3.31081	0.832129	5.76262
0.663591	2.50933	0.422094	2.80071	0.662841	2.51107	0.599845	4.12896	0.83307	5.73052	0.41785	2.86373	0.783265	3.32078	0.832851	5.72812
0.662041	2.51293	0.422985	2.78819	0.66129	2.51468	0.60044	4.10492	0.83436	5.70034	0.418726	2.85028	0.782306	3.33078	0.833567	5.69403
0.660489	2.51655	0.42388	2.77587	0.659737	2.51831	0.601028	4.08115	0.835666	5.67068	0.419604	2.83702	0.781336	3.34082	0.834277	5.66037
0.658935	2.5202	0.42478	2.76373	0.658182	2.52196	0.601609	4.05765	0.836986	5.64151	0.420485	2.82396	0.780354	3.35089	0.834982	5.62713
0.657377	2.52385	0.425685	2.75179	0.656623	2.52563	0.602184	4.03442	0.83832	5.61282	0.421368	2.81109	0.77936	3.36099	0.835682	5.5943
0.655816	2.52753	0.426595	2.74003	0.65506	2.52931	0.602752	4.01146	0.839669	5.5846	0.422256	2.79842	0.778352	3.37113	0.836378	5.56187
0.65425	2.53121	0.427512	2.72847	0.653491	2.53299	0.603316	3.98877	0.84103	5.55685	0.423147	2.78594	0.777331	3.38129	0.83707	5.52984
0.652679	2.5349	0.428435	2.71708	0.651917	2.53668	0.603873	3.96634	0.842404	5.52954	0.424043	2.77365	0.776296	3.39148	0.837759	5.49821
0.651102	2.53859	0.429364	2.70588	0.650337	2.54038	0.604427	3.94417	0.84379	5.50266	0.424944	2.76155	0.775246	3.4017	0.838445	5.46698
0.649518	2.54229	0.4303	2.69487	0.648749	2.54408	0.604976	3.92226	0.845187	5.4762	0.42585	2.74964	0.77418	3.41193	0.839129	5.43614
0.647926	2.54598	0.431244	2.68404	0.647152	2.54777	0.605521	3.90061	0.846596	5.45015	0.426762	2.73791	0.773099	3.42219	0.839812	5.40568
0.646325	2.54967	0.432195	2.67338	0.645547	2.55145	0.606062	3.8792	0.848015	5.4245	0.427679	2.72638	0.772002	3.43247	0.840494	5.37561
0.644714	2.55335	0.433155	2.66291	0.643931	2.55512	0.606601	3.85806	0.849443	5.39924	0.428603	2.71503	0.770887	3.44276	0.841176	5.34592
0.643093	2.55701	0.434122	2.65262	0.642304	2.55878	0.607137	3.83716	0.850881	5.37435	0.429534	2.70386	0.769755	3.45306	0.841859	5.3166
0.64146	2.56066	0.435099	2.6425	0.640666	2.56242	0.60767	3.8165	0.852327	5.34983	0.430471	2.69288	0.768605	3.46338	0.842543	5.28766
0.639815	2.56429	0.436084	2.63256	0.639015	2.56604	0.608202	3.7961	0.853782	5.32567	0.431416	2.68208	0.767437	3.4737	0.843228	5.25909
0.638157	2.5679	0.437079	2.6228	0.63735	2.56963	0.608733	3.77594	0.855244	5.30185	0.432369	2.67146	0.766249	3.48404	0.843916	5.23088
0.636484	2.57147	0.438083	2.61321	0.63567	2.57319	0.609262	3.75602	0.856713	5.27837	0.43333	2.66102	0.765043	3.49437	0.844608	5.20305
0.634797	2.57502	0.439098	2.60379	0.633976	2.57672	0.609791	3.73633	0.858188	5.25521	0.434299	2.65076	0.763816	3.50472	0.845303	5.17557
0.633094	2.57853	0.440123	2.59454	0.632265	2.58022	0.61032	3.71689	0.85967	5.23237	0.435277	2.64068	0.762569	3.51506	0.846002	5.14846
0.631375	2.582	0.441159	2.58547	0.630538	2.58367	0.610849	3.69768	0.861157	5.20983	0.436264	2.63077	0.761301	3.5254	0.846707	5.1217
0.629639	2.58543	0.442207	2.57657	0.628793	2.58708	0.611379	3.67871	0.862649	5.1876	0.437261	2.62104	0.760012	3.53574	0.847418	5.09531
0.627884	2.58882	0.443266	2.56784	0.627029	2.59044	0.61191	3.65997	0.864145	5.16566	0.438267	2.61148	0.758702	3.54608	0.848136	5.06926
0.626111	2.59215	0.444337	2.55928	0.625247	2.59375	0.612442	3.64146	0.865645	5.14399	0.439284	2.60209	0.75737	3.55641	0.848861	5.04357
0.624319	2.59544	0.445421	2.55089	0.623446	2.597	0.612976	3.62317	0.867148	5.12261	0.440311	2.59288	0.756016	3.56673	0.849594	5.01823
0.622508	2.59866	0.446519	2.54267	0.621624	2.6002	0.613512	3.60512	0.868654	5.10149	0.441349	2.58384	0.75464	3.57705	0.850336	4.99323
0.620676	2.60184	0.44763	2.53462	0.619783	2.60335	0.61405	3.58729	0.870162	5.08062	0.442399	2.57497	0.753241	3.58735	0.851087	4.96858
0.618823	2.60495	0.448756	2.52675	0.61792	2.60643	0.614592	3.56968	0.871672	5.06001	0.44346	2.56627	0.751819	3.59765	0.851849	4.94428
0.61695	2.608	0.449897	2.51905	0.616037	2.60945	0.615137	3.5523	0.873183	5.03964	0.444533	2.55774	0.750375	3.60793	0.852621	4.92032
0.615056	2.61098	0.451055	2.51152	0.614133	2.6124	0.615685	3.53513	0.874694	5.01951	0.44562	2.54938	0.748907	3.6182	0.853406	4.8967
0.613141	2.6139	0.452231	2.50418	0.612207	2.61529	0.616238	3.51818	0.876206	4.99961	0.44672	2.54119	0.747416	3.62846	0.854203	4.87342
0.611204	2.61676	0.453425	2.49702	0.61026	2.61812	0.616795	3.50145	0.877717	4.97993	0.447834	2.53317	0.745902	3.63871	0.855013	4.85048
0.609246	2.61955	0.454639	2.49004	0.608292	2.62087	0.617357	3.48494	0.879227	4.96047	0.448963	2.52533	0.744365	3.64894	0.855837	4.82788
0.607267	2.62227	0.455874	2.48327	0.606302	2.62356	0.617924	3.46864	0.880736	4.94122	0.450107	2.51766	0.742805	3.65916	0.856676	4.80561
0.605267	2.62492	0.457134	2.47669	0.604292	2.62618	0.618497	3.45255	0.882244	4.92217	0.451268	2.51017	0.741222	3.66936	0.857531	4.78368
0.603245	2.6275	0.458419	2.47032	0.60226	2.62873	0.619075	3.43667	0.883748	4.90331	0.452447	2.50286	0.739616	3.67955	0.858401	4.76207
0.601203	2.63002	0.459733	2.46418	0.600208	2.63121	0.61966	3.421	0.88525	4.88465	0.453644	2.49573	0.737988	3.68974	0.859289	4.7408
0.599141	2.63247	0.46108	2.45827	0.598136	2.63363	0.620251	3.40554	0.886749	4.86618	0.454862	2.4888	0.736337	3.6999	0.860194	4.71986
0.597058	2.63485	0.462463	2.45262	0.596044	2.63597	0.620849	3.39028	0.888244	4.84789	0.456102	2.48205	0.734663	3.71006	0.861118	4.69925
0.594956	2.63716	0.463886	2.44724	0.593933	2.63826	0.621455	3.37523	0.889735	4.82977	0.457366	2.47551	0.732968	3.72021	0.862061	4.67896
0.592835	2.63941	0.465356	2.44216	0.591802	2.64048	0.622068	3.36038	0.891221	4.81182	0.458656	2.46919	0.73125	3.73036	0.863023	4.659
0.590695	2.6416	0.466879	2.43741	0.589653	2.64263	0.62269	3.34574	0.892702	4.79403	0.459976	2.46309	0.729512	3.74049	0.864006	4.63936
0.588537	2.64372	0.468461	2.43302	0.587486	2.64473	0.62332	3.3313	0.894177	4.77641	0.461329	2.45722	0.727752	3.75062	0.86501	4.62004
0.58636	2.64578	0.469894	2.42952	0.585302	2.64676	0.623959	3.31705	0.895646	4.75893	0.462718	2.45162	0.725972	3.76075	0.866036	4.60104
0.584167	2.64779	0.47116	2.42678	0.583101	2.64874	0.624607	3.30301	0.897109	4.74161	0.46415	2.44629	0.724171	3.77088	0.867085	4.58237
0.581957	2.64973	0.47224	2.4247	0.580883	2.65065	0.625265	3.28916	0.898565	4.72444	0.465629	2.44127	0.722351	3.78101	0.868156	4.564
0.579732	2.65162	0.473116	2.42317	0.578649	2.65252	0.625932	3.27551	0.900014	4.7074	0.467162	2.43659	0.720511	3.79115	0.869251	4.54596
0.57749	2.65346	0.473772	2.42212	0.576401	2.65433	0.62661	3.26206	0.901455	4.6905	0.468756	2.43226	0.718653	3.80129	0.870371	4.52822
0.575234	2.65524	0.474198	2.42149	0.574137	2.65609	0.627299	3.2488	0.902888	4.67374	0.470418	2.42834	0.716776	3.81145	0.871515	4.5108
0.572963	2.65698	0.474819	2.42061	0.57186	2.6578	0.627999	3.23573	0.904312	4.6571	0.472157	2.42485	0.714882	3.82162	0.872684	4.49369
0.570678	2.65866	0.475505	2.41972	0.569569	2.65946	0.62871	3.22286	0.905728	4.64059	0.473978	2.42181	0.71297	3.8318	0.87388	4.47688
0.56838	2.6603	0.476455	2.4186	0.567265	2.66108	0.629434	3.21018	0.907135	4.6242	0.475886	2.41925	0.711043	3.84201	0.875101	4.46038
0.56607	2.6619	0.477688	2.41735	0.564948	2.66265	0.63017	3.19769	0.908532	4.60792	0.477884	2.41717	0.709099	3.85223	0.87635	4.44418
0.563747	2.66345	0.479224	2.41607	0.56262	2.66419	0.630918	3.18539	0.909919	4.59176	0.479972	2.41556	0.707139	3.86249	0.877625	4.42828
0.561413	2.66496	0.481086	2.4149	0.56028	2.66568	0.63168	3.17327	0.911296	4.57571	0.482144	2.41439	0.705165	3.87278	0.878928	4.41268
0.559067	2.66643	0.4833	2.41394	0.557929	2.66713	0.632456	3.16135	0.912662	4.55977	0.484395	2.41362	0.703177	3.8831	0.880258	4.39737
0.556711	2.66787	0.485589	2.41337	0.555567	2.66855	0.633246	3.14962	0.914018	4.54393	0.486717	2.41322	0.701176	3.89346	0.881617	4.38235
0.554344	2.66927	0.487945	2.41313	0.553196	2.66993	0.634051	3.13808	0.915362	4.52819	0.489102	2.41312	0.699161	3.90387	0.883004	4.36762
0.551968	2.67063	0.49036	2.41319	0.550815	2.67128	0.63487	3.12672	0.916695	4.51255	0.491542	2.4133	0.697135	3.91432	0.884419	4.35318
0.549582	2.67197	0.492824	2.41348	0.548425	2.6726	0.635706	3.11555	0.918017	4.49701	0.494027	2.4137	0.695097	3.92483	0.885863	4.33901
0.547187	2.67327	0.495331	2.41398	0.546026	2.67389	0.636557	3.10457	0.919326	4.48156	0.496552	2.41429	0.693048	3.93539	0.887336	4.32513
0.544784	2.67455	0.497873	2.41466	0.543619	2.67515	0.637425	3.09377	0.920623	4.46619	0.49911	2.41503	0.690989	3.94602	0.888838	4.31152
0.542373	2.67579	0.500447	2.41547	0.541204	2.67639	0.63831	3.08316	0.921908	4.45092	0.501696	2.4159	0.68892	3.95671	0.890369	4.29817
0.539954	2.67701	0.503045	2.41639	0.538782	2.67759	0.639213	3.07274	0.923181	4.43573	0.504306	2.41688	0.686843	3.96747	0.891929	4.2851
0.537528	2.67821	0.505666	2.41742	0.536352	2.67878	0.640134	3.06251	0.92444	4.42063	0.506936	2.41794	0.684757	3.97832	0.893517	4.27229
0.535095	2.67938	0.508305	2.41851	0.533915	2.67994	0.641074	3.05246	0.925687	4.40561	0.509582	2.41907	0.682664	3.98924	0.895135	4.25973
0.532655	2.68053	0.510959	2.41968	0.531472	2.68108	0.642033	3.0426	0.92692	4.39066	0.512244	2.42026	0.680564	4.00025	0.896781	4.24744
0.530208	2.68166	0.513627	2.42089	0.529023	2.6822	0.643012	3.03292	0.928141	4.3758	0.514917	2.42149	0.678458	4.01136	0.898455	4.23539
0.527756	2.68278	0.516306	2.42215	0.526568	2.68331	0.644012	3.02343	0.929348	4.36101	0.517601	2.42277	0.676347	4.02256	0.900158	4.22358
0.525298	2.68387	0.518995	2.42344	0.524107	2.68439	0.645033	3.01413	0.930541	4.3463	0.520294	2.42407	0.674231	4.03387	0.901889	4.21202
0.522835	2.68495	0.521692	2.42476	0.521641	2.68546	0.646076	3.00502	0.93172	4.33165	0.522995	2.4254	0.67211	4.04529	0.903648	4.20069
0.520366	2.68601	0.524397	2.4261	0.51917	2.68652	0.647141	2.99609	0.932886	4.31708	0.525703	2.42675	0.669987	4.05683	0.905434	4.1896
0.517892	2.68706	0.527108	2.42745	0.516694	2.68756	0.648229	2.98736	0.934039	4.30258	0.528417	2.42811	0.66786	4.06849	0.907248	4.17873
0.515414	2.68809	0.529825	2.42882	0.514214	2.68858	0.649341	2.97881	0.935177	4.28815	0.531136	2.42949	0.665731	4.08028	0.909088	4.16809
0.512931	2.68911	0.532546	2.4302	0.511729	2.6896	0.650478	2.97045	0.936301	4.27379	0.53386	2.43087	0.663601	4.09221	0.910954	4.15766
0.510445	2.69012	0.535272	2.43159	0.50924	2.6906	0.651639	2.96228	0.937412	4.25949	0.536587	2.43226	0.66147	4.10428	0.912847	4.14744
0.507954	2.69112	0.538002	2.43298	0.506748	2.6916	0.652826	2.9543	0.938509	4.24526	0.539319	2.43365	0.659339	4.11649	0.914765	4.13743
0.505459	2.69211	0.540734	2.43437	0.504251	2.69258	0.654039	2.9465	0.939591	4.2311	0.542053	2.43505	0.657209	4.12887	0.916709	4.12763
0.502961	2.69309	0.54347	2.43577	0.501752	2.69356	0.655279	2.9389	0.94066	4.217	0.54479	2.43644	0.65508	4.14141	0.918676	4.11802
0.50046	2.69406	0.546209	2.43716	0.499249	2.69453	0.656547	2.93149	0.941715	4.20296	0.54753	2.43783	0.652952	4.15412	0.920668	4.1086
0.497955	2.69503	0.54895	2.43855	0.496743	2.6955	0.657842	2.92427	0.942756	4.18899	0.550271	2.43922	0.650828	4.16701	0.922684	4.09938
0.495447	2.69599	0.551692	2.43994	0.494234	2.69646	0.659167	2.91724	0.943784	4.17507	0.553015	2.44061	0.648707	4.18008	0.924722	4.09033
0.492937	2.69695	0.554437	2.44133	0.491722	2.69741	0.66052	2.9104	0.944798	4.16122	0.55576	2.44199	0.646589	4.19335	0.926783	4.08147
0.490424	2.6979	0.557183	2.44271	0.489208	2.69836	0.661903	2.90375	0.945798	4.14744	0.558507	2.44337	0.644476	4.20682	0.928866	4.07278
0.487909	2.69885	0.559931	2.44408	0.486692	2.69931	0.663316	2.89729	0.946785	4.13371	0.561255	2.44474	0.642369	4.22051	0.93097	4.06425
0.485391	2.6998	0.562679	2.44545	0.484173	2.70026	0.664759	2.89102	0.947758	4.12004	0.564005	2.4461	0.640268	4.23441	0.933095	4.05589
0.482871	2.70075	0.565429	2.44681	0.481652	2.70121	0.666234	2.88494	0.948719	4.10644	0.566755	2.44746	0.638173	4.24854	0.93524	4.04769
0.48035	2.7017	0.56818	2.44816	0.479129	2.70215	0.667739	2.87904	0.949666	4.09289	0.569507	2.44881	0.636085	4.26291	0.937405	4.03965
0.477826	2.70264	0.570932	2.4495	0.476605	2.7031	0.669276	2.87332	0.9506	4.07941	0.572259	2.45015	0.634006	4.27753	0.939589	4.03175
0.475301	2.70359	0.573684	2.45084	0.474079	2.70405	0.670844	2.86779	0.951522	4.06598	0.575012	2.45148	0.631935	4.2924	0.941791	4.02401
0.472774	2.70454	0.576438	2.45217	0.471552	2.705	0.672444	2.86244	0.952431	4.05262	0.577765	2.4528	0.629874	4.30755	0.944011	4.0164
0.470246	2.7055	0.579191	2.45348	0.469023	2.70596	0.674075	2.85727	0.953328	4.03931	0.580519	2.45412	0.627823	4.32297	0.946248	4.00893
0.467717	2.70645	0.581945	2.45479	0.466493	2.70692	0.675738	2.85228	0.954212	4.02607	0.583273	2.45542	0.625783	4.33868	0.948502	4.00159
0.465187	2.70742	0.5847	2.45609	0.463963	2.70788	0.677432	2.84746	0.955085	4.01289	0.586028	2.45672	0.623755	4.35468	0.950772	3.99438
0.462655	2.70838	0.587455	2.45738	0.461431	2.70885	0.679157	2.84281	0.955946	3.99977	0.588782	2.458	0.621739	4.371	0.953057	3.9873
0.460123	2.70936	0.59021	2.45866	0.458899	2.70983	0.680913	2.83833	0.956795	3.98671	0.591538	2.45928	0.619736	4.38764	0.955357	3.98033
0.457591	2.71034	0.592965	2.45993	0.456366	2.71082	0.6827	2.83401	0.957633	3.97371	0.594293	2.46054	0.617746	4.40462	0.957671	3.97349
0.455057	2.71133	0.59572	2.46119	0.453832	2.71181	0.684517	2.82985	0.95846	3.96077	0.597048	2.4618	0.615771	4.42194	0.959999	3.96675
0.452524	2.71233	0.598475	2.46244	0.451298	2.71282	0.686363	2.82585	0.959276	3.94789	0.599803	2.46304	0.613812	4.43962	0.962341	3.96013
0.44999	2.71334	0.601231	2.46368	0.448764	2.71383	0.688238	2.82199	0.960081	3.93508	0.602559	2.46428	0.611868	4.45768	0.964694	3.95361
0.447456	2.71436	0.603986	2.46491	0.44623	2.71486	0.690142	2.81829	0.960876	3.92232	0.605314	2.4655	0.609941	4.47612	0.96706	3.94719
0.444921	2.7154	0.606741	2.46613	0.443696	2.7159	0.692074	2.81473	0.961661	3.90963	0.608069	2.46672	0.608032	4.49497	0.969437	3.94087
0.442388	2.71645	0.609496	2.46734	0.441162	2.71696	0.694032	2.81131	0.962437	3.897	0.610824	2.46792	0.606141	4.51422	0.971825	3.93465
0.439854	2.71751	0.612251	2.46854	0.438629	2.71803	0.696017	2.80802	0.963202	3.88444	0.613579	2.46912	0.604268	4.53391	0.974223	3.92852
0.437321	2.71859	0.615006	2.46973	0.436096	2.71911	0.698027	2.80486	0.963959	3.87193	0.616333	2.4703	0.602416	4.55405	0.976631	3.92247
0.434788	2.71968	0.61776	2.47091	0.433563	2.72022	0.700063	2.80182	0.964706	3.85949	0.619087	2.47147	0.600584	4.57464	0.979048	3.91651
0.432256	2.72079	0.620514	2.47208	0.431032	2.72134	0.702122	2.7989	0.965444	3.84712	0.621841	2.47263	0.598773	4.59572	0.981474	3.91063
0.429725	2.72193	0.623268	2.47323	0.428501	2.72248	0.704204	2.7961	0.966174	3.83481	0.624595	2.47379	0.596985	4.61729	0.983907	3.90483
0.427194	2.72308	0.626021	2.47438	0.425971	2.72365	0.706308	2.79341	0.966896	3.82256	0.627348	2.47493	0.595219	4.63937	0.986348	3.89911
0.424665	2.72426	0.628774	2.47551	0.423443	2.72483	0.708434	2.79083	0.96761	3.81038	0.630101	2.47606	0.593477	4.66199	0.988797	3.89346
0.422138	2.72545	0.631526	2.47664	0.420916	2.72604	0.710581	2.78834	0.968316	3.79826	0.632853	2.47718	0.591759	4.68515	0.991251	3.88787
0.419611	2.72668	0.634278	2.47775	0.41839	2.72728	0.712747	2.78595	0.969015	3.78621	0.635604	2.47828	0.590067	4.70888	0.993712	3.88236
0.417087	2.72793	0.63703	2.47885	0.415866	2.72854	0.714932	2.78366	0.969707	3.77422	0.638356	2.47938	0.5884	4.7332	0.996177	3.87691
0.414564	2.72921	0.63978	2.47995	0.413345	2.72984	0.717136	2.78145	0.970391	3.7623	0.641106	2.48047	0.58676	4.75813	0.998648	3.87151
0.412043	2.73052	0.642531	2.48103	0.410825	2.73116	0.719357	2.77933	0.97107	3.75045	0.643856	2.48155	0.585147	4.78369	1.00112	3.86618
0.409525	2.73186	0.64528	2.4821	0.408307	2.73252	0.721594	2.77728	0.971742	3.73866	0.646606	2.48261	0.583562	4.8099		
0.407008	2.73323	0.648029	2.48316	0.405792	2.73391	0.723848	2.77532	0.972407	3.72694	0.649354	2.48367	0.582007	4.83679		
0.404495	2.73464	0.650778	2.48421	0.40328	2.73534	0.726116	2.77342	0.973068	3.71529	0.652102	2.48471	0.58048	4.86437		
0.401984	2.73609	0.653525	2.48525	0.40077	2.73681	0.728399	2.7716	0.973722	3.70371	0.654849	2.48575	0.578984	4.89267		
0.399476	2.73758	0.656272	2.48628	0.398264	2.73832	0.730696	2.76984	0.974372	3.69219	0.657596	2.48677	0.577519	4.92172		
0.396971	2.73911	0.659018	2.4873	0.395761	2.73987	0.733006	2.76815	0.975016	3.68074	0.660342	2.48778	0.576086	4.95153		
0.39447	2.74069	0.661763	2.4883	0.393262	2.74147	0.735329	2.76651	0.975656	3.66936	0.663086	2.48878	0.574685	4.98214		
0.391972	2.74232	0.664508	2.4893	0.390766	2.74312	0.737663	2.76494	0.976291	3.65804	0.66583	2.48978	0.573317	5.01357		
0.389479	2.74399	0.667251	2.49028	0.388274	2.74482	0.740009	2.76341	0.976922	3.6468	0.668573	2.49076	0.571982	5.04585		
0.38699	2.74572	0.669994	2.49126	0.385787	2.74658	0.742366	2.76194	0.97755	3.63562	0.671315	2.49173	0.570681	5.079		
0.384505	2.74751	0.672735	2.49222	0.383305	2.7484	0.744733	2.76052	0.978173	3.62451	0.674056	2.49268	0.569415	5.11306		
0.382025	2.74936	0.675476	2.49318	0.380828	2.75027	0.74711	2.75914	0.978793	3.61348	0.676796	2.49363	0.568185	5.14805		
0.379551	2.75127	0.678215	2.49412	0.378356	2.75222	0.749496	2.75781	0.97941	3.60251	0.679535	2.49457	0.56699	5.18401		
0.377082	2.75325	0.680953	2.49505	0.37589	2.75424	0.75189	2.75652	0.980024	3.59161	0.682273	2.49549	0.565831	5.22096		
0.374619	2.75531	0.683691	2.49597	0.37343	2.75633	0.754294	2.75527	0.980636	3.58078	0.68501	2.49641	0.564709	5.25893		
0.372162	2.75744	0.686427	2.49688	0.370976	2.7585	0.756705	2.75405	0.981245	3.57002	0.687745	2.49731	0.563624	5.29797		
0.369712	2.75965	0.689161	2.49778	0.36853	2.76075	0.759124	2.75288	0.981851	3.55933	0.690479	2.49821	0.562576	5.3381		
0.36727	2.76195	0.691895	2.49866	0.366091	2.7631	0.76155	2.75174	0.982456	3.54871	0.693212	2.49909	0.561566	5.37936		
0.364835	2.76435	0.694627	2.49954	0.36366	2.76554	0.763982	2.75063	0.983059	3.53815	0.695944	2.49996	0.560594	5.42178		
0.362408	2.76684	0.697358	2.50041	0.361237	2.76808	0.766422	2.74955	0.983661	3.52767	0.698674	2.50082	0.55966	5.4654		
0.35999	2.76944	0.700087	2.50126	0.358824	2.77074	0.768867	2.7485	0.984261	3.51726	0.701402	2.50167	0.558765	5.51025		
0.357581	2.77215	0.702815	2.5021	0.35642	2.7735	0.771318	2.74748	0.98486	3.50692	0.704129	2.5025	0.557909	5.55639		
0.355182	2.77498	0.705541	2.50293	0.354026	2.7764	0.773775	2.74649	0.985459	3.49665	0.706855	2.50333	0.557092	5.60384		
0.352794	2.77794	0.708266	2.50375	0.351643	2.77942	0.776237	2.74552	0.986056	3.48645	0.709579	2.50414	0.556314	5.65264		
0.350417	2.78104	0.710989	2.50456	0.349272	2.78258	0.778704	2.74458	0.986654	3.47632	0.712301	2.50494	0.555575	5.70285		
0.348052	2.78428	0.71371	2.50535	0.346913	2.7859	0.781176	2.74366	0.987251	3.46626	0.715021	2.50573	0.554875	5.7545		
0.3457	2.78767	0.71643	2.50614	0.344568	2.78937	0.783652	2.74276	0.987848	3.45627	0.71774	2.50651	0.554214	5.80764		
0.343362	2.79123	0.719147	2.50691	0.342236	2.79302	0.786132	2.74188	0.988445	3.44635	0.720457	2.50728	0.553593	5.86231		
0.341038	2.79497	0.721863	2.50767	0.33992	2.79685	0.788616	2.74102	0.989043	3.4365	0.723171	2.50803	0.553011	5.91857		
0.33873	2.7989	0.724577	2.50842	0.337619	2.80088	0.791104	2.74018	0.989641	3.42672	0.725884	2.50877	0.552467	5.97647		
0.336438	2.80304	0.727288	2.50915	0.335336	2.80511	0.793596	2.73936	0.99024	3.41701	0.728594	2.5095	0.551963	6.03605		
0.334164	2.80739	0.729997	2.50987	0.333071	2.80958	0.796091	2.73856	0.99084	3.40737	0.731302	2.51022	0.551497	6.09736		
0.331909	2.81197	0.732704	2.51058	0.330825	2.81428	0.798589	2.73777	0.991441	3.39779	0.734008	2.51092	0.55107	6.16048		
0.329674	2.81681	0.735409	2.51128	0.3286	2.81924	0.801089	2.737	0.992044	3.38829	0.736711	2.51161	0.550681	6.22545		
0.32746	2.82191	0.73811	2.51196	0.326398	2.82448	0.803593	2.73624	0.992648	3.37886	0.739412	2.51229	0.55033	6.29234		
0.325269	2.82729	0.74081	2.51263	0.324218	2.83001	0.806099	2.7355	0.993253	3.3695	0.74211	2.51295	0.550017	6.3612		
0.323102	2.83299	0.743506	2.51329	0.322064	2.83586	0.808608	2.73477	0.993861	3.36021	0.744805	2.5136	0.549741	6.4321		
0.320961	2.83901	0.7462	2.51393	0.319936	2.84204	0.811118	2.73405	0.994471	3.35098	0.747497	2.51423	0.549502	6.50512		
0.318848	2.84538	0.748891	2.51455	0.317836	2.84859	0.813631	2.73334	0.995083	3.34183	0.750186	2.51485	0.5493	6.58032		
0.316763	2.85213	0.751578	2.51517	0.315766	2.85553	0.816146	2.73265	0.995697	3.33275	0.752872	2.51546	0.549135	6.65778		
0.314709	2.85928	0.754262	2.51576	0.313727	2.86289	0.818663	2.73196	0.996314	3.32373	0.755555	2.51605	0.549005	6.73757		
0.312688	2.86686	0.756943	2.51635	0.311723	2.87068	0.821181	2.73129	0.996934	3.31478	0.758234	2.51662	0.548911	6.81978		
0.310701	2.87489	0.75962	2.51691	0.309753	2.87895	0.8237	2.73062	0.997557	3.30591	0.760909	2.51718	0.548853	6.90449		
0.30875	2.88342	0.762293	2.51746	0.307821	2.88772	0.826221	2.72996	0.998183	3.2971	0.763581	2.51772	0.548828	6.99179		
0.306838	2.89246	0.764963	2.51799	0.305927	2.89703	0.828744	2.72932	0.998812	3.28836	0.766248	2.51824	0.548838	7.08178		
0.304966	2.90206	0.767628	2.51851	0.304075	2.90691	0.831267	2.72868	0.999444	3.27968	0.768911	2.51875	0.548875	7.16246		
0.303136	2.91225	0.770288	2.51901	0.302266	2.9174	0.833791	2.72804	1.00008	3.27108	0.771569	2.51924	0.548926	7.23296		
0.30135	2.92306	0.772944	2.51948	0.300502	2.92852	0.836316	2.72742			0.774223	2.51971	0.548981	7.29249		
0.299609	2.93453	0.775595	2.51994	0.298785	2.94033	0.838842	2.72679			0.776871	2.52016	0.549034	7.34036		
0.297917	2.9467	0.778241	2.52038	0.297116	2.95285	0.841368	2.72618			0.779514	2.52059	0.549078	7.37603		
0.296274	2.95961	0.780881	2.5208	0.295497	2.96612	0.843894	2.72557			0.782152	2.521	0.549122	7.40919		
0.294682	2.97329	0.783516	2.5212	0.29393	2.98019	0.846421	2.72497			0.784783	2.52139	0.549155	7.43246		
0.293142	2.98778	0.786144	2.52158	0.292417	2.99509	0.848949	2.72437			0.787409	2.52175	0.549209	7.46916		
0.291656	3.00312	0.788766	2.52193	0.290957	3.01086	0.851476	2.72377			0.790027	2.52209	0.549289	7.51972		
0.290225	3.01935	0.791381	2.52226	0.289553	3.02753	0.854003	2.72318			0.792639	2.52241	0.549401	7.58479		
0.28885	3.03651	0.793989	2.52256	0.288205	3.04515	0.85653	2.72259			0.795243	2.5227	0.549553	7.66518		
0.287532	3.05463	0.796589	2.52284	0.286914	3.06376	0.859056	2.722			0.79784	2.52296	0.549752	7.76193		
0.28627	3.07376	0.799181	2.52309	0.285681	3.08338	0.861582	2.72142			0.800428	2.5232	0.550009	7.87632		
0.285067	3.09393	0.801765	2.52331	0.284505	3.10406	0.864108	2.72083			0.803007	2.52341	0.550296	7.99445		
0.283921	3.11516	0.804339	2.5235	0.283388	3.12583	0.866633	2.72025			0.805577	2.52359	0.550612	8.11649		
0.282833	3.13752	0.806904	2.52367	0.282328	3.14873	0.869157	2.71967			0.808137	2.52373	0.550957	8.2426		
0.281803	3.16101	0.809458	2.52379	0.281325	3.17279	0.87168	2.71909			0.810686	2.52384	0.55133	8.37295		
0.280829	3.18569	0.812002	2.52388	0.280379	3.19805	0.874202	2.71851			0.813224	2.52392	0.551731	8.50773		
0.279913	3.21157	0.814534	2.52394	0.27949	3.22454	0.876723	2.71794			0.81575	2.52395	0.552159	8.64714		
0.279052	3.23871	0.817054	2.52396	0.278656	3.25229	0.879243	2.71736			0.818264	2.52395	0.552614	8.79139		
0.278247	3.26713	0.819561	2.52394	0.277877	3.28135	0.881761	2.71678			0.820764	2.52391	0.553095	8.94071		
0.277496	3.29687	0.822054	2.52387	0.277151	3.31173	0.884278	2.71619			0.82325	2.52383	0.553601	9.09534		
0.276798	3.32796	0.824532	2.52377	0.276479	3.34349	0.886793	2.71561			0.825721	2.5237	0.554133	9.25553		
0.276152	3.36044	0.826995	2.52361	0.275859	3.37666	0.889306	2.71502			0.828176	2.52352	0.554689	9.42156		
0.275558	3.39435	0.829442	2.52341	0.275289	3.41128	0.891816	2.71444			0.830615	2.52329	0.555269	9.59371		
0.275014	3.42973	0.831871	2.52315	0.274768	3.44738	0.894325	2.71384			0.833035	2.52301	0.555873	9.77231		
0.274519	3.46662	0.834282	2.52284	0.274297	3.48501	0.896832	2.71325			0.835437	2.52267	0.556499	9.95768		
0.274071	3.50505	0.836674	2.52248	0.273872	3.52421	0.899335	2.71265			0.83782	2.52228	0.557148	10.1502		
0.273671	3.54508	0.839046	2.52206	0.273493	3.56503	0.901837	2.71205			0.840181	2.52183	0.557819	10.3502		
0.273315	3.58676	0.841396	2.52157	0.273159	3.60751	0.904335	2.71144			0.842521	2.52132	0.558511	10.5582		
0.273004	3.63012	0.843725	2.52102	0.272869	3.65172	0.90683	2.71083			0.844839	2.52074	0.559223	10.7745		
0.272736	3.67523	0.84603	2.52041	0.272621	3.69769	0.909323	2.71021			0.847133	2.52009	0.559957	10.9998		
0.27251	3.72214	0.848312	2.51973	0.272415	3.74549	0.911811	2.70958			0.849402	2.51938	0.56071	11.2344		
0.272324	3.77091	0.850568	2.51898	0.272249	3.79518	0.914297	2.70895			0.851647	2.5186	0.561482	11.4789		
0.272179	3.8216	0.852799	2.51816	0.272122	3.84682	0.916778	2.70831			0.853865	2.51774	0.562272	11.734		
0.272072	3.87428	0.855004	2.51727	0.272033	3.90049	0.919255	2.70766			0.856057	2.51681	0.563081	12.0003		
0.272002	3.92901	0.857182	2.5163	0.271982	3.95625	0.921729	2.707			0.858222	2.51581	0.563908	12.2786		
0.271969	3.98588	0.859332	2.51526	0.271966	4.01418	0.924197	2.70634			0.860359	2.51473	0.564751	12.5695		
0.271969	4.03724	0.861455	2.51414	0.271985	4.07436	0.926661	2.70566			0.862468	2.51358	0.565611	12.8741		
0.27199	4.08239	0.86355	2.51295	0.272038	4.13688	0.92912	2.70497			0.86455	2.51235	0.566487	13.1931		
0.272022	4.12071	0.865617	2.51169	0.272125	4.20184	0.931574	2.70427			0.866604	2.51105	0.567379	13.5277		
0.272055	4.15165	0.867657	2.51035	0.272243	4.26933	0.934023	2.70357			0.868631	2.50968	0.568285	13.8789		
0.272085	4.17476	0.86967	2.50894	0.272393	4.33946	0.936465	2.70284			0.87063	2.50824	0.569205	14.2479		
0.272116	4.19631	0.871655	2.50747	0.272573	4.41233	0.938902	2.70211			0.872603	2.50673	0.570138	14.6362		
0.27214	4.21146	0.873615	2.50593	0.272782	4.48808	0.941332	2.70136			0.87455	2.50516	0.571085	15.0452		
0.27218	4.2354	0.875549	2.50432	0.273019	4.56683	0.943756	2.70059			0.876473	2.50352	0.572043	15.4766		
0.272242	4.26849	0.877459	2.50265	0.273284	4.64871	0.946172	2.69982			0.878371	2.50183	0.573014	15.9321		
0.27233	4.31123	0.879345	2.50093	0.273576	4.73388	0.948582	2.69902			0.880247	2.50008	0.573994	16.414		
0.272452	4.36428	0.88121	2.49915	0.273893	4.82249	0.950983	2.69821			0.882101	2.49828	0.574985	16.9243		
0.272616	4.42848	0.883053	2.49732	0.274236	4.9147	0.953377	2.69737			0.883934	2.49643	0.575986	17.4658		
0.272831	4.50486	0.884876	2.49545	0.274602	5.01071	0.955762	2.69652			0.885748	2.49453	0.576994	18.0413		
0.273074	4.58428	0.886681	2.49354	0.274991	5.11069	0.958139	2.69565			0.887545	2.4926	0.57801	18.654		
0.273345	4.66686	0.888469	2.49158	0.275402	5.21487	0.960506	2.69476			0.889325	2.49063	0.579033	19.3077		
0.273643	4.75276	0.89024	2.4896	0.275835	5.32347	0.962863	2.69385			0.891089	2.48863	0.580061	20.0064		
0.273965	4.84213	0.891997	2.48758	0.276288	5.43672	0.96521	2.69291			0.892839	2.4866	0.581094	20.755		
0.274313	4.93515	0.893741	2.48554	0.276761	5.5549	0.967547	2.69195			0.894577	2.48455	0.58213	21.559		
0.274684	5.032	0.895473	2.48348	0.277252	5.67828	0.969873	2.69096			0.896303	2.48248	0.583169	22.4247		
0.275078	5.13287	0.897193	2.4814	0.277762	5.80716	0.972187	2.68995			0.898019	2.48039	0.584208	23.3593		
0.275494	5.23799	0.898904	2.4793	0.278287	5.94189	0.974489	2.68891			0.899726	2.47828	0.585247	24.3714		
0.275932	5.34757	0.900606	2.47719	0.278829	6.08282	0.976779	2.68784			0.901424	2.47617	0.586284	25.4711		
0.276389	5.46187	0.902301	2.47507	0.279386	6.23035	0.979055	2.68674			0.903115	2.47404	0.587317	26.67		
0.276866	5.58114	0.903989	2.47294	0.279957	6.38489	0.981319	2.68561			0.9048	2.47191	0.588344	27.9823		
0.277361	5.70569	0.905671	2.47081	0.280465	6.52566	0.983568	2.68445			0.90648	2.46978	0.589363	29.4247		
0.277874	5.83581	0.907348	2.46868	0.280905	6.65039	0.985802	2.68325			0.908156	2.46765	0.590373	31.0175		
0.278403	5.97185	0.909022	2.46655	0.281274	6.75701	0.988021	2.68202			0.909828	2.46552	0.59137	32.7856		
0.278948	6.11417	0.910692	2.46442	0.281569	6.84362	0.990225	2.68076			0.911497	2.4634	0.592352	34.7594		
0.279508	6.26317	0.91236	2.4623	0.281787	6.90865	0.992412	2.67945			0.913164	2.46128	0.593316	36.9772		
0.280082	6.4193	0.914027	2.46018	0.281989	6.96952	0.994582	2.67811			0.914829	2.45916	0.594258	39.4871		
0.280668	6.58302	0.915692	2.45807	0.28213	7.01247	0.996736	2.67673			0.916494	2.45706	0.595176	42.351		
0.281267	6.75486	0.917357	2.45598	0.282351	7.08058	0.998871	2.67531			0.918159	2.45497	0.596064	45.6496		
0.281876	6.93538	0.919022	2.45389	0.282654	7.17522	1.00099	2.67384			0.919824	2.45289	0.59692	49.4903		
0.282495	7.12523	0.920687	2.45182	0.28304	7.29837					0.92149	2.45082	0.597737	54.0189		
0.283123	7.32508	0.922354	2.44976	0.283511	7.4527					0.923158	2.44877	0.598512	59.4393		
0.283758	7.53571	0.924022	2.44771	0.284068	7.6417					0.924827	2.44673	0.599238	66.0443		
0.2844	7.75797	0.925693	2.44568	0.284713	7.86991					0.926499	2.44471	0.599911	74.2717		
0.285048	7.9928	0.927365	2.44367	0.285363	8.11119					0.928173	2.44271	0.600524	84.8051		
0.2857	8.24125	0.929041	2.44168	0.286016	8.36664					0.92985	2.44073	0.601073	98.7761		
0.286355	8.5045	0.93072	2.43971	0.286673	8.63751					0.931531	2.43876	0.60155	118.202		
0.287012	8.78386	0.932402	2.43775	0.287331	8.92518					0.933215	2.43682	0.601951	147.063		
0.287671	9.08081	0.934089	2.43582	0.287989	9.23123					0.934903	2.43489	0.602271	194.461		
0.288328	9.39703	0.935779	2.4339	0.288646	9.55743					0.936595	2.43299	0.602505	286.756		
0.288985	9.73442	0.937474	2.43201	0.289301	9.90582					0.938293	2.43111	0.602651	545.344		
0.289638	10.0951	0.939173	2.43014	0.289953	10.2787					0.939994	2.42925	0.602707	5526.39		
0.290288	10.4816	0.940878	2.42829	0.2906	10.6787					0.941701	2.42741				
0.290932	10.8968	0.942587	2.42647	0.291241	11.1088					0.943413	2.4256				
0.291569	11.3439	0.944302	2.42467	0.291874	11.5726					0.945131	2.42381				
0.292198	11.8266	0.946023	2.42289	0.292499	12.0742					0.946854	2.42204				
0.292817	12.3496	0.947749	2.42113	0.293113	12.6184					0.948583	2.42029				
0.293426	12.9179	0.949481	2.4194	0.293716	13.2108					0.950318	2.41857				
0.294022	13.5378	0.951219	2.41769	0.294306	13.8582					0.952059	2.41688				
0.294605	14.2166	0.952963	2.41601	0.294882	14.5685					0.953807	2.41521				
0.295173	14.9631	0.954714	2.41435	0.295441	15.3516					0.955561	2.41356				
0.295724	15.7882	0.956472	2.41272	0.295984	16.2192					0.957321	2.41194				
0.296257	16.705	0.958236	2.41111	0.296508	17.1859					0.959088	2.41035				
0.29677	17.7297	0.960006	2.40953	0.297011	18.2699					0.960862	2.40877				
0.297263	18.8828	0.961784	2.40797	0.297494	19.4939					0.962643	2.40723				
0.297734	20.1901	0.963569	2.40644	0.297953	20.8873					0.964432	2.40571				
0.298181	21.6851	0.965361	2.40493	0.298389	22.488					0.966227	2.40421				
0.298604	23.4116	0.96716	2.40345	0.298799	24.3464					0.968029	2.40274				
0.299	25.4285	0.968966	2.40199	0.299182	26.5308					0.969839	2.4013				
0.299369	27.8161	0.97078	2.40056	0.299538	29.1358					0.971657	2.39988				
0.29971	30.6878	0.972601	2.39916	0.299864	32.2965					0.973482	2.39849				
0.300021	34.2083	0.97443	2.39778	0.30016	36.2132					0.975314	2.39712				
0.300301	38.6271	0.976266	2.39642	0.300426	41.1956					0.977154	2.39578				
0.30055	44.3397	0.97811	2.39509	0.300659	47.7491					0.979002	2.39446				
0.300767	52.0148	0.979962	2.39379	0.30086	56.7593					0.980858	2.39317				
0.30095	62.8774	0.981822	2.39251	0.301027	69.9315					0.982721	2.3919				
0.3011	79.4401	0.98369	2.39126	0.30116	91.0241					0.984593	2.39066				
0.301216	107.798	0.985565	2.39003	0.301259	130.271					0.986472	2.38945				
0.301296	167.551	0.987449	2.38883	0.301323	228.877					0.988359	2.38826				
0.301342	375.64	0.98934	2.38765	0.301352	940.241					0.990255	2.38709				
		0.99124	2.3865							0.992158	2.38595				
		0.993147	2.38537							0.99407	2.38484				
		0.995063	2.38427							0.995989	2.38375				
		0.996987	2.38319							0.997917	2.38268				
		0.998919	2.38214							0.999853	2.38164				
		1.00086	2.38111							1.0018	2.38062				
