Sym0		Sym1		Sym2		Sym3		Asym1		Asym2		Asym3	
416  Points		416  Points		380  Points		231  Points		400  Points		360  Points		240  Points	
Freq (MHz)	Vph (m/ms)	Freq (MHz)	Vph (m/ms)	Freq (MHz)	Vph (m/ms)	Freq (MHz)	Vph (m/ms)	Freq (MHz)	Vph (m/ms)	Freq (MHz)	Vph (m/ms)	Freq (MHz)	Vph (m/ms)
1.0008	2.44692	1.00077	2.44693	0.433025	885.493	0.866025	9431.66	0.216512	546.315	1.00004	2.83249	0.741499	3372.16
0.998435	2.44711	0.998413	2.44711	0.433122	291.656	0.866021	796.088	0.216577	155.549	0.998776	2.83692	0.741536	609.86
0.996081	2.44731	0.996058	2.44732	0.433317	174.649	0.866008	415.577	0.216715	90.7378	0.997521	2.8414	0.741625	335.283
0.993733	2.44754	0.993711	2.44754	0.433608	124.704	0.865987	281.174	0.216924	64.0956	0.99627	2.84591	0.741764	231.226
0.991392	2.44778	0.99137	2.44778	0.433993	97.0226	0.865959	212.457	0.217206	49.5857	0.995023	2.85046	0.741955	176.488
0.989059	2.44803	0.989037	2.44804	0.434469	79.4402	0.865922	170.728	0.217558	40.4651	0.993781	2.85504	0.742195	142.73
0.986733	2.44831	0.98671	2.44831	0.435033	67.2888	0.865877	142.697	0.21798	34.2066	0.992544	2.85967	0.742485	119.832
0.984414	2.44861	0.984391	2.44861	0.435681	58.393	0.865825	122.569	0.218472	29.6496	0.991311	2.86434	0.742824	103.284
0.982102	2.44893	0.98208	2.44893	0.436409	51.602	0.865765	107.415	0.219033	26.186	0.990082	2.86905	0.743211	90.7674
0.979797	2.44926	0.979775	2.44927	0.437212	46.25	0.865697	95.5934	0.219661	23.4667	0.988858	2.87379	0.743644	80.9708
0.977501	2.44962	0.977479	2.44962	0.438088	41.9252	0.865622	86.1139	0.220354	21.2768	0.987637	2.87858	0.744124	73.0958
0.975211	2.45	0.97519	2.45	0.43903	38.359	0.865539	78.3429	0.221113	19.4769	0.986421	2.8834	0.744649	66.6284
0.97293	2.4504	0.972908	2.4504	0.440036	35.3689	0.865449	71.8566	0.221935	17.9725	0.985209	2.88827	0.745217	61.223
0.970656	2.45082	0.970634	2.45082	0.441101	32.8265	0.865351	66.3606	0.222819	16.6973	0.984001	2.89318	0.745828	56.6386
0.96839	2.45126	0.968368	2.45127	0.44222	30.6388	0.865246	61.6441	0.223763	15.6034	0.982796	2.89812	0.74648	52.7018
0.966132	2.45173	0.96611	2.45173	0.443392	28.7369	0.865134	57.5521	0.224766	14.6555	0.981595	2.90311	0.747172	49.285
0.963881	2.45222	0.96386	2.45222	0.444611	27.0685	0.865015	53.9683	0.225826	13.8266	0.980398	2.90813	0.747903	46.2918
0.961639	2.45273	0.961618	2.45273	0.445875	25.5935	0.864889	50.8034	0.226941	13.0962	0.979205	2.9132	0.748671	43.6484
0.959405	2.45326	0.959384	2.45327	0.447181	24.2803	0.864757	47.9881	0.22811	12.4482	0.978015	2.91831	0.749474	41.2972
0.957179	2.45382	0.957157	2.45382	0.448525	23.1038	0.864618	45.4673	0.229331	11.8696	0.976828	2.92345	0.750313	39.1924
0.954961	2.4544	0.95494	2.4544	0.449906	22.0439	0.864473	43.1971	0.230602	11.3503	0.975644	2.92864	0.751185	37.2975
0.952751	2.455	0.95273	2.45501	0.451319	21.0843	0.864321	41.1419	0.231921	10.8818	0.974464	2.93387	0.752089	35.5827
0.950549	2.45563	0.950528	2.45564	0.452765	20.2113	0.864164	39.2724	0.233287	10.4572	0.973286	2.93914	0.753024	34.0236
0.948356	2.45629	0.948335	2.45629	0.454239	19.4139	0.864	37.5646	0.234699	10.0708	0.972112	2.94445	0.753988	32.6
0.946171	2.45697	0.94615	2.45697	0.455741	18.6828	0.863831	35.9984	0.236153	9.71789	0.970941	2.9498	0.754981	31.2952
0.943994	2.45767	0.943973	2.45768	0.457268	18.01	0.863657	34.5568	0.237649	9.39441	0.969772	2.95519	0.756001	30.095
0.941825	2.4584	0.941805	2.45841	0.458819	17.389	0.863477	33.2254	0.239186	9.09696	0.968606	2.96062	0.757047	28.9873
0.939665	2.45915	0.939645	2.45916	0.460392	16.8139	0.863292	31.9922	0.24076	8.82263	0.967442	2.9661	0.758118	27.9619
0.937513	2.45993	0.937493	2.45994	0.461986	16.2799	0.863103	30.8466	0.242372	8.56892	0.966281	2.97161	0.759212	27.01
0.93537	2.46074	0.935349	2.46075	0.463599	15.7828	0.862908	29.7796	0.243805	8.36295	0.965122	2.97717	0.76033	26.1241
0.933235	2.46157	0.933214	2.46158	0.46523	15.3189	0.86271	28.7833	0.245047	8.1975	0.963965	2.98276	0.76147	25.2975
0.931108	2.46243	0.931088	2.46244	0.466879	14.885	0.862507	27.851	0.246087	8.0672	0.96281	2.9884	0.76263	24.5245
0.928989	2.46332	0.928969	2.46333	0.468544	14.4783	0.8623	26.9767	0.246919	7.96808	0.961657	2.99408	0.763811	23.8002
0.926879	2.46423	0.926859	2.46424	0.470224	14.0964	0.86209	26.1551	0.247535	7.89731	0.960506	2.9998	0.76501	23.12
0.924777	2.46517	0.924757	2.46518	0.471917	13.737	0.861876	25.3817	0.247931	7.85292	0.959357	3.00556	0.766228	22.4801
0.922684	2.46614	0.922664	2.46615	0.473625	13.3982	0.861658	24.6522	0.248504	7.7903	0.958209	3.01136	0.767463	21.8771
0.920598	2.46713	0.920579	2.46714	0.475344	13.0784	0.861438	23.963	0.24913	7.72379	0.957062	3.0172	0.768714	21.3078
0.918521	2.46816	0.918502	2.46817	0.477076	12.7759	0.861215	23.3109	0.249987	7.63584	0.955917	3.02308	0.769982	20.7695
0.916452	2.4692	0.916433	2.46921	0.478818	12.4894	0.86099	22.693	0.251081	7.52856	0.954772	3.029	0.771265	20.2598
0.914391	2.47028	0.914372	2.47029	0.480571	12.2177	0.860762	22.1067	0.252418	7.40438	0.953629	3.03496	0.772562	19.7764
0.912339	2.47138	0.912319	2.4714	0.482333	11.9597	0.860533	21.5495	0.254005	7.26595	0.952486	3.04097	0.773872	19.3174
0.910294	2.47252	0.910274	2.47253	0.484104	11.7143	0.860302	21.0195	0.255851	7.116	0.951344	3.04701	0.775196	18.881
0.908257	2.47368	0.908237	2.47369	0.485884	11.4806	0.860069	20.5146	0.257722	6.9748	0.950202	3.05309	0.776533	18.4656
0.906228	2.47486	0.906208	2.47488	0.487672	11.2579	0.859835	20.0331	0.259616	6.84164	0.949061	3.05922	0.777881	18.0697
0.904207	2.47608	0.904187	2.47609	0.489467	11.0454	0.859601	19.5734	0.261532	6.71585	0.94792	3.06538	0.77924	17.6919
0.902193	2.47732	0.902174	2.47733	0.491269	10.8424	0.859366	19.1341	0.263469	6.59688	0.946778	3.07158	0.78061	17.3311
0.900187	2.47859	0.900168	2.47861	0.493078	10.6482	0.85913	18.7138	0.265427	6.48418	0.945637	3.07782	0.781991	16.9861
0.898189	2.47989	0.89817	2.4799	0.494893	10.4624	0.858895	18.3114	0.267403	6.37729	0.944495	3.0841	0.783381	16.656
0.896198	2.48122	0.896179	2.48123	0.496713	10.2843	0.858659	17.9257	0.269398	6.27578	0.943352	3.09042	0.78478	16.3397
0.894215	2.48257	0.894196	2.48259	0.498539	10.1135	0.858425	17.5558	0.271409	6.17926	0.942208	3.09678	0.786188	16.0364
0.892238	2.48396	0.892219	2.48397	0.500369	9.94963	0.858191	17.2006	0.273437	6.08738	0.941064	3.10318	0.787604	15.7454
0.890269	2.48537	0.89025	2.48538	0.502203	9.79217	0.857958	16.8594	0.275479	5.99982	0.939918	3.10961	0.789027	15.4659
0.888307	2.4868	0.888288	2.48682	0.504042	9.64078	0.857726	16.5313	0.277536	5.91628	0.938771	3.11609	0.790458	15.1973
0.886352	2.48827	0.886333	2.48828	0.505884	9.49513	0.857497	16.2156	0.279607	5.83649	0.937622	3.1226	0.791896	14.9389
0.884403	2.48976	0.884385	2.48977	0.50773	9.35488	0.857269	15.9116	0.28169	5.76022	0.936471	3.12914	0.793341	14.6901
0.882461	2.49128	0.882443	2.49129	0.509578	9.21974	0.857043	15.6186	0.283785	5.68722	0.935318	3.13573	0.794791	14.4504
0.880526	2.49282	0.880508	2.49284	0.511429	9.08942	0.85682	15.3362	0.285891	5.61729	0.934163	3.14235	0.796247	14.2194
0.878597	2.4944	0.878579	2.49441	0.513282	8.96369	0.8566	15.0637	0.288007	5.55025	0.933005	3.149	0.797708	13.9965
0.876674	2.49599	0.876656	2.49601	0.515137	8.84228	0.856383	14.8006	0.290132	5.48591	0.931844	3.15569	0.799175	13.7814
0.874758	2.49762	0.874739	2.49764	0.516994	8.72498	0.856169	14.5465	0.292266	5.42412	0.930681	3.16242	0.800645	13.5736
0.872847	2.49927	0.872829	2.49929	0.518613	8.62595	0.85596	14.301	0.294409	5.36471	0.929514	3.16918	0.802121	13.3728
0.870941	2.50095	0.870923	2.50097	0.519994	8.54377	0.855754	14.0635	0.296559	5.30755	0.928343	3.17598	0.803599	13.1787
0.869042	2.50265	0.869024	2.50267	0.521136	8.47732	0.855552	13.8337	0.298715	5.25252	0.927169	3.1828	0.805082	12.9908
0.867147	2.50438	0.867129	2.5044	0.522039	8.4257	0.855355	13.6113	0.300878	5.19949	0.925991	3.18967	0.806567	12.8089
0.865258	2.50613	0.86524	2.50615	0.522703	8.38827	0.855163	13.396	0.303046	5.14834	0.924808	3.19656	0.808056	12.6327
0.863374	2.50791	0.863356	2.50793	0.523129	8.36453	0.854976	13.1873	0.30522	5.09898	0.923621	3.20348	0.809546	12.462
0.861495	2.50971	0.861477	2.50973	0.52374	8.33071	0.854795	12.985	0.307397	5.05131	0.922428	3.21044	0.811039	12.2964
0.859619	2.51154	0.859602	2.51156	0.524404	8.29434	0.85462	12.7888	0.309578	5.00523	0.921231	3.21742	0.812534	12.1358
0.857749	2.51339	0.857731	2.5134	0.525308	8.24554	0.85445	12.5985	0.311763	4.96066	0.920028	3.22444	0.814031	11.9799
0.855882	2.51526	0.855864	2.51528	0.52645	8.18487	0.854287	12.4138	0.31395	4.91753	0.91882	3.23148	0.815529	11.8286
0.854019	2.51715	0.854001	2.51717	0.527832	8.11303	0.854131	12.2345	0.316139	4.87575	0.917605	3.23856	0.817027	11.6816
0.85216	2.51907	0.852142	2.51908	0.529453	8.0308	0.853982	12.0603	0.31833	4.83526	0.916384	3.24566	0.818527	11.5387
0.850304	2.521	0.850286	2.52102	0.531312	7.93906	0.85384	11.891	0.320521	4.79599	0.915156	3.25278	0.820027	11.3998
0.848451	2.52296	0.848433	2.52298	0.53317	7.84999	0.853705	11.7265	0.322714	4.75788	0.913921	3.25994	0.821527	11.2647
0.846601	2.52493	0.846583	2.52495	0.535027	7.76348	0.853579	11.5665	0.324906	4.72088	0.912679	3.26711	0.823027	11.1332
0.844753	2.52693	0.844735	2.52695	0.536883	7.67942	0.853461	11.4109	0.327098	4.68492	0.91143	3.27431	0.824527	11.0052
0.842907	2.52894	0.84289	2.52896	0.538737	7.5977	0.853351	11.2595	0.329288	4.64997	0.910172	3.28154	0.826025	10.8805
0.841063	2.53098	0.841046	2.53099	0.540589	7.51821	0.85325	11.1121	0.331478	4.61596	0.908906	3.28878	0.827523	10.7591
0.839221	2.53302	0.839203	2.53304	0.542438	7.44086	0.853158	10.9686	0.333665	4.58285	0.907632	3.29605	0.82902	10.6408
0.83738	2.53509	0.837362	2.53511	0.544285	7.36556	0.853075	10.8289	0.33585	4.55061	0.906348	3.30334	0.830515	10.5254
0.835539	2.53717	0.835522	2.53719	0.54613	7.29223	0.853002	10.6928	0.338032	4.51919	0.905056	3.31065	0.832008	10.4129
0.833699	2.53926	0.833682	2.53928	0.547971	7.22078	0.85294	10.5601	0.340211	4.48855	0.903754	3.31797	0.8335	10.3031
0.831859	2.54136	0.831842	2.54138	0.549809	7.15114	0.852887	10.4309	0.342386	4.45866	0.902442	3.32532	0.834989	10.196
0.830019	2.54348	0.830002	2.5435	0.551643	7.08324	0.852845	10.3048	0.344557	4.42948	0.90112	3.33268	0.836475	10.0914
0.828178	2.54561	0.828161	2.54563	0.553474	7.017	0.852814	10.1819	0.346724	4.40097	0.899787	3.34005	0.837959	9.98927
0.826336	2.54775	0.826319	2.54777	0.555301	6.95237	0.852794	10.062	0.348885	4.37312	0.898444	3.34744	0.83944	9.8895
0.824493	2.5499	0.824475	2.54992	0.557123	6.88927	0.852785	9.94503	0.351041	4.34588	0.897089	3.35484	0.840917	9.792
0.822647	2.55205	0.822629	2.55207	0.558941	6.82766	0.852788	9.83087	0.35319	4.31924	0.895723	3.36226	0.842391	9.6967
0.820799	2.55421	0.820781	2.55423	0.560753	6.76746	0.852803	9.71945	0.355334	4.29316	0.894345	3.36969	0.843861	9.60351
0.818948	2.55637	0.81893	2.55639	0.562561	6.70864	0.85283	9.61066	0.357471	4.26762	0.892955	3.37712	0.845327	9.51237
0.817094	2.55854	0.817076	2.55856	0.564364	6.65114	0.85287	9.50443	0.3596	4.24259	0.891553	3.38457	0.846788	9.4232
0.815235	2.5607	0.815218	2.56073	0.566161	6.5949	0.852923	9.40068	0.361722	4.21806	0.890138	3.39202	0.848245	9.33594
0.813373	2.56287	0.813355	2.56289	0.567952	6.53989	0.852989	9.29932	0.363836	4.194	0.88871	3.39948	0.849698	9.25052
0.811505	2.56504	0.811488	2.56506	0.569737	6.48606	0.853058	9.21289	0.365942	4.17039	0.887269	3.40695	0.850959	9.17753
0.809633	2.5672	0.809615	2.56722	0.571516	6.43336	0.853124	9.14056	0.368039	4.14722	0.885814	3.41442	0.852032	9.11635
0.807754	2.56936	0.807736	2.56938	0.573289	6.38176	0.853185	9.08168	0.370127	4.12445	0.884345	3.4219	0.852916	9.06646
0.805869	2.57151	0.805851	2.57153	0.575055	6.33122	0.853237	9.0357	0.372205	4.10208	0.882863	3.42938	0.853614	9.02745
0.803977	2.57365	0.803959	2.57367	0.576813	6.2817	0.853277	9.00222	0.374273	4.08009	0.881366	3.43686	0.854127	8.99902
0.802078	2.57579	0.80206	2.57581	0.578565	6.23316	0.853304	8.98093	0.376331	4.05846	0.879854	3.44435	0.854454	8.98093
0.800171	2.57791	0.800153	2.57793	0.580309	6.18558	0.853344	8.95052	0.378379	4.03717	0.878328	3.45183	0.854924	8.95507
0.798256	2.58002	0.798238	2.58004	0.582045	6.13891	0.853389	8.91771	0.380415	4.01622	0.876787	3.45931	0.855435	8.92715
0.796332	2.58211	0.796313	2.58213	0.583774	6.09313	0.853453	8.87352	0.38244	3.99558	0.87523	3.4668	0.856128	8.8895
0.794398	2.58419	0.794379	2.58421	0.585494	6.04821	0.853539	8.81832	0.384454	3.97525	0.873659	3.47428	0.857002	8.84241
0.792455	2.58624	0.792436	2.58626	0.587206	6.00411	0.85365	8.75257	0.386455	3.95521	0.872072	3.48176	0.858056	8.78621
0.790501	2.58828	0.790482	2.5883	0.588909	5.96082	0.853791	8.6768	0.388444	3.93545	0.870469	3.48923	0.859289	8.72131
0.788537	2.5903	0.788518	2.59032	0.590603	5.91831	0.853968	8.59162	0.390421	3.91596	0.86885	3.49671	0.860697	8.64818
0.786561	2.59229	0.786542	2.59231	0.592289	5.87654	0.85416	8.50829	0.392384	3.89672	0.867216	3.50418	0.862098	8.57643
0.784574	2.59426	0.784555	2.59428	0.593965	5.8355	0.854367	8.42676	0.394334	3.87773	0.865566	3.51164	0.863492	8.50601
0.782575	2.5962	0.782556	2.59622	0.595631	5.79517	0.854591	8.34696	0.396271	3.85898	0.863899	3.5191	0.86488	8.4369
0.780564	2.59811	0.780545	2.59813	0.597288	5.75552	0.854831	8.26886	0.398193	3.84045	0.862217	3.52656	0.866259	8.36904
0.778541	2.6	0.778522	2.60001	0.598936	5.71652	0.855087	8.19241	0.400102	3.82214	0.860518	3.53401	0.867632	8.30241
0.776505	2.60185	0.776485	2.60187	0.600572	5.67817	0.85536	8.11756	0.401996	3.80404	0.858804	3.54145	0.868996	8.23696
0.774456	2.60368	0.774436	2.60369	0.602199	5.64043	0.85565	8.04428	0.403876	3.78615	0.857073	3.54889	0.870353	8.17266
0.772393	2.60547	0.772374	2.60548	0.603815	5.60329	0.855957	7.97251	0.405741	3.76844	0.855326	3.55632	0.871701	8.10948
0.770318	2.60723	0.770298	2.60724	0.605421	5.56674	0.856282	7.90222	0.407591	3.75092	0.853563	3.56375	0.873042	8.04738
0.768229	2.60895	0.768209	2.60897	0.607016	5.53075	0.856624	7.83338	0.409425	3.73359	0.851784	3.57117	0.874373	7.98633
0.766127	2.61064	0.766106	2.61066	0.6086	5.49531	0.856984	7.76594	0.411245	3.71642	0.849989	3.57859	0.875696	7.92631
0.76401	2.6123	0.76399	2.61231	0.610172	5.4604	0.857362	7.69986	0.413048	3.69942	0.848178	3.58601	0.877011	7.86728
0.761881	2.61392	0.761861	2.61393	0.611733	5.42601	0.857758	7.63512	0.414836	3.68258	0.846351	3.59342	0.878316	7.80921
0.759738	2.6155	0.759717	2.61552	0.613283	5.39212	0.858173	7.57169	0.416608	3.6659	0.844509	3.60082	0.879612	7.75209
0.757581	2.61705	0.757561	2.61707	0.614821	5.35871	0.858606	7.50951	0.418365	3.64937	0.842651	3.60822	0.880899	7.69587
0.755412	2.61857	0.755391	2.61858	0.616347	5.32578	0.859058	7.44858	0.420105	3.63298	0.840778	3.61562	0.882176	7.64055
0.753228	2.62004	0.753207	2.62006	0.617861	5.29331	0.859529	7.38885	0.421829	3.61674	0.83889	3.62302	0.883444	7.58609
0.751032	2.62149	0.751011	2.6215	0.619363	5.26128	0.860018	7.3303	0.423537	3.60064	0.836987	3.63042	0.884702	7.53247
0.748823	2.6229	0.748802	2.62291	0.620853	5.22969	0.860527	7.27289	0.425229	3.58467	0.83507	3.63782	0.885951	7.47967
0.746601	2.62427	0.74658	2.62428	0.622331	5.19852	0.861056	7.21661	0.426904	3.56882	0.833138	3.64522	0.887189	7.42766
0.744367	2.62561	0.744345	2.62562	0.623796	5.16776	0.861604	7.16142	0.428563	3.55311	0.831191	3.65262	0.888418	7.37644
0.74212	2.62691	0.742099	2.62692	0.625248	5.1374	0.862171	7.1073	0.430207	3.53752	0.829231	3.66003	0.889636	7.32597
0.739862	2.62818	0.73984	2.6282	0.626688	5.10743	0.862758	7.05422	0.431834	3.52205	0.827257	3.66744	0.890845	7.27624
0.737592	2.62942	0.73757	2.62943	0.628115	5.07785	0.863365	7.00215	0.433444	3.50671	0.82527	3.67485	0.892042	7.22723
0.73531	2.63063	0.735288	2.63064	0.629529	5.04863	0.863992	6.95109	0.43504	3.49148	0.823269	3.68228	0.89323	7.17892
0.733017	2.6318	0.732995	2.63181	0.630931	5.01977	0.864639	6.90099	0.436619	3.47636	0.821256	3.68971	0.894407	7.13129
0.730713	2.63295	0.730691	2.63296	0.63232	4.99127	0.865306	6.85184	0.438182	3.46136	0.819231	3.69715	0.895574	7.08433
0.728399	2.63406	0.728377	2.63407	0.633695	4.9631	0.865993	6.80362	0.43973	3.44647	0.817193	3.70461	0.89673	7.03803
0.726075	2.63515	0.726053	2.63516	0.635058	4.93527	0.8667	6.75631	0.441262	3.43169	0.815143	3.71208	0.897876	6.99236
0.72374	2.63621	0.723718	2.63622	0.636407	4.90777	0.867427	6.70988	0.442779	3.41702	0.813083	3.71957	0.899011	6.94731
0.721396	2.63724	0.721374	2.63725	0.637744	4.88059	0.868175	6.66432	0.444282	3.40246	0.811011	3.72707	0.900136	6.90287
0.719043	2.63824	0.719021	2.63825	0.639067	4.85372	0.868942	6.6196	0.445769	3.38801	0.808928	3.7346	0.90125	6.85903
0.716681	2.63922	0.716658	2.63923	0.640378	4.82716	0.86973	6.57571	0.447242	3.37366	0.806835	3.74214	0.902354	6.81576
0.71431	2.64017	0.714288	2.64018	0.641675	4.80089	0.870539	6.53262	0.4487	3.35942	0.804732	3.74971	0.903447	6.77306
0.711931	2.6411	0.711908	2.64111	0.64296	4.77492	0.871367	6.49033	0.450145	3.34529	0.80262	3.75731	0.90453	6.73092
0.709544	2.64201	0.709521	2.64202	0.644231	4.74923	0.872215	6.4488	0.451575	3.33126	0.800499	3.76493	0.905602	6.68932
0.707149	2.64289	0.707126	2.6429	0.645489	4.72382	0.873084	6.40804	0.452993	3.31734	0.798368	3.77258	0.906664	6.64825
0.704746	2.64375	0.704723	2.64376	0.646735	4.69869	0.873972	6.36801	0.454397	3.30353	0.79623	3.78027	0.907715	6.6077
0.702336	2.64459	0.702313	2.6446	0.647968	4.67383	0.874881	6.3287	0.455788	3.28982	0.794083	3.78799	0.908757	6.56766
0.699919	2.64541	0.699896	2.64542	0.649188	4.64922	0.87581	6.29009	0.457167	3.27622	0.79193	3.79575	0.909788	6.52812
0.697496	2.64622	0.697473	2.64622	0.650395	4.62488	0.876758	6.25218	0.458534	3.26273	0.789768	3.80355	0.910809	6.48907
0.695066	2.647	0.695043	2.64701	0.65159	4.60079	0.877726	6.21494	0.459889	3.24934	0.787601	3.8114	0.91182	6.4505
0.69263	2.64777	0.692607	2.64777	0.652772	4.57695	0.878713	6.17836	0.461233	3.23606	0.785427	3.81928	0.912821	6.4124
0.690188	2.64852	0.690165	2.64852	0.653942	4.55336	0.879721	6.14242	0.462565	3.22289	0.783247	3.82722	0.913813	6.37477
0.68774	2.64925	0.687717	2.64926	0.6551	4.53	0.880747	6.10712	0.463887	3.20983	0.781062	3.83521	0.914795	6.33758
0.685287	2.64997	0.685263	2.64997	0.656246	4.50688	0.881792	6.07243	0.465199	3.19687	0.778871	3.84325	0.915768	6.30084
0.682828	2.65067	0.682805	2.65067	0.657379	4.484	0.882857	6.03834	0.466501	3.18403	0.776677	3.85135	0.916731	6.26454
0.680365	2.65136	0.680341	2.65136	0.658501	4.46134	0.88394	6.00485	0.467794	3.17129	0.774478	3.85951	0.917686	6.22867
0.677896	2.65203	0.677873	2.65204	0.659612	4.43891	0.885043	5.97192	0.469078	3.15867	0.772275	3.86773	0.918631	6.19322
0.675423	2.65269	0.6754	2.6527	0.660711	4.4167	0.886163	5.93957	0.470353	3.14615	0.770069	3.87602	0.919568	6.15818
0.672946	2.65334	0.672922	2.65335	0.661798	4.39471	0.887302	5.90776	0.47162	3.13375	0.767861	3.88437	0.920496	6.12355
0.670464	2.65398	0.67044	2.65398	0.662875	4.37293	0.888459	5.87649	0.472879	3.12146	0.76565	3.8928	0.921417	6.08932
0.667978	2.6546	0.667954	2.65461	0.663941	4.35137	0.889634	5.84575	0.474131	3.10928	0.763437	3.90131	0.922328	6.05549
0.665488	2.65522	0.665464	2.65522	0.664995	4.33002	0.890826	5.81552	0.475376	3.09721	0.761222	3.90989	0.923233	6.02205
0.662994	2.65582	0.66297	2.65583	0.66604	4.30888	0.892036	5.7858	0.476615	3.08526	0.759007	3.91856	0.924129	5.98899
0.660497	2.65642	0.660473	2.65642	0.667074	4.28794	0.893262	5.75657	0.477847	3.07342	0.756791	3.92731	0.925018	5.9563
0.657996	2.657	0.657972	2.65701	0.668098	4.2672	0.894506	5.72782	0.479074	3.0617	0.754574	3.93616	0.9259	5.92399
0.655491	2.65758	0.655468	2.65758	0.669112	4.24666	0.895767	5.69954	0.480295	3.05009	0.752358	3.94509	0.926775	5.89204
0.652984	2.65815	0.65296	2.65815	0.670117	4.22632	0.897043	5.67172	0.481512	3.0386	0.750143	3.95413	0.927644	5.86045
0.650473	2.65871	0.65045	2.65871	0.671112	4.20618	0.898336	5.64435	0.482724	3.02722	0.747929	3.96326	0.928506	5.82922
0.64796	2.65926	0.647936	2.65926	0.672098	4.18622	0.899645	5.61741	0.483933	3.01596	0.745716	3.97251	0.929363	5.79834
0.645444	2.6598	0.64542	2.65981	0.673076	4.16646	0.900969	5.59091	0.485137	3.00481	0.743505	3.98186	0.930213	5.7678
0.642925	2.66034	0.642901	2.66035	0.674044	4.14689	0.902308	5.56483	0.486339	2.99379	0.741297	3.99132	0.931058	5.73761
0.640403	2.66088	0.640379	2.66088	0.675004	4.1275	0.903663	5.53915	0.487537	2.98287	0.739092	4.00091	0.931898	5.70775
0.637879	2.6614	0.637855	2.66141	0.675956	4.1083	0.905032	5.51388	0.488733	2.97208	0.736891	4.01061	0.932733	5.67822
0.635353	2.66192	0.635329	2.66193	0.676901	4.08929	0.906415	5.489	0.489927	2.9614	0.734693	4.02045	0.933564	5.64903
0.632824	2.66244	0.6328	2.66245	0.677837	4.07045	0.907812	5.4645	0.491119	2.95084	0.732499	4.03041	0.934391	5.62016
0.630293	2.66295	0.630269	2.66296	0.678766	4.0518	0.909223	5.44038	0.49231	2.9404	0.730311	4.04051	0.935213	5.5916
0.627761	2.66346	0.627736	2.66346	0.679688	4.03332	0.910647	5.41662	0.4935	2.93008	0.728127	4.05076	0.936032	5.56337
0.625226	2.66396	0.625202	2.66397	0.680604	4.01502	0.912085	5.39321	0.494689	2.91987	0.72595	4.06114	0.936848	5.53545
0.622689	2.66446	0.622665	2.66447	0.681512	3.9969	0.913535	5.37016	0.495877	2.90978	0.723779	4.07168	0.937661	5.50784
0.620151	2.66496	0.620126	2.66496	0.682415	3.97895	0.914997	5.34745	0.497066	2.89981	0.721614	4.08238	0.938471	5.48054
0.61761	2.66545	0.617586	2.66546	0.683311	3.96117	0.916472	5.32507	0.498255	2.88995	0.719456	4.09324	0.93928	5.45353
0.615068	2.66594	0.615044	2.66594	0.684202	3.94356	0.917958	5.30301	0.499445	2.88021	0.717306	4.10427	0.940086	5.42683
0.612525	2.66643	0.612501	2.66643	0.685087	3.92613	0.919456	5.28128	0.500636	2.87059	0.715165	4.11547	0.940891	5.40043
0.60998	2.66691	0.609956	2.66692	0.685967	3.90886	0.920964	5.25985	0.501828	2.86109	0.713031	4.12684	0.941696	5.37432
0.607434	2.6674	0.60741	2.6674	0.686842	3.89176	0.922484	5.23873	0.503022	2.8517	0.710907	4.13841	0.942499	5.3485
0.604887	2.66788	0.604862	2.66788	0.687712	3.87482	0.924013	5.2179	0.504217	2.84243	0.708793	4.15016	0.943302	5.32297
0.602338	2.66836	0.602314	2.66836	0.688578	3.85805	0.925553	5.19736	0.505415	2.83327	0.706688	4.16211	0.944105	5.29773
0.599788	2.66884	0.599764	2.66884	0.68944	3.84144	0.927103	5.17711	0.506615	2.82423	0.704595	4.17427	0.944908	5.27277
0.597237	2.66932	0.597213	2.66932	0.690298	3.82499	0.928661	5.15713	0.507818	2.8153	0.702512	4.18663	0.945712	5.24809
0.594685	2.6698	0.594661	2.6698	0.691153	3.80871	0.930229	5.13742	0.509024	2.80649	0.700441	4.19922	0.946518	5.22368
0.592132	2.67028	0.592108	2.67028	0.692004	3.79258	0.931805	5.11797	0.510233	2.79779	0.698382	4.21202	0.947325	5.19955
0.589578	2.67075	0.589554	2.67076	0.692852	3.77661	0.93339	5.09878	0.511446	2.78921	0.696336	4.22506	0.948134	5.1757
0.587023	2.67123	0.586999	2.67124	0.693697	3.7608	0.934983	5.07984	0.512663	2.78074	0.694302	4.23834	0.948945	5.15212
0.584468	2.67171	0.584443	2.67172	0.694539	3.74514	0.936583	5.06115	0.513883	2.77238	0.692283	4.25186	0.949759	5.1288
0.581911	2.6722	0.581887	2.6722	0.69538	3.72964	0.938191	5.04269	0.515109	2.76414	0.690277	4.26564	0.950576	5.10575
0.579355	2.67268	0.57933	2.67268	0.696218	3.7143	0.939805	5.02447	0.516338	2.75601	0.688287	4.27968	0.951397	5.08297
0.576797	2.67316	0.576773	2.67317	0.697054	3.6991	0.941426	5.00648	0.517572	2.74799	0.686311	4.29399	0.952221	5.06044
0.574239	2.67365	0.574214	2.67365	0.697889	3.68406	0.943053	4.98871	0.518812	2.74008	0.684351	4.30858	0.95305	5.03818
0.57168	2.67414	0.571656	2.67414	0.698723	3.66917	0.944686	4.97116	0.520056	2.73228	0.682408	4.32346	0.953884	5.01617
0.569121	2.67463	0.569097	2.67463	0.699556	3.65443	0.946325	4.95381	0.521307	2.72459	0.680481	4.33863	0.954723	4.99443
0.566562	2.67512	0.566538	2.67513	0.700387	3.63984	0.947969	4.93668	0.522562	2.71701	0.678572	4.3541	0.955567	4.97293
0.564003	2.67562	0.563978	2.67563	0.701219	3.62539	0.949618	4.91975	0.523824	2.70954	0.67668	4.36989	0.956418	4.95169
0.561443	2.67612	0.561418	2.67613	0.702049	3.61109	0.951271	4.90301	0.525092	2.70217	0.674807	4.38601	0.957274	4.9307
0.558883	2.67663	0.558858	2.67663	0.70288	3.59693	0.952929	4.88647	0.526366	2.69492	0.672953	4.40246	0.958138	4.90996
0.556322	2.67714	0.556298	2.67714	0.703711	3.58292	0.95459	4.87012	0.527647	2.68777	0.671118	4.41925	0.959009	4.88947
0.553762	2.67765	0.553738	2.67766	0.704542	3.56906	0.956255	4.85395	0.528935	2.68073	0.669303	4.4364	0.959887	4.86922
0.551202	2.67817	0.551177	2.67817	0.705374	3.55533	0.957924	4.83796	0.53023	2.67379	0.667509	4.45391	0.960774	4.84921
0.548642	2.67869	0.548617	2.6787	0.706207	3.54175	0.959595	4.82214	0.531532	2.66696	0.665735	4.47179	0.961669	4.82945
0.546081	2.67922	0.546057	2.67923	0.70704	3.5283	0.961269	4.80649	0.532841	2.66024	0.663983	4.49007	0.962573	4.80993
0.543521	2.67976	0.543497	2.67976	0.707875	3.515	0.962944	4.79101	0.534158	2.65362	0.662254	4.50874	0.963486	4.79065
0.540962	2.6803	0.540937	2.6803	0.708712	3.50183	0.964622	4.77569	0.535484	2.6471	0.660546	4.52782	0.964409	4.77161
0.538402	2.68085	0.538378	2.68085	0.70955	3.4888	0.966302	4.76053	0.536817	2.64069	0.658862	4.54732	0.965342	4.75281
0.535843	2.6814	0.535819	2.68141	0.71039	3.47591	0.967983	4.74553	0.538159	2.63439	0.657201	4.56725	0.966286	4.73424
0.533284	2.68197	0.53326	2.68197	0.711232	3.46315	0.969665	4.73067	0.539509	2.62818	0.655564	4.58763	0.967241	4.7159
0.530726	2.68254	0.530701	2.68254	0.712076	3.45053	0.971347	4.71597	0.540869	2.62208	0.653952	4.60847	0.968207	4.6978
0.528168	2.68312	0.528144	2.68312	0.712923	3.43804	0.97303	4.7014	0.542237	2.61609	0.652364	4.62978	0.969185	4.67993
0.525611	2.6837	0.525586	2.68371	0.713772	3.42568	0.974713	4.68698	0.543616	2.61019	0.650802	4.65157	0.970176	4.66229
0.523054	2.6843	0.52303	2.68431	0.714624	3.41345	0.976396	4.67269	0.545004	2.6044	0.649266	4.67387	0.971179	4.64487
0.520498	2.68491	0.520474	2.68492	0.71548	3.40136	0.978078	4.65853	0.546402	2.59871	0.647756	4.69667	0.972195	4.62769
0.517943	2.68553	0.517919	2.68553	0.716338	3.38939	0.979759	4.64451	0.547811	2.59313	0.646272	4.72	0.973225	4.61073
0.515389	2.68616	0.515365	2.68616	0.7172	3.37755	0.981439	4.63061	0.54923	2.58765	0.644816	4.74388	0.974268	4.594
0.512836	2.6868	0.512812	2.6868	0.718066	3.36584	0.983118	4.61683	0.550661	2.58227	0.643387	4.7683	0.975326	4.57749
0.510284	2.68745	0.510259	2.68746	0.718936	3.35426	0.984795	4.60318	0.552104	2.577	0.641986	4.7933	0.976399	4.5612
0.507733	2.68812	0.507708	2.68812	0.719809	3.3428	0.986471	4.58964	0.553559	2.57184	0.640613	4.81889	0.977487	4.54514
0.505183	2.68879	0.505158	2.6888	0.720687	3.33146	0.988143	4.57622	0.555026	2.56678	0.639269	4.84508	0.97859	4.52929
0.502634	2.68949	0.50261	2.68949	0.721569	3.32025	0.989814	4.56291	0.556507	2.56182	0.637953	4.87189	0.97971	4.51366
0.500087	2.69019	0.500062	2.6902	0.722456	3.30917	0.991481	4.5497	0.558001	2.55698	0.636667	4.89933	0.980845	4.49825
0.497541	2.69092	0.497517	2.69092	0.723347	3.2982	0.993146	4.5366	0.559509	2.55224	0.63541	4.92742	0.981998	4.48306
0.494996	2.69166	0.494972	2.69166	0.724243	3.28736	0.994807	4.52361	0.561033	2.54762	0.634183	4.95619	0.983167	4.46808
0.492454	2.69241	0.49243	2.69242	0.725144	3.27664	0.996464	4.51072	0.562573	2.54311	0.632985	4.98564	0.984354	4.45332
0.489913	2.69318	0.489889	2.69319	0.726051	3.26603	0.998118	4.49792	0.564129	2.53871	0.631818	5.01579	0.985559	4.43877
0.487374	2.69398	0.487349	2.69398	0.726963	3.25555	0.999767	4.48522	0.565703	2.53443	0.630681	5.04667	0.986781	4.42443
0.484836	2.69479	0.484812	2.6948	0.72788	3.24518	1.00141	4.47262	0.567295	2.53028	0.629575	5.0783	0.988022	4.41029
0.482301	2.69562	0.482277	2.69563	0.728803	3.23493			0.568907	2.52624	0.6285	5.11068	0.989282	4.39637
0.479768	2.69648	0.479744	2.69648	0.729732	3.2248			0.57054	2.52234	0.627455	5.14385	0.990561	4.38266
0.477238	2.69735	0.477214	2.69736	0.730667	3.21478			0.572194	2.51856	0.626441	5.17781	0.99186	4.36915
0.47471	2.69825	0.474686	2.69826	0.731609	3.20488			0.573872	2.51492	0.625458	5.2126	0.993178	4.35584
0.472184	2.69918	0.47216	2.69919	0.732557	3.19509			0.575575	2.51142	0.624506	5.24824	0.994516	4.34274
0.469661	2.70013	0.469637	2.70014	0.733511	3.18541			0.577304	2.50807	0.623586	5.28474	0.995874	4.32984
0.467141	2.70111	0.467117	2.70112	0.734472	3.17585			0.579061	2.50486	0.622697	5.32212	0.997252	4.31714
0.464625	2.70212	0.464601	2.70213	0.73544	3.1664			0.580848	2.50181	0.621839	5.36042	0.998652	4.30463
0.462111	2.70316	0.462087	2.70317	0.736415	3.15706			0.582666	2.49892	0.621012	5.39965	1.00007	4.29233
0.459601	2.70423	0.459577	2.70424	0.737397	3.14783			0.584517	2.4962	0.620216	5.43985		
0.457094	2.70534	0.45707	2.70535	0.738386	3.1387			0.586402	2.49364	0.619451	5.48102		
0.454591	2.70648	0.454568	2.70649	0.739383	3.12969			0.588324	2.49126	0.618717	5.52321		
0.452093	2.70766	0.452069	2.70767	0.740388	3.12079			0.590282	2.48905	0.618015	5.56643		
0.449598	2.70888	0.449574	2.70889	0.741401	3.11199			0.592279	2.48703	0.617343	5.61071		
0.447108	2.71014	0.447084	2.71015	0.742421	3.1033			0.594316	2.48519	0.616701	5.65608		
0.444623	2.71145	0.444599	2.71146	0.74345	3.09472			0.596392	2.48352	0.616091	5.70257		
0.442142	2.7128	0.442119	2.71281	0.744487	3.08624			0.598508	2.48204	0.615511	5.75021		
0.439667	2.7142	0.439644	2.71421	0.745533	3.07787			0.600663	2.48073	0.61496	5.79904		
0.437198	2.71565	0.437174	2.71567	0.746588	3.0696			0.602857	2.47959	0.61444	5.84907		
0.434734	2.71716	0.434711	2.71717	0.747651	3.06143			0.605089	2.47862	0.61395	5.90034		
0.432277	2.71873	0.432253	2.71874	0.748724	3.05337			0.607358	2.4778	0.613489	5.9529		
0.429826	2.72035	0.429803	2.72037	0.749806	3.04541			0.609661	2.47713	0.613058	6.00677		
0.427382	2.72205	0.427359	2.72206	0.750897	3.03756			0.611997	2.4766	0.612656	6.06199		
0.424946	2.72381	0.424923	2.72382	0.751998	3.02981			0.614365	2.4762	0.612282	6.11859		
0.422517	2.72564	0.422494	2.72566	0.753109	3.02215			0.616761	2.47592	0.611937	6.17662		
0.420097	2.72755	0.420074	2.72757	0.75423	3.0146			0.619185	2.47575	0.611621	6.23612		
0.417685	2.72955	0.417662	2.72957	0.755361	3.00715			0.621633	2.47568	0.611332	6.29713		
0.415283	2.73163	0.41526	2.73165	0.756503	2.9998			0.624104	2.4757	0.611071	6.35969		
0.412891	2.7338	0.412868	2.73382	0.757655	2.99255			0.626596	2.47581	0.610838	6.42385		
0.410509	2.73607	0.410486	2.7361	0.758819	2.9854			0.629108	2.47599	0.610632	6.48966		
0.408138	2.73845	0.408115	2.73847	0.759993	2.97835			0.631637	2.47624	0.610452	6.55716		
0.405778	2.74094	0.405756	2.74096	0.761179	2.9714			0.634182	2.47654	0.610299	6.62641		
0.403431	2.74354	0.403409	2.74357	0.762376	2.96455			0.636742	2.47691	0.610172	6.69746		
0.401097	2.74627	0.401075	2.7463	0.763586	2.9578			0.639315	2.47732	0.61007	6.77037		
0.398777	2.74914	0.398755	2.74916	0.764807	2.95114			0.641901	2.47777	0.609994	6.84519		
0.396472	2.75214	0.39645	2.75217	0.766041	2.94458			0.644497	2.47827	0.609944	6.92199		
0.394182	2.7553	0.394161	2.75533	0.767287	2.93813			0.647103	2.47879	0.609917	7.00082		
0.391909	2.75861	0.391888	2.75865	0.768546	2.93177			0.649719	2.47935	0.609916	7.08177		
0.389654	2.7621	0.389632	2.76214	0.769819	2.9255			0.652343	2.47994	0.609938	7.16489		
0.387417	2.76577	0.387395	2.76581	0.771104	2.91934			0.654974	2.48055	0.609984	7.25025		
0.385199	2.76964	0.385178	2.76967	0.772404	2.91327			0.657613	2.48118	0.610053	7.33795		
0.383003	2.77371	0.382982	2.77375	0.773717	2.90731			0.660257	2.48184	0.610145	7.42805		
0.380828	2.77799	0.380807	2.77804	0.775045	2.90144			0.662908	2.48251	0.61026	7.52064		
0.378676	2.78252	0.378656	2.78256	0.776387	2.89566			0.665564	2.48319	0.610397	7.61581		
0.376549	2.78728	0.376529	2.78733	0.777745	2.88999			0.668225	2.48389	0.610555	7.71364		
0.374447	2.79232	0.374427	2.79236	0.779117	2.88442			0.67089	2.48459	0.610735	7.81425		
0.372373	2.79762	0.372353	2.79768	0.780505	2.87894			0.673559	2.48531	0.610936	7.91772		
0.370327	2.80323	0.370307	2.80328	0.781909	2.87356			0.676233	2.48604	0.611158	8.02418		
0.36831	2.80915	0.368291	2.8092	0.783329	2.86828			0.678909	2.48677	0.6114	8.13372		
0.366325	2.81539	0.366306	2.81545	0.784766	2.8631			0.681589	2.48751	0.611627	8.2318		
0.364373	2.82199	0.364354	2.82205	0.786219	2.85801			0.684272	2.48826	0.611833	8.31739		
0.362454	2.82895	0.362436	2.82902	0.78769	2.85303			0.686957	2.48901	0.612011	8.38959		
0.360571	2.8363	0.360553	2.83637	0.789178	2.84815			0.689645	2.48976	0.612156	8.44761		
0.358724	2.84406	0.358707	2.84414	0.790685	2.84336			0.692335	2.49052	0.612266	8.49081		
0.356915	2.85224	0.356898	2.85232	0.792209	2.83868			0.695028	2.49128	0.61237	8.53096		
0.355146	2.86087	0.355129	2.86096	0.793752	2.83409			0.697722	2.49204	0.612443	8.55912		
0.353417	2.86997	0.3534	2.87006	0.795314	2.8296			0.700418	2.4928	0.612559	8.60351		
0.351729	2.87955	0.351713	2.87965	0.796895	2.82522			0.703116	2.49356	0.61272	8.66466		
0.350083	2.88964	0.350068	2.88974	0.798495	2.82093			0.705815	2.49433	0.612931	8.74329		
0.348481	2.90026	0.348466	2.90037	0.800115	2.81674			0.708516	2.49509	0.613195	8.84035		
0.346922	2.91143	0.346908	2.91154	0.801755	2.81265			0.711218	2.49585	0.613516	8.95707		
0.345408	2.92316	0.345394	2.92327	0.803416	2.80866			0.713922	2.49661	0.613902	9.09495		
0.34394	2.93547	0.343926	2.93559	0.805097	2.80477			0.716626	2.49737	0.614304	9.23722		
0.342516	2.94839	0.342503	2.94851	0.806798	2.80098			0.719331	2.49813	0.614723	9.38406		
0.341139	2.96192	0.341126	2.96205	0.808521	2.79729			0.722038	2.49888	0.615158	9.53569		
0.339807	2.9761	0.339795	2.97624	0.810265	2.7937			0.724745	2.49963	0.615608	9.69232		
0.338521	2.99093	0.338509	2.99107	0.812029	2.7902			0.727453	2.50039	0.616074	9.85418		
0.337281	3.00643	0.33727	3.00658	0.813815	2.7868			0.730162	2.50113	0.616555	10.0215		
0.336087	3.02262	0.336076	3.02278	0.815623	2.78349			0.732871	2.50188	0.61705	10.1946		
0.334938	3.03951	0.334927	3.03968	0.817452	2.78028			0.735581	2.50262	0.617559	10.3737		
0.333834	3.05713	0.333824	3.0573	0.819302	2.77717			0.738292	2.50336	0.618082	10.5592		
0.332775	3.07548	0.332765	3.07566	0.821173	2.77415			0.741003	2.50409	0.618618	10.7513		
0.33176	3.09459	0.331751	3.09477	0.823066	2.77122			0.743715	2.50483	0.619167	10.9504		
0.330789	3.11446	0.33078	3.11466	0.824979	2.76837			0.746427	2.50556	0.619728	11.1568		
0.329861	3.13513	0.329852	3.13533	0.826914	2.76562			0.749139	2.50628	0.620301	11.3711		
0.328976	3.1566	0.328967	3.1568	0.82887	2.76296			0.751852	2.507	0.620885	11.5934		
0.328132	3.17888	0.328125	3.1791	0.830845	2.76038			0.754565	2.50772	0.62148	11.8245		
0.32733	3.20201	0.327323	3.20224	0.832842	2.75789			0.757278	2.50843	0.622086	12.0646		
0.326569	3.226	0.326562	3.22623	0.834858	2.75547			0.759991	2.50914	0.622701	12.3144		
0.325848	3.25086	0.325842	3.25111	0.836894	2.75314			0.762704	2.50985	0.623326	12.5745		
0.325167	3.27663	0.325161	3.27688	0.838949	2.75089			0.765418	2.51055	0.62396	12.8454		
0.324525	3.30331	0.324519	3.30357	0.841023	2.74871			0.768132	2.51125	0.624602	13.1278		
0.323921	3.33093	0.323915	3.3312	0.843115	2.74661			0.770846	2.51194	0.625252	13.4224		
0.323354	3.35952	0.323349	3.35979	0.845225	2.74458			0.77356	2.51263	0.62591	13.7301		
0.322826	3.38909	0.322821	3.38938	0.847354	2.74262			0.776273	2.51331	0.626574	14.0517		
0.322333	3.41968	0.322329	3.41998	0.849499	2.74073			0.778987	2.51399	0.627244	14.3881		
0.321877	3.45131	0.321873	3.45162	0.851661	2.7389			0.781701	2.51467	0.627919	14.7404		
0.321456	3.48401	0.321452	3.48433	0.853839	2.73714			0.784415	2.51534	0.6286	15.1097		
0.321071	3.5178	0.321067	3.51813	0.856033	2.73544			0.787129	2.516	0.629285	15.4971		
0.32072	3.55273	0.320716	3.55307	0.858242	2.7338			0.789842	2.51666	0.629973	15.9042		
0.320403	3.58881	0.3204	3.58917	0.860466	2.73221			0.792556	2.51732	0.630664	16.3323		
0.320119	3.6261	0.320117	3.62646	0.862705	2.73068			0.795269	2.51797	0.631358	16.7832		
0.319869	3.66461	0.319867	3.66498	0.864957	2.72921			0.797982	2.51862	0.632053	17.2586		
0.319652	3.70439	0.31965	3.70477	0.867222	2.72778			0.800695	2.51926	0.632748	17.7607		
0.319467	3.74548	0.319465	3.74587	0.8695	2.72641			0.803408	2.5199	0.633444	18.2916		
0.319314	3.78791	0.319312	3.78833	0.871791	2.72508			0.80612	2.52053	0.634139	18.8539		
0.319192	3.83174	0.319191	3.83217	0.874093	2.7238			0.808833	2.52116	0.634831	19.4505		
0.319101	3.87701	0.319101	3.87745	0.876407	2.72256			0.811545	2.52179	0.635521	20.0845		
0.319042	3.92377	0.319041	3.92422	0.878732	2.72136			0.814256	2.52241	0.636208	20.7597		
0.319012	3.97206	0.319012	3.97253	0.881068	2.7202			0.816968	2.52302	0.63689	21.4801		
0.319012	4.02195	0.319013	4.02243	0.883413	2.71908			0.819679	2.52363	0.637567	22.2504		
0.319043	4.07348	0.319043	4.07398	0.885769	2.718			0.82239	2.52424	0.638237	23.0759		
0.319102	4.12672	0.319103	4.12723	0.888134	2.71695			0.8251	2.52484	0.638899	23.9628		
0.31919	4.18172	0.319191	4.18226	0.890507	2.71594			0.82781	2.52543	0.639553	24.9182		
0.319307	4.23856	0.319308	4.23911	0.89289	2.71496			0.83052	2.52602	0.640198	25.9503		
0.319452	4.2973	0.319454	4.29787	0.89528	2.71401			0.833229	2.52661	0.640831	27.0688		
0.319625	4.35802	0.319627	4.35861	0.897679	2.71309			0.835938	2.52719	0.641452	28.2851		
0.319798	4.41261	0.319828	4.4214	0.900085	2.71219			0.838646	2.52777	0.64206	29.6125		
0.319962	4.46041	0.320056	4.48633	0.902498	2.71133			0.841354	2.52834	0.642653	31.067		
0.320109	4.50084	0.32031	4.55347	0.904919	2.71049			0.844061	2.5289	0.643231	32.6679		
0.320233	4.53341	0.320592	4.62293	0.907346	2.70967			0.846768	2.52947	0.643791	34.4384		
0.320327	4.55771	0.3209	4.6948	0.909779	2.70888			0.849474	2.53002	0.644333	36.4072		
0.320417	4.58032	0.321233	4.76918	0.912219	2.70812			0.85218	2.53057	0.644856	38.6096		
0.320482	4.59619	0.321592	4.84617	0.914664	2.70737			0.854885	2.53112	0.645357	41.09		
0.320585	4.62125	0.321977	4.9259	0.917115	2.70664			0.85759	2.53166	0.645836	43.9048		
0.320731	4.65582	0.322386	5.00848	0.919571	2.70594			0.860293	2.5322	0.646291	47.1268		
0.320924	4.70038	0.322819	5.09404	0.922033	2.70525			0.862997	2.53273	0.64672	50.8514		
0.321171	4.75553	0.323277	5.18272	0.924499	2.70459			0.8657	2.53326	0.647124	55.2067		
0.321478	4.82205	0.323759	5.27467	0.92697	2.70394			0.868401	2.53378	0.6475	60.3684		
0.321855	4.90092	0.324264	5.37004	0.929445	2.7033			0.871103	2.5343	0.647847	66.5839		
0.322256	4.9826	0.324793	5.469	0.931925	2.70269			0.873803	2.53481	0.648164	74.2136		
0.322683	5.06723	0.325344	5.57173	0.934409	2.70208			0.876503	2.53531	0.64845	83.8036		
0.323133	5.15493	0.325917	5.67841	0.936897	2.7015			0.879202	2.53582	0.648704	96.2224		
0.323607	5.24585	0.326513	5.78924	0.939389	2.70093			0.881901	2.53631	0.648924	112.941		
0.324105	5.34014	0.32713	5.90446	0.941884	2.70037			0.884598	2.5368	0.649111	136.665		
0.324627	5.43797	0.327768	6.02428	0.944383	2.69982			0.887295	2.53729	0.649264	172.969		
0.325171	5.53951	0.328427	6.14896	0.946885	2.69929			0.889991	2.53777	0.649381	235.487		
0.325737	5.64495	0.329106	6.27877	0.94939	2.69877			0.892685	2.53824	0.649463	368.68		
0.326326	5.75448	0.329806	6.41399	0.951898	2.69826			0.895379	2.53872	0.649508	848.404		
0.326936	5.86831	0.330525	6.55495	0.954409	2.69776			0.898072	2.53918				
0.327568	5.98668	0.331263	6.70197	0.956923	2.69727			0.900764	2.53964				
0.328221	6.10983	0.332019	6.85542	0.959439	2.69679			0.903455	2.54009				
0.328894	6.23802	0.332794	7.0157	0.961958	2.69632			0.906145	2.54054				
0.329587	6.37154	0.333587	7.18324	0.96448	2.69586			0.908834	2.54098				
0.3303	6.51068	0.334396	7.3585	0.967003	2.69541			0.911522	2.54142				
0.331032	6.65579	0.335116	7.51791	0.969529	2.69497			0.914208	2.54185				
0.331783	6.80721	0.335738	7.65901	0.972057	2.69454			0.916893	2.54228				
0.332552	6.96533	0.33626	7.77949	0.974587	2.69411			0.919577	2.5427				
0.33334	7.13058	0.336676	7.8773	0.977119	2.6937			0.92226	2.54311				
0.334144	7.30339	0.336985	7.95069	0.979652	2.69328			0.924942	2.54352				
0.334965	7.48427	0.33727	8.01935	0.982188	2.69288			0.927622	2.54392				
0.335803	7.67376	0.33747	8.06776	0.984725	2.69248			0.9303	2.54432				
0.336656	7.87245	0.337783	8.14452	0.987263	2.69209			0.932978	2.54471				
0.337524	8.08097	0.338213	8.25111	0.989803	2.69171			0.935653	2.54509				
0.338407	8.30003	0.33876	8.3897	0.992344	2.69133			0.938327	2.54547				
0.339304	8.53042	0.339429	8.56318	0.994887	2.69096			0.940999	2.54584				
0.340214	8.77298	0.340223	8.77536	0.997431	2.69059			0.94367	2.5462				
0.341136	9.02866	0.341145	9.03117	0.999976	2.69023			0.946339	2.54656				
0.342071	9.29851	0.34208	9.30116	1.00252	2.68987			0.949006	2.54691				
0.343016	9.58369	0.343025	9.58648					0.951671	2.54725				
0.343972	9.88548	0.343981	9.88845					0.954333	2.54759				
0.344937	10.2053	0.344946	10.2085					0.956994	2.54792				
0.34591	10.5449	0.345919	10.5482					0.959653	2.54824				
0.346891	10.9059	0.3469	10.9095					0.962309	2.54855				
0.347878	11.2905	0.347888	11.2943					0.964963	2.54886				
0.348871	11.701	0.348881	11.705					0.967615	2.54916				
0.349868	12.14	0.349878	12.1443					0.970264	2.54944				
0.350868	12.6105	0.350877	12.6152					0.97291	2.54972				
0.351869	13.116	0.351879	13.121					0.975553	2.55				
0.352871	13.6605	0.352881	13.6659					0.978194	2.55026				
0.353872	14.2487	0.353881	14.2545					0.980831	2.55051				
0.354869	14.8858	0.354878	14.8922					0.983465	2.55075				
0.355861	15.5783	0.355871	15.5852					0.986096	2.55099				
0.356847	16.3337	0.356856	16.3412					0.988723	2.55121				
0.357824	17.1607	0.357833	17.169					0.991346	2.55142				
0.35879	18.0702	0.358799	18.0793					0.993966	2.55162				
0.359742	19.0751	0.359751	19.0852					0.996581	2.55181				
0.360678	20.1911	0.360686	20.2023					0.999192	2.55199				
0.361595	21.4377	0.361603	21.4503					1.0018	2.55215				
0.362489	22.8395	0.362498	22.8537										
0.363359	24.4272	0.363367	24.4434										
0.3642	26.2408	0.364208	26.2594										
0.365008	28.3323	0.365016	28.3538										
0.365781	30.7712	0.365788	30.7965										
0.366512	33.6526	0.366519	33.6826										
0.3672	37.1095	0.367206	37.1458										
0.367839	41.3347	0.367845	41.3796										
0.368425	46.6183	0.36843	46.6751										
0.368953	53.4175	0.368958	53.4918										
0.36942	62.4977	0.369424	62.599										
0.369822	75.2448	0.369826	75.3913										
0.370155	94.454	0.370158	94.6843										
0.370417	126.73	0.370419	127.144										
0.370604	192.337	0.370606	193.291										
0.370715	398.264	0.370716	402.373										
