Sym0		Asym0		Sym1		Sym2		Sym3		Sym4		Asym1		Asym2		Asym3		Asym4	
458  Points		540  Points		458  Points		407  Points		370  Points		281  Points		481  Points		422  Points		371  Points		280  Points	
Freq (MHz)	Vph (m/ms)	Freq (MHz)	Vph (m/ms)	Freq (MHz)	Vph (m/ms)	Freq (MHz)	Vph (m/ms)	Freq (MHz)	Vph (m/ms)	Freq (MHz)	Vph (m/ms)	Freq (MHz)	Vph (m/ms)	Freq (MHz)	Vph (m/ms)	Freq (MHz)	Vph (m/ms)	Freq (MHz)	Vph (m/ms)
0.279507	346.366	0.000313279	0.108875	0.279507	368.411	0.356447	4910.73	0.559017	1885.06	0.838526	2374.31	0.139755	1271.55	0.419264	721.192	0.69877	1642.62	0.712894	5317.35
0.2795	160.755	0.0005481	0.143892	0.2795	165.348	0.356463	354.944	0.559024	455.14	0.83853	652.622	0.139795	134.212	0.419274	277.106	0.698759	514.894	0.712911	668.92
0.279488	104.663	0.000847204	0.178705	0.279489	106.591	0.356507	184.148	0.55904	258.822	0.838537	378.306	0.139902	70.8975	0.419292	171.508	0.698736	305.287	0.712953	356.93
0.279472	77.5867	0.00120978	0.21327	0.279473	78.6412	0.356578	124.344	0.559063	180.831	0.83855	266.354	0.140074	48.2183	0.419319	124.19	0.698703	216.956	0.713021	243.422
0.27945	61.6378	0.00163487	0.24755	0.279452	62.3016	0.356678	93.8782	0.559095	138.963	0.838566	205.534	0.140311	36.5709	0.419354	97.3401	0.698659	168.263	0.713114	184.704
0.279425	51.1257	0.0021214	0.281506	0.279426	51.5817	0.356804	75.4174	0.559135	112.842	0.838587	167.328	0.140612	29.4885	0.419397	80.0403	0.698604	137.416	0.713231	148.821
0.279394	43.6749	0.00266802	0.315086	0.279396	44.0073	0.356958	63.0361	0.559184	94.9907	0.838611	141.101	0.140977	24.7325	0.419449	67.9653	0.69854	116.122	0.713373	124.623
0.27936	38.1179	0.00327342	0.348263	0.279362	38.371	0.35714	54.1576	0.559241	82.0192	0.83864	121.983	0.141405	21.3223	0.41951	59.0592	0.698467	100.538	0.713537	107.203
0.279321	33.8139	0.00393618	0.381007	0.279323	34.013	0.357348	47.4809	0.559306	72.1675	0.838674	107.43	0.141894	18.7604	0.419579	52.2195	0.698386	88.6394	0.713725	94.0642
0.279279	30.382	0.0046547	0.413286	0.279281	30.5427	0.357583	42.2783	0.55938	64.4313	0.838711	95.9797	0.142443	16.7675	0.419657	46.8022	0.698298	79.2561	0.713933	83.8017
0.279233	27.5815	0.00542744	0.445077	0.279235	27.7139	0.357845	38.111	0.559462	58.1955	0.838753	86.7366	0.143051	15.1748	0.419743	42.4056	0.698203	71.6668	0.714163	75.5647
0.279183	25.2526	0.00625263	0.476352	0.279186	25.3636	0.358133	34.6986	0.559553	53.0623	0.838799	79.1184	0.143716	13.8741	0.419838	38.7662	0.698103	65.4019	0.714413	68.8079
0.279131	23.2855	0.00712869	0.5071	0.279134	23.3799	0.358446	31.8536	0.559652	48.7633	0.838849	72.7314	0.144437	12.7931	0.419941	35.7041	0.697998	60.1425	0.714682	63.1657
0.279076	21.602	0.00805382	0.537299	0.279079	21.6832	0.358786	29.4458	0.559759	45.1106	0.838903	67.2996	0.145212	11.8813	0.420052	33.0922	0.697889	55.6644	0.71497	58.3835
0.279018	20.1447	0.00902632	0.566939	0.279022	20.2154	0.359151	27.382	0.559874	41.9687	0.838961	62.6236	0.14604	11.1026	0.420173	30.8382	0.697777	51.8056	0.715275	54.2788
0.278959	18.871	0.0100444	0.596006	0.278962	18.9331	0.359541	25.5938	0.559998	39.2376	0.839024	58.5559	0.146919	10.4306	0.420301	28.8732	0.697662	48.446	0.715597	50.7174
0.278898	17.7483	0.0111063	0.624492	0.278901	17.8032	0.359956	24.0296	0.560131	36.8418	0.839091	54.9853	0.147846	9.84525	0.420438	27.1453	0.697546	45.4945	0.715935	47.5983
0.278836	16.7511	0.0122104	0.652397	0.278839	16.8001	0.360396	22.6501	0.560271	34.7232	0.839162	51.8258	0.148821	9.33125	0.420584	25.6139	0.697428	42.8812	0.716289	44.844
0.278773	15.8597	0.013355	0.679714	0.278776	15.9035	0.360859	21.4247	0.56042	32.8364	0.839238	49.0104	0.149842	8.87668	0.420738	24.2475	0.69731	40.551	0.716657	42.3943
0.278709	15.0579	0.0145383	0.70644	0.278712	15.0975	0.361345	20.3291	0.560577	31.1453	0.839317	46.4857	0.150907	8.47214	0.420901	23.0208	0.697193	38.4603	0.71704	40.2012
0.278645	14.333	0.0157588	0.732581	0.278649	14.3688	0.361855	19.3438	0.560743	29.6212	0.839401	44.2091	0.151869	8.15446	0.421073	21.9135	0.697075	36.574	0.717436	38.2266
0.278582	13.6744	0.0170148	0.758135	0.278585	13.707	0.362388	18.4532	0.560917	28.2405	0.839489	42.1457	0.152713	7.906	0.421252	20.909	0.696959	34.8637	0.717845	36.4395
0.278519	13.0734	0.0183049	0.783109	0.278523	13.1033	0.362943	17.6444	0.5611	26.9839	0.839582	40.2668	0.153428	7.71443	0.421441	19.9937	0.696845	33.3057	0.718267	34.8144
0.278458	12.5229	0.0196276	0.807507	0.278461	12.5503	0.36352	16.9067	0.56129	25.8355	0.839678	38.5489	0.154004	7.5711	0.421638	19.1563	0.696732	31.8807	0.718702	33.3302
0.278398	12.0167	0.0209813	0.831334	0.278401	12.0419	0.364118	16.2312	0.56149	24.7819	0.839779	36.9721	0.154433	7.46998	0.421843	18.3873	0.696622	30.5723	0.719148	31.9696
0.27834	11.5497	0.0223648	0.854604	0.278343	11.573	0.364737	15.6104	0.561697	23.8119	0.839884	35.5198	0.15471	7.40708	0.422057	17.6787	0.696515	29.3668	0.719605	30.7176
0.278284	11.1176	0.0237767	0.877319	0.278287	11.1392	0.365378	15.0382	0.561913	22.9159	0.839993	34.1777	0.155111	7.31903	0.422279	17.0237	0.69641	28.2526	0.720074	29.5619
0.278231	10.7166	0.0252155	0.899489	0.278234	10.7366	0.366038	14.509	0.562137	22.0859	0.840107	32.9338	0.155552	7.22637	0.42251	16.4164	0.696309	27.2196	0.720553	28.4918
0.278182	10.3435	0.0266803	0.921126	0.278184	10.3622	0.366718	14.0183	0.56237	21.3148	0.840224	31.7778	0.156158	7.10518	0.42275	15.8518	0.696212	26.2594	0.721043	27.4981
0.278136	9.99548	0.0281697	0.94224	0.278138	10.0129	0.367418	13.562	0.56261	20.5966	0.840346	30.7006	0.156938	6.9594	0.422997	15.3257	0.696119	25.3646	0.721543	26.573
0.278094	9.67019	0.0296828	0.962843	0.278096	9.68652	0.368136	13.1367	0.56286	19.9261	0.840472	29.6945	0.157897	6.79343	0.423254	14.8343	0.69603	24.5286	0.722053	25.7096
0.278056	9.36546	0.0312183	0.982945	0.278058	9.38077	0.368874	12.7395	0.563117	19.2986	0.840603	28.7526	0.159045	6.61187	0.423519	14.3742	0.695945	23.7459	0.722573	24.902
0.278023	9.07942	0.0327751	1.00255	0.278024	9.09382	0.369629	12.3676	0.563383	18.7103	0.840737	27.8691	0.160392	6.41923	0.423793	13.9426	0.695864	23.0117	0.723102	24.145
0.277995	8.81045	0.0343526	1.02169	0.277996	8.82399	0.370402	12.0188	0.563657	18.1576	0.840876	27.0386	0.161769	6.24161	0.424075	13.5369	0.695789	22.3214	0.72364	23.4339
0.277973	8.55707	0.0359494	1.04035	0.277974	8.56984	0.371193	11.691	0.56394	17.6373	0.841019	26.2566	0.163175	6.07738	0.424365	13.155	0.695718	21.6714	0.724188	22.7648
0.277957	8.318	0.037565	1.05856	0.277957	8.33006	0.372	11.3824	0.564231	17.1468	0.841166	25.5189	0.164608	5.92516	0.424664	12.7947	0.695652	21.0582	0.724744	22.1341
0.277947	8.09208	0.0391982	1.07633	0.277948	8.13191	0.372824	11.0915	0.56453	16.6835	0.841318	24.8219	0.166068	5.78373	0.424972	12.4544	0.695592	20.4788	0.725309	21.5384
0.277943	7.87828	0.0408485	1.09366	0.277944	7.9704	0.373665	10.8167	0.564838	16.2453	0.841474	24.1623	0.167552	5.65203	0.425288	12.1324	0.695537	19.9305	0.725883	20.9752
0.277947	7.67568	0.0425149	1.11058	0.277943	7.84168	0.374521	10.5567	0.565153	15.8302	0.841634	23.5372	0.16906	5.52913	0.425613	11.8273	0.695487	19.4108	0.726465	20.4416
0.277958	7.48344	0.0441969	1.12708	0.277945	7.74287	0.375393	10.3105	0.565478	15.4364	0.841798	22.944	0.170591	5.41422	0.425947	11.5378	0.695443	18.9177	0.727055	19.9356
0.277977	7.30081	0.0458936	1.14319	0.277947	7.67181	0.37628	10.077	0.56581	15.0624	0.841966	22.3802	0.172144	5.30659	0.426288	11.2628	0.695404	18.4491	0.727654	19.455
0.278003	7.12711	0.0476044	1.15891	0.277949	7.62704	0.377181	9.85526	0.566151	14.7067	0.842139	21.8439	0.173718	5.20558	0.426639	11.0013	0.695371	18.0032	0.728261	18.998
0.278038	6.96172	0.0493287	1.17425	0.277952	7.56359	0.378098	9.64442	0.5665	14.3681	0.842316	21.3329	0.175311	5.11063	0.426998	10.7522	0.695344	17.5785	0.728876	18.5629
0.278082	6.80408	0.0510658	1.18923	0.277957	7.49584	0.379028	9.44372	0.566858	14.0452	0.842497	20.8456	0.176923	5.02124	0.427365	10.5148	0.695323	17.1734	0.729498	18.1481
0.278134	6.65368	0.0528153	1.20385	0.277965	7.40568	0.379972	9.25246	0.567224	13.7372	0.842683	20.3804	0.178552	4.93695	0.427741	10.2882	0.695308	16.7868	0.730129	17.7523
0.278196	6.51006	0.0545766	1.21813	0.277977	7.29478	0.38093	9.07	0.567598	13.4429	0.842872	19.9357	0.180199	4.85736	0.428126	10.0717	0.695299	16.4173	0.730767	17.3742
0.278267	6.37279	0.056349	1.23207	0.277997	7.16514	0.381901	8.89577	0.56798	13.1615	0.843066	19.5104	0.181863	4.7821	0.428519	9.86478	0.695296	16.0638	0.731413	17.0127
0.278348	6.24147	0.0581322	1.24568	0.278025	7.01899	0.382884	8.72924	0.568371	12.8923	0.843264	19.1031	0.183541	4.71083	0.428921	9.66669	0.695299	15.7254	0.732066	16.6667
0.27844	6.11574	0.0599258	1.25898	0.278065	6.85869	0.38388	8.56992	0.56877	12.6343	0.843467	18.7127	0.185235	4.64327	0.429331	9.47695	0.695309	15.4011	0.732726	16.3353
0.278541	5.99529	0.0617292	1.27197	0.278115	6.7058	0.384889	8.41735	0.569177	12.387	0.843673	18.3382	0.186943	4.57913	0.42975	9.29503	0.695324	15.09	0.733394	16.0175
0.278653	5.87979	0.063542	1.28466	0.278173	6.55985	0.385909	8.27114	0.569593	12.1497	0.843884	17.9787	0.188664	4.51818	0.430178	9.12049	0.695346	14.7914	0.73407	15.7125
0.278777	5.76897	0.0653638	1.29706	0.278241	6.42039	0.386808	8.14861	0.570017	11.9218	0.844099	17.6333	0.190399	4.4602	0.430614	8.95288	0.695375	14.5045	0.734752	15.4196
0.278911	5.66257	0.0671944	1.30918	0.278319	6.28701	0.387581	8.04756	0.570449	11.7028	0.844319	17.3012	0.192145	4.40497	0.431058	8.79182	0.695409	14.2288	0.735442	15.1381
0.279056	5.56035	0.0690331	1.32102	0.278406	6.15936	0.388225	7.96627	0.57089	11.4922	0.844542	16.9815	0.193904	4.35232	0.431511	8.63693	0.695451	13.9634	0.736138	14.8673
0.279214	5.46208	0.0708798	1.3326	0.278504	6.03709	0.388738	7.90339	0.571339	11.2895	0.84477	16.6737	0.195673	4.30208	0.431973	8.48789	0.695498	13.7079	0.736842	14.6067
0.279383	5.36756	0.0727341	1.34393	0.278613	5.91988	0.389116	7.85792	0.571796	11.0943	0.845002	16.3772	0.197454	4.25408	0.432444	8.34437	0.695552	13.4618	0.737553	14.3556
0.279564	5.27659	0.0745957	1.355	0.278732	5.80745	0.389359	7.82915	0.572262	10.9061	0.845239	16.0912	0.199244	4.20818	0.43286	8.22358	0.695613	13.2245	0.738271	14.1136
0.279757	5.189	0.0764643	1.36582	0.278862	5.69952	0.389709	7.78825	0.572735	10.7247	0.84548	15.8152	0.201045	4.16426	0.433221	8.12361	0.69568	12.9956	0.738995	13.8803
0.279963	5.1046	0.0783396	1.37641	0.279004	5.59585	0.390091	7.74438	0.573217	10.5497	0.845724	15.5488	0.202854	4.1222	0.433523	8.04295	0.695754	12.7746	0.739726	13.655
0.280182	5.02326	0.0802213	1.38677	0.279157	5.49622	0.390612	7.68569	0.573708	10.3807	0.845974	15.2915	0.204673	4.08187	0.433763	7.98042	0.695834	12.5612	0.740464	13.4376
0.280414	4.94482	0.0821092	1.39691	0.279322	5.4004	0.391275	7.613	0.574206	10.2175	0.846227	15.0427	0.2065	4.04319	0.433942	7.93512	0.695921	12.355	0.741209	13.2274
0.280659	4.86914	0.0840029	1.40683	0.279499	5.3082	0.392082	7.52734	0.574713	10.0598	0.846485	14.8022	0.208335	4.00604	0.434057	7.90643	0.696015	12.1556	0.741961	13.0243
0.280917	4.7961	0.0859024	1.41654	0.279688	5.21944	0.393036	7.42984	0.575228	9.9072	0.846747	14.5694	0.210179	3.97035	0.434222	7.86559	0.696115	11.9627	0.742719	12.8278
0.281189	4.72557	0.0878073	1.42604	0.279889	5.13394	0.394141	7.32176	0.575751	9.7596	0.847013	14.344	0.212029	3.93603	0.434404	7.82173	0.696222	11.776	0.743483	12.6376
0.281475	4.65745	0.0897175	1.43534	0.280104	5.05154	0.395254	7.21753	0.576283	9.61673	0.847284	14.1257	0.213887	3.90301	0.434652	7.76294	0.696336	11.5952	0.744254	12.4535
0.281775	4.59162	0.0916327	1.44445	0.280331	4.97209	0.396378	7.11697	0.576823	9.47838	0.847558	13.9142	0.215751	3.87122	0.434968	7.68999	0.696456	11.42	0.745032	12.2752
0.282089	4.52799	0.0935526	1.45337	0.280571	4.89546	0.397511	7.01988	0.577371	9.34433	0.847837	13.7091	0.217622	3.84058	0.435356	7.6038	0.696583	11.2502	0.745816	12.1023
0.282417	4.46646	0.0954773	1.46211	0.280825	4.8215	0.398653	6.92609	0.577927	9.21439	0.848121	13.5101	0.219499	3.81104	0.435816	7.50541	0.696717	11.0856	0.746606	11.9347
0.28276	4.40695	0.0974064	1.47067	0.281092	4.7501	0.399804	6.83544	0.578492	9.08838	0.848408	13.317	0.221382	3.78255	0.436353	7.39598	0.696857	10.9258	0.747403	11.7721
0.283117	4.34937	0.0993398	1.47906	0.281373	4.68115	0.400964	6.74778	0.579065	8.96614	0.8487	13.1296	0.223271	3.75504	0.436898	7.2901	0.697004	10.7708	0.748206	11.6143
0.28349	4.29364	0.101277	1.48727	0.281668	4.61452	0.402132	6.66297	0.579646	8.84751	0.848996	12.9476	0.225165	3.72847	0.437452	7.1876	0.697158	10.6203	0.749016	11.4611
0.283878	4.23968	0.103219	1.49532	0.281976	4.55013	0.403309	6.58088	0.580235	8.73232	0.849297	12.7707	0.227064	3.70279	0.438014	7.08833	0.697319	10.4741	0.749831	11.3123
0.284281	4.18744	0.105164	1.50321	0.2823	4.48788	0.404493	6.50137	0.580833	8.62044	0.849601	12.5988	0.228968	3.67797	0.438585	6.99214	0.697486	10.332	0.750653	11.1678
0.2847	4.13683	0.107113	1.51095	0.282637	4.42766	0.405686	6.42434	0.581439	8.51173	0.84991	12.4316	0.230877	3.65394	0.439165	6.89891	0.69766	10.1939	0.751481	11.0272
0.285134	4.08781	0.109065	1.51853	0.28299	4.36941	0.406887	6.34967	0.581973	8.41949	0.850223	12.269	0.23279	3.63068	0.439753	6.8085	0.697841	10.0596	0.752315	10.8906
0.285585	4.0403	0.111021	1.52597	0.283357	4.31304	0.408095	6.27725	0.582434	8.34262	0.850541	12.1107	0.234707	3.60816	0.44035	6.7208	0.698028	9.92892	0.753155	10.7576
0.285991	4.0001	0.11298	1.53326	0.28374	4.25847	0.409311	6.207	0.582818	8.28024	0.850863	11.9567	0.236629	3.58633	0.440955	6.63568	0.698223	9.80179	0.754002	10.6283
0.286347	3.96667	0.114942	1.54041	0.284137	4.20563	0.410534	6.13881	0.583124	8.23167	0.851189	11.8067	0.238554	3.56517	0.441569	6.55304	0.698424	9.67803	0.754854	10.5024
0.286648	3.93961	0.116655	1.54653	0.284551	4.15446	0.411764	6.0726	0.583351	8.19636	0.851519	11.6606	0.240484	3.54465	0.442192	6.47279	0.698632	9.55752	0.755712	10.3798
0.28689	3.91857	0.118116	1.55167	0.28498	4.10488	0.413001	6.00829	0.583496	8.17394	0.851854	11.5182	0.242416	3.52473	0.442824	6.39482	0.698846	9.44013	0.756576	10.2603
0.287071	3.9033	0.119326	1.55586	0.285425	4.05685	0.414245	5.9458	0.583706	8.14197	0.852193	11.3794	0.244352	3.50539	0.443464	6.31904	0.699068	9.32575	0.757446	10.144
0.287188	3.89362	0.120283	1.55914	0.285886	4.01029	0.415495	5.88504	0.583935	8.10753	0.852536	11.2441	0.246291	3.48661	0.444112	6.24537	0.699296	9.21427	0.758322	10.0305
0.287358	3.87981	0.120987	1.56154	0.286363	3.96517	0.416752	5.82597	0.584248	8.06123	0.852884	11.1122	0.248233	3.46836	0.44477	6.17373	0.699531	9.10558	0.759204	9.91995
0.287544	3.86497	0.121438	1.56306	0.286857	3.92142	0.418016	5.7685	0.584647	8.00353	0.853235	10.9834	0.250178	3.45061	0.445436	6.10403	0.699772	8.99958	0.760091	9.81209
0.287801	3.84503	0.122087	1.56524	0.287368	3.87899	0.419285	5.71257	0.585133	7.935	0.853591	10.8578	0.252126	3.43336	0.446111	6.03621	0.700021	8.89618	0.760985	9.70688
0.288132	3.82024	0.122792	1.56759	0.287896	3.83785	0.420561	5.65813	0.585709	7.85632	0.853952	10.7352	0.254076	3.41657	0.446794	5.9702	0.700276	8.79528	0.761884	9.60421
0.288541	3.79088	0.123751	1.57077	0.288441	3.79795	0.421843	5.60511	0.586378	7.76821	0.854317	10.6154	0.256029	3.40022	0.447486	5.90592	0.700537	8.6968	0.762789	9.50399
0.289033	3.75726	0.124966	1.57474	0.289003	3.75924	0.42313	5.55347	0.587055	7.68235	0.854686	10.4985	0.257984	3.38431	0.448187	5.84331	0.700771	8.61289	0.763699	9.40614
0.289614	3.71976	0.126435	1.57949	0.289583	3.72168	0.424423	5.50315	0.58774	7.59868	0.855059	10.3842	0.259941	3.36881	0.448896	5.78233	0.700974	8.54272	0.764615	9.31058
0.290213	3.68338	0.128161	1.58497	0.290182	3.68524	0.425722	5.4541	0.588434	7.51709	0.855436	10.2725	0.2619	3.35371	0.449615	5.72289	0.701145	8.48561	0.765537	9.21724
0.290831	3.64808	0.130144	1.59115	0.290798	3.64988	0.427026	5.40628	0.589135	7.43753	0.855818	10.1634	0.263862	3.33899	0.450342	5.66496	0.701282	8.44104	0.766464	9.12603
0.291467	3.61382	0.132128	1.59723	0.291433	3.61558	0.428336	5.35963	0.589845	7.35992	0.856204	10.0567	0.265824	3.32463	0.451077	5.60849	0.701384	8.40858	0.767397	9.03688
0.292122	3.58058	0.134115	1.60319	0.292087	3.58228	0.42965	5.31413	0.590563	7.2842	0.856595	9.95241	0.267789	3.31062	0.451821	5.55341	0.701449	8.38795	0.768335	8.94974
0.292796	3.54832	0.136104	1.60904	0.29276	3.54997	0.43097	5.26973	0.591289	7.21029	0.85699	9.85037	0.269755	3.29695	0.452574	5.49968	0.701544	8.35849	0.769279	8.86453
0.293489	3.51702	0.138095	1.61479	0.293453	3.51862	0.432295	5.22638	0.592023	7.13815	0.857389	9.75053	0.271723	3.28361	0.453336	5.44727	0.701648	8.32671	0.770228	8.78119
0.294203	3.48664	0.140088	1.62044	0.294165	3.48819	0.433624	5.18406	0.592765	7.0677	0.857792	9.65284	0.273692	3.27058	0.454107	5.39611	0.70179	8.28392	0.77106	8.71005
0.294936	3.45716	0.142083	1.62599	0.294898	3.45866	0.434958	5.14273	0.593515	6.9989	0.8582	9.55723	0.275662	3.25785	0.454886	5.34618	0.701973	8.23047	0.771772	8.65046
0.29569	3.42855	0.144079	1.63144	0.295651	3.43001	0.436297	5.10235	0.594274	6.93168	0.858612	9.46363	0.277633	3.24541	0.455674	5.29744	0.702197	8.16683	0.772363	8.60191
0.296465	3.4008	0.146077	1.6368	0.296424	3.40222	0.437641	5.0629	0.59504	6.86601	0.859028	9.37197	0.279606	3.23326	0.45647	5.24984	0.702465	8.09352	0.772832	8.56397
0.297261	3.37387	0.148077	1.64207	0.297219	3.37525	0.438988	5.02434	0.595815	6.80182	0.859449	9.28221	0.281579	3.22137	0.457276	5.20334	0.702778	8.01113	0.773177	8.53632
0.298079	3.34776	0.150078	1.64724	0.298036	3.34909	0.440341	4.98664	0.596598	6.73908	0.859874	9.19428	0.283553	3.20974	0.45809	5.15792	0.703098	7.93055	0.773399	8.51874
0.298919	3.32242	0.152081	1.65232	0.298875	3.32372	0.441697	4.94977	0.597388	6.67773	0.860303	9.10814	0.285528	3.19837	0.458913	5.11355	0.703425	7.85172	0.773718	8.49361
0.299782	3.29786	0.154085	1.65732	0.299736	3.29911	0.443057	4.91371	0.598187	6.61774	0.860737	9.02372	0.287504	3.18724	0.459745	5.07018	0.703759	7.77459	0.774065	8.46649
0.300667	3.27404	0.156091	1.66224	0.300621	3.27526	0.444422	4.87844	0.598994	6.55906	0.861175	8.94098	0.28948	3.17634	0.460585	5.02779	0.704099	7.69911	0.774539	8.42995
0.301576	3.25096	0.158098	1.66707	0.301528	3.25214	0.44579	4.84392	0.599809	6.50165	0.86156	8.8702	0.291457	3.16567	0.461434	4.98634	0.704445	7.62521	0.775139	8.38426
0.302509	3.22859	0.160106	1.67182	0.30246	3.22973	0.447162	4.81013	0.600632	6.44548	0.861891	8.81083	0.293434	3.15521	0.462292	4.94582	0.704799	7.55287	0.775868	8.32978
0.303466	3.20692	0.162115	1.67649	0.303416	3.20802	0.448538	4.77706	0.601463	6.3905	0.862166	8.76238	0.295412	3.14497	0.463159	4.90619	0.705159	7.48202	0.776726	8.26694
0.304449	3.18593	0.164126	1.68109	0.304397	3.187	0.449918	4.74467	0.602302	6.33669	0.862385	8.72447	0.29739	3.13493	0.464035	4.86743	0.705525	7.41263	0.777716	8.1962
0.305456	3.16561	0.166138	1.68561	0.305404	3.16665	0.451301	4.71295	0.603149	6.28401	0.862547	8.69683	0.299368	3.12509	0.464919	4.82951	0.705899	7.34466	0.778712	8.12689
0.30649	3.14595	0.16815	1.69005	0.306436	3.14695	0.452688	4.68188	0.604004	6.23241	0.86265	8.67924	0.301346	3.11544	0.465813	4.7924	0.706278	7.27806	0.779712	8.05897
0.30755	3.12693	0.170164	1.69442	0.307495	3.1279	0.454078	4.65143	0.604867	6.18189	0.8628	8.65409	0.303324	3.10597	0.466715	4.75609	0.706665	7.21279	0.780718	7.9924
0.308638	3.10854	0.172179	1.69872	0.308581	3.10948	0.455471	4.6216	0.605738	6.1324	0.862963	8.62694	0.305303	3.09669	0.467625	4.72056	0.707058	7.14882	0.781728	7.92713
0.309753	3.09076	0.174194	1.70296	0.309694	3.09167	0.456868	4.59235	0.606617	6.08391	0.863186	8.5903	0.307281	3.08757	0.468545	4.68577	0.707457	7.08611	0.782744	7.86314
0.310896	3.0736	0.176211	1.70712	0.310836	3.07447	0.458268	4.56368	0.607503	6.0364	0.863469	8.54445	0.309259	3.07863	0.469474	4.65171	0.707863	7.02462	0.783764	7.80039
0.312068	3.05702	0.178228	1.71122	0.312006	3.05787	0.45967	4.53557	0.608398	5.98983	0.863813	8.48971	0.311237	3.06984	0.470411	4.61836	0.708276	6.96432	0.78479	7.73884
0.313269	3.04103	0.180246	1.71525	0.313206	3.04185	0.461076	4.508	0.609301	5.9442	0.86422	8.42647	0.313214	3.06122	0.471357	4.58571	0.708695	6.90519	0.785821	7.67845
0.314499	3.02561	0.182265	1.71922	0.314435	3.0264	0.462485	4.48096	0.610211	5.89946	0.864691	8.35517	0.315191	3.05274	0.472312	4.55372	0.709121	6.84717	0.786856	7.61921
0.31576	3.01076	0.184285	1.72313	0.315694	3.01151	0.463897	4.45443	0.61113	5.85559	0.865167	8.28517	0.317168	3.04441	0.473276	4.52239	0.709553	6.79026	0.787897	7.56107
0.317051	2.99645	0.186305	1.72698	0.316984	2.99718	0.465311	4.42839	0.612056	5.81258	0.865647	8.21646	0.319144	3.03623	0.474249	4.4917	0.709992	6.73441	0.788942	7.50401
0.318373	2.98268	0.188326	1.73076	0.318304	2.98338	0.466729	4.40284	0.61299	5.77039	0.866131	8.14899	0.321119	3.02818	0.47523	4.46162	0.710437	6.67961	0.789992	7.44799
0.319727	2.96944	0.190348	1.73449	0.319656	2.97011	0.468149	4.37776	0.613932	5.72901	0.866619	8.08273	0.323094	3.02027	0.476221	4.43215	0.710889	6.62581	0.791047	7.393
0.321112	2.95672	0.19237	1.73816	0.321039	2.95736	0.469571	4.35313	0.614882	5.68842	0.867112	8.01766	0.325069	3.01249	0.47722	4.40327	0.711347	6.573	0.792107	7.339
0.322528	2.9445	0.194393	1.74178	0.322454	2.94512	0.470996	4.32896	0.61584	5.64859	0.867609	7.95374	0.327042	3.00484	0.478228	4.37496	0.711811	6.52115	0.793171	7.28597
0.323977	2.93278	0.196416	1.74534	0.323901	2.93337	0.472424	4.30521	0.616805	5.60951	0.868111	7.89093	0.329015	2.9973	0.479245	4.34722	0.712282	6.47024	0.794241	7.23388
0.325457	2.92154	0.19844	1.74884	0.32538	2.92211	0.473854	4.28189	0.617778	5.57115	0.868616	7.82923	0.330987	2.98989	0.480271	4.32001	0.71276	6.42024	0.795314	7.18271
0.326969	2.91077	0.200465	1.75229	0.32689	2.91132	0.475286	4.25897	0.618759	5.53351	0.869127	7.76859	0.332958	2.98259	0.481306	4.29334	0.713244	6.37113	0.796393	7.13243
0.328514	2.90046	0.202489	1.75569	0.328433	2.90098	0.476721	4.23646	0.619748	5.49655	0.869641	7.70899	0.334928	2.97541	0.482349	4.26718	0.713734	6.32289	0.797476	7.08303
0.330089	2.8906	0.204514	1.75904	0.330007	2.8911	0.478158	4.21434	0.620745	5.46027	0.87016	7.6504	0.336897	2.96833	0.483402	4.24154	0.71423	6.27549	0.798564	7.03448
0.331697	2.88116	0.20654	1.76234	0.331613	2.88164	0.479597	4.19259	0.621749	5.42465	0.870683	7.5928	0.338865	2.96136	0.484463	4.21638	0.714733	6.22892	0.799656	6.98676
0.333335	2.87215	0.208566	1.76559	0.33325	2.87261	0.481038	4.17122	0.62276	5.38966	0.871211	7.53617	0.340832	2.95449	0.485534	4.19171	0.715243	6.18315	0.800753	6.93985
0.335004	2.86355	0.210592	1.76879	0.334917	2.86398	0.482482	4.1502	0.62378	5.3553	0.871742	7.48049	0.342798	2.94773	0.486613	4.1675	0.715758	6.13817	0.801854	6.89373
0.336704	2.85533	0.212619	1.77195	0.336615	2.85575	0.483927	4.12954	0.624807	5.32156	0.872279	7.42572	0.344763	2.94106	0.487701	4.14376	0.71628	6.09396	0.80296	6.84838
0.338433	2.8475	0.214645	1.77506	0.338342	2.84789	0.485374	4.10922	0.625842	5.2884	0.872819	7.37185	0.346726	2.93448	0.488798	4.12046	0.716809	6.05049	0.80407	6.80379
0.340191	2.84002	0.216673	1.77812	0.340099	2.8404	0.486824	4.08924	0.626884	5.25583	0.873364	7.31886	0.348688	2.928	0.489904	4.0976	0.717343	6.00776	0.805185	6.75992
0.341977	2.8329	0.2187	1.78114	0.341884	2.83326	0.488275	4.06958	0.627934	5.22383	0.873913	7.26673	0.350648	2.9216	0.491019	4.07517	0.717884	5.96574	0.806304	6.71678
0.343791	2.82612	0.220727	1.78411	0.343696	2.82646	0.489728	4.05024	0.628992	5.19239	0.874467	7.21543	0.352607	2.9153	0.492143	4.05315	0.718431	5.92441	0.807427	6.67434
0.345632	2.81965	0.222755	1.78704	0.345536	2.81998	0.491183	4.03121	0.630057	5.16148	0.875025	7.16495	0.354565	2.90907	0.493275	4.03155	0.718985	5.88377	0.808555	6.63258
0.347498	2.8135	0.224783	1.78993	0.347401	2.81381	0.492639	4.01248	0.63113	5.1311	0.875587	7.11527	0.356521	2.90293	0.494417	4.01034	0.719544	5.8438	0.809687	6.59149
0.34939	2.80764	0.226811	1.79278	0.349292	2.80793	0.494098	3.99405	0.63221	5.10124	0.876154	7.06638	0.358476	2.89687	0.495567	3.98952	0.72011	5.80447	0.810823	6.55105
0.351306	2.80205	0.228839	1.79559	0.351206	2.80234	0.495558	3.97591	0.633297	5.07189	0.876724	7.01824	0.360429	2.89089	0.496727	3.96908	0.720682	5.76578	0.811964	6.51125
0.353246	2.79674	0.230867	1.79836	0.353145	2.79701	0.497019	3.95805	0.634393	5.04303	0.8773	6.97086	0.362381	2.88498	0.497895	3.94902	0.721261	5.72771	0.813108	6.47207
0.355207	2.79168	0.232896	1.80109	0.355105	2.79193	0.498483	3.94046	0.635495	5.01466	0.877879	6.9242	0.36433	2.87915	0.499072	3.92932	0.721845	5.69026	0.814257	6.43351
0.357191	2.78686	0.234924	1.80378	0.357087	2.7871	0.499947	3.92315	0.636605	4.98675	0.878463	6.87826	0.366278	2.87339	0.500258	3.90998	0.722436	5.65339	0.81541	6.39554
0.359195	2.78227	0.236952	1.80643	0.35909	2.7825	0.501414	3.9061	0.637722	4.95931	0.879052	6.83302	0.368225	2.8677	0.501453	3.89098	0.723033	5.61711	0.816567	6.35815
0.361218	2.7779	0.238981	1.80904	0.361113	2.77812	0.502882	3.8893	0.638847	4.93232	0.879644	6.78847	0.370169	2.86208	0.502657	3.87233	0.723636	5.58139	0.817729	6.32133
0.363261	2.77373	0.241009	1.81162	0.363154	2.77394	0.504351	3.87276	0.639979	4.90577	0.880241	6.74458	0.372112	2.85652	0.503869	3.85401	0.724245	5.54624	0.818894	6.28507
0.365321	2.76976	0.243038	1.81416	0.365214	2.76996	0.505822	3.85646	0.641118	4.87965	0.880843	6.70135	0.374053	2.85103	0.505091	3.83601	0.72486	5.51162	0.820063	6.24936
0.367399	2.76597	0.245066	1.81667	0.367291	2.76616	0.507294	3.84041	0.642265	4.85396	0.881449	6.65876	0.375992	2.8456	0.506321	3.81834	0.725482	5.47754	0.821237	6.21418
0.369492	2.76236	0.247095	1.81914	0.369384	2.76254	0.508767	3.82459	0.643418	4.82868	0.882059	6.61679	0.377929	2.84023	0.507561	3.80098	0.726109	5.44398	0.822414	6.17952
0.371602	2.75891	0.249123	1.82158	0.371492	2.75908	0.510242	3.80899	0.644579	4.8038	0.882673	6.57545	0.379864	2.83492	0.508809	3.78392	0.726743	5.41094	0.823595	6.14538
0.373726	2.75562	0.251151	1.82398	0.373615	2.75578	0.511718	3.79363	0.645748	4.77932	0.883292	6.5347	0.381797	2.82968	0.510066	3.76717	0.727382	5.37839	0.82478	6.11173
0.375864	2.75247	0.253179	1.82636	0.375753	2.75263	0.513196	3.77848	0.646923	4.75523	0.883915	6.49455	0.383728	2.82448	0.511332	3.75071	0.728028	5.34633	0.825969	6.07858
0.378015	2.74947	0.255207	1.82869	0.377903	2.74962	0.514675	3.76355	0.648105	4.73152	0.884543	6.45497	0.385658	2.81935	0.512606	3.73454	0.72868	5.31476	0.827162	6.0459
0.380179	2.7466	0.257235	1.831	0.380067	2.74674	0.516154	3.74884	0.649295	4.70818	0.885175	6.41596	0.387585	2.81427	0.51389	3.71864	0.729338	5.28365	0.828359	6.01369
0.382355	2.74385	0.259263	1.83328	0.382242	2.74399	0.517636	3.73432	0.650492	4.6852	0.885811	6.3775	0.389509	2.80924	0.515182	3.70303	0.730001	5.253	0.829559	5.98195
0.384542	2.74121	0.261291	1.83552	0.384429	2.74135	0.519118	3.72001	0.651695	4.66258	0.886451	6.33959	0.391432	2.80426	0.516483	3.68768	0.730671	5.2228	0.830763	5.95065
0.38674	2.73869	0.263318	1.83774	0.386626	2.73882	0.520602	3.7059	0.652906	4.64031	0.887096	6.30221	0.393353	2.79934	0.517792	3.6726	0.731347	5.19305	0.831971	5.9198
0.388948	2.73628	0.265345	1.83992	0.388834	2.7364	0.522086	3.69199	0.654124	4.61839	0.887746	6.26535	0.395271	2.79446	0.519111	3.65778	0.732028	5.16373	0.833183	5.88938
0.391166	2.73396	0.267373	1.84208	0.391051	2.73408	0.523572	3.67826	0.655348	4.59679	0.888399	6.229	0.397187	2.78963	0.520438	3.64322	0.732716	5.13483	0.834398	5.85938
0.393393	2.73174	0.269399	1.8442	0.393278	2.73185	0.525059	3.66472	0.65658	4.57553	0.889057	6.19316	0.399101	2.78485	0.521774	3.6289	0.73341	5.10635	0.835617	5.8298
0.395629	2.7296	0.271426	1.8463	0.395513	2.72971	0.526547	3.65136	0.657818	4.55459	0.88972	6.15781	0.401013	2.78012	0.523119	3.61483	0.734109	5.07828	0.83684	5.80062
0.397873	2.72755	0.273453	1.84837	0.397756	2.72766	0.528037	3.63818	0.659063	4.53396	0.890386	6.12294	0.402923	2.77543	0.524472	3.601	0.734814	5.05061	0.838066	5.77184
0.400125	2.72558	0.275479	1.85042	0.400008	2.72568	0.529527	3.62518	0.660315	4.51364	0.891058	6.08855	0.40483	2.77079	0.525834	3.5874	0.735526	5.02333	0.839296	5.74346
0.402384	2.72368	0.277505	1.85243	0.402266	2.72378	0.531018	3.61235	0.661574	4.49363	0.891733	6.05462	0.406735	2.76618	0.527205	3.57404	0.736243	4.99643	0.840529	5.71546
0.40465	2.72185	0.27953	1.85442	0.404532	2.72195	0.532511	3.59969	0.662839	4.47391	0.892413	6.02114	0.408637	2.76163	0.528584	3.56089	0.736966	4.96992	0.841766	5.68783
0.406922	2.72009	0.281556	1.85638	0.406805	2.72018	0.534004	3.58719	0.664111	4.45449	0.893097	5.98812	0.410538	2.75711	0.529972	3.54798	0.737695	4.94377	0.843006	5.66058
0.409201	2.7184	0.283581	1.85832	0.409083	2.71848	0.535499	3.57486	0.66539	4.43535	0.893786	5.95553	0.412436	2.75263	0.531368	3.53527	0.73843	4.91799	0.844249	5.63368
0.411486	2.71676	0.285606	1.86023	0.411368	2.71684	0.536995	3.56268	0.666676	4.41648	0.894479	5.92338	0.414331	2.74819	0.532773	3.52278	0.73917	4.89256	0.845496	5.60714
0.413777	2.71518	0.28763	1.86212	0.413658	2.71526	0.538491	3.55066	0.667968	4.3979	0.895176	5.89164	0.416224	2.74379	0.534187	3.5105	0.739916	4.86748	0.846747	5.58095
0.416073	2.71366	0.289655	1.86398	0.415953	2.71373	0.539989	3.5388	0.669266	4.37958	0.895878	5.86033	0.418115	2.73943	0.535609	3.49843	0.740669	4.84275	0.848001	5.5551
0.418373	2.71218	0.291678	1.86582	0.418254	2.71226	0.541488	3.52708	0.670571	4.36153	0.896584	5.82942	0.420004	2.73511	0.537039	3.48655	0.741427	4.81835	0.849258	5.52959
0.420679	2.71076	0.293702	1.86763	0.420559	2.71083	0.542987	3.51552	0.671883	4.34374	0.897294	5.79891	0.42189	2.73082	0.538478	3.47488	0.74219	4.79429	0.850518	5.50441
0.422989	2.70938	0.295725	1.86942	0.422869	2.70945	0.544488	3.5041	0.6732	4.3262	0.898009	5.76879	0.423774	2.72657	0.539925	3.46339	0.74296	4.77055	0.851782	5.47954
0.425304	2.70804	0.297748	1.87118	0.425184	2.70811	0.54599	3.49282	0.674525	4.30891	0.898728	5.73906	0.425655	2.72236	0.541381	3.4521	0.743735	4.74712	0.853049	5.455
0.427622	2.70674	0.29977	1.87293	0.427502	2.70681	0.547493	3.48168	0.675855	4.29187	0.899451	5.70971	0.427534	2.71818	0.542845	3.44099	0.744516	4.72402	0.854319	5.43077
0.429944	2.70549	0.301792	1.87465	0.429824	2.70555	0.548996	3.47068	0.677192	4.27506	0.900179	5.68073	0.42941	2.71403	0.544317	3.43006	0.745303	4.70121	0.855593	5.40684
0.43227	2.70427	0.303814	1.87635	0.43215	2.70433	0.550501	3.45981	0.678535	4.25849	0.900911	5.65212	0.431285	2.70992	0.545797	3.41932	0.746095	4.67872	0.856869	5.38321
0.4346	2.70309	0.305835	1.87802	0.434479	2.70315	0.552007	3.44908	0.679885	4.24216	0.901648	5.62387	0.433156	2.70584	0.547286	3.40875	0.746893	4.65651	0.858149	5.35987
0.436932	2.70194	0.307856	1.87968	0.436811	2.702	0.553514	3.43848	0.68124	4.22605	0.902389	5.59597	0.435026	2.70179	0.548783	3.39835	0.747697	4.6346	0.859431	5.33683
0.439268	2.70082	0.309876	1.88131	0.439147	2.70088	0.555022	3.42801	0.682602	4.21016	0.903134	5.56842	0.436893	2.69778	0.550288	3.38812	0.748506	4.61298	0.860717	5.31407
0.441607	2.69974	0.311896	1.88292	0.441486	2.69979	0.556531	3.41766	0.683969	4.19449	0.903884	5.54121	0.438757	2.6938	0.551801	3.37806	0.749321	4.59164	0.862006	5.29159
0.443948	2.69868	0.313916	1.88452	0.443827	2.69873	0.558041	3.40744	0.685343	4.17904	0.904638	5.51434	0.44062	2.68984	0.553322	3.36816	0.750142	4.57057	0.863298	5.26938
0.446292	2.69765	0.315935	1.88609	0.446171	2.6977	0.559552	3.39734	0.686723	4.1638	0.905397	5.4878	0.44248	2.68592	0.554851	3.35842	0.750968	4.54978	0.864593	5.24744
0.448639	2.69665	0.317953	1.88764	0.448517	2.6967	0.561064	3.38736	0.688108	4.14876	0.90616	5.46158	0.444337	2.68203	0.556388	3.34884	0.7518	4.52925	0.865891	5.22577
0.450987	2.69567	0.319972	1.88917	0.450866	2.69572	0.562577	3.37749	0.6895	4.13393	0.906927	5.43568	0.446192	2.67817	0.557932	3.33941	0.752638	4.50899	0.867191	5.20436
0.453338	2.69471	0.321989	1.89068	0.453216	2.69476	0.564091	3.36775	0.690898	4.1193	0.907698	5.41009	0.448045	2.67433	0.559485	3.33013	0.753481	4.48899	0.868495	5.1832
0.455691	2.69378	0.324007	1.89218	0.455569	2.69383	0.565607	3.35811	0.692301	4.10486	0.908474	5.38481	0.449896	2.67053	0.561046	3.321	0.754329	4.46923	0.869802	5.16229
0.458046	2.69287	0.326023	1.89365	0.457924	2.69292	0.567123	3.34859	0.69371	4.09062	0.909255	5.35984	0.451744	2.66675	0.562614	3.31202	0.755184	4.44973	0.871111	5.14163
0.460403	2.69198	0.328039	1.89511	0.460281	2.69202	0.568641	3.33919	0.695124	4.07656	0.910039	5.33516	0.45359	2.663	0.56419	3.30318	0.756044	4.43048	0.872423	5.12121
0.462761	2.69111	0.330055	1.89654	0.462639	2.69115	0.57016	3.32989	0.696545	4.0627	0.910828	5.31078	0.455434	2.65928	0.565774	3.29448	0.756909	4.41146	0.873738	5.10104
0.465121	2.69026	0.33207	1.89796	0.464999	2.6903	0.571679	3.32069	0.697971	4.04901	0.911622	5.28669	0.457276	2.65559	0.567365	3.28592	0.75778	4.39269	0.875056	5.08109
0.467483	2.68942	0.334085	1.89936	0.46736	2.68947	0.5732	3.31161	0.699402	4.0355	0.91242	5.26288	0.459115	2.65192	0.568963	3.27749	0.758656	4.37414	0.876376	5.06138
0.469846	2.6886	0.336099	1.90075	0.469723	2.68865	0.574723	3.30262	0.70084	4.02217	0.913222	5.23935	0.460953	2.64828	0.570569	3.2692	0.759538	4.35583	0.8777	5.04189
0.47221	2.6878	0.338113	1.90211	0.472087	2.68784	0.576246	3.29374	0.702282	4.00902	0.914028	5.21609	0.462788	2.64467	0.572183	3.26104	0.760425	4.33774	0.879026	5.02262
0.474575	2.68702	0.340126	1.90346	0.474452	2.68706	0.577771	3.28497	0.70373	3.99603	0.914839	5.19311	0.464621	2.64108	0.573804	3.253	0.761318	4.31987	0.880354	5.00358
0.476941	2.68624	0.342138	1.90479	0.476819	2.68628	0.579297	3.27629	0.705184	3.98321	0.915655	5.17039	0.466451	2.63752	0.575432	3.24509	0.762217	4.30223	0.881685	4.98475
0.479309	2.68549	0.34415	1.90611	0.479186	2.68553	0.580824	3.2677	0.706642	3.97055	0.916474	5.14794	0.46828	2.63398	0.577067	3.2373	0.76312	4.28479	0.883019	4.96613
0.481677	2.68474	0.346162	1.9074	0.481554	2.68478	0.582353	3.25922	0.708106	3.95806	0.917298	5.12574	0.470107	2.63047	0.57871	3.22964	0.76403	4.26757	0.884355	4.94772
0.484046	2.68401	0.348173	1.90868	0.483924	2.68405	0.583883	3.25083	0.709576	3.94572	0.918127	5.1038	0.471931	2.62699	0.580359	3.22209	0.764944	4.25056	0.885694	4.92951
0.486416	2.68329	0.350183	1.90995	0.486294	2.68332	0.585414	3.24254	0.71105	3.93354	0.91896	5.08211	0.473754	2.62352	0.582016	3.21466	0.765864	4.23376	0.887036	4.91151
0.488787	2.68258	0.352193	1.9112	0.488664	2.68261	0.586946	3.23433	0.71253	3.92152	0.919797	5.06066	0.475575	2.62009	0.58368	3.20734	0.76679	4.21715	0.88838	4.89371
0.491158	2.68188	0.354202	1.91243	0.491035	2.68191	0.58848	3.22622	0.714015	3.90964	0.920639	5.03946	0.477393	2.61668	0.58535	3.20014	0.767721	4.20075	0.889726	4.8761
0.49353	2.68119	0.35621	1.91365	0.493407	2.68122	0.590016	3.2182	0.715504	3.89791	0.921485	5.0185	0.47921	2.61329	0.587027	3.19304	0.768657	4.18454	0.891075	4.85868
0.495902	2.68051	0.358218	1.91485	0.495779	2.68054	0.591552	3.21027	0.716999	3.88633	0.922335	4.99777	0.481025	2.60993	0.588711	3.18606	0.769599	4.16852	0.892426	4.84145
0.498275	2.67984	0.360226	1.91604	0.498152	2.67987	0.593091	3.20243	0.718499	3.87489	0.92319	4.97727	0.482838	2.60659	0.590402	3.17918	0.770546	4.1527	0.89378	4.82441
0.500648	2.67918	0.362233	1.91721	0.500525	2.67921	0.594631	3.19467	0.720003	3.86359	0.924049	4.95701	0.48465	2.60327	0.592099	3.1724	0.771498	4.13706	0.895136	4.80755
0.503021	2.67852	0.364239	1.91837	0.502898	2.67855	0.596172	3.187	0.721513	3.85243	0.924912	4.93696	0.486459	2.59998	0.593803	3.16573	0.772456	4.1216	0.896494	4.79088
0.505395	2.67787	0.366244	1.91952	0.505272	2.67791	0.597715	3.17941	0.723027	3.84141	0.92578	4.91714	0.488267	2.59671	0.595514	3.15915	0.773419	4.10633	0.897855	4.77438
0.507768	2.67723	0.368249	1.92065	0.507645	2.67727	0.59926	3.17191	0.724546	3.83051	0.926653	4.89754	0.490074	2.59347	0.59723	3.15268	0.774388	4.09123	0.899218	4.75805
0.510142	2.6766	0.370253	1.92176	0.510019	2.67663	0.600806	3.16449	0.72607	3.81975	0.927529	4.87815	0.491878	2.59025	0.598953	3.1463	0.775362	4.07631	0.900583	4.7419
0.512515	2.67597	0.372257	1.92286	0.512392	2.676	0.602354	3.15715	0.727598	3.80912	0.92841	4.85898	0.493681	2.58705	0.600682	3.14001	0.776341	4.06156	0.90195	4.72591
0.514888	2.67535	0.37426	1.92395	0.514765	2.67538	0.603903	3.14989	0.729131	3.79862	0.929296	4.84001	0.495482	2.58387	0.602418	3.13382	0.777325	4.04699	0.90332	4.7101
0.517262	2.67473	0.376262	1.92502	0.517139	2.67476	0.605455	3.14271	0.730668	3.78824	0.930186	4.82125	0.497282	2.58072	0.604159	3.12772	0.778315	4.03258	0.904692	4.69444
0.519635	2.67412	0.378264	1.92608	0.519512	2.67415	0.607008	3.1356	0.73221	3.77799	0.93108	4.80269	0.499081	2.57759	0.605907	3.12171	0.77931	4.01834	0.906065	4.67895
0.522008	2.67351	0.380265	1.92713	0.521885	2.67354	0.608563	3.12858	0.733757	3.76785	0.931978	4.78433	0.500878	2.57448	0.60766	3.11579	0.78031	4.00426	0.907442	4.66362
0.52438	2.67291	0.382266	1.92816	0.524257	2.67294	0.61012	3.12163	0.735308	3.75784	0.932881	4.76617	0.502673	2.5714	0.609419	3.10995	0.781316	3.99034	0.90882	4.64844
0.526752	2.67231	0.384266	1.92918	0.526629	2.67234	0.611679	3.11476	0.736863	3.74794	0.933789	4.74821	0.504467	2.56834	0.611184	3.1042	0.782327	3.97658	0.9102	4.63342
0.529124	2.67171	0.386265	1.93019	0.529001	2.67174	0.61324	3.10796	0.738422	3.73816	0.9347	4.73043	0.50626	2.5653	0.612955	3.09853	0.783343	3.96298	0.911582	4.61856
0.531495	2.67112	0.388263	1.93119	0.531372	2.67115	0.614803	3.10124	0.739986	3.72849	0.935617	4.71285	0.508052	2.56228	0.614731	3.09294	0.784364	3.94953	0.912967	4.60384
0.533865	2.67053	0.390261	1.93217	0.533742	2.67056	0.616368	3.09459	0.741554	3.71893	0.936537	4.69545	0.509842	2.55928	0.616513	3.08743	0.785391	3.93623	0.914353	4.58927
0.536235	2.66994	0.392258	1.93314	0.536112	2.66997	0.617935	3.08801	0.743126	3.70948	0.937462	4.67823	0.511632	2.55631	0.6183	3.082	0.786422	3.92308	0.915741	4.57484
0.538604	2.66935	0.394254	1.9341	0.538481	2.66938	0.619504	3.08151	0.744702	3.70014	0.938391	4.6612	0.51342	2.55335	0.620092	3.07665	0.787459	3.91008	0.917132	4.56056
0.540972	2.66876	0.39625	1.93504	0.54085	2.66879	0.621075	3.07507	0.746282	3.6909	0.939325	4.64434	0.515207	2.55042	0.62189	3.07137	0.788502	3.89723	0.918524	4.54642
0.54334	2.66818	0.398245	1.93598	0.543217	2.66821	0.622649	3.06871	0.747866	3.68177	0.940263	4.62766	0.516993	2.54752	0.623693	3.06617	0.789549	3.88452	0.919918	4.53242
0.545706	2.6676	0.400239	1.9369	0.545584	2.66763	0.624225	3.06241	0.749454	3.67275	0.941206	4.61116	0.518778	2.54463	0.625502	3.06104	0.790602	3.87195	0.921314	4.51855
0.548072	2.66701	0.402233	1.93781	0.547949	2.66704	0.625803	3.05619	0.751046	3.66382	0.942153	4.59482	0.520562	2.54176	0.627315	3.05598	0.79166	3.85952	0.922711	4.50482
0.550436	2.66643	0.404226	1.93871	0.550314	2.66646	0.627384	3.05003	0.752642	3.65499	0.943104	4.57866	0.522345	2.53892	0.629133	3.05099	0.792723	3.84723	0.924111	4.49123
0.5528	2.66585	0.406218	1.9396	0.552677	2.66588	0.628967	3.04394	0.754242	3.64626	0.94406	4.56266	0.524127	2.5361	0.630956	3.04606	0.793791	3.83507	0.925513	4.47776
0.555162	2.66526	0.40821	1.94048	0.55504	2.66529	0.630553	3.03792	0.755845	3.63763	0.94502	4.54683	0.525908	2.5333	0.632784	3.04121	0.794865	3.82305	0.926916	4.46443
0.557523	2.66468	0.410201	1.94134	0.557401	2.66471	0.632142	3.03196	0.757452	3.62909	0.945984	4.53115	0.527689	2.53052	0.634616	3.03642	0.795943	3.81116	0.928321	4.45122
0.559883	2.66409	0.412191	1.9422	0.55976	2.66412	0.633733	3.02607	0.759063	3.62065	0.946953	4.51564	0.529469	2.52776	0.636454	3.0317	0.797027	3.7994	0.929727	4.43814
0.562241	2.66351	0.41418	1.94304	0.562119	2.66354	0.635327	3.02024	0.760677	3.61229	0.947926	4.50029	0.531248	2.52502	0.638295	3.02703	0.798116	3.78776	0.931136	4.42518
0.564598	2.66292	0.416169	1.94387	0.564475	2.66295	0.636923	3.01448	0.762295	3.60403	0.948904	4.48509	0.533026	2.5223	0.640142	3.02244	0.79921	3.77626	0.932546	4.41234
0.566953	2.66233	0.418157	1.9447	0.566831	2.66236	0.638523	3.00878	0.763916	3.59586	0.949886	4.47005	0.534804	2.51961	0.641992	3.0179	0.800309	3.76488	0.933958	4.39963
0.569306	2.66173	0.420144	1.94551	0.569184	2.66176	0.640125	3.00315	0.765541	3.58777	0.950873	4.45516	0.536582	2.51693	0.643847	3.01342	0.801414	3.75362	0.935371	4.38703
0.571658	2.66114	0.422131	1.94631	0.571536	2.66117	0.641731	2.99758	0.767169	3.57977	0.951864	4.44042	0.538358	2.51428	0.645706	3.009	0.802523	3.74249	0.936786	4.37455
0.574008	2.66054	0.424117	1.9471	0.573887	2.66057	0.643339	2.99207	0.768801	3.57185	0.952859	4.42583	0.540135	2.51165	0.64757	3.00464	0.803638	3.73147	0.938203	4.36219
0.576357	2.65994	0.426102	1.94788	0.576235	2.65997	0.644951	2.98663	0.770436	3.56402	0.953859	4.41138	0.541911	2.50904	0.649437	3.00033	0.804758	3.72058	0.939621	4.34994
0.578703	2.65933	0.428086	1.94866	0.578581	2.65936	0.646566	2.98124	0.772074	3.55627	0.954863	4.39708	0.543686	2.50644	0.651308	2.99608	0.805883	3.7098	0.94104	4.3378
0.581047	2.65872	0.43007	1.94942	0.580926	2.65875	0.648184	2.97592	0.773715	3.5486	0.955871	4.38292	0.545461	2.50387	0.653184	2.99188	0.807013	3.69914	0.942462	4.32577
0.583389	2.6581	0.432053	1.95017	0.583268	2.65814	0.649806	2.97066	0.77536	3.54101	0.956884	4.3689	0.547236	2.50132	0.655063	2.98774	0.808148	3.68859	0.943884	4.31386
0.585729	2.65748	0.434035	1.95091	0.585608	2.65752	0.651431	2.96546	0.777007	3.5335	0.957902	4.35502	0.549011	2.49879	0.656946	2.98365	0.809289	3.67815	0.945309	4.30205
0.588067	2.65686	0.436016	1.95165	0.587946	2.65689	0.65306	2.96032	0.778658	3.52607	0.958923	4.34127	0.550785	2.49628	0.658832	2.97961	0.810434	3.66783	0.946734	4.29034
0.590403	2.65623	0.437997	1.95237	0.590282	2.65626	0.654693	2.95524	0.780311	3.51871	0.95995	4.32766	0.552559	2.49379	0.660722	2.97562	0.811585	3.65761	0.948161	4.27875
0.592735	2.65559	0.439977	1.95308	0.592615	2.65563	0.656329	2.95021	0.781968	3.51143	0.96098	4.31419	0.554333	2.49132	0.662616	2.97168	0.812741	3.64751	0.94959	4.26725
0.595066	2.65495	0.441956	1.95379	0.594945	2.65499	0.657969	2.94525	0.783628	3.50422	0.962015	4.30085	0.556107	2.48888	0.664513	2.96778	0.813902	3.63751	0.95102	4.25586
0.597393	2.6543	0.443935	1.95448	0.597273	2.65434	0.659613	2.94035	0.78529	3.49709	0.963055	4.28763	0.557881	2.48645	0.666413	2.96394	0.815068	3.62761	0.952451	4.24456
0.599718	2.65365	0.445912	1.95517	0.599598	2.65368	0.661261	2.9355	0.786956	3.49002	0.964098	4.27455	0.559655	2.48404	0.668317	2.96014	0.816239	3.61782	0.953883	4.23337
0.60204	2.65299	0.447889	1.95585	0.60192	2.65302	0.662913	2.93072	0.788624	3.48303	0.965147	4.26159	0.561429	2.48165	0.670223	2.95638	0.817415	3.60813	0.955317	4.22228
0.604359	2.65231	0.449866	1.95652	0.604239	2.65235	0.66457	2.92599	0.790295	3.4761	0.966199	4.24876	0.563203	2.47928	0.672133	2.95267	0.818596	3.59855	0.956752	4.21128
0.606675	2.65164	0.451841	1.95718	0.606555	2.65167	0.666231	2.92132	0.791968	3.46925	0.967257	4.23606	0.564977	2.47693	0.674046	2.94901	0.819783	3.58907	0.958189	4.20038
0.608988	2.65095	0.453816	1.95783	0.608868	2.65098	0.667896	2.9167	0.793644	3.46246	0.968318	4.22347	0.566751	2.4746	0.675962	2.94538	0.820974	3.57968	0.959627	4.18957
0.611297	2.65025	0.45579	1.95848	0.611178	2.65029	0.669566	2.91215	0.795323	3.45574	0.969384	4.21101	0.568525	2.47229	0.677881	2.9418	0.822171	3.57039	0.961066	4.17885
0.613603	2.64955	0.457763	1.95911	0.613484	2.64959	0.671241	2.90765	0.797004	3.44908	0.970454	4.19867	0.5703	2.47	0.679803	2.93826	0.823373	3.5612	0.962506	4.16823
0.615906	2.64883	0.459735	1.95974	0.615786	2.64887	0.67292	2.90321	0.798688	3.44249	0.971529	4.18644	0.572075	2.46773	0.681727	2.93476	0.82458	3.55211	0.963947	4.15769
0.618204	2.64811	0.461707	1.96036	0.618085	2.64815	0.674605	2.89882	0.800375	3.43596	0.972608	4.17433	0.57385	2.46548	0.683654	2.9313	0.825792	3.54311	0.96539	4.14725
0.620499	2.64738	0.463678	1.96097	0.620381	2.64741	0.676294	2.89449	0.802063	3.42949	0.973692	4.16234	0.575625	2.46324	0.685584	2.92788	0.827009	3.5342	0.966834	4.13689
0.622791	2.64663	0.465648	1.96157	0.622672	2.64667	0.677989	2.89022	0.803755	3.42308	0.97478	4.15046	0.577401	2.46103	0.687516	2.92449	0.828231	3.52539	0.968278	4.12663
0.625078	2.64587	0.467617	1.96217	0.624959	2.64591	0.679689	2.88601	0.805448	3.41674	0.975873	4.13869	0.579177	2.45884	0.68945	2.92114	0.829458	3.51667	0.969724	4.11644
0.627361	2.6451	0.469586	1.96275	0.627242	2.64514	0.681394	2.88185	0.807144	3.41045	0.976969	4.12704	0.580953	2.45666	0.691387	2.91783	0.830691	3.50804	0.971172	4.10635
0.629639	2.64432	0.471554	1.96333	0.629521	2.64436	0.683105	2.87774	0.808842	3.40423	0.978071	4.11549	0.58273	2.4545	0.693326	2.91456	0.831928	3.49949	0.97262	4.09633
0.631913	2.64353	0.473521	1.96391	0.631796	2.64357	0.684822	2.87369	0.810542	3.39806	0.979177	4.10406	0.584508	2.45237	0.695268	2.91131	0.833171	3.49104	0.974069	4.0864
0.634183	2.64273	0.475487	1.96447	0.634065	2.64277	0.686544	2.8697	0.812245	3.39195	0.980287	4.09273	0.586285	2.45025	0.697211	2.90811	0.834419	3.48267	0.975519	4.07655
0.636448	2.64191	0.477453	1.96503	0.636331	2.64195	0.688272	2.86577	0.813949	3.38589	0.981401	4.0815	0.588064	2.44815	0.699157	2.90493	0.835671	3.47439	0.976971	4.06678
0.638708	2.64107	0.479418	1.96558	0.638591	2.64112	0.690007	2.86189	0.815656	3.37989	0.982521	4.07039	0.589843	2.44607	0.701105	2.90179	0.83693	3.46619	0.978423	4.05709
0.640963	2.64023	0.481382	1.96612	0.640846	2.64027	0.691748	2.85806	0.817365	3.37395	0.983644	4.05937	0.591622	2.444	0.703054	2.89868	0.838193	3.45808	0.979876	4.04748
0.643213	2.63936	0.483345	1.96665	0.643096	2.63941	0.693495	2.8543	0.819076	3.36806	0.984772	4.04846	0.593402	2.44196	0.705006	2.89561	0.839461	3.45005	0.981331	4.03795
0.645458	2.63849	0.485308	1.96718	0.645341	2.63853	0.695249	2.85058	0.820788	3.36222	0.985904	4.03765	0.595183	2.43993	0.706959	2.89256	0.840734	3.44211	0.982786	4.02849
0.647697	2.6376	0.48727	1.9677	0.647581	2.63764	0.697009	2.84693	0.822503	3.35643	0.987041	4.02694	0.596965	2.43792	0.708914	2.88954	0.842013	3.43424	0.984242	4.01911
0.64993	2.63669	0.489231	1.96822	0.649815	2.63674	0.698777	2.84332	0.82422	3.3507	0.988183	4.01633	0.598747	2.43593	0.71087	2.88656	0.843297	3.42646	0.985699	4.00981
0.652158	2.63576	0.491191	1.96872	0.652043	2.63581	0.700551	2.83978	0.825938	3.34501	0.989328	4.00582	0.60053	2.43396	0.712829	2.8836	0.844585	3.41875	0.987157	4.00058
0.654381	2.63482	0.49315	1.96922	0.654266	2.63487	0.702333	2.83629	0.827658	3.33938	0.990478	3.9954	0.602313	2.432	0.714788	2.88067	0.845879	3.41112	0.988616	3.99142
0.656597	2.63387	0.495109	1.96972	0.656482	2.63392	0.704121	2.83285	0.82938	3.3338	0.991633	3.98508	0.604098	2.43007	0.71675	2.87777	0.847178	3.40357	0.990076	3.98233
0.658807	2.63289	0.497067	1.9702	0.658692	2.63294	0.705917	2.82947	0.831104	3.32826	0.992792	3.97486	0.605883	2.42815	0.718712	2.87489	0.848483	3.3961	0.991536	3.97332
0.66101	2.6319	0.499024	1.97068	0.660896	2.63195	0.707721	2.82615	0.832829	3.32277	0.993956	3.96473	0.607669	2.42625	0.720676	2.87205	0.849792	3.38871	0.992998	3.96437
0.663208	2.63089	0.500981	1.97116	0.663094	2.63094	0.709533	2.82288	0.834556	3.31733	0.995123	3.95469	0.609456	2.42436	0.722641	2.86922	0.851107	3.38139	0.99446	3.9555
0.665398	2.62986	0.502937	1.97163	0.665285	2.62991	0.711352	2.81966	0.836285	3.31194	0.996296	3.94474	0.611244	2.4225	0.724607	2.86643	0.852427	3.37414	0.995923	3.94669
0.667582	2.62881	0.504892	1.97209	0.667469	2.62887	0.713179	2.81651	0.838015	3.30659	0.997473	3.93489	0.613032	2.42065	0.726575	2.86366	0.853752	3.36697	0.997387	3.93795
0.66976	2.62774	0.506846	1.97254	0.669647	2.6278	0.715014	2.8134	0.839747	3.30129	0.998654	3.92512	0.614822	2.41881	0.728543	2.86091	0.855082	3.35987	0.998852	3.92928
0.67193	2.62666	0.508799	1.97299	0.671818	2.62671	0.716858	2.81035	0.841481	3.29603	0.99984	3.91544	0.616612	2.417	0.730513	2.85818	0.856417	3.35284	1.00032	3.92068
0.674093	2.62555	0.510752	1.97343	0.673981	2.62561	0.71871	2.80736	0.843215	3.29081	1.00103	3.90585	0.618404	2.4152	0.732483	2.85549	0.857757	3.34588		
0.676249	2.62442	0.512704	1.97387	0.676138	2.62448	0.720571	2.80442	0.844952	3.28564			0.620196	2.41342	0.734455	2.85281	0.859103	3.339		
0.678398	2.62328	0.514655	1.9743	0.678287	2.62334	0.72244	2.80154	0.846689	3.28051			0.621989	2.41165	0.736427	2.85015	0.860454	3.33218		
0.680539	2.62211	0.516606	1.97472	0.680428	2.62217	0.724318	2.79871	0.848428	3.27543			0.623784	2.40991	0.738399	2.84752	0.86181	3.32544		
0.682673	2.62092	0.518555	1.97514	0.682562	2.62099	0.726204	2.79593	0.850169	3.27038			0.625579	2.40817	0.740373	2.84491	0.863171	3.31876		
0.684799	2.61972	0.520504	1.97555	0.684689	2.61978	0.7281	2.79321	0.85191	3.26538			0.627376	2.40646	0.742347	2.84232	0.864538	3.31215		
0.686918	2.61849	0.522452	1.97596	0.686808	2.61855	0.730005	2.79054	0.853653	3.26042			0.629173	2.40476	0.744322	2.83975	0.86591	3.3056		
0.689028	2.61724	0.5244	1.97636	0.688919	2.6173	0.731918	2.78793	0.855397	3.25549			0.630972	2.40308	0.746297	2.8372	0.867287	3.29912		
0.691131	2.61597	0.526347	1.97676	0.691022	2.61603	0.733841	2.78537	0.857142	3.25061			0.632771	2.40141	0.748273	2.83467	0.868669	3.29271		
0.693226	2.61468	0.528293	1.97715	0.693118	2.61474	0.735774	2.78286	0.858889	3.24576			0.634572	2.39976	0.750248	2.83216	0.870056	3.28637		
0.695313	2.61336	0.530238	1.97753	0.695205	2.61343	0.737715	2.78041	0.860636	3.24096			0.636374	2.39812	0.752225	2.82967	0.871449	3.28008		
0.697392	2.61203	0.532182	1.97791	0.697285	2.6121	0.739666	2.77801	0.862385	3.23619			0.638177	2.3965	0.754201	2.8272	0.872847	3.27386		
0.699463	2.61068	0.534126	1.97829	0.699356	2.61075	0.741626	2.77566	0.864135	3.23146			0.639982	2.3949	0.756178	2.82474	0.874251	3.26771		
0.701526	2.60931	0.536069	1.97865	0.70142	2.60938	0.743596	2.77336	0.865885	3.22676			0.641787	2.39331	0.758155	2.8223	0.875659	3.26162		
0.703582	2.60791	0.538011	1.97902	0.703475	2.60798	0.745575	2.77111	0.867637	3.2221			0.643593	2.39174	0.760132	2.81988	0.877073	3.25558		
0.705629	2.6065	0.539953	1.97938	0.705523	2.60657	0.747564	2.76891	0.86939	3.21748			0.645401	2.39018	0.762109	2.81748	0.878492	3.24961		
0.707668	2.60506	0.541894	1.97973	0.707562	2.60514	0.749561	2.76676	0.871144	3.21289			0.64721	2.38864	0.764086	2.81509	0.879916	3.2437		
0.709698	2.60361	0.543834	1.98008	0.709593	2.60369	0.751569	2.76467	0.872898	3.20834			0.64902	2.38711	0.766063	2.81272	0.881346	3.23785		
0.711722	2.60214	0.545773	1.98042	0.711617	2.60222	0.753586	2.76262	0.874653	3.20382			0.650832	2.3856	0.76804	2.81036	0.882781	3.23206		
0.713737	2.60065	0.547712	1.98076	0.713632	2.60072	0.755612	2.76061	0.87641	3.19933			0.652644	2.3841	0.770016	2.80802	0.884222	3.22633		
0.715744	2.59914	0.54965	1.98109	0.71564	2.59922	0.757647	2.75866	0.878167	3.19488			0.654458	2.38262	0.771993	2.8057	0.885667	3.22066		
0.717744	2.59761	0.551587	1.98142	0.71764	2.59769	0.759692	2.75675	0.879925	3.19046			0.656273	2.38115	0.773969	2.80339	0.887118	3.21504		
0.719735	2.59606	0.553524	1.98174	0.719632	2.59615	0.761745	2.75489	0.881683	3.18607			0.65809	2.37969	0.775945	2.80109	0.888575	3.20948		
0.721719	2.5945	0.55546	1.98206	0.721617	2.59458	0.763808	2.75307	0.883443	3.18172			0.659907	2.37825	0.77792	2.79881	0.890037	3.20398		
0.723696	2.59292	0.557395	1.98238	0.723594	2.59301	0.76588	2.7513	0.885203	3.1774			0.661726	2.37683	0.779895	2.79654	0.891504	3.19853		
0.725665	2.59133	0.559329	1.98269	0.725563	2.59141	0.767961	2.74957	0.886963	3.1731			0.663547	2.37542	0.781869	2.79428	0.892976	3.19314		
0.727627	2.58972	0.561263	1.98299	0.727526	2.5898	0.77005	2.74789	0.888725	3.16884			0.665368	2.37402	0.783843	2.79204	0.894454	3.18781		
0.729582	2.58809	0.563196	1.9833	0.729481	2.58818	0.772148	2.74625	0.890487	3.16461			0.667191	2.37264	0.785816	2.78981	0.895937	3.18252		
0.73153	2.58645	0.565128	1.98359	0.731429	2.58654	0.774255	2.74464	0.892249	3.16041			0.669015	2.37127	0.787788	2.78759	0.897426	3.1773		
0.73347	2.5848	0.56706	1.98388	0.73337	2.58489	0.77637	2.74308	0.894013	3.15624			0.670841	2.36991	0.78976	2.78539	0.89892	3.17212		
0.735404	2.58314	0.568991	1.98417	0.735304	2.58322	0.778493	2.74156	0.895776	3.1521			0.672668	2.36857	0.791731	2.78319	0.900419	3.167		
0.737332	2.58146	0.570921	1.98446	0.737232	2.58154	0.780625	2.74007	0.897541	3.14799			0.674496	2.36724	0.793702	2.78101	0.901924	3.16193		
0.739252	2.57977	0.572851	1.98474	0.739153	2.57985	0.782764	2.73863	0.899305	3.1439			0.676325	2.36593	0.795671	2.77884	0.903435	3.15692		
0.741167	2.57807	0.57478	1.98501	0.741068	2.57815	0.784911	2.73722	0.901071	3.13985			0.678156	2.36462	0.797639	2.77668	0.90495	3.15195		
0.743075	2.57635	0.576708	1.98528	0.742976	2.57644	0.787066	2.73584	0.902836	3.13582			0.679988	2.36333	0.799607	2.77453	0.906471	3.14704		
0.744977	2.57463	0.578635	1.98555	0.744879	2.57472	0.789229	2.7345	0.904602	3.13182			0.681822	2.36206	0.801573	2.77239	0.907998	3.14217		
0.746874	2.5729	0.580562	1.98581	0.746776	2.57299	0.791399	2.7332	0.906369	3.12785			0.683657	2.36079	0.803539	2.77026	0.90953	3.13736		
0.748764	2.57116	0.582489	1.98607	0.748666	2.57125	0.793575	2.73193	0.908136	3.1239			0.685493	2.35954	0.805503	2.76814	0.911067	3.13259		
0.750649	2.56941	0.584414	1.98633	0.750552	2.56951	0.795759	2.73069	0.909903	3.11998			0.687331	2.35831	0.807467	2.76603	0.91261	3.12788		
0.752529	2.56766	0.586339	1.98658	0.752432	2.56775	0.79795	2.72948	0.911671	3.11608			0.68917	2.35708	0.809429	2.76393	0.914158	3.12321		
0.754404	2.5659	0.588263	1.98683	0.754307	2.56599	0.800148	2.7283	0.913438	3.11222			0.69101	2.35587	0.81139	2.76184	0.915712	3.11859		
0.756273	2.56413	0.590187	1.98707	0.756176	2.56422	0.802352	2.72715	0.915207	3.10837			0.692852	2.35467	0.81335	2.75976	0.917272	3.11402		
0.758138	2.56236	0.59211	1.98731	0.758041	2.56245	0.804562	2.72603	0.916975	3.10456			0.694695	2.35348	0.815308	2.75769	0.918836	3.1095		
0.759998	2.56058	0.594032	1.98755	0.759901	2.56068	0.806778	2.72494	0.918744	3.10076			0.696539	2.3523	0.817265	2.75562	0.920406	3.10502		
0.761853	2.5588	0.595954	1.98778	0.761757	2.55889	0.809001	2.72387	0.920513	3.097			0.698385	2.35114	0.819221	2.75357	0.921982	3.10059		
0.763704	2.55702	0.597875	1.98801	0.763608	2.55711	0.811229	2.72283	0.922282	3.09325			0.700232	2.34999	0.821175	2.75152	0.923563	3.09621		
0.765551	2.55523	0.599795	1.98824	0.765455	2.55532	0.813463	2.72182	0.924052	3.08953			0.702081	2.34885	0.823128	2.74948	0.92515	3.09187		
0.767393	2.55344	0.601715	1.98846	0.767298	2.55353	0.815702	2.72083	0.925821	3.08584			0.703931	2.34772	0.825079	2.74745	0.926742	3.08758		
0.769232	2.55165	0.603634	1.98868	0.769137	2.55174	0.817947	2.71986	0.927591	3.08216			0.705782	2.3466	0.827029	2.74542	0.928339	3.08333		
0.771067	2.54985	0.605552	1.98889	0.770972	2.54995	0.820196	2.71892	0.929361	3.07851			0.707635	2.3455	0.828978	2.74341	0.929942	3.07913		
0.772898	2.54806	0.60747	1.9891	0.772803	2.54815	0.822451	2.718	0.931131	3.07489			0.709489	2.3444	0.830924	2.7414	0.931551	3.07497		
0.774726	2.54626	0.609387	1.98931	0.774631	2.54636	0.824711	2.7171	0.932902	3.07128			0.711345	2.34332	0.83287	2.73939	0.933165	3.07085		
0.776551	2.54447	0.611304	1.98952	0.776456	2.54456	0.826975	2.71623	0.934672	3.0677			0.713202	2.34225	0.834813	2.7374	0.934784	3.06677		
0.778372	2.54267	0.61322	1.98972	0.778278	2.54277	0.829244	2.71537	0.936442	3.06414			0.71506	2.34119	0.836755	2.73541	0.936409	3.06274		
0.78019	2.54088	0.615135	1.98992	0.780096	2.54097	0.831517	2.71453	0.938213	3.06061			0.71692	2.34014	0.838695	2.73342	0.938039	3.05876		
0.782006	2.53909	0.61705	1.99012	0.781912	2.53918	0.833794	2.71371	0.939984	3.05709			0.718781	2.3391	0.840633	2.73145	0.939675	3.05481		
0.783818	2.5373	0.618964	1.99031	0.783724	2.53739	0.836076	2.71291	0.941754	3.0536			0.720643	2.33807	0.84257	2.72948	0.941316	3.0509		
0.785628	2.53551	0.620878	1.9905	0.785534	2.5356	0.838361	2.71213	0.943525	3.05013			0.722507	2.33705	0.844505	2.72751	0.942963	3.04704		
0.787435	2.53372	0.622791	1.99069	0.787342	2.53382	0.840651	2.71136	0.945296	3.04667			0.724372	2.33605	0.846438	2.72555	0.944615	3.04322		
0.78924	2.53194	0.624704	1.99087	0.789147	2.53203	0.842944	2.71061	0.947067	3.04324			0.726239	2.33505	0.848369	2.7236	0.946273	3.03943		
0.791043	2.53016	0.626615	1.99105	0.79095	2.53025	0.84524	2.70988	0.948838	3.03983			0.728107	2.33406	0.850298	2.72165	0.947936	3.03569		
0.792844	2.52839	0.628527	1.99123	0.79275	2.52848	0.84754	2.70916	0.950609	3.03644			0.729976	2.33309	0.852226	2.71971	0.949604	3.03199		
0.794642	2.52661	0.630437	1.99141	0.794549	2.52671	0.849843	2.70845	0.95238	3.03307			0.731847	2.33212	0.854151	2.71778	0.951278	3.02832		
0.796439	2.52485	0.632348	1.99158	0.796346	2.52494	0.85215	2.70776	0.954151	3.02972			0.733719	2.33117	0.856075	2.71585	0.952957	3.0247		
0.798233	2.52308	0.634257	1.99175	0.79814	2.52318	0.854459	2.70709	0.955922	3.02639			0.735592	2.33022	0.857996	2.71392	0.954642	3.02111		
0.800026	2.52133	0.636166	1.99191	0.799933	2.52142	0.856772	2.70643	0.957692	3.02308			0.737467	2.32928	0.859916	2.712	0.956332	3.01756		
0.801818	2.51957	0.638075	1.99208	0.801725	2.51966	0.859087	2.70578	0.959463	3.01979			0.739343	2.32836	0.861834	2.71009	0.958027	3.01405		
0.803607	2.51783	0.639983	1.99224	0.803515	2.51792	0.861405	2.70514	0.961234	3.01652			0.741221	2.32744	0.863749	2.70817	0.959728	3.01057		
0.805396	2.51608	0.64189	1.9924	0.805303	2.51617	0.863726	2.70451	0.963005	3.01327			0.7431	2.32654	0.865663	2.70627	0.961434	3.00714		
0.807182	2.51435	0.643797	1.99256	0.80709	2.51444	0.866049	2.7039	0.964776	3.01003			0.74498	2.32564	0.867575	2.70437	0.963145	3.00374		
0.808968	2.51262	0.645703	1.99271	0.808875	2.51271	0.868374	2.7033	0.966547	3.00682			0.746861	2.32475	0.869484	2.70247	0.964862	3.00037		
0.810752	2.51089	0.647609	1.99286	0.81066	2.51098	0.870702	2.7027	0.968317	3.00362			0.748744	2.32387	0.871391	2.70058	0.966584	2.99704		
0.812536	2.50918	0.649514	1.99301	0.812443	2.50927	0.873032	2.70212	0.970088	3.00044			0.750629	2.323	0.873297	2.69869	0.968311	2.99375		
0.814318	2.50747	0.651419	1.99316	0.814225	2.50755	0.875364	2.70155	0.971859	2.99728			0.752514	2.32214	0.8752	2.69681	0.970043	2.99049		
0.816099	2.50576	0.653323	1.9933	0.816007	2.50585	0.877699	2.70099	0.973629	2.99414			0.754401	2.32129	0.877101	2.69493	0.971781	2.98727		
0.817879	2.50406	0.655227	1.99344	0.817787	2.50415	0.880035	2.70043	0.9754	2.99101			0.756289	2.32045	0.879	2.69306	0.973524	2.98408		
0.819659	2.50237	0.65713	1.99358	0.819567	2.50246	0.882373	2.69989	0.977171	2.98791			0.758179	2.31962	0.880897	2.69119	0.975272	2.98093		
0.821438	2.50069	0.659033	1.99372	0.821345	2.50078	0.884713	2.69935	0.978941	2.98482			0.76007	2.31879	0.882792	2.68932	0.977025	2.9778		
0.823216	2.49902	0.660935	1.99385	0.823124	2.4991	0.887054	2.69883	0.980712	2.98174			0.761962	2.31798	0.884685	2.68746	0.978784	2.97472		
0.824993	2.49735	0.662836	1.99398	0.824901	2.49744	0.889397	2.69831	0.982482	2.97869			0.763855	2.31717	0.886576	2.6856	0.980547	2.97166		
0.82677	2.49569	0.664738	1.99412	0.826678	2.49578	0.891742	2.69779	0.984253	2.97565			0.76575	2.31637	0.888464	2.68375	0.982316	2.96864		
0.828546	2.49404	0.666638	1.99424	0.828454	2.49412	0.894088	2.69729	0.986023	2.97263			0.767646	2.31558	0.89035	2.6819	0.984089	2.96565		
0.830322	2.49239	0.668538	1.99437	0.83023	2.49248	0.896435	2.69679	0.987793	2.96963			0.769543	2.3148	0.892235	2.68005	0.985868	2.96269		
0.832098	2.49076	0.670438	1.99449	0.832006	2.49084	0.898784	2.6963	0.989564	2.96664			0.771442	2.31402	0.894117	2.67821	0.987652	2.95976		
0.833873	2.48913	0.672337	1.99461	0.833781	2.48921	0.901134	2.69581	0.991334	2.96367			0.773342	2.31326	0.895997	2.67637	0.98944	2.95687		
0.835648	2.48751	0.674236	1.99473	0.835556	2.48759	0.903485	2.69534	0.993105	2.96072			0.775243	2.3125	0.897874	2.67454	0.991234	2.954		
0.837422	2.4859	0.676134	1.99485	0.83733	2.48598	0.905838	2.69486	0.994875	2.95778			0.777146	2.31175	0.89975	2.67271	0.993033	2.95117		
0.839197	2.48429	0.678032	1.99497	0.839105	2.48438	0.908191	2.6944	0.996646	2.95486			0.779049	2.31101	0.901624	2.67088	0.994836	2.94837		
0.840971	2.4827	0.679929	1.99508	0.840879	2.48278	0.910545	2.69393	0.998416	2.95195			0.780954	2.31027	0.903495	2.66906	0.996644	2.94559		
0.842745	2.48111	0.681826	1.99519	0.842653	2.48119	0.9129	2.69348	1.00019	2.94906			0.782861	2.30955	0.905364	2.66724	0.998457	2.94285		
0.844519	2.47953	0.683723	1.9953	0.844427	2.47961	0.915256	2.69302					0.784768	2.30883	0.907232	2.66542	1.00028	2.94013		
0.846293	2.47796	0.685619	1.99541	0.846201	2.47804	0.917613	2.69258					0.786677	2.30812	0.909097	2.66361				
0.848067	2.4764	0.687514	1.99551	0.847975	2.47648	0.91997	2.69213					0.788587	2.30741	0.91096	2.6618				
0.849841	2.47485	0.689409	1.99562	0.849749	2.47493	0.922328	2.6917					0.790498	2.30672	0.912821	2.66				
0.851616	2.4733	0.691304	1.99572	0.851524	2.47338	0.924687	2.69126					0.792411	2.30603	0.91468	2.6582				
0.85339	2.47177	0.693198	1.99582	0.853298	2.47185	0.927046	2.69083					0.794324	2.30535	0.916537	2.6564				
0.855164	2.47024	0.695092	1.99592	0.855072	2.47032	0.929405	2.6904					0.796239	2.30467	0.918391	2.65461				
0.856939	2.46873	0.696986	1.99602	0.856847	2.4688	0.931765	2.68998					0.798155	2.304	0.920244	2.65282				
0.858714	2.46722	0.698879	1.99611	0.858622	2.46729	0.934125	2.68956					0.800073	2.30334	0.922095	2.65104				
0.860489	2.46572	0.700771	1.9962	0.860397	2.46579	0.936486	2.68914					0.801991	2.30269	0.923944	2.64926				
0.862264	2.46422	0.702663	1.9963	0.862172	2.4643	0.938847	2.68873					0.803911	2.30204	0.925791	2.64748				
0.86404	2.46274	0.704555	1.99639	0.863948	2.46282	0.941208	2.68832					0.805832	2.3014	0.927635	2.64571				
0.865816	2.46127	0.706446	1.99647	0.865724	2.46134	0.943569	2.68791					0.807754	2.30077	0.929478	2.64394				
0.867593	2.4598	0.708337	1.99656	0.867501	2.45988	0.94593	2.6875					0.809677	2.30015	0.931319	2.64217				
0.86937	2.45835	0.710228	1.99665	0.869277	2.45842	0.948291	2.6871					0.811601	2.29953	0.933158	2.64041				
0.871147	2.4569	0.712118	1.99673	0.871055	2.45697	0.950652	2.68669					0.813527	2.29891	0.934995	2.63865				
0.872925	2.45546	0.714008	1.99681	0.872832	2.45554	0.953013	2.68629					0.815453	2.29831	0.936831	2.6369				
0.874703	2.45403	0.715897	1.99689	0.87461	2.45411	0.955373	2.68589					0.817381	2.29771	0.938664	2.63515				
0.876481	2.45261	0.717786	1.99697	0.876389	2.45268	0.957734	2.68549					0.81931	2.29711	0.940496	2.6334				
0.87826	2.4512	0.719675	1.99705	0.878168	2.45127	0.960094	2.6851					0.82124	2.29652	0.942325	2.63166				
0.88004	2.4498	0.721563	1.99713	0.879948	2.44987	0.962454	2.6847					0.823171	2.29594	0.944154	2.62992				
0.88182	2.4484	0.723451	1.9972	0.881728	2.44847	0.964813	2.68431					0.825104	2.29537	0.94598	2.62819				
0.883601	2.44702	0.725339	1.99728	0.883509	2.44709	0.967172	2.68391					0.827037	2.2948	0.947804	2.62646				
0.885382	2.44564	0.727226	1.99735	0.88529	2.44571	0.969531	2.68352					0.828972	2.29424	0.949627	2.62473				
0.887164	2.44427	0.729113	1.99742	0.887072	2.44434	0.971889	2.68313					0.830907	2.29368	0.951448	2.62301				
0.888947	2.44291	0.730999	1.99749	0.888855	2.44298	0.974246	2.68273					0.832844	2.29313	0.953268	2.62129				
0.89073	2.44156	0.732885	1.99756	0.890638	2.44163	0.976602	2.68234					0.834782	2.29258	0.955085	2.61958				
0.892514	2.44022	0.734771	1.99763	0.892422	2.44029	0.978958	2.68195					0.836721	2.29204	0.956902	2.61787				
0.894299	2.43888	0.736657	1.99769	0.894206	2.43895	0.981313	2.68156					0.838661	2.29151	0.958716	2.61617				
0.896084	2.43756	0.738542	1.99776	0.895991	2.43763	0.983667	2.68116					0.840602	2.29098	0.960529	2.61447				
0.89787	2.43624	0.740427	1.99782	0.897777	2.43631	0.98602	2.68077					0.842544	2.29046	0.962341	2.61277				
0.899656	2.43493	0.742311	1.99788	0.899564	2.435	0.988373	2.68037					0.844487	2.28994	0.964151	2.61108				
0.901444	2.43363	0.744196	1.99794	0.901351	2.4337	0.990724	2.67998					0.846431	2.28943	0.965959	2.6094				
0.903232	2.43234	0.746079	1.998	0.903139	2.43241	0.993074	2.67958					0.848377	2.28892	0.967766	2.60772				
0.90502	2.43106	0.747963	1.99806	0.904928	2.43113	0.995423	2.67918					0.850323	2.28842	0.969572	2.60604				
0.90681	2.42979	0.749846	1.99812	0.906717	2.42985	0.99777	2.67879					0.85227	2.28792	0.971376	2.60437				
0.9086	2.42852	0.751729	1.99818	0.908507	2.42859	1.00012	2.67838					0.854218	2.28743	0.973179	2.6027				
0.910391	2.42726	0.753612	1.99823	0.910298	2.42733							0.856168	2.28695	0.97498	2.60103				
0.912183	2.42602	0.755494	1.99829	0.91209	2.42608							0.858118	2.28646	0.97678	2.59938				
0.913976	2.42477	0.757376	1.99834	0.913883	2.42484							0.860069	2.28599	0.978579	2.59772				
0.915769	2.42354	0.759258	1.99839	0.915676	2.42361							0.862022	2.28552	0.980377	2.59607				
0.917563	2.42232	0.761139	1.99844	0.91747	2.42238							0.863975	2.28505	0.982173	2.59443				
0.919358	2.4211	0.763021	1.99849	0.919265	2.42116							0.865929	2.28459	0.983968	2.59279				
0.921154	2.41989	0.764902	1.99854	0.921061	2.41996							0.867885	2.28414	0.985762	2.59116				
0.922951	2.41869	0.766782	1.99859	0.922858	2.41876							0.869841	2.28368	0.987555	2.58953				
0.924749	2.4175	0.768663	1.99864	0.924655	2.41756							0.871798	2.28324	0.989347	2.5879				
0.926547	2.41632	0.770543	1.99869	0.926454	2.41638							0.873756	2.2828	0.991138	2.58628				
0.928346	2.41514	0.772422	1.99873	0.928253	2.4152							0.875715	2.28236	0.992927	2.58467				
0.930146	2.41397	0.774302	1.99878	0.930053	2.41403							0.877675	2.28193	0.994716	2.58306				
0.931947	2.41281	0.776181	1.99882	0.931854	2.41287							0.879636	2.2815	0.996503	2.58146				
0.933749	2.41166	0.77806	1.99886	0.933656	2.41172							0.881598	2.28107	0.998289	2.57986				
0.935552	2.41052	0.779939	1.99891	0.935459	2.41058							0.883561	2.28065	1.00008	2.57826				
0.937356	2.40938	0.781818	1.99895	0.937262	2.40944							0.885524	2.28024						
0.93916	2.40825	0.783696	1.99899	0.939067	2.40831							0.887489	2.27983						
0.940966	2.40713	0.785574	1.99903	0.940872	2.40719							0.889454	2.27942						
0.942772	2.40602	0.787452	1.99907	0.942678	2.40607							0.891421	2.27902						
0.944579	2.40491	0.78933	1.9991	0.944485	2.40497							0.893388	2.27862						
0.946387	2.40381	0.791207	1.99914	0.946294	2.40387							0.895356	2.27823						
0.948196	2.40272	0.793084	1.99918	0.948102	2.40278							0.897325	2.27784						
0.950006	2.40164	0.794961	1.99921	0.949912	2.40169							0.899295	2.27745						
0.951817	2.40056	0.796838	1.99925	0.951723	2.40062							0.901266	2.27707						
0.953629	2.39949	0.798714	1.99928	0.953535	2.39955							0.903237	2.27669						
0.955442	2.39843	0.80059	1.99932	0.955348	2.39849							0.90521	2.27632						
0.957255	2.39738	0.802466	1.99935	0.957161	2.39743							0.907183	2.27595						
0.95907	2.39633	0.804342	1.99938	0.958976	2.39638							0.909157	2.27558						
0.960885	2.39529	0.806218	1.99942	0.960791	2.39534							0.911132	2.27522						
0.962702	2.39426	0.808093	1.99945	0.962608	2.39431							0.913108	2.27486						
0.964519	2.39323	0.809968	1.99948	0.964425	2.39328							0.915085	2.2745						
0.966338	2.39221	0.811843	1.99951	0.966243	2.39227							0.917062	2.27415						
0.968157	2.3912	0.813718	1.99954	0.968063	2.39125							0.91904	2.27381						
0.969977	2.3902	0.815593	1.99956	0.969883	2.39025							0.921019	2.27346						
0.971798	2.3892	0.817467	1.99959	0.971704	2.38925							0.922999	2.27312						
0.97362	2.38821	0.819341	1.99962	0.973526	2.38826							0.92498	2.27278						
0.975444	2.38722	0.821215	1.99965	0.975349	2.38728							0.926961	2.27245						
0.977268	2.38625	0.823089	1.99967	0.977173	2.3863							0.928943	2.27212						
0.979093	2.38528	0.824963	1.9997	0.978998	2.38533							0.930926	2.27179						
0.980918	2.38431	0.826836	1.99972	0.980824	2.38436							0.93291	2.27147						
0.982745	2.38336	0.82871	1.99975	0.982651	2.38341							0.934894	2.27115						
0.984573	2.38241	0.830583	1.99977	0.984478	2.38246							0.936879	2.27083						
0.986402	2.38146	0.832456	1.9998	0.986307	2.38151							0.938865	2.27052						
0.988232	2.38053	0.834329	1.99982	0.988137	2.38057							0.940852	2.27021						
0.990062	2.37959	0.836201	1.99984	0.989967	2.37964							0.942839	2.2699						
0.991894	2.37867	0.838074	1.99986	0.991799	2.37872							0.944827	2.26959						
0.993727	2.37775	0.839946	1.99988	0.993632	2.3778							0.946816	2.26929						
0.99556	2.37684	0.841818	1.99991	0.995465	2.37689							0.948806	2.26899						
0.997395	2.37594	0.84369	1.99993	0.9973	2.37598							0.950796	2.2687						
0.99923	2.37504	0.845562	1.99995	0.999135	2.37508							0.952787	2.26841						
1.00107	2.37414	0.847434	1.99997	1.00097	2.37419							0.954779	2.26812						
		0.849305	1.99999									0.956771	2.26783						
		0.851177	2									0.958764	2.26755						
		0.853048	2.00002									0.960758	2.26727						
		0.854919	2.00004									0.962752	2.26699						
		0.85679	2.00006									0.964747	2.26671						
		0.858661	2.00008									0.966743	2.26644						
		0.860532	2.00009									0.96874	2.26617						
		0.862402	2.00011									0.970737	2.26591						
		0.864273	2.00013									0.972734	2.26564						
		0.866143	2.00014									0.974733	2.26538						
		0.868013	2.00016									0.976732	2.26512						
		0.869883	2.00017									0.978731	2.26486						
		0.871753	2.00019									0.980732	2.26461						
		0.873623	2.0002									0.982733	2.26436						
		0.875493	2.00021									0.984734	2.26411						
		0.877362	2.00023									0.986736	2.26386						
		0.879232	2.00024									0.988739	2.26362						
		0.881101	2.00025									0.990742	2.26338						
		0.88297	2.00027									0.992746	2.26314						
		0.88484	2.00028									0.994751	2.2629						
		0.886709	2.00029									0.996756	2.26267						
		0.888578	2.0003									0.998762	2.26244						
		0.890446	2.00032									1.00077	2.26221						
		0.892315	2.00033																
		0.894184	2.00034																
		0.896052	2.00035																
		0.897921	2.00036																
		0.899789	2.00037																
		0.901657	2.00038																
		0.903525	2.00039																
		0.905393	2.0004																
		0.907261	2.00041																
		0.909129	2.00042																
		0.910997	2.00043																
		0.912865	2.00043																
		0.914732	2.00044																
		0.9166	2.00045																
		0.918467	2.00046																
		0.920335	2.00047																
		0.922202	2.00047																
		0.924069	2.00048																
		0.925936	2.00049																
		0.927803	2.00049																
		0.92967	2.0005																
		0.931537	2.00051																
		0.933404	2.00051																
		0.935271	2.00052																
		0.937138	2.00053																
		0.939004	2.00053																
		0.940871	2.00054																
		0.942737	2.00054																
		0.944604	2.00055																
		0.94647	2.00055																
		0.948337	2.00056																
		0.950203	2.00056																
		0.952069	2.00057																
		0.953935	2.00057																
		0.955801	2.00058																
		0.957667	2.00058																
		0.959533	2.00059																
		0.961399	2.00059																
		0.963265	2.0006																
		0.965131	2.0006																
		0.966997	2.0006																
		0.968863	2.00061																
		0.970728	2.00061																
		0.972594	2.00061																
		0.97446	2.00062																
		0.976325	2.00062																
		0.978191	2.00062																
		0.980056	2.00063																
		0.981922	2.00063																
		0.983787	2.00063																
		0.985652	2.00064																
		0.987518	2.00064																
		0.989383	2.00064																
		0.991248	2.00064																
		0.993114	2.00065																
		0.994979	2.00065																
		0.996844	2.00065																
		0.998709	2.00065																
		1.00057	2.00066																
