Sym0		Asym0		Sym1		Sym2		Sym3		Sym4		Asym1		Asym2		Asym3		Asym4	
458  Points		541  Points		458  Points		407  Points		370  Points		280  Points		481  Points		422  Points		371  Points		280  Points	
Freq (MHz)	Vph (m/ms)	Freq (MHz)	Vph (m/ms)	Freq (MHz)	Vph (m/ms)	Freq (MHz)	Vph (m/ms)	Freq (MHz)	Vph (m/ms)	Freq (MHz)	Vph (m/ms)	Freq (MHz)	Vph (m/ms)	Freq (MHz)	Vph (m/ms)	Freq (MHz)	Vph (m/ms)	Freq (MHz)	Vph (m/ms)
0.279507	340.864	0.000132784	0.0709503	0.279507	368.054	0.356458	4804.41	0.559017	1873.69	0.838526	2363.26	0.139755	1259.67	0.419264	719.418	0.69877	1637.4	0.712916	5226.56
0.2795	159.56	0.000297589	0.10616	0.2795	165.276	0.356474	354.387	0.559024	454.474	0.838529	651.785	0.139796	134.078	0.419274	276.844	0.698759	514.379	0.712933	667.479
0.279488	104.155	0.000527392	0.141207	0.279489	106.561	0.356518	184.001	0.55904	258.606	0.838537	378.025	0.139902	70.8604	0.419292	171.407	0.698737	305.106	0.712975	356.525
0.279472	77.3072	0.000821547	0.176049	0.279473	78.625	0.35659	124.278	0.559063	180.726	0.83855	266.215	0.140074	48.2013	0.419319	124.137	0.698703	216.865	0.713043	243.236
0.27945	61.4612	0.0011793	0.210655	0.279452	62.2915	0.356689	93.8414	0.559095	138.901	0.838566	205.45	0.140312	36.5612	0.419354	97.3078	0.698659	168.208	0.713136	184.598
0.279424	51.0041	0.00159971	0.244979	0.279426	51.5747	0.356815	75.3941	0.559136	112.801	0.838587	167.273	0.140613	29.4823	0.419398	80.0185	0.698604	137.379	0.713253	148.753
0.279394	43.5861	0.00208168	0.278982	0.279396	44.0023	0.35697	63.0202	0.559184	94.9617	0.838611	141.062	0.140979	24.7283	0.41945	67.9496	0.698541	116.096	0.713395	124.576
0.27936	38.0503	0.00262385	0.31261	0.279362	38.3672	0.357151	54.1461	0.559241	81.9976	0.838641	121.954	0.141407	21.3192	0.419511	59.0473	0.698468	100.519	0.713559	107.169
0.279321	33.7607	0.00322502	0.345845	0.279324	34.0101	0.357359	47.4722	0.559307	72.1508	0.838674	107.407	0.141896	18.7581	0.41958	52.2103	0.698387	88.6242	0.713746	94.0382
0.279279	30.3391	0.0038836	0.378638	0.279282	30.5404	0.357594	42.2716	0.559381	64.418	0.838711	95.9616	0.142445	16.7658	0.419658	46.7948	0.698299	79.244	0.713955	83.7813
0.279233	27.5461	0.00459816	0.410973	0.279236	27.712	0.357856	38.1057	0.559463	58.1847	0.838753	86.7218	0.143054	15.1735	0.419744	42.3995	0.698205	71.657	0.714185	75.5483
0.279184	25.223	0.00536708	0.442823	0.279187	25.3621	0.358144	34.6944	0.559554	53.0534	0.838799	79.1062	0.14372	13.8731	0.419839	38.7612	0.698105	65.3938	0.714435	68.7946
0.279132	23.2603	0.00618865	0.474159	0.279135	23.3786	0.358458	31.8501	0.559653	48.7558	0.838849	72.7211	0.144441	12.7923	0.419942	35.6999	0.698	60.1356	0.714704	63.1546
0.279077	21.5803	0.00706119	0.504964	0.279081	21.6821	0.358798	29.4429	0.55976	45.1042	0.838904	67.2907	0.145217	11.8807	0.420054	33.0886	0.697891	55.6586	0.714991	58.3741
0.27902	20.1259	0.00798298	0.535224	0.279024	20.2145	0.359163	27.3796	0.559876	41.9631	0.838962	62.6159	0.146046	11.1022	0.420174	30.8351	0.697779	51.8006	0.715296	54.2708
0.278961	18.8545	0.00895225	0.56492	0.278965	18.9323	0.359554	25.5917	0.56	39.2328	0.839025	58.5493	0.146925	10.4303	0.420303	28.8705	0.697665	48.4416	0.715618	50.7105
0.2789	17.7337	0.00996733	0.59405	0.278904	17.8025	0.359969	24.0279	0.560132	36.8375	0.839092	54.9794	0.147853	9.84504	0.420441	27.1429	0.697549	45.4907	0.715956	47.5923
0.278838	16.7382	0.0110264	0.622598	0.278842	16.7995	0.360408	22.6486	0.560273	34.7194	0.839164	51.8206	0.148829	9.33113	0.420587	25.6118	0.697432	42.8778	0.71631	44.8388
0.278775	15.8481	0.0121278	0.65056	0.278779	15.903	0.360871	21.4234	0.560422	32.833	0.839239	49.0057	0.149851	8.87664	0.420741	24.2456	0.697314	40.548	0.716678	42.3897
0.278712	15.0475	0.0132697	0.677935	0.278716	15.0971	0.361358	20.328	0.56058	31.1424	0.839319	46.4816	0.150916	8.47217	0.420904	23.0191	0.697196	38.4576	0.717061	40.1971
0.278649	14.3235	0.0144506	0.704724	0.278653	14.3685	0.361868	19.3429	0.560746	29.6185	0.839403	44.2054	0.151879	8.15454	0.421076	21.912	0.697079	36.5716	0.717457	38.223
0.278586	13.6658	0.0156688	0.73092	0.27859	13.7067	0.362401	18.4524	0.56092	28.2381	0.839491	42.1423	0.152724	7.90612	0.421256	20.9077	0.696963	34.8615	0.717867	36.4362
0.278523	13.0656	0.0169226	0.756529	0.278527	13.103	0.362956	17.6437	0.561103	26.9817	0.839584	40.2637	0.153439	7.71459	0.421444	19.9926	0.696849	33.3038	0.718289	34.8114
0.278462	12.5157	0.0182107	0.781559	0.278466	12.5501	0.363533	16.906	0.561294	25.8335	0.83968	38.5461	0.154015	7.57128	0.421642	19.1553	0.696737	31.8789	0.718723	33.3276
0.278403	12.0101	0.0195315	0.806014	0.278407	12.0418	0.364132	16.2306	0.561493	24.7801	0.839781	36.9695	0.154444	7.47018	0.421847	18.3864	0.696627	30.5707	0.719169	31.9672
0.278345	11.5437	0.0208834	0.829895	0.278349	11.5729	0.364751	15.61	0.561701	23.8102	0.839886	35.5174	0.154722	7.40729	0.422062	17.6779	0.69652	29.3653	0.719626	30.7155
0.27829	11.112	0.0222652	0.853217	0.278294	11.1391	0.365392	15.0378	0.561917	22.9144	0.839996	34.1755	0.155123	7.31925	0.422284	17.0229	0.696416	28.2512	0.720095	29.56
0.278238	10.7114	0.0236754	0.875983	0.278241	10.7366	0.366052	14.5086	0.562141	22.0845	0.840109	32.9318	0.155564	7.2266	0.422516	16.4157	0.696315	27.2184	0.720575	28.49
0.278189	10.3387	0.0251128	0.898203	0.278192	10.3622	0.366733	14.018	0.562374	21.3135	0.840227	31.7759	0.156172	7.10544	0.422755	15.8512	0.696218	26.2583	0.721064	27.4965
0.278143	9.99108	0.0265762	0.91989	0.278146	10.013	0.367433	13.5617	0.562616	20.5954	0.840349	30.6988	0.156951	6.95968	0.423004	15.3252	0.696125	25.3635	0.721564	26.5715
0.278102	9.66609	0.0280644	0.941051	0.278104	9.68657	0.368152	13.1365	0.562865	19.925	0.840476	29.6928	0.157911	6.79374	0.423261	14.8338	0.696036	24.5277	0.722074	25.7083
0.278064	9.36164	0.0295762	0.961701	0.278067	9.38085	0.368889	12.7393	0.563123	19.2977	0.840606	28.7511	0.15906	6.61221	0.423526	14.3737	0.695952	23.7451	0.722594	24.9008
0.278032	9.07586	0.0311106	0.981848	0.278034	9.09391	0.369645	12.3675	0.563389	18.7094	0.840741	27.8677	0.160408	6.4196	0.4238	13.9422	0.695872	23.0109	0.723123	24.1438
0.278005	8.80712	0.0326664	1.0015	0.278007	8.82411	0.370418	12.0187	0.563664	18.1568	0.84088	27.0373	0.161786	6.24201	0.424083	13.5366	0.695796	22.3207	0.723662	23.4329
0.277984	8.55396	0.0342428	1.02068	0.277985	8.56998	0.371209	11.6909	0.563947	17.6366	0.841023	26.2554	0.163193	6.07781	0.424374	13.1546	0.695726	21.6707	0.724209	22.7638
0.277968	8.31509	0.0358388	1.03938	0.277969	8.33021	0.372017	11.3824	0.564238	17.1461	0.841171	25.5178	0.164627	5.92561	0.424674	12.7944	0.69566	21.0576	0.724766	22.1331
0.277959	8.08936	0.0374535	1.05763	0.27796	8.13208	0.372841	11.0914	0.564538	16.6829	0.841323	24.8208	0.166087	5.7842	0.424982	12.4541	0.6956	20.4782	0.725331	21.5376
0.277956	7.87573	0.039086	1.07544	0.277956	7.97058	0.373682	10.8167	0.564846	16.2447	0.841479	24.1613	0.167573	5.65252	0.425299	12.1321	0.695545	19.93	0.725905	20.9744
0.27796	7.67329	0.0407355	1.09281	0.277956	7.84188	0.374539	10.5567	0.565162	15.8296	0.841639	23.5363	0.169082	5.52965	0.425624	11.8271	0.695496	19.4104	0.726487	20.4409
0.277972	7.4812	0.0424014	1.10976	0.277958	7.74307	0.375411	10.3106	0.565487	15.4359	0.841804	22.9431	0.170614	5.41476	0.425958	11.5377	0.695452	18.9172	0.727078	19.935
0.277991	7.2987	0.0440827	1.1263	0.27796	7.67203	0.376298	10.0771	0.56582	15.062	0.841972	22.3794	0.172168	5.30714	0.4263	11.2627	0.695414	18.4487	0.727677	19.4544
0.278019	7.12513	0.0457788	1.14244	0.277962	7.62725	0.3772	9.85533	0.566161	14.7063	0.842145	21.8431	0.173742	5.20615	0.426651	11.0012	0.695381	18.0028	0.728284	18.9974
0.278055	6.95986	0.0474892	1.1582	0.277966	7.56381	0.378117	9.64451	0.566511	14.3677	0.842323	21.3322	0.175336	5.11123	0.427011	10.7522	0.695355	17.5781	0.728899	18.5623
0.278099	6.80233	0.049213	1.17357	0.277971	7.49607	0.379047	9.44382	0.566868	14.0449	0.842504	20.8449	0.176949	5.02185	0.427379	10.5147	0.695334	17.1731	0.729522	18.1476
0.278152	6.65204	0.0509497	1.18858	0.277979	7.40591	0.379992	9.25257	0.567235	13.7368	0.84269	20.3797	0.17858	4.93758	0.427755	10.2882	0.695319	16.7865	0.730152	17.7519
0.278215	6.50852	0.0526988	1.20323	0.277992	7.29502	0.38095	9.07013	0.567609	13.4426	0.84288	19.9351	0.180228	4.858	0.428141	10.0718	0.69531	16.417	0.73079	17.3738
0.278287	6.37134	0.0544597	1.21753	0.278012	7.1654	0.381921	8.89591	0.567992	13.1613	0.843074	19.5098	0.181892	4.78274	0.428534	9.8648	0.695308	16.0636	0.731436	17.0124
0.278369	6.24011	0.0562319	1.2315	0.278041	7.01926	0.382905	8.72939	0.568384	12.892	0.843272	19.1026	0.183572	4.71149	0.428937	9.66674	0.695311	15.7252	0.73209	16.6664
0.278461	6.11447	0.0580148	1.24514	0.278082	6.85897	0.383902	8.57008	0.568783	12.6341	0.843475	18.7122	0.185267	4.64394	0.429348	9.47701	0.695321	15.4009	0.732751	16.335
0.278564	5.99409	0.0598081	1.25847	0.278132	6.70609	0.384911	8.41753	0.569191	12.3868	0.843682	18.3378	0.186976	4.57982	0.429767	9.29511	0.695337	15.0898	0.733419	16.0172
0.278677	5.87867	0.0616113	1.27148	0.278191	6.56015	0.385931	8.27133	0.569607	12.1495	0.843893	17.9783	0.188698	4.51888	0.430195	9.12058	0.695359	14.7913	0.734094	15.7122
0.278801	5.76792	0.063424	1.2842	0.27826	6.4207	0.386831	8.14881	0.570032	11.9217	0.844109	17.6329	0.190433	4.46091	0.430632	8.95299	0.695388	14.5044	0.734777	15.4194
0.278936	5.66159	0.0652456	1.29662	0.278338	6.28734	0.387604	8.04777	0.570465	11.7027	0.844329	17.3008	0.192181	4.40569	0.431077	8.79195	0.695423	14.2286	0.735467	15.1379
0.279083	5.55944	0.067076	1.30877	0.278426	6.1597	0.388249	7.96648	0.570906	11.4921	0.844553	16.9812	0.193941	4.35305	0.431531	8.63708	0.695465	13.9633	0.736164	14.8671
0.279241	5.46123	0.0689147	1.32063	0.278525	6.03744	0.388761	7.9036	0.571355	11.2894	0.844781	16.6734	0.195711	4.30281	0.431994	8.48806	0.695513	13.7078	0.736868	14.6065
0.279411	5.36677	0.0707613	1.33224	0.278634	5.92025	0.389139	7.85814	0.571813	11.0942	0.845013	16.3769	0.197493	4.25482	0.432465	8.34455	0.695567	13.4617	0.737579	14.3555
0.279593	5.27585	0.0726155	1.34358	0.278754	5.80782	0.389382	7.82937	0.572279	10.9061	0.84525	16.0909	0.199284	4.20894	0.432882	8.22377	0.695628	13.2244	0.738297	14.1135
0.279788	5.18831	0.0744771	1.35467	0.278885	5.69991	0.389733	7.78847	0.572753	10.7247	0.845491	15.815	0.201086	4.16503	0.433243	8.12381	0.695696	12.9956	0.739022	13.8802
0.279995	5.10397	0.0763457	1.36551	0.279028	5.59626	0.390115	7.74461	0.573236	10.5497	0.845737	15.5486	0.202897	4.12297	0.433545	8.04316	0.69577	12.7746	0.739753	13.655
0.280215	5.02267	0.0782209	1.37612	0.279182	5.49663	0.390636	7.68592	0.573727	10.3807	0.845986	15.2913	0.204716	4.08265	0.433787	7.98064	0.695851	12.5612	0.740491	13.4375
0.280448	4.94428	0.0801026	1.3865	0.279348	5.40082	0.3913	7.61324	0.574226	10.2175	0.84624	15.0425	0.206545	4.04397	0.433965	7.93534	0.695938	12.355	0.741237	13.2274
0.280694	4.86864	0.0819905	1.39666	0.279525	5.30864	0.392107	7.52758	0.574734	10.0598	0.846498	14.802	0.208381	4.00684	0.43408	7.90666	0.696032	12.1556	0.741988	13.0242
0.280953	4.79564	0.0838843	1.40659	0.279715	5.21988	0.393062	7.43009	0.575249	9.90726	0.846761	14.5692	0.210225	3.97115	0.434246	7.86582	0.696133	11.9627	0.742747	12.8278
0.281226	4.72516	0.0857839	1.41632	0.279918	5.13439	0.394166	7.32202	0.575773	9.75967	0.847027	14.3438	0.212077	3.93684	0.434428	7.82196	0.69624	11.776	0.743511	12.6376
0.281513	4.65708	0.0876888	1.42584	0.280133	5.052	0.395281	7.2178	0.576306	9.61682	0.847298	14.1256	0.213935	3.90383	0.434676	7.76318	0.696354	11.5952	0.744283	12.4535
0.281814	4.59129	0.0895991	1.43515	0.280361	4.97256	0.396405	7.11724	0.576846	9.47848	0.847573	13.914	0.215801	3.87204	0.434993	7.69024	0.696475	11.4201	0.745061	12.2752
0.282129	4.5277	0.0915143	1.44428	0.280602	4.89594	0.397538	7.02016	0.577395	9.34444	0.847853	13.7089	0.217673	3.84141	0.435381	7.60406	0.696602	11.2503	0.745845	12.1023
0.282459	4.46621	0.0934345	1.45321	0.280857	4.82199	0.398681	6.92638	0.577952	9.21451	0.848137	13.51	0.219551	3.81188	0.435843	7.50568	0.696736	11.0856	0.746636	11.9347
0.282803	4.40673	0.0953592	1.46196	0.281125	4.7506	0.399832	6.83574	0.578517	9.08852	0.848425	13.317	0.221435	3.78339	0.43638	7.39626	0.696877	10.9259	0.747433	11.7721
0.283162	4.34918	0.0972884	1.47054	0.281407	4.68166	0.400993	6.74809	0.579091	8.96629	0.848717	13.1295	0.223325	3.75589	0.436926	7.29039	0.697025	10.7709	0.748237	11.6144
0.283536	4.29348	0.0992219	1.47893	0.281703	4.61504	0.402162	6.66328	0.579673	8.84767	0.849014	12.9475	0.22522	3.72932	0.43748	7.1879	0.697179	10.6204	0.749046	11.4612
0.283925	4.23956	0.10116	1.48716	0.282013	4.55066	0.403339	6.5812	0.580263	8.73249	0.849314	12.7707	0.22712	3.70365	0.438044	7.08864	0.69734	10.4742	0.749862	11.3124
0.284329	4.18735	0.103101	1.49523	0.282337	4.48841	0.404524	6.5017	0.580861	8.62062	0.84962	12.5987	0.229025	3.67883	0.438615	6.99247	0.697508	10.3321	0.750684	11.1678
0.28475	4.13677	0.105047	1.50313	0.282676	4.42821	0.405718	6.42467	0.581467	8.51193	0.849929	12.4316	0.230935	3.65481	0.439196	6.89924	0.697683	10.194	0.751513	11.0273
0.285186	4.08778	0.106996	1.51088	0.283029	4.36997	0.406919	6.35001	0.582003	8.41969	0.850243	12.269	0.23285	3.63156	0.439785	6.80884	0.697864	10.0597	0.752347	10.8907
0.285638	4.0403	0.108948	1.51847	0.283398	4.3136	0.408128	6.2776	0.582464	8.34283	0.850561	12.1107	0.234768	3.60904	0.440383	6.72115	0.698052	9.92907	0.753188	10.7577
0.286045	4.00012	0.110904	1.52592	0.283781	4.25904	0.409344	6.20735	0.582849	8.28046	0.850883	11.9567	0.236691	3.58722	0.440989	6.63604	0.698247	9.80194	0.754034	10.6284
0.286401	3.96672	0.112863	1.53322	0.28418	4.20621	0.410568	6.13917	0.583155	8.23189	0.85121	11.8067	0.238618	3.56606	0.441604	6.55341	0.698448	9.67819	0.754887	10.5025
0.286703	3.93967	0.114826	1.54038	0.284594	4.15505	0.411798	6.07297	0.583382	8.19659	0.851541	11.6606	0.240548	3.54554	0.442228	6.47317	0.698657	9.55768	0.755745	10.3799
0.286947	3.91864	0.116538	1.54651	0.285025	4.10548	0.413036	6.00866	0.583527	8.17417	0.851876	11.5183	0.242482	3.52563	0.44286	6.39521	0.698872	9.4403	0.75661	10.2605
0.287128	3.90338	0.118	1.55165	0.285471	4.05746	0.414281	5.94617	0.583737	8.1422	0.852215	11.3795	0.244419	3.50629	0.443501	6.31944	0.699094	9.32593	0.75748	10.1441
0.287245	3.89371	0.11921	1.55585	0.285933	4.01091	0.415532	5.88543	0.583966	8.10777	0.852559	11.2442	0.246359	3.48752	0.44415	6.24578	0.699322	9.21445	0.758357	10.0307
0.287415	3.87991	0.120167	1.55914	0.286411	3.9658	0.41679	5.82636	0.58428	8.06147	0.852907	11.1122	0.248302	3.46927	0.444809	6.17414	0.699558	9.10577	0.759239	9.9201
0.287602	3.86507	0.120871	1.56154	0.286907	3.92206	0.418054	5.76889	0.584679	8.00377	0.853259	10.9835	0.250248	3.45153	0.445476	6.10446	0.6998	8.99978	0.760127	9.81226
0.28786	3.84515	0.121322	1.56306	0.287419	3.87964	0.419324	5.71297	0.585166	7.93526	0.853616	10.8579	0.252197	3.43428	0.446151	6.03665	0.700049	8.89638	0.761021	9.70705
0.288192	3.82038	0.121971	1.56524	0.287948	3.83851	0.420601	5.65854	0.585743	7.85658	0.853977	10.7352	0.254149	3.41749	0.446836	5.97064	0.700304	8.79549	0.76192	9.60438
0.288602	3.79103	0.122676	1.5676	0.288494	3.79861	0.421883	5.60553	0.586412	7.76848	0.854342	10.6155	0.256103	3.40115	0.447529	5.90637	0.700567	8.69702	0.762825	9.50417
0.289095	3.75744	0.123635	1.57078	0.289058	3.75991	0.423171	5.55389	0.58709	7.68264	0.854712	10.4986	0.258059	3.38525	0.448231	5.84377	0.700801	8.61311	0.763736	9.40633
0.289678	3.71996	0.12485	1.57476	0.289639	3.72237	0.424465	5.50357	0.587776	7.59897	0.855086	10.3843	0.260017	3.36975	0.448941	5.78279	0.701004	8.54294	0.764653	9.31078
0.290279	3.68361	0.12632	1.57951	0.290239	3.68594	0.425765	5.45453	0.588471	7.51739	0.855464	10.2727	0.261977	3.35465	0.44966	5.72337	0.701176	8.48584	0.765575	9.21743
0.290898	3.64833	0.128046	1.585	0.290857	3.65059	0.427069	5.40671	0.589173	7.43784	0.855846	10.1636	0.26394	3.33993	0.450388	5.66545	0.701313	8.44127	0.766502	9.12623
0.291536	3.6141	0.130028	1.59119	0.291494	3.61629	0.42838	5.36007	0.589883	7.36024	0.856233	10.0569	0.265904	3.32558	0.451125	5.60898	0.701415	8.40882	0.767436	9.03709
0.292192	3.58088	0.132013	1.59727	0.292149	3.58301	0.429695	5.31458	0.590602	7.28452	0.856624	9.95256	0.26787	3.31157	0.45187	5.5539	0.70148	8.38819	0.768375	8.94995
0.292868	3.54864	0.134001	1.60324	0.292824	3.55071	0.431016	5.27018	0.591329	7.21062	0.85702	9.85052	0.269837	3.29791	0.452624	5.50019	0.701575	8.35873	0.769319	8.86475
0.293563	3.51736	0.13599	1.6091	0.293518	3.51936	0.432341	5.22684	0.592064	7.13849	0.857419	9.7507	0.271806	3.28457	0.453387	5.44778	0.701679	8.32696	0.770268	8.78142
0.294279	3.487	0.137981	1.61486	0.294232	3.48895	0.433671	5.18453	0.592807	7.06805	0.857823	9.65302	0.273776	3.27154	0.454158	5.39663	0.701822	8.28416	0.7711	8.71028
0.295014	3.45754	0.139974	1.62051	0.294966	3.45943	0.435006	5.1432	0.593558	6.99925	0.858232	9.55741	0.275747	3.25882	0.454938	5.34671	0.702005	8.23072	0.771813	8.6507
0.29577	3.42896	0.141969	1.62607	0.29572	3.43079	0.436346	5.10283	0.594317	6.93204	0.858644	9.46381	0.27772	3.24638	0.455727	5.29797	0.70223	8.16708	0.772404	8.60214
0.296547	3.40123	0.143965	1.63153	0.296496	3.40301	0.43769	5.06338	0.595085	6.86638	0.859061	9.37217	0.279693	3.23423	0.456525	5.25037	0.702498	8.09377	0.772873	8.5642
0.297345	3.37433	0.145964	1.63689	0.297293	3.37605	0.439039	5.02482	0.59586	6.8022	0.859483	9.28241	0.281668	3.22235	0.457331	5.20389	0.702812	8.01139	0.773219	8.53656
0.298165	3.34823	0.147964	1.64216	0.298111	3.3499	0.440392	4.98713	0.596644	6.73946	0.859908	9.19449	0.283643	3.21072	0.458146	5.15848	0.703133	7.93082	0.773441	8.51898
0.299007	3.32292	0.149965	1.64734	0.298952	3.32454	0.441749	4.95027	0.597435	6.67812	0.860338	9.10835	0.285619	3.19935	0.45897	5.11411	0.70346	7.852	0.77376	8.49385
0.299872	3.29838	0.151968	1.65243	0.299815	3.29995	0.44311	4.91421	0.598235	6.61814	0.860772	9.02393	0.287596	3.18822	0.459803	5.07074	0.703794	7.77487	0.774107	8.46674
0.30076	3.27459	0.153973	1.65744	0.300701	3.27611	0.444475	4.87894	0.599043	6.55946	0.861211	8.9412	0.289574	3.17733	0.460645	5.02836	0.704135	7.69939	0.774581	8.43019
0.301671	3.25152	0.155979	1.66236	0.301611	3.253	0.445845	4.84443	0.599858	6.50206	0.861597	8.87043	0.291552	3.16666	0.461495	4.98692	0.704482	7.6255	0.775181	8.3845
0.302606	3.22918	0.157986	1.66719	0.302545	3.23061	0.447218	4.81065	0.600682	6.4459	0.861928	8.81106	0.29353	3.15621	0.462354	4.9464	0.704836	7.55316	0.775911	8.33003
0.303566	3.20753	0.159994	1.67195	0.303503	3.20892	0.448595	4.77758	0.601514	6.39093	0.862204	8.76261	0.295509	3.14597	0.463222	4.90678	0.705197	7.48232	0.77677	8.26719
0.304551	3.18656	0.162004	1.67662	0.304486	3.18791	0.449975	4.74519	0.602354	6.33712	0.862423	8.72472	0.297488	3.13593	0.464099	4.86802	0.705564	7.41294	0.77776	8.19646
0.305561	3.16627	0.164014	1.68122	0.305495	3.16757	0.451359	4.71348	0.603202	6.28444	0.862585	8.69708	0.299467	3.1261	0.464984	4.83011	0.705938	7.34497	0.778756	8.12715
0.306597	3.14663	0.166026	1.68575	0.306529	3.14789	0.452747	4.68241	0.604058	6.23285	0.862689	8.67949	0.301447	3.11645	0.465878	4.79301	0.706319	7.27837	0.779757	8.05924
0.30766	3.12763	0.168039	1.6902	0.307591	3.12885	0.454138	4.65197	0.604922	6.18233	0.862839	8.65434	0.303426	3.10699	0.466782	4.75671	0.706706	7.21311	0.780763	7.99267
0.308751	3.10927	0.170053	1.69457	0.308679	3.11044	0.455532	4.62214	0.605793	6.13285	0.863002	8.62718	0.305406	3.0977	0.467693	4.72117	0.707099	7.14914	0.781774	7.92741
0.309869	3.09152	0.172068	1.69888	0.309795	3.09265	0.45693	4.5929	0.606673	6.08436	0.863225	8.59055	0.307385	3.08859	0.468614	4.68639	0.7075	7.08643	0.78279	7.86342
0.311015	3.07437	0.174084	1.70312	0.310939	3.07547	0.458331	4.56424	0.607561	6.03686	0.863508	8.5447	0.309364	3.07965	0.469544	4.65234	0.707906	7.02495	0.783811	7.80067
0.312189	3.05782	0.176101	1.70728	0.312112	3.05888	0.459734	4.53613	0.608457	5.9903	0.863853	8.48997	0.311343	3.07087	0.470482	4.619	0.70832	6.96466	0.784838	7.73913
0.313393	3.04186	0.178118	1.71139	0.313314	3.04288	0.461141	4.50857	0.60936	5.94467	0.864261	8.42674	0.313322	3.06224	0.471429	4.58635	0.70874	6.90553	0.785869	7.67875
0.314627	3.02646	0.180137	1.71542	0.314546	3.02745	0.462551	4.48153	0.610272	5.89994	0.864733	8.35544	0.3153	3.05377	0.472386	4.55437	0.709166	6.84752	0.786905	7.61951
0.315891	3.01163	0.182156	1.7194	0.315808	3.01258	0.463964	4.455	0.611191	5.85608	0.865209	8.28545	0.317278	3.04544	0.473351	4.52304	0.709599	6.79061	0.787946	7.56137
0.317186	2.99735	0.184176	1.72331	0.3171	2.99826	0.465379	4.42897	0.612118	5.81307	0.86569	8.21674	0.319256	3.03726	0.474324	4.49235	0.710038	6.73477	0.788992	7.50431
0.318511	2.98361	0.186196	1.72716	0.318424	2.98448	0.466798	4.40342	0.613053	5.77089	0.866174	8.14927	0.321232	3.02922	0.475307	4.46229	0.710484	6.67997	0.790042	7.4483
0.319868	2.97039	0.188218	1.73095	0.319779	2.97123	0.468219	4.37835	0.613996	5.72951	0.866664	8.08302	0.323209	3.02131	0.476299	4.43282	0.710937	6.62618	0.791098	7.39331
0.321256	2.95769	0.19024	1.73468	0.321165	2.9585	0.469642	4.35373	0.614947	5.68893	0.867157	8.01795	0.325184	3.01353	0.477299	4.40394	0.711396	6.57337	0.792158	7.33931
0.322676	2.9455	0.192262	1.73835	0.322583	2.94628	0.471068	4.32955	0.615906	5.6491	0.867655	7.95404	0.327159	3.00588	0.478308	4.37564	0.711861	6.52153	0.793223	7.28629
0.324128	2.93381	0.194285	1.74197	0.324033	2.93455	0.472497	4.30581	0.616872	5.61003	0.868157	7.89124	0.329133	2.99835	0.479326	4.3479	0.712333	6.47062	0.794293	7.2342
0.325612	2.92259	0.196309	1.74553	0.325515	2.92331	0.473928	4.28249	0.617846	5.57168	0.868664	7.82954	0.331106	2.99094	0.480353	4.3207	0.712811	6.42062	0.795367	7.18303
0.327128	2.91185	0.198333	1.74904	0.327029	2.91253	0.475361	4.25958	0.618828	5.53403	0.869175	7.7689	0.333078	2.98364	0.481389	4.29403	0.713295	6.37152	0.796446	7.13276
0.328676	2.90156	0.200357	1.75249	0.328574	2.90222	0.476797	4.23708	0.619818	5.49708	0.86969	7.70931	0.33505	2.97646	0.482434	4.26788	0.713786	6.32328	0.79753	7.08336
0.330256	2.89172	0.202382	1.75589	0.330152	2.89235	0.478235	4.21496	0.620815	5.46081	0.87021	7.65073	0.33702	2.96939	0.483488	4.24224	0.714284	6.27588	0.798618	7.03482
0.331867	2.88231	0.204408	1.75925	0.331761	2.88291	0.479675	4.19322	0.62182	5.42519	0.870734	7.59313	0.338989	2.96242	0.484551	4.21709	0.714788	6.22932	0.799711	6.9871
0.333509	2.87332	0.206433	1.76255	0.333401	2.8739	0.481118	4.17185	0.622833	5.39021	0.871262	7.53651	0.340957	2.95555	0.485622	4.19242	0.715298	6.18355	0.800808	6.94019
0.335181	2.86474	0.208459	1.7658	0.335072	2.86529	0.482562	4.15084	0.623854	5.35585	0.871794	7.48083	0.342924	2.94879	0.486702	4.16822	0.715814	6.13858	0.80191	6.89408
0.336884	2.85655	0.210486	1.769	0.336773	2.85707	0.484009	4.13018	0.624882	5.32211	0.872331	7.42606	0.34489	2.94212	0.487792	4.14448	0.716337	6.09437	0.803017	6.84873
0.338617	2.84874	0.212513	1.77216	0.338504	2.84923	0.485457	4.10986	0.625918	5.28896	0.872873	7.3722	0.346855	2.93555	0.48889	4.12118	0.716866	6.05091	0.804128	6.80414
0.340379	2.84129	0.21454	1.77527	0.340263	2.84176	0.486907	4.08988	0.626961	5.2564	0.873418	7.31921	0.348818	2.92907	0.489997	4.09833	0.717401	6.00818	0.805243	6.76028
0.342169	2.83418	0.216567	1.77834	0.342051	2.83464	0.48836	4.07023	0.628012	5.2244	0.873968	7.26708	0.35078	2.92267	0.491113	4.0759	0.717943	5.96616	0.806362	6.71714
0.343986	2.82742	0.218594	1.78136	0.343867	2.82785	0.489814	4.05089	0.629071	5.19296	0.874523	7.21579	0.35274	2.91637	0.492238	4.05389	0.718491	5.92484	0.807486	6.6747
0.34583	2.82097	0.220622	1.78433	0.34571	2.82138	0.49127	4.03187	0.630137	5.16206	0.875081	7.16532	0.354699	2.91015	0.493372	4.03229	0.719045	5.8842	0.808615	6.63294
0.3477	2.81484	0.22265	1.78727	0.347578	2.81523	0.492728	4.01315	0.63121	5.13168	0.875645	7.11565	0.356656	2.90401	0.494515	4.01108	0.719606	5.84423	0.809747	6.59185
0.349596	2.80899	0.224678	1.79016	0.349472	2.80936	0.494187	3.99472	0.632292	5.10183	0.876212	7.06675	0.358612	2.89795	0.495666	3.99027	0.720173	5.80491	0.810884	6.55142
0.351515	2.80343	0.226706	1.79301	0.351389	2.80378	0.495648	3.97658	0.63338	5.07248	0.876784	7.01862	0.360567	2.89197	0.496827	3.96984	0.720746	5.76623	0.812025	6.51162
0.353458	2.79813	0.228735	1.79582	0.35333	2.79846	0.497111	3.95873	0.634476	5.04363	0.87736	6.97124	0.362519	2.88606	0.497996	3.94978	0.721325	5.72816	0.813171	6.47245
0.355422	2.79308	0.230763	1.79859	0.355294	2.7934	0.498576	3.94115	0.63558	5.01525	0.87794	6.92459	0.36447	2.88023	0.499175	3.93008	0.72191	5.69071	0.81432	6.43388
0.357409	2.78828	0.232792	1.80131	0.357279	2.78858	0.500041	3.92384	0.636691	4.98735	0.878525	6.87866	0.36642	2.87447	0.500362	3.91074	0.722502	5.65385	0.815474	6.39592
0.359416	2.7837	0.23482	1.80401	0.359285	2.78399	0.501509	3.90679	0.637809	4.95991	0.879114	6.83342	0.368367	2.86878	0.501558	3.89175	0.7231	5.61757	0.816632	6.35853
0.361442	2.77934	0.236849	1.80666	0.36131	2.77962	0.502978	3.89	0.638935	4.93293	0.879708	6.78887	0.370313	2.86316	0.502763	3.8731	0.723704	5.58186	0.817793	6.32172
0.363488	2.77519	0.238877	1.80928	0.363354	2.77545	0.504449	3.87346	0.640068	4.90638	0.880306	6.74498	0.372257	2.85761	0.503977	3.85478	0.724314	5.5467	0.818959	6.28546
0.365551	2.77123	0.240906	1.81186	0.365416	2.77148	0.50592	3.85717	0.641208	4.88027	0.880908	6.70176	0.374199	2.85212	0.505199	3.83679	0.72493	5.51209	0.820129	6.24975
0.367631	2.76745	0.242935	1.8144	0.367496	2.76769	0.507394	3.84112	0.642356	4.85458	0.881514	6.65917	0.376139	2.84669	0.506431	3.81912	0.725552	5.47802	0.821303	6.21458
0.369728	2.76385	0.244963	1.81691	0.369591	2.76408	0.508869	3.8253	0.64351	4.8293	0.882125	6.61721	0.378077	2.84132	0.507672	3.80177	0.726181	5.44446	0.822481	6.17992
0.37184	2.76041	0.246992	1.81938	0.371702	2.76063	0.510345	3.80971	0.644672	4.80443	0.882741	6.57587	0.380014	2.83602	0.508921	3.78472	0.726815	5.41142	0.823663	6.14578
0.373967	2.75713	0.24902	1.82182	0.373828	2.75734	0.511822	3.79435	0.645842	4.77995	0.88336	6.53513	0.381948	2.83077	0.510179	3.76797	0.727456	5.37888	0.824849	6.11213
0.376107	2.75399	0.251049	1.82423	0.375968	2.75419	0.513301	3.77921	0.647018	4.75587	0.883984	6.49498	0.38388	2.82558	0.511446	3.75151	0.728102	5.34682	0.826038	6.07898
0.378261	2.751	0.253077	1.8266	0.378121	2.75119	0.514781	3.76429	0.648202	4.73216	0.884613	6.4554	0.385811	2.82045	0.512722	3.73534	0.728755	5.31525	0.827232	6.04631
0.380427	2.74813	0.255105	1.82894	0.380286	2.74831	0.516262	3.74957	0.649392	4.70882	0.885246	6.4164	0.387739	2.81537	0.514007	3.71945	0.729413	5.28415	0.828429	6.0141
0.382606	2.74539	0.257134	1.83125	0.382464	2.74556	0.517744	3.73506	0.65059	4.68585	0.885883	6.37794	0.389665	2.81034	0.5153	3.70384	0.730078	5.2535	0.82963	5.98236
0.384795	2.74276	0.259162	1.83352	0.384653	2.74293	0.519228	3.72076	0.651795	4.66323	0.886524	6.34003	0.391589	2.80537	0.516602	3.6885	0.730749	5.22331	0.830835	5.95107
0.386996	2.74025	0.261189	1.83577	0.386852	2.74041	0.520713	3.70665	0.653006	4.64097	0.88717	6.30266	0.393511	2.80044	0.517913	3.67342	0.731425	5.19356	0.832044	5.92022
0.389206	2.73784	0.263217	1.83798	0.389062	2.73799	0.522199	3.69274	0.654225	4.61904	0.88782	6.2658	0.39543	2.79557	0.519233	3.65861	0.732108	5.16424	0.833256	5.8898
0.391426	2.73553	0.265245	1.84017	0.391282	2.73568	0.523686	3.67902	0.655451	4.59745	0.888475	6.22946	0.397348	2.79074	0.520562	3.64405	0.732797	5.13535	0.834472	5.8598
0.393656	2.73331	0.267272	1.84233	0.39351	2.73345	0.525174	3.66548	0.656683	4.57619	0.889134	6.19362	0.399263	2.78596	0.521899	3.62973	0.733491	5.10687	0.835692	5.83022
0.395893	2.73118	0.269299	1.84445	0.395748	2.73132	0.526664	3.65213	0.657922	4.55525	0.889797	6.15827	0.401176	2.78123	0.523245	3.61567	0.734192	5.0788	0.836915	5.80105
0.398139	2.72913	0.271326	1.84655	0.397993	2.72926	0.528154	3.63895	0.659169	4.53463	0.890465	6.12341	0.403087	2.77654	0.524599	3.60184	0.734898	5.05113	0.838142	5.77227
0.400393	2.72717	0.273353	1.84862	0.400246	2.72729	0.529646	3.62595	0.660422	4.51432	0.891137	6.08902	0.404995	2.7719	0.525963	3.58824	0.73561	5.02386	0.839372	5.74389
0.402654	2.72527	0.275379	1.85067	0.402507	2.72539	0.531139	3.61313	0.661681	4.4943	0.891813	6.05509	0.406901	2.7673	0.527334	3.57488	0.736329	4.99697	0.840606	5.71589
0.404922	2.72345	0.277405	1.85268	0.404775	2.72357	0.532632	3.60047	0.662948	4.47459	0.892494	6.02162	0.408805	2.76274	0.528715	3.56174	0.737053	4.97045	0.841844	5.68827
0.407197	2.72169	0.279431	1.85467	0.407049	2.7218	0.534127	3.58798	0.664221	4.45517	0.893179	5.9886	0.410706	2.75822	0.530104	3.54883	0.737782	4.94431	0.843085	5.66102
0.409478	2.72	0.281457	1.85664	0.409329	2.72011	0.535623	3.57565	0.665501	4.43603	0.893868	5.95602	0.412605	2.75374	0.531502	3.53613	0.738518	4.91853	0.844329	5.63413
0.411765	2.71837	0.283482	1.85857	0.411616	2.71847	0.53712	3.56348	0.666787	4.41717	0.894562	5.92387	0.414502	2.74931	0.532908	3.52364	0.73926	4.89311	0.845577	5.60759
0.414057	2.71679	0.285507	1.86049	0.413908	2.71689	0.538618	3.55146	0.668081	4.39859	0.89526	5.89214	0.416396	2.74491	0.534323	3.51136	0.740007	4.86803	0.846828	5.5814
0.416355	2.71527	0.287532	1.86237	0.416205	2.71536	0.540117	3.5396	0.66938	4.38028	0.895963	5.86082	0.418288	2.74055	0.535746	3.49929	0.74076	4.8433	0.848083	5.55556
0.418658	2.71379	0.289556	1.86423	0.418508	2.71389	0.541617	3.52789	0.670686	4.36223	0.89667	5.82992	0.420178	2.73623	0.537178	3.48742	0.741519	4.81891	0.84934	5.53004
0.420965	2.71237	0.29158	1.86607	0.420815	2.71246	0.543118	3.51633	0.671999	4.34444	0.897381	5.79941	0.422065	2.73194	0.538618	3.47575	0.742284	4.79485	0.850602	5.50486
0.423277	2.71099	0.293604	1.86789	0.423127	2.71108	0.54462	3.50491	0.673318	4.3269	0.898097	5.7693	0.42395	2.72769	0.540066	3.46427	0.743055	4.77111	0.851866	5.48
0.425593	2.70966	0.295627	1.86968	0.425442	2.70974	0.546124	3.49364	0.674643	4.30962	0.898817	5.73957	0.425833	2.72348	0.541523	3.45298	0.743831	4.74769	0.853134	5.45546
0.427913	2.70837	0.29765	1.87144	0.427763	2.70845	0.547628	3.4825	0.675975	4.29258	0.899542	5.71022	0.427713	2.7193	0.542988	3.44187	0.744613	4.72459	0.854405	5.43123
0.430238	2.70711	0.299673	1.87319	0.430086	2.70719	0.549133	3.47151	0.677313	4.27577	0.90027	5.68125	0.42959	2.71515	0.544462	3.43095	0.745401	4.70179	0.855679	5.4073
0.432565	2.7059	0.301695	1.87491	0.432414	2.70597	0.550639	3.46065	0.678657	4.25921	0.901004	5.65264	0.431466	2.71104	0.545944	3.4202	0.746194	4.6793	0.856956	5.38368
0.434896	2.70471	0.303717	1.87661	0.434745	2.70479	0.552146	3.44992	0.680007	4.24288	0.901741	5.62439	0.433338	2.70696	0.547434	3.40964	0.746993	4.6571	0.858237	5.36035
0.437231	2.70357	0.305738	1.87828	0.437079	2.70364	0.553655	3.43932	0.681364	4.22677	0.902483	5.5965	0.435209	2.70291	0.548932	3.39924	0.747798	4.63519	0.85952	5.3373
0.439568	2.70245	0.307759	1.87994	0.439416	2.70252	0.555164	3.42885	0.682726	4.21088	0.90323	5.56895	0.437077	2.6989	0.550438	3.38902	0.748608	4.61357	0.860807	5.31455
0.441909	2.70137	0.30978	1.88157	0.441756	2.70144	0.556674	3.41851	0.684095	4.19522	0.90398	5.54175	0.438943	2.69492	0.551952	3.37896	0.749424	4.59223	0.862096	5.29207
0.444252	2.70031	0.3118	1.88319	0.444099	2.70038	0.558186	3.40829	0.68547	4.17977	0.904735	5.51488	0.440806	2.69096	0.553475	3.36906	0.750246	4.57117	0.863389	5.26986
0.446597	2.69928	0.313819	1.88478	0.446445	2.69935	0.559698	3.39819	0.686851	4.16453	0.905495	5.48833	0.442667	2.68704	0.555005	3.35933	0.751074	4.55038	0.864685	5.24793
0.448945	2.69828	0.315839	1.88635	0.448793	2.69834	0.561212	3.38822	0.688238	4.1495	0.906259	5.46212	0.444526	2.68315	0.556543	3.34975	0.751907	4.52986	0.865983	5.22625
0.451296	2.6973	0.317858	1.8879	0.451143	2.69736	0.562726	3.37836	0.68963	4.13467	0.907027	5.43622	0.446382	2.67929	0.55809	3.34032	0.752745	4.5096	0.867285	5.20484
0.453648	2.69635	0.319876	1.88943	0.453495	2.69641	0.564242	3.36861	0.691029	4.12004	0.907799	5.41064	0.448236	2.67545	0.559644	3.33105	0.753589	4.4896	0.868589	5.18369
0.456003	2.69541	0.321894	1.89095	0.45585	2.69547	0.565759	3.35899	0.692433	4.1056	0.908576	5.38537	0.450088	2.67165	0.561206	3.32192	0.754439	4.46985	0.869896	5.16278
0.458359	2.6945	0.323911	1.89244	0.458206	2.69456	0.567277	3.34947	0.693843	4.09136	0.909358	5.36039	0.451937	2.66787	0.562775	3.31294	0.755295	4.45035	0.871207	5.14213
0.460718	2.69361	0.325928	1.89391	0.460564	2.69367	0.568796	3.34006	0.695259	4.07731	0.910143	5.33572	0.453784	2.66412	0.564353	3.3041	0.756156	4.4311	0.87252	5.12171
0.463078	2.69274	0.327944	1.89537	0.462924	2.6928	0.570316	3.33077	0.696681	4.06345	0.910933	5.31134	0.455629	2.6604	0.565938	3.29541	0.757022	4.41209	0.873835	5.10153
0.465439	2.69189	0.32996	1.89681	0.465286	2.69195	0.571838	3.32158	0.698108	4.04976	0.911728	5.28725	0.457472	2.65671	0.56753	3.28685	0.757894	4.39331	0.875154	5.08159
0.467802	2.69106	0.331976	1.89823	0.467649	2.69111	0.57336	3.3125	0.69954	4.03626	0.912527	5.26345	0.459312	2.65304	0.56913	3.27843	0.758772	4.37477	0.876475	5.06188
0.470167	2.69024	0.333991	1.89963	0.470013	2.69029	0.574884	3.30352	0.700979	4.02293	0.91333	5.23992	0.46115	2.6494	0.570738	3.27014	0.759655	4.35646	0.877799	5.04239
0.472532	2.68944	0.336005	1.90101	0.472378	2.68949	0.576409	3.29464	0.702422	4.00977	0.914137	5.21667	0.462986	2.64579	0.572352	3.26198	0.760543	4.33838	0.879126	5.02313
0.474899	2.68865	0.338019	1.90238	0.474745	2.6887	0.577935	3.28587	0.703871	3.99679	0.914949	5.19369	0.46482	2.6422	0.573975	3.25394	0.761437	4.32051	0.880456	5.00409
0.477267	2.68788	0.340032	1.90372	0.477113	2.68793	0.579463	3.27719	0.705326	3.98397	0.915766	5.17097	0.466652	2.63864	0.575604	3.24604	0.762337	4.30287	0.881788	4.98526
0.479636	2.68712	0.342045	1.90506	0.479482	2.68717	0.580991	3.26862	0.706786	3.97132	0.916586	5.14852	0.468482	2.6351	0.577241	3.23825	0.763242	4.28544	0.883122	4.96664
0.482006	2.68638	0.344057	1.90637	0.481852	2.68643	0.582521	3.26014	0.708251	3.95883	0.917412	5.12633	0.470309	2.63159	0.578885	3.23059	0.764152	4.26823	0.884459	4.94824
0.484376	2.68564	0.346069	1.90767	0.484222	2.68569	0.584053	3.25175	0.709722	3.94649	0.918241	5.10439	0.472135	2.6281	0.580536	3.22304	0.765068	4.25122	0.885799	4.93003
0.486748	2.68492	0.34808	1.90895	0.486594	2.68497	0.585585	3.24346	0.711197	3.93432	0.919075	5.0827	0.473959	2.62464	0.582194	3.21562	0.765989	4.23442	0.887141	4.91203
0.48912	2.68421	0.35009	1.91022	0.488966	2.68426	0.58712	3.23526	0.712678	3.92229	0.919913	5.06126	0.47578	2.62121	0.583859	3.2083	0.766916	4.21781	0.888486	4.89423
0.491493	2.68351	0.3521	1.91147	0.491338	2.68356	0.588655	3.22715	0.714164	3.91042	0.920756	5.04006	0.4776	2.61779	0.585531	3.2011	0.767848	4.20141	0.889833	4.87662
0.493866	2.68282	0.354109	1.9127	0.493712	2.68287	0.590192	3.21914	0.715655	3.89869	0.921603	5.0191	0.479418	2.61441	0.587209	3.19401	0.768785	4.18521	0.891183	4.85921
0.49624	2.68214	0.356118	1.91392	0.496085	2.68219	0.59173	3.21121	0.717151	3.88711	0.922454	4.99837	0.481234	2.61104	0.588895	3.18702	0.769728	4.16919	0.892535	4.84199
0.498614	2.68147	0.358126	1.91512	0.498459	2.68151	0.59327	3.20337	0.718651	3.87567	0.92331	4.97788	0.483048	2.6077	0.590587	3.18015	0.770677	4.15337	0.89389	4.82495
0.500988	2.68081	0.360134	1.91631	0.500834	2.68085	0.594812	3.19562	0.720157	3.86438	0.92417	4.95761	0.48486	2.60439	0.592286	3.17337	0.77163	4.13773	0.895247	4.80809
0.503363	2.68015	0.362141	1.91748	0.503208	2.68019	0.596355	3.18795	0.721668	3.85322	0.925035	4.93757	0.486671	2.6011	0.593991	3.1667	0.772589	4.12228	0.896606	4.79141
0.505737	2.6795	0.364147	1.91864	0.505583	2.67955	0.597899	3.18036	0.723183	3.8422	0.925904	4.91776	0.488479	2.59783	0.595703	3.16013	0.773553	4.10701	0.897967	4.77492
0.508112	2.67886	0.366153	1.91978	0.507958	2.6789	0.599445	3.17286	0.724703	3.83131	0.926777	4.89816	0.490286	2.59458	0.597421	3.15366	0.774523	4.09192	0.899331	4.75859
0.510487	2.67823	0.368158	1.92091	0.510333	2.67827	0.600993	3.16545	0.726228	3.82055	0.927655	4.87877	0.492092	2.59136	0.599145	3.14728	0.775498	4.077	0.900697	4.74244
0.512862	2.6776	0.370162	1.92203	0.512708	2.67764	0.602543	3.15811	0.727757	3.80992	0.928537	4.8596	0.493896	2.58816	0.600876	3.141	0.776479	4.06225	0.902065	4.72646
0.515237	2.67698	0.372166	1.92313	0.515082	2.67702	0.604094	3.15086	0.729292	3.79942	0.929423	4.84063	0.495698	2.58498	0.602613	3.13481	0.777464	4.04768	0.903436	4.71064
0.517611	2.67636	0.37417	1.92422	0.517457	2.6764	0.605647	3.14368	0.73083	3.78905	0.930314	4.82188	0.497499	2.58183	0.604355	3.12871	0.778455	4.03328	0.904809	4.69499
0.519986	2.67575	0.376172	1.92529	0.519831	2.67579	0.607202	3.13658	0.732373	3.77879	0.93121	4.80332	0.499298	2.5787	0.606104	3.12271	0.779451	4.01904	0.906184	4.6795
0.52236	2.67514	0.378174	1.92635	0.522206	2.67518	0.608759	3.12956	0.733921	3.76866	0.932109	4.78497	0.501096	2.57559	0.607859	3.11679	0.780453	4.00496	0.907561	4.66418
0.524734	2.67453	0.380175	1.9274	0.524579	2.67457	0.610317	3.12262	0.735473	3.75865	0.933013	4.76681	0.502892	2.5725	0.60962	3.11095	0.78146	3.99105	0.90894	4.649
0.527107	2.67393	0.382176	1.92843	0.526953	2.67397	0.611878	3.11575	0.737029	3.74875	0.933922	4.74884	0.504687	2.56944	0.611386	3.1052	0.782472	3.97729	0.910321	4.63398
0.52948	2.67333	0.384176	1.92945	0.529326	2.67337	0.61344	3.10895	0.73859	3.73897	0.934835	4.73107	0.506481	2.5664	0.613158	3.09954	0.783489	3.96369	0.911704	4.61912
0.531852	2.67274	0.386175	1.93046	0.531698	2.67278	0.615005	3.10223	0.740155	3.7293	0.935752	4.71349	0.508273	2.56338	0.614936	3.09395	0.784512	3.95024	0.913089	4.6044
0.534224	2.67215	0.388174	1.93146	0.53407	2.67218	0.616571	3.09559	0.741724	3.71975	0.936673	4.69609	0.510064	2.56038	0.616719	3.08844	0.785539	3.93695	0.914476	4.58983
0.536595	2.67155	0.390172	1.93244	0.536441	2.67159	0.61814	3.08902	0.743297	3.7103	0.937599	4.67888	0.511854	2.55741	0.618508	3.08302	0.786573	3.92381	0.915866	4.57541
0.538965	2.67097	0.392169	1.93341	0.538811	2.671	0.619711	3.08251	0.744874	3.70096	0.93853	4.66185	0.513643	2.55445	0.620302	3.07767	0.787611	3.91081	0.917257	4.56113
0.541335	2.67038	0.394166	1.93437	0.541181	2.67042	0.621284	3.07608	0.746455	3.69173	0.939465	4.64499	0.515431	2.55152	0.622101	3.07239	0.788654	3.89796	0.91865	4.54699
0.543703	2.66979	0.396162	1.93531	0.543549	2.66983	0.622859	3.06972	0.748041	3.6826	0.940404	4.62832	0.517218	2.54861	0.623906	3.06719	0.789703	3.88525	0.920045	4.53299
0.546071	2.66921	0.398157	1.93625	0.545917	2.66925	0.624437	3.06343	0.74963	3.67357	0.941348	4.61181	0.519003	2.54572	0.625715	3.06206	0.790757	3.87268	0.921442	4.51913
0.548438	2.66862	0.400152	1.93717	0.548284	2.66866	0.626017	3.05721	0.751223	3.66465	0.942296	4.59548	0.520788	2.54286	0.62753	3.057	0.791816	3.86026	0.922841	4.5054
0.550803	2.66804	0.402145	1.93808	0.55065	2.66808	0.6276	3.05105	0.75282	3.65583	0.943248	4.57932	0.522572	2.54001	0.62935	3.05202	0.792881	3.84797	0.924241	4.49181
0.553168	2.66745	0.404139	1.93898	0.553014	2.66749	0.629185	3.04497	0.754421	3.6471	0.944205	4.56332	0.524355	2.53719	0.631174	3.0471	0.79395	3.83581	0.925644	4.47835
0.555531	2.66687	0.406131	1.93987	0.555378	2.66691	0.630772	3.03895	0.756025	3.63847	0.945166	4.54749	0.526137	2.53439	0.633003	3.04224	0.795025	3.82379	0.927048	4.46501
0.557893	2.66628	0.408123	1.94075	0.55774	2.66632	0.632363	3.033	0.757634	3.62993	0.946132	4.53182	0.527918	2.5316	0.634838	3.03746	0.796105	3.81191	0.928454	4.45181
0.560254	2.6657	0.410114	1.94161	0.560101	2.66573	0.633956	3.02711	0.759246	3.62149	0.947102	4.51632	0.529699	2.52884	0.636676	3.03274	0.79719	3.80015	0.929861	4.43873
0.562614	2.66511	0.412104	1.94247	0.56246	2.66514	0.635551	3.02129	0.760861	3.61314	0.948076	4.50097	0.531479	2.5261	0.638519	3.02808	0.79828	3.78852	0.931271	4.42577
0.564971	2.66452	0.414094	1.94331	0.564818	2.66455	0.63715	3.01553	0.76248	3.60487	0.949055	4.48577	0.533258	2.52339	0.640367	3.02348	0.799376	3.77702	0.932682	4.41294
0.567328	2.66392	0.416083	1.94415	0.567174	2.66396	0.638751	3.00984	0.764103	3.5967	0.950038	4.47073	0.535036	2.52069	0.642219	3.01894	0.800476	3.76564	0.934095	4.40023
0.569682	2.66333	0.418071	1.94497	0.569529	2.66337	0.640355	3.00421	0.765729	3.58862	0.951026	4.45584	0.536814	2.51801	0.644076	3.01447	0.801582	3.75439	0.935509	4.38763
0.572035	2.66273	0.420059	1.94578	0.571882	2.66277	0.641963	2.99864	0.767358	3.58062	0.952018	4.4411	0.538592	2.51536	0.645936	3.01005	0.802693	3.74326	0.936925	4.37515
0.574386	2.66213	0.422046	1.94658	0.574233	2.66217	0.643573	2.99314	0.768991	3.57271	0.953014	4.42651	0.540369	2.51272	0.647801	3.00569	0.803809	3.73224	0.938343	4.36279
0.576736	2.66152	0.424032	1.94737	0.576583	2.66156	0.645187	2.9877	0.770627	3.56488	0.954015	4.41207	0.542145	2.51011	0.64967	3.00139	0.80493	3.72135	0.939762	4.35054
0.579083	2.66092	0.426017	1.94816	0.57893	2.66096	0.646804	2.98232	0.772266	3.55713	0.95502	4.39777	0.543922	2.50752	0.651543	2.99714	0.806056	3.71057	0.941182	4.33841
0.581428	2.6603	0.428002	1.94893	0.581276	2.66034	0.648424	2.977	0.773909	3.54946	0.95603	4.38361	0.545697	2.50494	0.653419	2.99294	0.807188	3.69992	0.942605	4.32638
0.583771	2.65969	0.429985	1.94969	0.583619	2.65973	0.650048	2.97174	0.775554	3.54187	0.957044	4.36959	0.547473	2.50239	0.6553	2.9888	0.808324	3.68937	0.944028	4.31447
0.586112	2.65906	0.431969	1.95044	0.58596	2.6591	0.651675	2.96654	0.777203	3.53437	0.958062	4.35571	0.549248	2.49986	0.657184	2.98471	0.809466	3.67894	0.945454	4.30266
0.588451	2.65844	0.433951	1.95119	0.588299	2.65848	0.653306	2.96141	0.778855	3.52693	0.959085	4.34197	0.551023	2.49735	0.659072	2.98068	0.810613	3.66861	0.94688	4.29096
0.590787	2.6578	0.435933	1.95192	0.590635	2.65784	0.65494	2.95633	0.78051	3.51958	0.960113	4.32837	0.552798	2.49486	0.660964	2.97669	0.811765	3.6584	0.948308	4.27936
0.593121	2.65716	0.437914	1.95264	0.592969	2.65721	0.656578	2.95131	0.782168	3.5123	0.961144	4.31489	0.554572	2.49239	0.662859	2.97275	0.812922	3.6483	0.949738	4.26787
0.595452	2.65652	0.439894	1.95336	0.5953	2.65656	0.65822	2.94636	0.783829	3.50509	0.962181	4.30155	0.556347	2.48994	0.664757	2.96886	0.814084	3.6383	0.951169	4.25648
0.59778	2.65587	0.441873	1.95406	0.597629	2.65591	0.659867	2.94146	0.785492	3.49796	0.963221	4.28834	0.558122	2.48751	0.666659	2.96501	0.815252	3.62841	0.952601	4.24519
0.600106	2.65521	0.443852	1.95476	0.599955	2.65525	0.661517	2.93662	0.787159	3.4909	0.964266	4.27526	0.559896	2.4851	0.668564	2.96122	0.816424	3.61862	0.954035	4.234
0.602428	2.65454	0.44583	1.95545	0.602277	2.65459	0.663171	2.93184	0.788828	3.4839	0.965315	4.26231	0.56167	2.4827	0.670473	2.95746	0.817602	3.60894	0.95547	4.22291
0.604748	2.65387	0.447807	1.95613	0.604597	2.65391	0.66483	2.92711	0.7905	3.47698	0.966369	4.24948	0.563445	2.48033	0.672384	2.95376	0.818784	3.59936	0.956906	4.21191
0.607065	2.65319	0.449784	1.9568	0.606914	2.65323	0.666493	2.92244	0.792175	3.47013	0.967428	4.23677	0.565219	2.47798	0.674298	2.95009	0.819972	3.58987	0.958343	4.20101
0.609378	2.6525	0.451759	1.95746	0.609228	2.65254	0.66816	2.91784	0.793852	3.46334	0.96849	4.22419	0.566994	2.47565	0.676216	2.94647	0.821165	3.58049	0.959782	4.1902
0.611688	2.6518	0.453734	1.95811	0.611538	2.65184	0.669832	2.91329	0.795533	3.45662	0.969557	4.21173	0.568769	2.47334	0.678136	2.94289	0.822363	3.57121	0.961222	4.17949
0.613995	2.65109	0.455708	1.95875	0.613845	2.65114	0.671509	2.90879	0.797215	3.44996	0.970629	4.19939	0.570544	2.47105	0.680059	2.93935	0.823566	3.56202	0.962664	4.16887
0.616298	2.65037	0.457682	1.95939	0.616148	2.65042	0.673191	2.90435	0.7989	3.44337	0.971705	4.18717	0.572319	2.46877	0.681985	2.93585	0.824775	3.55293	0.964106	4.15834
0.618597	2.64964	0.459655	1.96002	0.618448	2.64969	0.674877	2.89997	0.800588	3.43685	0.972785	4.17506	0.574095	2.46652	0.683913	2.93239	0.825988	3.54393	0.96555	4.1479
0.620893	2.64891	0.461627	1.96064	0.620744	2.64895	0.676569	2.89565	0.802278	3.43038	0.97387	4.16307	0.575871	2.46428	0.685845	2.92897	0.827206	3.53503	0.966995	4.13754
0.623184	2.64816	0.463598	1.96125	0.623035	2.6482	0.678266	2.89138	0.80397	3.42398	0.974959	4.15119	0.577647	2.46207	0.687778	2.92559	0.82843	3.52622	0.968441	4.12728
0.625472	2.64739	0.465568	1.96185	0.625323	2.64744	0.679968	2.88717	0.805665	3.41763	0.976053	4.13943	0.579423	2.45987	0.689714	2.92224	0.829659	3.5175	0.969888	4.1171
0.627755	2.64662	0.467538	1.96245	0.627607	2.64667	0.681676	2.88302	0.807362	3.41135	0.977151	4.12777	0.5812	2.45769	0.691652	2.91893	0.830892	3.50887	0.971336	4.107
0.630034	2.64584	0.469507	1.96303	0.629886	2.64589	0.683389	2.87892	0.809062	3.40513	0.978253	4.11623	0.582978	2.45554	0.693593	2.91566	0.832131	3.50033	0.972785	4.09699
0.632309	2.64504	0.471475	1.96361	0.632161	2.64509	0.685108	2.87488	0.810763	3.39896	0.97936	4.1048	0.584755	2.4534	0.695536	2.91242	0.833375	3.49188	0.974235	4.08706
0.634578	2.64423	0.473443	1.96419	0.634431	2.64428	0.686833	2.87089	0.812467	3.39285	0.980472	4.09347	0.586534	2.45127	0.697481	2.90921	0.834625	3.48351	0.975687	4.07721
0.636844	2.64341	0.475409	1.96475	0.636697	2.64346	0.688564	2.86696	0.814173	3.3868	0.981588	4.08225	0.588313	2.44917	0.699428	2.90604	0.835879	3.47523	0.977139	4.06744
0.639104	2.64257	0.477375	1.96531	0.638957	2.64262	0.690301	2.86309	0.815881	3.3808	0.982708	4.07113	0.590092	2.44709	0.701377	2.9029	0.837138	3.46704	0.978593	4.05776
0.641359	2.64172	0.47934	1.96586	0.641213	2.64177	0.692045	2.85927	0.817591	3.37485	0.983833	4.06012	0.591872	2.44502	0.703328	2.8998	0.838403	3.45893	0.980047	4.04815
0.643609	2.64085	0.481305	1.9664	0.643463	2.64091	0.693794	2.85551	0.819303	3.36897	0.984962	4.04921	0.593652	2.44298	0.705281	2.89672	0.839673	3.4509	0.981503	4.03862
0.645854	2.63997	0.483268	1.96693	0.645708	2.64003	0.695551	2.8518	0.821017	3.36313	0.986095	4.0384	0.595434	2.44095	0.707236	2.89368	0.840948	3.44296	0.982959	4.02916
0.648093	2.63907	0.485231	1.96746	0.647948	2.63913	0.697314	2.84815	0.822733	3.35734	0.987233	4.0277	0.597216	2.43894	0.709192	2.89066	0.842227	3.4351	0.984416	4.01979
0.650327	2.63816	0.487193	1.96798	0.650182	2.63822	0.699084	2.84455	0.824451	3.35161	0.988376	4.01709	0.598998	2.43694	0.71115	2.88768	0.843513	3.42731	0.985875	4.01048
0.652555	2.63723	0.489154	1.9685	0.65241	2.63729	0.700861	2.84101	0.82617	3.34593	0.989523	4.00658	0.600781	2.43497	0.71311	2.88472	0.844803	3.41961	0.987334	4.00125
0.654777	2.63628	0.491115	1.96901	0.654633	2.63635	0.702645	2.83753	0.827892	3.3403	0.990674	3.99617	0.602565	2.43301	0.715071	2.88179	0.846098	3.41199	0.988794	3.9921
0.656993	2.63532	0.493075	1.96951	0.656849	2.63538	0.704436	2.8341	0.829615	3.33472	0.99183	3.98585	0.60435	2.43107	0.717034	2.87889	0.847399	3.40444	0.990255	3.98301
0.659203	2.63434	0.495034	1.97	0.65906	2.6344	0.706235	2.83073	0.83134	3.32918	0.99299	3.97562	0.606136	2.42915	0.718998	2.87602	0.848705	3.39697	0.991716	3.974
0.661407	2.63334	0.496992	1.97049	0.661264	2.63341	0.708042	2.82741	0.833067	3.3237	0.994155	3.9655	0.607922	2.42725	0.720963	2.87317	0.850015	3.38958	0.993179	3.96506
0.663604	2.63232	0.49895	1.97097	0.663461	2.63239	0.709856	2.82415	0.834795	3.31826	0.995324	3.95546	0.609709	2.42536	0.722929	2.87035	0.851331	3.38226	0.994642	3.95619
0.665794	2.63129	0.500907	1.97144	0.665652	2.63136	0.711678	2.82094	0.836525	3.31286	0.996497	3.94551	0.611497	2.42349	0.724897	2.86756	0.852653	3.37502	0.996107	3.94738
0.667978	2.63023	0.502863	1.97191	0.667836	2.6303	0.713508	2.81779	0.838257	3.30752	0.997675	3.93566	0.613286	2.42164	0.726866	2.86479	0.853979	3.36785	0.997572	3.93864
0.670155	2.62916	0.504818	1.97237	0.670014	2.62923	0.715347	2.81469	0.83999	3.30222	0.998858	3.9259	0.615076	2.41981	0.728836	2.86204	0.855311	3.36075	0.999038	3.92998
0.672325	2.62807	0.506773	1.97283	0.672184	2.62814	0.717193	2.81165	0.841725	3.29696	1.00004	3.91622	0.616867	2.41799	0.730807	2.85932	0.856647	3.35372	1.0005	3.92137
0.674488	2.62695	0.508726	1.97328	0.674347	2.62703	0.719048	2.80866	0.843461	3.29175			0.618659	2.41619	0.732779	2.85662	0.857989	3.34677		
0.676643	2.62582	0.510679	1.97372	0.676504	2.6259	0.720912	2.80573	0.845198	3.28658			0.620451	2.4144	0.734751	2.85395	0.859337	3.33989		
0.678792	2.62467	0.512632	1.97415	0.678652	2.62474	0.722784	2.80286	0.846937	3.28145			0.622245	2.41264	0.736725	2.85129	0.860689	3.33307		
0.680933	2.62349	0.514583	1.97458	0.680794	2.62357	0.724665	2.80003	0.848677	3.27637			0.62404	2.41089	0.738699	2.84866	0.862047	3.32633		
0.683066	2.6223	0.516534	1.97501	0.682927	2.62238	0.726555	2.79726	0.850419	3.27132			0.625836	2.40915	0.740674	2.84605	0.863409	3.31965		
0.685192	2.62109	0.518484	1.97543	0.685054	2.62117	0.728454	2.79455	0.852162	3.26632			0.627632	2.40743	0.742649	2.84346	0.864777	3.31305		
0.687309	2.61985	0.520433	1.97584	0.687172	2.61993	0.730361	2.79189	0.853906	3.26136			0.62943	2.40573	0.744625	2.84089	0.866151	3.3065		
0.68942	2.61859	0.522382	1.97625	0.689283	2.61868	0.732278	2.78928	0.855652	3.25644			0.631229	2.40405	0.746602	2.83835	0.867529	3.30003		
0.691522	2.61732	0.52433	1.97665	0.691385	2.6174	0.734204	2.78673	0.857398	3.25156			0.633029	2.40238	0.748579	2.83582	0.868913	3.29362		
0.693616	2.61602	0.526277	1.97705	0.69348	2.6161	0.73614	2.78423	0.859146	3.24671			0.63483	2.40072	0.750556	2.83331	0.870302	3.28728		
0.695703	2.6147	0.528223	1.97744	0.695567	2.61479	0.738084	2.78178	0.860895	3.24191			0.636632	2.39909	0.752534	2.83082	0.871696	3.281		
0.697781	2.61336	0.530169	1.97782	0.697646	2.61345	0.740039	2.77939	0.862645	3.23714			0.638435	2.39746	0.754512	2.82834	0.873096	3.27478		
0.699852	2.612	0.532114	1.9782	0.699717	2.61209	0.742002	2.77705	0.864396	3.23241			0.64024	2.39586	0.75649	2.82589	0.874501	3.26863		
0.701914	2.61062	0.534058	1.97858	0.70178	2.61071	0.743975	2.77475	0.866148	3.22772			0.642045	2.39427	0.758468	2.82345	0.875911	3.26254		
0.703968	2.60922	0.536001	1.97895	0.703835	2.60931	0.745957	2.77251	0.867901	3.22306			0.643852	2.39269	0.760447	2.82103	0.877326	3.25651		
0.706015	2.6078	0.537944	1.97931	0.705882	2.60789	0.747949	2.77032	0.869655	3.21844			0.64566	2.39113	0.762425	2.81863	0.878747	3.25054		
0.708053	2.60636	0.539886	1.97967	0.707921	2.60645	0.74995	2.76818	0.87141	3.21385			0.647469	2.38959	0.764403	2.81624	0.880173	3.24463		
0.710083	2.6049	0.541827	1.98002	0.709951	2.60499	0.751961	2.76609	0.873166	3.2093			0.64928	2.38806	0.766382	2.81387	0.881604	3.23878		
0.712106	2.60342	0.543768	1.98037	0.711974	2.60352	0.753981	2.76405	0.874923	3.20478			0.651091	2.38654	0.76836	2.81152	0.883041	3.233		
0.71412	2.60192	0.545707	1.98071	0.713989	2.60202	0.75601	2.76205	0.87668	3.2003			0.652904	2.38504	0.770338	2.80918	0.884483	3.22727		
0.716127	2.6004	0.547646	1.98105	0.715996	2.6005	0.758049	2.76011	0.878439	3.19585			0.654718	2.38355	0.772315	2.80685	0.88593	3.2216		
0.718125	2.59887	0.549585	1.98139	0.717996	2.59897	0.760097	2.75821	0.880198	3.19143			0.656534	2.38208	0.774293	2.80454	0.887382	3.21598		
0.720117	2.59732	0.551522	1.98172	0.719987	2.59742	0.762153	2.75635	0.881958	3.18704			0.65835	2.38063	0.77627	2.80225	0.88884	3.21043		
0.7221	2.59575	0.553459	1.98204	0.721971	2.59585	0.76422	2.75454	0.883719	3.18269			0.660168	2.37918	0.778246	2.79997	0.890304	3.20493		
0.724076	2.59416	0.555396	1.98236	0.723948	2.59427	0.766294	2.75278	0.88548	3.17837			0.661987	2.37776	0.780222	2.7977	0.891773	3.19948		
0.726045	2.59256	0.557331	1.98268	0.725917	2.59267	0.768378	2.75105	0.887242	3.17408			0.663807	2.37634	0.782198	2.79544	0.893247	3.19409		
0.728006	2.59095	0.559266	1.98299	0.727879	2.59105	0.770471	2.74938	0.889005	3.16982			0.665629	2.37494	0.784173	2.7932	0.894726	3.18876		
0.72996	2.58932	0.5612	1.98329	0.729833	2.58942	0.772572	2.74774	0.890768	3.16559			0.667452	2.37356	0.786147	2.79097	0.896211	3.18348		
0.731907	2.58767	0.563134	1.98359	0.731781	2.58778	0.774682	2.74614	0.892532	3.16139			0.669276	2.37218	0.788121	2.78875	0.897701	3.17826		
0.733847	2.58601	0.565066	1.98389	0.733721	2.58612	0.7768	2.74459	0.894297	3.15722			0.671102	2.37083	0.790094	2.78655	0.899197	3.17308		
0.735781	2.58434	0.566998	1.98418	0.735655	2.58445	0.778927	2.74307	0.896062	3.15309			0.672929	2.36948	0.792066	2.78436	0.900698	3.16797		
0.737707	2.58266	0.56893	1.98447	0.737582	2.58277	0.781061	2.74159	0.897828	3.14897			0.674757	2.36815	0.794038	2.78217	0.902204	3.1629		
0.739628	2.58096	0.57086	1.98476	0.739503	2.58107	0.783203	2.74015	0.899594	3.14489			0.676587	2.36683	0.796009	2.78	0.903716	3.15789		
0.741542	2.57925	0.57279	1.98504	0.741418	2.57936	0.785354	2.73875	0.901361	3.14084			0.678418	2.36553	0.797978	2.77784	0.905234	3.15292		
0.74345	2.57754	0.57472	1.98531	0.743326	2.57765	0.787511	2.73738	0.903128	3.13681			0.68025	2.36424	0.799947	2.77569	0.906756	3.14801		
0.745351	2.57581	0.576648	1.98558	0.745228	2.57592	0.789677	2.73604	0.904895	3.13281			0.682084	2.36296	0.801915	2.77356	0.908284	3.14315		
0.747247	2.57407	0.578576	1.98585	0.747124	2.57419	0.791849	2.73474	0.906663	3.12884			0.683919	2.36169	0.803882	2.77143	0.909818	3.13834		
0.749138	2.57233	0.580504	1.98612	0.749015	2.57244	0.794029	2.73347	0.908431	3.1249			0.685755	2.36044	0.805847	2.76931	0.911357	3.13358		
0.751022	2.57058	0.58243	1.98638	0.7509	2.57069	0.796216	2.73224	0.9102	3.12098			0.687593	2.3592	0.807812	2.7672	0.912902	3.12886		
0.752902	2.56882	0.584356	1.98663	0.75278	2.56893	0.79841	2.73103	0.911969	3.11708			0.689432	2.35797	0.809775	2.7651	0.914452	3.1242		
0.754776	2.56705	0.586282	1.98688	0.754654	2.56717	0.80061	2.72986	0.913738	3.11322			0.691272	2.35675	0.811737	2.76301	0.916007	3.11958		
0.756645	2.56528	0.588206	1.98713	0.756524	2.5654	0.802816	2.72872	0.915508	3.10938			0.693114	2.35555	0.813698	2.76093	0.917568	3.11502		
0.75851	2.5635	0.59013	1.98738	0.758389	2.56362	0.805029	2.7276	0.917278	3.10556			0.694957	2.35436	0.815658	2.75886	0.919134	3.1105		
0.760369	2.56172	0.592054	1.98762	0.760249	2.56184	0.807248	2.72651	0.919048	3.10177			0.696802	2.35318	0.817616	2.75679	0.920706	3.10602		
0.762224	2.55994	0.593976	1.98785	0.762104	2.56005	0.809473	2.72545	0.920818	3.098			0.698648	2.35201	0.819573	2.75474	0.922284	3.10159		
0.764075	2.55815	0.595898	1.98809	0.763955	2.55827	0.811704	2.72441	0.922589	3.09426			0.700495	2.35086	0.821528	2.75269	0.923866	3.09721		
0.765922	2.55636	0.59782	1.98832	0.765802	2.55647	0.81394	2.7234	0.92436	3.09054			0.702343	2.34972	0.823482	2.75065	0.925455	3.09288		
0.767764	2.55456	0.599741	1.98854	0.767645	2.55468	0.816182	2.72242	0.926131	3.08685			0.704194	2.34859	0.825435	2.74862	0.927049	3.08859		
0.769603	2.55277	0.601661	1.98877	0.769484	2.55288	0.818429	2.72146	0.927902	3.08318			0.706045	2.34747	0.827386	2.74659	0.928648	3.08434		
0.771438	2.55097	0.60358	1.98899	0.771319	2.55109	0.820682	2.72052	0.929674	3.07953			0.707898	2.34636	0.829335	2.74458	0.930252	3.08014		
0.773269	2.54917	0.605499	1.9892	0.77315	2.54929	0.822939	2.7196	0.931445	3.07591			0.709752	2.34526	0.831283	2.74257	0.931863	3.07598		
0.775097	2.54737	0.607418	1.98942	0.774978	2.54749	0.825201	2.7187	0.933217	3.0723			0.711607	2.34418	0.833229	2.74056	0.933478	3.07187		
0.776922	2.54558	0.609335	1.98963	0.776803	2.54569	0.827467	2.71783	0.934989	3.06873			0.713464	2.3431	0.835174	2.73857	0.935099	3.0678		
0.778743	2.54378	0.611252	1.98983	0.778625	2.54389	0.829738	2.71697	0.936761	3.06517			0.715323	2.34204	0.837117	2.73658	0.936726	3.06377		
0.780561	2.54198	0.613169	1.99004	0.780443	2.5421	0.832014	2.71614	0.938533	3.06163			0.717182	2.34099	0.839058	2.73459	0.938358	3.05978		
0.782377	2.54019	0.615085	1.99024	0.782259	2.5403	0.834294	2.71532	0.940305	3.05812			0.719043	2.33994	0.840998	2.73262	0.939996	3.05584		
0.78419	2.53839	0.617	1.99043	0.784072	2.53851	0.836577	2.71452	0.942077	3.05463			0.720906	2.33891	0.842935	2.73065	0.941639	3.05193		
0.786	2.5366	0.618915	1.99063	0.785882	2.53672	0.838865	2.71374	0.943849	3.05116			0.72277	2.33789	0.844871	2.72868	0.943287	3.04807		
0.787807	2.53481	0.620829	1.99082	0.78769	2.53493	0.841157	2.71298	0.945621	3.04771			0.724635	2.33688	0.846805	2.72672	0.944941	3.04425		
0.789613	2.53303	0.622742	1.991	0.789495	2.53315	0.843452	2.71223	0.947394	3.04428			0.726501	2.33588	0.848737	2.72477	0.9466	3.04047		
0.791415	2.53125	0.624655	1.99119	0.791298	2.53136	0.84575	2.7115	0.949166	3.04087			0.728369	2.3349	0.850668	2.72282	0.948265	3.03673		
0.793216	2.52947	0.626568	1.99137	0.793099	2.52958	0.848052	2.71078	0.950939	3.03748			0.730238	2.33392	0.852596	2.72088	0.949935	3.03303		
0.795015	2.5277	0.628479	1.99155	0.794898	2.52781	0.850358	2.71008	0.952711	3.03411			0.732109	2.33295	0.854523	2.71895	0.951611	3.02937		
0.796812	2.52593	0.630391	1.99172	0.796695	2.52604	0.852666	2.70939	0.954483	3.03076			0.733981	2.33199	0.856447	2.71702	0.953292	3.02575		
0.798607	2.52416	0.632301	1.9919	0.79849	2.52428	0.854978	2.70872	0.956256	3.02743			0.735854	2.33104	0.85837	2.71509	0.954978	3.02216		
0.8004	2.5224	0.634211	1.99207	0.800283	2.52251	0.857292	2.70806	0.958028	3.02413			0.737729	2.3301	0.86029	2.71317	0.95667	3.01861		
0.802192	2.52065	0.636121	1.99224	0.802075	2.52076	0.859609	2.70741	0.9598	3.02084			0.739605	2.32918	0.862209	2.71125	0.958367	3.01511		
0.803982	2.5189	0.63803	1.9924	0.803865	2.51901	0.861929	2.70677	0.961573	3.01757			0.741483	2.32826	0.864126	2.70934	0.96007	3.01163		
0.80577	2.51715	0.639938	1.99256	0.805654	2.51727	0.864252	2.70615	0.963345	3.01431			0.743361	2.32735	0.86604	2.70744	0.961777	3.0082		
0.807557	2.51541	0.641846	1.99272	0.807441	2.51553	0.866577	2.70554	0.965117	3.01108			0.745241	2.32645	0.867953	2.70554	0.963491	3.0048		
0.809343	2.51368	0.643753	1.99288	0.809227	2.51379	0.868904	2.70493	0.96689	3.00787			0.747123	2.32556	0.869863	2.70364	0.965209	3.00144		
0.811128	2.51196	0.64566	1.99303	0.811012	2.51207	0.871234	2.70434	0.968662	3.00467			0.749006	2.32468	0.871772	2.70175	0.966933	2.99811		
0.812912	2.51024	0.647566	1.99319	0.812796	2.51035	0.873566	2.70376	0.970434	3.00149			0.75089	2.3238	0.873678	2.69986	0.968662	2.99482		
0.814694	2.50852	0.649472	1.99334	0.814579	2.50864	0.8759	2.70319	0.972206	2.99834			0.752775	2.32294	0.875582	2.69798	0.970396	2.99157		
0.816476	2.50682	0.651377	1.99348	0.81636	2.50693	0.878236	2.70263	0.973979	2.99519			0.754662	2.32209	0.877484	2.6961	0.972136	2.98835		
0.818257	2.50512	0.653282	1.99363	0.818141	2.50523	0.880574	2.70208	0.975751	2.99207			0.75655	2.32124	0.879384	2.69422	0.97388	2.98516		
0.820037	2.50343	0.655186	1.99377	0.819921	2.50354	0.882914	2.70153	0.977523	2.98897			0.75844	2.32041	0.881282	2.69235	0.97563	2.98201		
0.821816	2.50174	0.65709	1.99391	0.8217	2.50185	0.885256	2.701	0.979295	2.98588			0.76033	2.31958	0.883178	2.69048	0.977385	2.97889		
0.823594	2.50007	0.658993	1.99405	0.823479	2.50018	0.887599	2.70047	0.981067	2.98281			0.762222	2.31876	0.885072	2.68862	0.979145	2.9758		
0.825372	2.4984	0.660896	1.99418	0.825257	2.49851	0.889944	2.69995	0.982839	2.97975			0.764116	2.31795	0.886963	2.68676	0.980911	2.97275		
0.82715	2.49674	0.662798	1.99431	0.827034	2.49685	0.89229	2.69944	0.984611	2.97672			0.76601	2.31715	0.888853	2.68491	0.982681	2.96973		
0.828926	2.49508	0.664699	1.99444	0.828811	2.49519	0.894638	2.69893	0.986383	2.9737			0.767906	2.31636	0.89074	2.68306	0.984457	2.96674		
0.830703	2.49344	0.666601	1.99457	0.830587	2.49354	0.896987	2.69844	0.988155	2.9707			0.769804	2.31557	0.892625	2.68121	0.986237	2.96379		
0.832479	2.4918	0.668501	1.9947	0.832363	2.49191	0.899337	2.69795	0.989927	2.96771			0.771702	2.31479	0.894508	2.67937	0.988023	2.96086		
0.834254	2.49017	0.670402	1.99482	0.834139	2.49028	0.901689	2.69746	0.991699	2.96474			0.773602	2.31403	0.896389	2.67753	0.989813	2.95797		
0.83603	2.48855	0.672301	1.99495	0.835914	2.48865	0.904042	2.69698	0.993471	2.96179			0.775503	2.31327	0.898267	2.6757	0.991609	2.95511		
0.837805	2.48694	0.674201	1.99507	0.837689	2.48704	0.906395	2.69651	0.995243	2.95886			0.777405	2.31251	0.900144	2.67387	0.993409	2.95228		
0.83958	2.48533	0.676099	1.99518	0.839464	2.48543	0.90875	2.69604	0.997015	2.95594			0.779309	2.31177	0.902018	2.67204	0.995215	2.94948		
0.841354	2.48373	0.677998	1.9953	0.841239	2.48384	0.911106	2.69558	0.998787	2.95303			0.781214	2.31103	0.903891	2.67021	0.997025	2.9467		
0.843129	2.48215	0.679895	1.99541	0.843014	2.48225	0.913463	2.69512	1.00056	2.95015			0.78312	2.3103	0.905761	2.6684	0.99884	2.94396		
0.844904	2.48057	0.681793	1.99553	0.844788	2.48067	0.91582	2.69467					0.785027	2.30958	0.907629	2.66658	1.00066	2.94125		
0.846678	2.479	0.68369	1.99564	0.846563	2.4791	0.918178	2.69422					0.786936	2.30887	0.909495	2.66477				
0.848453	2.47743	0.685586	1.99574	0.848337	2.47753	0.920537	2.69378					0.788845	2.30816	0.911359	2.66296				
0.850228	2.47588	0.687482	1.99585	0.850112	2.47598	0.922897	2.69334					0.790756	2.30746	0.91322	2.66115				
0.852002	2.47433	0.689378	1.99596	0.851887	2.47443	0.925257	2.69291					0.792669	2.30677	0.91508	2.65935				
0.853777	2.4728	0.691273	1.99606	0.853662	2.4729	0.927617	2.69248					0.794582	2.30609	0.916938	2.65756				
0.855552	2.47127	0.693168	1.99616	0.855437	2.47137	0.929978	2.69205					0.796497	2.30541	0.918793	2.65576				
0.857327	2.46975	0.695062	1.99626	0.857212	2.46985	0.93234	2.69163					0.798413	2.30474	0.920647	2.65397				
0.859103	2.46824	0.696956	1.99636	0.858987	2.46834	0.934701	2.69121					0.80033	2.30408	0.922499	2.65219				
0.860878	2.46674	0.69885	1.99645	0.860763	2.46684	0.937063	2.69079					0.802248	2.30342	0.924348	2.65041				
0.862654	2.46525	0.700743	1.99655	0.862539	2.46534	0.939425	2.69037					0.804168	2.30277	0.926196	2.64863				
0.864431	2.46376	0.702635	1.99664	0.864315	2.46386	0.941788	2.68996					0.806088	2.30213	0.928041	2.64685				
0.866207	2.46229	0.704528	1.99673	0.866092	2.46238	0.94415	2.68955					0.80801	2.3015	0.929885	2.64508				
0.867984	2.46082	0.70642	1.99682	0.867869	2.46092	0.946513	2.68914					0.809933	2.30087	0.931727	2.64332				
0.869762	2.45937	0.708311	1.99691	0.869646	2.45946	0.948875	2.68874					0.811857	2.30024	0.933567	2.64155				
0.87154	2.45792	0.710202	1.99699	0.871424	2.45801	0.951237	2.68834					0.813783	2.29963	0.935404	2.6398				
0.873318	2.45648	0.712093	1.99708	0.873202	2.45657	0.953599	2.68793					0.815709	2.29902	0.93724	2.63804				
0.875097	2.45505	0.713983	1.99716	0.874981	2.45514	0.955961	2.68753					0.817637	2.29842	0.939075	2.63629				
0.876876	2.45363	0.715873	1.99724	0.87676	2.45372	0.958323	2.68713					0.819565	2.29782	0.940907	2.63454				
0.878655	2.45221	0.717763	1.99732	0.87854	2.4523	0.960684	2.68674					0.821495	2.29723	0.942738	2.6328				
0.880436	2.45081	0.719652	1.9974	0.88032	2.4509	0.963045	2.68634					0.823426	2.29665	0.944566	2.63106				
0.882216	2.44941	0.721541	1.99748	0.882101	2.4495	0.965406	2.68594					0.825358	2.29607	0.946393	2.62933				
0.883998	2.44803	0.723429	1.99755	0.883882	2.44812	0.967766	2.68555					0.827292	2.2955	0.948219	2.6276				
0.88578	2.44665	0.725317	1.99763	0.885664	2.44674	0.970126	2.68515					0.829226	2.29493	0.950042	2.62587				
0.887562	2.44528	0.727205	1.9977	0.887446	2.44537	0.972485	2.68476					0.831161	2.29437	0.951864	2.62415				
0.889345	2.44392	0.729092	1.99777	0.889229	2.44401	0.974843	2.68437					0.833098	2.29382	0.953684	2.62243				
0.891129	2.44257	0.730979	1.99784	0.891013	2.44265	0.977201	2.68397					0.835035	2.29327	0.955503	2.62072				
0.892913	2.44122	0.732866	1.99791	0.892797	2.44131	0.979558	2.68358					0.836974	2.29273	0.95732	2.61901				
0.894699	2.43989	0.734752	1.99798	0.894582	2.43997	0.981914	2.68318					0.838914	2.29219	0.959135	2.6173				
0.896484	2.43856	0.736638	1.99804	0.896368	2.43865	0.984269	2.68279					0.840854	2.29166	0.960949	2.6156				
0.898271	2.43724	0.738524	1.99811	0.898155	2.43733	0.986623	2.6824					0.842796	2.29114	0.962761	2.61391				
0.900058	2.43594	0.740409	1.99817	0.899942	2.43602	0.988976	2.682					0.844739	2.29062	0.964572	2.61221				
0.901846	2.43463	0.742294	1.99824	0.901729	2.43472	0.991328	2.6816					0.846683	2.2901	0.966381	2.61053				
0.903634	2.43334	0.744179	1.9983	0.903518	2.43343	0.993679	2.6812					0.848628	2.28959	0.968189	2.60884				
0.905424	2.43206	0.746064	1.99836	0.905307	2.43214	0.996029	2.68081					0.850574	2.28909	0.969995	2.60717				
0.907214	2.43078	0.747948	1.99842	0.907097	2.43087	0.998378	2.6804					0.852521	2.28859	0.9718	2.60549				
0.909004	2.42952	0.749831	1.99848	0.908888	2.4296	1.00072	2.68					0.854469	2.2881	0.973603	2.60382				
0.910796	2.42826	0.751715	1.99853	0.91068	2.42834							0.856418	2.28761	0.975406	2.60216				
0.912588	2.42701	0.753598	1.99859	0.912472	2.42709							0.858368	2.28712	0.977206	2.6005				
0.914382	2.42577	0.755481	1.99864	0.914265	2.42585							0.860319	2.28665	0.979006	2.59885				
0.916175	2.42453	0.757363	1.9987	0.916059	2.42461							0.862271	2.28617	0.980804	2.5972				
0.91797	2.42331	0.759246	1.99875	0.917854	2.42339							0.864224	2.28571	0.982601	2.59555				
0.919766	2.42209	0.761128	1.9988	0.919649	2.42217							0.866178	2.28524	0.984397	2.59391				
0.921562	2.42088	0.76301	1.99885	0.921445	2.42096							0.868133	2.28478	0.986192	2.59228				
0.923359	2.41968	0.764891	1.9989	0.923243	2.41976							0.870089	2.28433	0.987985	2.59065				
0.925158	2.41849	0.766772	1.99895	0.925041	2.41857							0.872046	2.28388	0.989778	2.58902				
0.926957	2.4173	0.768653	1.999	0.92684	2.41738							0.874004	2.28344	0.991569	2.5874				
0.928756	2.41613	0.770534	1.99905	0.928639	2.4162							0.875963	2.283	0.993359	2.58578				
0.930557	2.41496	0.772414	1.99909	0.93044	2.41503							0.877922	2.28256	0.995148	2.58417				
0.932358	2.4138	0.774294	1.99914	0.932241	2.41387							0.879883	2.28213	0.996937	2.58257				
0.934161	2.41264	0.776174	1.99918	0.934044	2.41272							0.881845	2.28171	0.998724	2.58097				
0.935964	2.4115	0.778053	1.99923	0.935847	2.41157							0.883807	2.28128	1.00051	2.57938				
0.937768	2.41036	0.779933	1.99927	0.937651	2.41043							0.885771	2.28087						
0.939573	2.40923	0.781812	1.99931	0.939456	2.4093							0.887735	2.28045						
0.941379	2.40811	0.783691	1.99935	0.941262	2.40818							0.8897	2.28004						
0.943186	2.40699	0.785569	1.99939	0.943068	2.40707							0.891666	2.27964						
0.944994	2.40589	0.787448	1.99943	0.944876	2.40596							0.893633	2.27924						
0.946802	2.40479	0.789326	1.99947	0.946685	2.40486							0.895601	2.27884						
0.948612	2.40369	0.791204	1.99951	0.948494	2.40377							0.89757	2.27845						
0.950422	2.40261	0.793081	1.99955	0.950305	2.40268							0.899539	2.27806						
0.952234	2.40153	0.794959	1.99958	0.952116	2.4016							0.90151	2.27768						
0.954046	2.40046	0.796836	1.99962	0.953928	2.40053							0.903481	2.2773						
0.955859	2.3994	0.798713	1.99965	0.955741	2.39947							0.905453	2.27692						
0.957673	2.39834	0.80059	1.99969	0.957555	2.39841							0.907426	2.27655						
0.959488	2.3973	0.802466	1.99972	0.95937	2.39736							0.9094	2.27618						
0.961304	2.39626	0.804342	1.99975	0.961186	2.39632							0.911375	2.27582						
0.963121	2.39522	0.806218	1.99979	0.963003	2.39529							0.91335	2.27546						
0.964939	2.3942	0.808094	1.99982	0.964821	2.39426							0.915326	2.2751						
0.966758	2.39318	0.80997	1.99985	0.96664	2.39324							0.917303	2.27475						
0.968578	2.39216	0.811846	1.99988	0.968459	2.39223							0.919281	2.2744						
0.970398	2.39116	0.813721	1.99991	0.97028	2.39122							0.92126	2.27405						
0.97222	2.39016	0.815596	1.99994	0.972101	2.39022							0.92324	2.27371						
0.974042	2.38917	0.817471	1.99996	0.973924	2.38923							0.92522	2.27337						
0.975866	2.38818	0.819346	1.99999	0.975747	2.38825							0.927201	2.27303						
0.97769	2.3872	0.82122	2.00002	0.977572	2.38727							0.929183	2.2727						
0.979516	2.38623	0.823095	2.00005	0.979397	2.3863							0.931165	2.27237						
0.981342	2.38527	0.824969	2.00007	0.981223	2.38533							0.933149	2.27204						
0.983169	2.38431	0.826843	2.0001	0.983051	2.38437							0.935133	2.27172						
0.984998	2.38336	0.828717	2.00012	0.984879	2.38342							0.937118	2.2714						
0.986827	2.38241	0.83059	2.00015	0.986708	2.38248							0.939103	2.27109						
0.988657	2.38148	0.832464	2.00017	0.988538	2.38154							0.94109	2.27077						
0.990488	2.38054	0.834337	2.00019	0.990369	2.3806							0.943077	2.27046						
0.99232	2.37962	0.83621	2.00022	0.992201	2.37968							0.945065	2.27016						
0.994153	2.3787	0.838083	2.00024	0.994034	2.37876							0.947053	2.26985						
0.995987	2.37779	0.839956	2.00026	0.995868	2.37785							0.949042	2.26955						
0.997822	2.37688	0.841829	2.00028	0.997703	2.37694							0.951032	2.26926						
0.999658	2.37598	0.843701	2.0003	0.999539	2.37604							0.953023	2.26896						
1.00149	2.37509	0.845574	2.00032	1.00138	2.37514							0.955014	2.26867						
		0.847446	2.00034									0.957006	2.26838						
		0.849318	2.00036									0.958999	2.2681						
		0.85119	2.00038									0.960992	2.26781						
		0.853061	2.0004									0.962987	2.26753						
		0.854933	2.00042									0.964981	2.26726						
		0.856805	2.00044									0.966977	2.26698						
		0.858676	2.00046									0.968973	2.26671						
		0.860547	2.00047									0.97097	2.26644						
		0.862418	2.00049									0.972967	2.26618						
		0.864289	2.00051									0.974965	2.26591						
		0.86616	2.00052									0.976964	2.26565						
		0.868031	2.00054									0.978963	2.2654						
		0.869901	2.00055									0.980963	2.26514						
		0.871772	2.00057									0.982964	2.26489						
		0.873642	2.00058									0.984965	2.26464						
		0.875512	2.0006									0.986967	2.26439						
		0.877382	2.00061									0.988969	2.26414						
		0.879252	2.00063									0.990972	2.2639						
		0.881122	2.00064									0.992976	2.26366						
		0.882992	2.00065									0.99498	2.26342						
		0.884861	2.00066									0.996985	2.26318						
		0.886731	2.00068									0.99899	2.26295						
		0.8886	2.00069									1.001	2.26272						
		0.89047	2.0007																
		0.892339	2.00071																
		0.894208	2.00072																
		0.896077	2.00073																
		0.897946	2.00075																
		0.899815	2.00076																
		0.901683	2.00077																
		0.903552	2.00078																
		0.90542	2.00079																
		0.907289	2.0008																
		0.909157	2.0008																
		0.911025	2.00081																
		0.912894	2.00082																
		0.914762	2.00083																
		0.91663	2.00084																
		0.918498	2.00085																
		0.920365	2.00086																
		0.922233	2.00086																
		0.924101	2.00087																
		0.925969	2.00088																
		0.927836	2.00089																
		0.929704	2.00089																
		0.931571	2.0009																
		0.933438	2.00091																
		0.935306	2.00091																
		0.937173	2.00092																
		0.93904	2.00092																
		0.940907	2.00093																
		0.942774	2.00094																
		0.944641	2.00094																
		0.946508	2.00095																
		0.948374	2.00095																
		0.950241	2.00096																
		0.952108	2.00096																
		0.953975	2.00097																
		0.955841	2.00097																
		0.957708	2.00098																
		0.959574	2.00098																
		0.961441	2.00099																
		0.963307	2.00099																
		0.965173	2.001																
		0.967039	2.001																
		0.968906	2.001																
		0.970772	2.00101																
		0.972638	2.00101																
		0.974504	2.00101																
		0.97637	2.00102																
		0.978236	2.00102																
		0.980102	2.00102																
		0.981968	2.00103																
		0.983834	2.00103																
		0.985699	2.00103																
		0.987565	2.00104																
		0.989431	2.00104																
		0.991297	2.00104																
		0.993162	2.00104																
		0.995028	2.00105																
		0.996893	2.00105																
		0.998759	2.00105																
		1.00062	2.00105																
