Sym0		Asym0		Sym1		Sym2		Sym3		Sym4		Asym1		Asym2		Asym3		Asym4	
457  Points		542  Points		458  Points		407  Points		370  Points		280  Points		481  Points		422  Points		371  Points		280  Points	
Freq (MHz)	Vph (m/ms)	Freq (MHz)	Vph (m/ms)	Freq (MHz)	Vph (m/ms)	Freq (MHz)	Vph (m/ms)	Freq (MHz)	Vph (m/ms)	Freq (MHz)	Vph (m/ms)	Freq (MHz)	Vph (m/ms)	Freq (MHz)	Vph (m/ms)	Freq (MHz)	Vph (m/ms)	Freq (MHz)	Vph (m/ms)
0.279506	334.963	2.79111e-005	0.0325368	0.279507	367.673	0.35647	4692.45	0.559017	1861.64	0.838526	2351.68	0.139755	1246.9	0.419264	717.511	0.69877	1631.79	0.712941	5130.24
0.2795	158.255	0.000121521	0.0679066	0.2795	165.199	0.356487	353.776	0.559024	453.762	0.83853	650.901	0.139796	133.933	0.419274	276.561	0.698759	513.824	0.712958	665.903
0.279488	103.597	0.000280617	0.103122	0.279489	106.529	0.35653	183.84	0.55904	258.375	0.838538	377.727	0.139903	70.8198	0.419292	171.299	0.698737	304.91	0.713	356.08
0.279471	76.9995	0.000504902	0.138219	0.279473	78.6076	0.356602	124.206	0.559063	180.613	0.83855	266.067	0.140075	48.1826	0.419319	124.08	0.698703	216.766	0.713068	243.032
0.27945	61.2666	0.000793648	0.173111	0.279452	62.2806	0.356701	93.801	0.559095	138.835	0.838566	205.363	0.140313	36.5506	0.419354	97.2729	0.698659	168.149	0.713161	184.482
0.279424	50.87	0.00114608	0.207762	0.279427	51.5673	0.356828	75.3686	0.559136	112.757	0.838587	167.214	0.140615	29.4755	0.419398	79.9949	0.698605	137.34	0.713278	148.679
0.279394	43.4881	0.00156132	0.24214	0.279397	43.9969	0.356982	63.0028	0.559185	94.9307	0.838612	141.021	0.14098	24.7236	0.41945	67.9326	0.698541	116.068	0.713419	124.525
0.27936	37.9756	0.00203817	0.276187	0.279363	38.3631	0.357164	54.1335	0.559242	81.9745	0.838641	121.923	0.141408	21.3159	0.419511	59.0345	0.698469	100.498	0.713584	107.131
0.279321	33.7019	0.00257548	0.309874	0.279325	34.0069	0.357372	47.4628	0.559307	72.1329	0.838674	107.383	0.141898	18.7556	0.41958	52.2003	0.698388	88.6079	0.713771	94.0097
0.279279	30.2916	0.00317187	0.343161	0.279283	30.5379	0.357608	42.2643	0.559381	64.4038	0.838712	95.9425	0.142448	16.7639	0.419658	46.7868	0.6983	79.2309	0.71398	83.7589
0.279234	27.5069	0.00382595	0.376023	0.279237	27.7099	0.357869	38.0999	0.559464	58.1731	0.838754	86.7062	0.143057	15.172	0.419745	42.393	0.698206	71.6463	0.714209	75.5304
0.279185	25.1902	0.00453606	0.408415	0.279189	25.3604	0.358158	34.6897	0.559555	53.0437	0.8388	79.0932	0.143724	13.872	0.41984	38.7557	0.698106	65.3849	0.714459	68.7799
0.279133	23.2324	0.00530075	0.440329	0.279137	23.3772	0.358472	31.8463	0.559654	48.7477	0.83885	72.7101	0.144446	12.7914	0.419943	35.6953	0.698002	60.1282	0.714728	63.1424
0.279078	21.5563	0.00611826	0.471729	0.279082	21.681	0.358812	29.4398	0.559761	45.0972	0.838904	67.2814	0.145223	11.88	0.420056	33.0847	0.697893	55.6522	0.715016	58.3638
0.279021	20.105	0.00698693	0.5026	0.279026	20.2135	0.359177	27.3769	0.559877	41.9572	0.838963	62.6078	0.146052	11.1017	0.420176	30.8317	0.697782	51.7952	0.715321	54.2621
0.278962	18.8363	0.00790499	0.532923	0.278967	18.9315	0.359568	25.5895	0.560001	39.2276	0.839026	58.5422	0.146932	10.4299	0.420305	28.8676	0.697668	48.4369	0.715642	50.703
0.278902	17.7176	0.00887077	0.562689	0.278907	17.8018	0.359983	24.0259	0.560134	36.833	0.839093	54.9732	0.147861	9.84481	0.420443	27.1403	0.697552	45.4866	0.71598	47.5858
0.27884	16.7238	0.00988246	0.591883	0.278845	16.7989	0.360422	22.647	0.560275	34.7154	0.839165	51.8151	0.148838	9.331	0.420589	25.6095	0.697435	42.8741	0.716334	44.8331
0.278778	15.8352	0.0109383	0.620497	0.278783	15.9025	0.360886	21.422	0.560425	32.8294	0.839241	49.0008	0.14986	8.8766	0.420744	24.2436	0.697318	40.5447	0.716702	42.3846
0.278715	15.0359	0.0120367	0.648528	0.27872	15.0966	0.361373	20.3268	0.560582	31.1392	0.839321	46.4772	0.150926	8.47221	0.420907	23.0173	0.6972	38.4547	0.717085	40.1927
0.278652	14.3131	0.0131757	0.675966	0.278657	14.3681	0.361883	19.3418	0.560749	29.6157	0.839405	44.2014	0.15189	8.15464	0.421079	21.9104	0.697084	36.569	0.717481	38.219
0.27859	13.6563	0.0143539	0.702817	0.278595	13.7065	0.362416	18.4515	0.560923	28.2355	0.839493	42.1387	0.152736	7.90627	0.42126	20.9063	0.696968	34.8592	0.71789	36.4327
0.278528	13.057	0.0155696	0.72908	0.278533	13.1028	0.362971	17.6429	0.561106	26.9794	0.839586	40.2605	0.153452	7.71477	0.421449	19.9913	0.696854	33.3017	0.718312	34.8083
0.278467	12.5078	0.0168211	0.754754	0.278472	12.5499	0.363549	16.9053	0.561297	25.8314	0.839683	38.5431	0.154028	7.57149	0.421646	19.1541	0.696742	31.877	0.718747	33.3248
0.278408	12.0029	0.0181069	0.779846	0.278413	12.0416	0.364147	16.23	0.561497	24.7782	0.839784	36.9668	0.154458	7.47041	0.421852	18.3854	0.696633	30.5689	0.719193	31.9646
0.278351	11.537	0.0194254	0.804359	0.278356	11.5728	0.364767	15.6095	0.561705	23.8085	0.839889	35.5149	0.154735	7.40753	0.422067	17.6769	0.696526	29.3638	0.71965	30.7131
0.278297	11.1059	0.0207753	0.8283	0.278301	11.139	0.365408	15.0373	0.561922	22.9128	0.839999	34.1732	0.155137	7.3195	0.42229	17.0221	0.696422	28.2498	0.720119	29.5579
0.278245	10.7058	0.0221552	0.851679	0.278249	10.7366	0.366069	14.5083	0.562146	22.083	0.840113	32.9297	0.155578	7.22687	0.422522	16.4149	0.696322	27.2171	0.720599	28.4881
0.278196	10.3335	0.0235637	0.874503	0.2782	10.3622	0.366749	14.0176	0.56238	21.3122	0.840231	31.7739	0.156186	7.10573	0.422762	15.8505	0.696225	26.2571	0.721088	27.4947
0.278151	9.98619	0.0249995	0.896781	0.278155	10.013	0.367449	13.5615	0.562621	20.5942	0.840353	30.697	0.156966	6.96	0.423011	15.3245	0.696132	25.3624	0.721589	26.5699
0.278111	9.66155	0.0264613	0.91852	0.278114	9.68664	0.368169	13.1363	0.562871	19.9238	0.84048	29.6911	0.157927	6.79409	0.423268	14.8332	0.696044	24.5267	0.722099	25.7068
0.278074	9.35741	0.0279481	0.939736	0.278077	9.38094	0.368906	12.7391	0.563129	19.2966	0.84061	28.7495	0.159077	6.61259	0.423534	14.3732	0.69596	23.7442	0.722618	24.8994
0.278042	9.07192	0.0294585	0.960435	0.278045	9.09403	0.369662	12.3673	0.563396	18.7084	0.840745	27.8662	0.160426	6.42002	0.423809	13.9417	0.69588	23.01	0.723148	24.1426
0.278016	8.80345	0.0309917	0.980632	0.278018	8.82425	0.370436	12.0186	0.563671	18.1559	0.840885	27.0359	0.161805	6.24246	0.424092	13.5362	0.695805	22.3199	0.723686	23.4317
0.277995	8.55053	0.0325464	1.00034	0.277997	8.57014	0.371227	11.6909	0.563954	17.6357	0.841028	26.2541	0.163213	6.07829	0.424383	13.1543	0.695735	21.67	0.724234	22.7628
0.27798	8.31188	0.0341217	1.01956	0.277981	8.3304	0.372035	11.3823	0.564246	17.1453	0.841176	25.5166	0.164648	5.92612	0.424684	12.7941	0.69567	21.0569	0.724791	22.1322
0.277972	8.08635	0.0357167	1.03831	0.277973	8.13228	0.37286	11.0914	0.564546	16.6822	0.841328	24.8197	0.166109	5.78473	0.424992	12.4539	0.69561	20.4776	0.725356	21.5367
0.27797	7.87291	0.0373305	1.05661	0.27797	7.9708	0.373701	10.8167	0.564855	16.2441	0.841484	24.1603	0.167596	5.65308	0.42531	12.1319	0.695555	19.9294	0.72593	20.9736
0.277975	7.67064	0.0389622	1.07446	0.27797	7.84211	0.374558	10.5568	0.565171	15.829	0.841645	23.5353	0.169106	5.53023	0.425636	11.8269	0.695506	19.4099	0.726512	20.4402
0.277988	7.47871	0.0406109	1.09187	0.277972	7.74331	0.375431	10.3106	0.565496	15.4354	0.84181	22.9422	0.170639	5.41536	0.42597	11.5375	0.695463	18.9168	0.727103	19.9343
0.278008	7.29637	0.042276	1.10886	0.277975	7.67227	0.376318	10.0771	0.56583	15.0615	0.841979	22.3786	0.172194	5.30776	0.426313	11.2626	0.695425	18.4482	0.727702	19.4538
0.278036	7.12294	0.0439566	1.12544	0.277977	7.62749	0.377221	9.85542	0.566172	14.7058	0.842152	21.8423	0.173769	5.20679	0.426665	11.0011	0.695393	18.0024	0.728309	18.9968
0.278073	6.9578	0.0456522	1.14162	0.277981	7.56406	0.378138	9.64461	0.566522	14.3673	0.84233	21.3314	0.175365	5.11188	0.427025	10.7521	0.695366	17.5778	0.728925	18.5618
0.278118	6.8004	0.0473619	1.15741	0.277986	7.49633	0.379069	9.44393	0.56688	14.0445	0.842512	20.8442	0.176979	5.02252	0.427394	10.5147	0.695346	17.1728	0.729548	18.1471
0.278173	6.65023	0.0490852	1.17282	0.277995	7.40617	0.380014	9.2527	0.567247	13.7365	0.842698	20.3791	0.178611	4.93827	0.427771	10.2882	0.695331	16.7862	0.730178	17.7514
0.278236	6.50682	0.0508215	1.18786	0.278008	7.2953	0.380972	9.07028	0.567622	13.4423	0.842888	19.9345	0.18026	4.8587	0.428157	10.0718	0.695323	16.4167	0.730817	17.3734
0.278309	6.36974	0.0525702	1.20254	0.278028	7.16568	0.381944	8.89608	0.568006	13.161	0.843083	19.5092	0.181925	4.78347	0.428551	9.86484	0.695321	16.0633	0.731463	17.012
0.278392	6.23861	0.0543307	1.21688	0.278058	7.01956	0.382928	8.72957	0.568398	12.8918	0.843281	19.102	0.183606	4.71223	0.428954	9.6668	0.695325	15.725	0.732117	16.666
0.278485	6.11306	0.0561025	1.23088	0.2781	6.85928	0.383925	8.57027	0.568798	12.6339	0.843484	18.7117	0.185302	4.64469	0.429366	9.47709	0.695335	15.4007	0.732778	16.3347
0.278589	5.99277	0.0578852	1.24455	0.278151	6.70643	0.384935	8.41773	0.569206	12.3866	0.843692	18.3373	0.187012	4.58058	0.429786	9.29521	0.695351	15.0897	0.733446	16.0169
0.278703	5.87743	0.0596782	1.2579	0.278211	6.5605	0.385956	8.27154	0.569623	12.1494	0.843903	17.9778	0.188736	4.51965	0.430215	9.1207	0.695374	14.7911	0.734122	15.712
0.278828	5.76676	0.0614812	1.27095	0.27828	6.42106	0.386856	8.14903	0.570048	11.9215	0.844119	17.6325	0.190472	4.46169	0.430653	8.95313	0.695403	14.5043	0.734805	15.4191
0.278964	5.66051	0.0632936	1.28369	0.27836	6.28772	0.38763	8.048	0.570482	11.7026	0.844339	17.3004	0.192221	4.40649	0.431099	8.7921	0.695438	14.2285	0.735495	15.1377
0.279112	5.55842	0.0651151	1.29614	0.278449	6.16009	0.388274	7.96672	0.570923	11.492	0.844564	16.9808	0.193982	4.35386	0.431553	8.63725	0.69548	13.9632	0.736192	14.8669
0.279271	5.46028	0.0669454	1.30831	0.278548	6.03784	0.388787	7.90385	0.571373	11.2893	0.844793	16.6731	0.195753	4.30363	0.432016	8.48824	0.695529	13.7078	0.736897	14.6063
0.279443	5.36588	0.0687839	1.3202	0.278658	5.92066	0.389166	7.85838	0.571832	11.0942	0.845026	16.3765	0.197536	4.25565	0.432488	8.34475	0.695584	13.4617	0.737608	14.3553
0.279626	5.27503	0.0706304	1.33183	0.278779	5.80825	0.389409	7.82962	0.572298	10.9061	0.845263	16.0906	0.199329	4.20977	0.432906	8.22399	0.695645	13.2244	0.738326	14.1134
0.279822	5.18755	0.0724846	1.34319	0.278911	5.70035	0.389759	7.78873	0.572774	10.7247	0.845504	15.8147	0.201131	4.16587	0.433268	8.12404	0.695713	12.9955	0.739051	13.88
0.28003	5.10326	0.0743461	1.35431	0.279055	5.5967	0.390141	7.74487	0.573257	10.5497	0.84575	15.5483	0.202943	4.12382	0.433571	8.0434	0.695788	12.7746	0.739783	13.6549
0.280251	5.02202	0.0762146	1.36517	0.27921	5.49709	0.390663	7.68618	0.573748	10.3808	0.846	15.291	0.204764	4.08352	0.433812	7.98088	0.695869	12.5612	0.740522	13.4374
0.280485	4.94368	0.0780899	1.3758	0.279376	5.4013	0.391327	7.61351	0.574248	10.2176	0.846254	15.0423	0.206594	4.04484	0.433991	7.93559	0.695957	12.355	0.741267	13.2273
0.280733	4.8681	0.0799716	1.3862	0.279555	5.30912	0.392135	7.52786	0.574756	10.0599	0.846513	14.8018	0.208431	4.00772	0.434106	7.90691	0.696051	12.1556	0.742019	13.0242
0.280993	4.79514	0.0818596	1.39637	0.279746	5.22038	0.39309	7.43038	0.575273	9.90733	0.846776	14.569	0.210277	3.97204	0.434273	7.86608	0.696152	11.9628	0.742778	12.8277
0.281268	4.72471	0.0837534	1.40633	0.279949	5.1349	0.394195	7.32231	0.575798	9.75977	0.847043	14.3437	0.212129	3.93774	0.434454	7.82222	0.69626	11.7761	0.743543	12.6376
0.281556	4.65667	0.085653	1.41607	0.280166	5.05252	0.39531	7.2181	0.57633	9.61693	0.847314	14.1254	0.213989	3.90473	0.434703	7.76345	0.696375	11.5953	0.744315	12.4535
0.281858	4.59092	0.087558	1.42561	0.280395	4.97309	0.396435	7.11755	0.576872	9.4786	0.84759	13.9139	0.215856	3.87295	0.435021	7.69052	0.696496	11.4201	0.745093	12.2752
0.282174	4.52737	0.0894684	1.43494	0.280637	4.89648	0.397569	7.02048	0.577421	9.34457	0.84787	13.7088	0.217729	3.84233	0.43541	7.60435	0.696624	11.2504	0.745878	12.1023
0.282505	4.46592	0.0913837	1.44408	0.280893	4.82254	0.398712	6.92671	0.577979	9.21466	0.848154	13.5099	0.219609	3.8128	0.435872	7.50598	0.696758	11.0857	0.746669	11.9348
0.282851	4.40648	0.0933039	1.45304	0.281162	4.75116	0.399864	6.83607	0.578545	9.08868	0.848443	13.3169	0.221494	3.78432	0.43641	7.39657	0.6969	10.926	0.747467	11.7722
0.283211	4.34897	0.0952287	1.4618	0.281445	4.68223	0.401025	6.74843	0.579119	8.96647	0.848736	13.1295	0.223385	3.75683	0.436957	7.29071	0.697048	10.771	0.74827	11.6144
0.283587	4.29331	0.0971581	1.47039	0.281742	4.61562	0.402195	6.66363	0.579702	8.84786	0.849033	12.9475	0.225281	3.73027	0.437512	7.18824	0.697203	10.6205	0.74908	11.4613
0.283977	4.23943	0.0990917	1.4788	0.282053	4.55125	0.403372	6.58155	0.580293	8.73269	0.849334	12.7706	0.227183	3.7046	0.438076	7.08899	0.697364	10.4743	0.749897	11.3125
0.284383	4.18725	0.10103	1.48704	0.282378	4.48901	0.404559	6.50206	0.580892	8.62084	0.84964	12.5987	0.229089	3.67978	0.438649	6.99283	0.697533	10.3322	0.750719	11.1679
0.284805	4.13671	0.102971	1.49512	0.282718	4.42882	0.405753	6.42504	0.581499	8.51215	0.84995	12.4316	0.231	3.65577	0.43923	6.89962	0.697708	10.1942	0.751548	11.0274
0.285242	4.08774	0.104917	1.50304	0.283073	4.37059	0.406954	6.35039	0.582035	8.41993	0.850264	12.269	0.232916	3.63253	0.43982	6.80923	0.69789	10.0599	0.752383	10.8908
0.285696	4.0403	0.106866	1.5108	0.283442	4.31423	0.408164	6.27799	0.582497	8.34307	0.850583	12.1108	0.234836	3.61001	0.440419	6.72154	0.698078	9.92923	0.753224	10.7579
0.286104	4.00014	0.108819	1.5184	0.283827	4.25968	0.409381	6.20775	0.582882	8.28071	0.850906	11.9567	0.23676	3.5882	0.441026	6.63645	0.698273	9.80211	0.754071	10.6285
0.286462	3.96676	0.110775	1.52586	0.284227	4.20686	0.410605	6.13957	0.583189	8.23214	0.851233	11.8068	0.238687	3.56705	0.441642	6.55383	0.698476	9.67837	0.754924	10.5026
0.286765	3.93974	0.112734	1.53317	0.284643	4.15571	0.411837	6.07338	0.583416	8.19685	0.851564	11.6607	0.240619	3.54653	0.442267	6.4736	0.698685	9.55787	0.755783	10.38
0.287009	3.91873	0.114697	1.54035	0.285074	4.10615	0.413075	6.00908	0.583562	8.17444	0.8519	11.5183	0.242554	3.52662	0.4429	6.39564	0.6989	9.4405	0.756648	10.2606
0.287191	3.90348	0.11641	1.54649	0.285522	4.05814	0.414321	5.9466	0.583772	8.14246	0.85224	11.3796	0.244492	3.50729	0.443542	6.31989	0.699123	9.32613	0.757519	10.1443
0.287309	3.8938	0.117871	1.55164	0.285985	4.0116	0.415573	5.88586	0.584001	8.10804	0.852585	11.2443	0.246434	3.48852	0.444193	6.24624	0.699352	9.21467	0.758395	10.0309
0.287479	3.88002	0.119081	1.55584	0.286465	3.9665	0.416831	5.82679	0.584315	8.06174	0.852933	11.1123	0.248378	3.47028	0.444852	6.17461	0.699588	9.10599	0.759278	9.92028
0.287667	3.86519	0.120039	1.55913	0.286962	3.92277	0.418096	5.76933	0.584715	8.00405	0.853286	10.9836	0.250326	3.45254	0.44552	6.10493	0.699831	9	0.760166	9.81244
0.287925	3.84528	0.120743	1.56153	0.287475	3.88036	0.419367	5.71342	0.585202	7.93554	0.853643	10.858	0.252276	3.4353	0.446197	6.03713	0.70008	8.89662	0.761061	9.70724
0.288258	3.82053	0.121194	1.56306	0.288006	3.83924	0.420644	5.65899	0.58578	7.85687	0.854005	10.7354	0.254229	3.41852	0.446882	5.97113	0.700336	8.79573	0.761961	9.60458
0.28867	3.7912	0.121843	1.56525	0.288553	3.79935	0.421928	5.60599	0.586451	7.76879	0.854371	10.6156	0.256184	3.40218	0.447576	5.90687	0.700599	8.69726	0.762866	9.50438
0.289164	3.75763	0.122548	1.56761	0.289119	3.76066	0.423217	5.55436	0.587129	7.68295	0.854741	10.4987	0.258141	3.38628	0.448279	5.84428	0.700834	8.61336	0.763778	9.40654
0.289749	3.72019	0.123508	1.57079	0.289702	3.72313	0.424511	5.50405	0.587816	7.59929	0.855116	10.3845	0.260101	3.37079	0.44899	5.78331	0.701038	8.5432	0.764695	9.31099
0.290352	3.68386	0.124722	1.57477	0.290303	3.68671	0.425812	5.45501	0.588511	7.51773	0.855494	10.2728	0.262063	3.35569	0.449711	5.7239	0.70121	8.4861	0.765617	9.21766
0.290973	3.6486	0.126192	1.57953	0.290922	3.65137	0.427117	5.4072	0.589215	7.43818	0.855878	10.1637	0.264026	3.34098	0.450439	5.66598	0.701347	8.44153	0.766545	9.12646
0.291612	3.6144	0.127918	1.58503	0.291561	3.61709	0.428428	5.36057	0.589926	7.36059	0.856265	10.057	0.265992	3.32663	0.451177	5.60952	0.701449	8.40908	0.767479	9.03733
0.292271	3.58121	0.129901	1.59123	0.292218	3.58381	0.429745	5.31508	0.590645	7.28488	0.856657	9.95273	0.267959	3.31263	0.451923	5.55446	0.701515	8.38846	0.768418	8.9502
0.292949	3.54899	0.131887	1.59732	0.292894	3.55153	0.431066	5.27068	0.591373	7.21099	0.857053	9.85071	0.269927	3.29897	0.452678	5.50075	0.70161	8.359	0.769363	8.865
0.293646	3.51774	0.133874	1.6033	0.29359	3.52019	0.432392	5.22735	0.592109	7.13886	0.857453	9.75089	0.271897	3.28563	0.453442	5.44835	0.701714	8.32723	0.770313	8.78167
0.294363	3.48741	0.135863	1.60917	0.294305	3.48979	0.433724	5.18504	0.592853	7.06843	0.857858	9.65321	0.273869	3.27261	0.454215	5.39721	0.701857	8.28444	0.771146	8.71054
0.295101	3.45797	0.137855	1.61493	0.295041	3.46029	0.43506	5.14372	0.593605	6.99965	0.858267	9.55761	0.275841	3.25989	0.454996	5.34729	0.702041	8.231	0.771859	8.65096
0.295859	3.42942	0.139848	1.62059	0.295798	3.43166	0.4364	5.10335	0.594365	6.93245	0.85868	9.46403	0.277815	3.24746	0.455786	5.29856	0.702266	8.16736	0.77245	8.60241
0.296638	3.40171	0.141843	1.62616	0.296575	3.40389	0.437745	5.06391	0.595134	6.86679	0.859098	9.37239	0.27979	3.23531	0.456585	5.25097	0.702535	8.09406	0.77292	8.56447
0.297438	3.37483	0.14384	1.63162	0.297374	3.37694	0.439095	5.02536	0.59591	6.80262	0.85952	9.28264	0.281766	3.22343	0.457393	5.20449	0.70285	8.01169	0.773266	8.53683
0.298261	3.34876	0.145839	1.63699	0.298194	3.35081	0.440449	4.98767	0.596694	6.73989	0.859946	9.19472	0.283743	3.21181	0.458209	5.15909	0.703171	7.93112	0.773487	8.51925
0.299105	3.32348	0.147839	1.64227	0.299037	3.32546	0.441807	4.95082	0.597487	6.67856	0.860377	9.10859	0.28572	3.20044	0.459034	5.11473	0.703499	7.8523	0.773806	8.49412
0.299972	3.29896	0.14984	1.64745	0.299902	3.30088	0.443169	4.91477	0.598288	6.61858	0.860812	9.02418	0.287699	3.18932	0.459868	5.07137	0.703834	7.77518	0.774154	8.46701
0.300862	3.27519	0.151844	1.65255	0.300791	3.27706	0.444535	4.8795	0.599096	6.55991	0.861251	8.94146	0.289677	3.17842	0.460711	5.02899	0.704175	7.69971	0.774628	8.43047
0.301776	3.25215	0.153848	1.65756	0.301703	3.25396	0.445905	4.84499	0.599913	6.50252	0.861638	8.87069	0.291657	3.16776	0.461562	4.98756	0.704523	7.62582	0.775229	8.38478
0.302714	3.22983	0.155854	1.66249	0.302638	3.23158	0.44728	4.81122	0.600738	6.44636	0.86197	8.81133	0.293637	3.15731	0.462422	4.94705	0.704878	7.55349	0.775958	8.33032
0.303677	3.20821	0.157862	1.66733	0.303599	3.20991	0.448657	4.77815	0.601571	6.3914	0.862246	8.76288	0.295617	3.14708	0.463291	4.90743	0.705239	7.48265	0.776818	8.26748
0.304664	3.18727	0.15987	1.67209	0.304585	3.18891	0.450039	4.74578	0.602412	6.3376	0.862465	8.72499	0.297597	3.13704	0.464169	4.86868	0.705607	7.41328	0.777809	8.19675
0.305677	3.167	0.16188	1.67677	0.305596	3.16859	0.451424	4.71407	0.603261	6.28492	0.862628	8.69735	0.299578	3.12721	0.465056	4.83078	0.705982	7.34531	0.778805	8.12745
0.306717	3.14739	0.163891	1.68138	0.306633	3.14893	0.452813	4.68301	0.604117	6.23335	0.862732	8.67976	0.301559	3.11757	0.465951	4.79368	0.706363	7.27872	0.779807	8.05954
0.307783	3.12842	0.165903	1.6859	0.307697	3.1299	0.454205	4.65257	0.604982	6.18283	0.862882	8.65462	0.303539	3.10811	0.466856	4.75739	0.706751	7.21346	0.780813	7.99298
0.308876	3.11008	0.167917	1.69036	0.308788	3.11151	0.4556	4.62275	0.605855	6.13335	0.863045	8.62747	0.30552	3.09882	0.467769	4.72186	0.707146	7.1495	0.781825	7.92772
0.309997	3.09235	0.169931	1.69474	0.309907	3.09374	0.456999	4.59351	0.606736	6.08487	0.863268	8.59083	0.307501	3.08972	0.468691	4.68709	0.707547	7.0868	0.782842	7.86374
0.311146	3.07524	0.171946	1.69905	0.311054	3.07658	0.4584	4.56485	0.607625	6.03738	0.863552	8.54499	0.309481	3.08078	0.469622	4.65304	0.707954	7.02532	0.783864	7.80099
0.312324	3.05871	0.173962	1.70329	0.312229	3.06001	0.459805	4.53675	0.608521	5.99083	0.863898	8.49026	0.311462	3.072	0.470561	4.61971	0.708368	6.96504	0.78489	7.73945
0.313532	3.04278	0.175979	1.70746	0.313435	3.04403	0.461213	4.50919	0.609426	5.9452	0.864306	8.42704	0.313442	3.06338	0.47151	4.58706	0.708789	6.90591	0.785922	7.67908
0.314769	3.02741	0.177997	1.71157	0.314669	3.02861	0.462624	4.48216	0.610338	5.90047	0.864779	8.35574	0.315421	3.05491	0.472467	4.55509	0.709216	6.84791	0.786959	7.61984
0.316037	3.0126	0.180016	1.71561	0.315935	3.01376	0.464038	4.45564	0.611259	5.85662	0.865256	8.28576	0.3174	3.04658	0.473433	4.52377	0.70965	6.791	0.788	7.56171
0.317335	2.99835	0.182035	1.71959	0.31723	2.99947	0.465455	4.42961	0.612187	5.81361	0.865737	8.21705	0.319379	3.0384	0.474408	4.49308	0.71009	6.73516	0.789047	7.50465
0.318664	2.98463	0.184055	1.7235	0.318557	2.98571	0.466874	4.40407	0.613123	5.77144	0.866223	8.1496	0.321357	3.03036	0.475392	4.46302	0.710537	6.68037	0.790098	7.44865
0.320024	2.97145	0.186076	1.72735	0.319915	2.97248	0.468296	4.379	0.614067	5.73007	0.866713	8.08335	0.323335	3.02246	0.476385	4.43356	0.71099	6.62658	0.791154	7.39366
0.321417	2.95878	0.188098	1.73115	0.321305	2.95977	0.469721	4.35439	0.615019	5.68949	0.867207	8.01829	0.325312	3.01468	0.477387	4.40469	0.71145	6.57378	0.792215	7.33967
0.322841	2.94661	0.19012	1.73488	0.322726	2.94757	0.471148	4.33022	0.615979	5.64967	0.867706	7.95438	0.327288	3.00703	0.478397	4.37639	0.711916	6.52194	0.793281	7.28664
0.324297	2.93494	0.192142	1.73856	0.324179	2.93586	0.472578	4.30648	0.616946	5.6106	0.868209	7.89159	0.329263	2.99951	0.479417	4.34865	0.712388	6.47104	0.794351	7.23456
0.325785	2.92376	0.194166	1.74218	0.325665	2.92463	0.47401	4.28317	0.617921	5.57226	0.868716	7.82989	0.331238	2.9921	0.480445	4.32146	0.712867	6.42105	0.795426	7.1834
0.327304	2.91304	0.19619	1.74574	0.327182	2.91388	0.475445	4.26026	0.618904	5.53462	0.869228	7.76926	0.333212	2.9848	0.481482	4.2948	0.713353	6.37195	0.796506	7.13313
0.328856	2.90278	0.198214	1.74925	0.328732	2.90358	0.476882	4.23776	0.619895	5.49768	0.869744	7.70967	0.335184	2.97762	0.482528	4.26865	0.713845	6.32371	0.79759	7.08373
0.33044	2.89297	0.200239	1.75271	0.330313	2.89374	0.478321	4.21565	0.620894	5.4614	0.870265	7.65109	0.337156	2.97055	0.483583	4.24301	0.714343	6.27632	0.798679	7.03519
0.332055	2.88359	0.202264	1.75612	0.331925	2.88432	0.479762	4.19391	0.6219	5.42579	0.870789	7.59351	0.339127	2.96359	0.484647	4.21787	0.714848	6.22976	0.799772	6.98748
0.333701	2.87463	0.204289	1.75947	0.333569	2.87532	0.481206	4.17255	0.622914	5.39082	0.871319	7.53689	0.341096	2.95673	0.48572	4.1932	0.715359	6.184	0.80087	6.94057
0.335378	2.86607	0.206315	1.76277	0.335243	2.86673	0.482651	4.15154	0.623935	5.35647	0.871852	7.48121	0.343064	2.94996	0.486802	4.16901	0.715876	6.13903	0.801973	6.89446
0.337085	2.8579	0.208342	1.76603	0.336948	2.85854	0.484099	4.13089	0.624965	5.32273	0.87239	7.42645	0.345031	2.9433	0.487892	4.14527	0.7164	6.09483	0.80308	6.84912
0.338822	2.85011	0.210368	1.76924	0.338682	2.85072	0.485549	4.11058	0.626002	5.28959	0.872932	7.37259	0.346997	2.93673	0.488992	4.12199	0.71693	6.05137	0.804191	6.80453
0.340587	2.84268	0.212395	1.77239	0.340446	2.84326	0.487	4.0906	0.627046	5.25703	0.873479	7.31961	0.348962	2.93025	0.4901	4.09914	0.717466	6.00864	0.805307	6.76067
0.342381	2.8356	0.214423	1.77551	0.342237	2.83616	0.488454	4.07095	0.628098	5.22503	0.874029	7.26749	0.350925	2.92386	0.491217	4.07671	0.718009	5.96663	0.806428	6.71754
0.344202	2.82886	0.21645	1.77857	0.344056	2.82939	0.489909	4.05162	0.629158	5.19359	0.874585	7.2162	0.352887	2.91756	0.492344	4.05471	0.718558	5.92532	0.807552	6.6751
0.34605	2.82244	0.218478	1.7816	0.345902	2.82294	0.491367	4.0326	0.630225	5.1627	0.875144	7.16573	0.354847	2.91134	0.493479	4.03311	0.719113	5.88468	0.808681	6.63335
0.347924	2.81632	0.220506	1.78458	0.347774	2.8168	0.492826	4.01388	0.6313	5.13233	0.875708	7.11606	0.356806	2.9052	0.494623	4.01191	0.719674	5.84472	0.809814	6.59226
0.349823	2.81049	0.222534	1.78751	0.349671	2.81095	0.494286	3.99546	0.632382	5.10248	0.876277	7.06717	0.358763	2.89914	0.495776	3.9911	0.720242	5.8054	0.810952	6.55183
0.351746	2.80495	0.224562	1.7904	0.351592	2.80538	0.495749	3.97733	0.633472	5.07314	0.876849	7.01905	0.360719	2.89316	0.496938	3.97067	0.720816	5.76672	0.812094	6.51204
0.353692	2.79967	0.226591	1.79326	0.353536	2.80008	0.497213	3.95948	0.634569	5.04429	0.877426	6.97167	0.362673	2.88726	0.498108	3.95062	0.721396	5.72866	0.81324	6.47287
0.355661	2.79464	0.228619	1.79607	0.355503	2.79503	0.498679	3.94191	0.635674	5.01592	0.878008	6.92503	0.364625	2.88143	0.499288	3.93093	0.721983	5.69121	0.81439	6.43431
0.357651	2.78985	0.230648	1.79884	0.357491	2.79022	0.500146	3.9246	0.636786	4.98802	0.878593	6.8791	0.366576	2.87567	0.500477	3.91159	0.722575	5.65435	0.815544	6.39634
0.359661	2.78529	0.232677	1.80157	0.3595	2.78564	0.501615	3.90756	0.637905	4.96059	0.879183	6.83387	0.368525	2.86999	0.501674	3.89261	0.723174	5.61808	0.816703	6.35896
0.361691	2.78094	0.234705	1.80426	0.361529	2.78128	0.503085	3.89077	0.639032	4.9336	0.879778	6.78932	0.370472	2.86437	0.50288	3.87396	0.723779	5.58237	0.817865	6.32215
0.363739	2.7768	0.236734	1.80692	0.363576	2.77712	0.504557	3.87424	0.640166	4.90706	0.880377	6.74544	0.372417	2.85881	0.504096	3.85565	0.72439	5.54722	0.819032	6.2859
0.365806	2.77286	0.238763	1.80953	0.365641	2.77316	0.50603	3.85795	0.641308	4.88096	0.88098	6.70222	0.374361	2.85333	0.50532	3.83766	0.725007	5.51262	0.820203	6.25019
0.367889	2.76909	0.240792	1.81212	0.367723	2.76938	0.507505	3.84191	0.642456	4.85527	0.881587	6.65963	0.376302	2.8479	0.506553	3.82	0.72563	5.47855	0.821377	6.21501
0.369989	2.7655	0.242821	1.81466	0.369821	2.76578	0.508981	3.82609	0.643612	4.83	0.882199	6.61768	0.378242	2.84254	0.507795	3.80264	0.72626	5.445	0.822556	6.18036
0.372104	2.76207	0.24485	1.81717	0.371935	2.76234	0.510458	3.81051	0.644775	4.80513	0.882816	6.57634	0.38018	2.83723	0.509045	3.7856	0.726895	5.41196	0.823739	6.14622
0.374233	2.7588	0.246879	1.81964	0.374063	2.75906	0.511937	3.79516	0.645946	4.78066	0.883436	6.5356	0.382115	2.83199	0.510305	3.76885	0.727537	5.37942	0.824925	6.11258
0.376377	2.75568	0.248907	1.82208	0.376206	2.75592	0.513417	3.78002	0.647123	4.75657	0.884061	6.49546	0.384049	2.8268	0.511573	3.7524	0.728184	5.34737	0.826115	6.07943
0.378533	2.75269	0.250936	1.82449	0.378361	2.75292	0.514898	3.7651	0.648308	4.73287	0.884691	6.45589	0.385981	2.82167	0.51285	3.73623	0.728838	5.3158	0.82731	6.04676
0.380703	2.74983	0.252965	1.82687	0.380529	2.75005	0.516381	3.75039	0.6495	4.70954	0.885324	6.41688	0.38791	2.81659	0.514136	3.72035	0.729498	5.2847	0.828508	6.01456
0.382884	2.7471	0.254993	1.82921	0.382709	2.74731	0.517865	3.73589	0.650698	4.68657	0.885962	6.37844	0.389838	2.81156	0.515431	3.70474	0.730163	5.25406	0.82971	5.98282
0.385076	2.74448	0.257021	1.83152	0.384901	2.74469	0.51935	3.72159	0.651904	4.66395	0.886605	6.34053	0.391763	2.80659	0.516735	3.68941	0.730835	5.22387	0.830915	5.95153
0.387279	2.74197	0.25905	1.83379	0.387103	2.74217	0.520836	3.70748	0.653117	4.64169	0.887252	6.30316	0.393686	2.80167	0.518047	3.67433	0.731513	5.19413	0.832125	5.92068
0.389492	2.73957	0.261078	1.83604	0.389315	2.73976	0.522324	3.69358	0.654337	4.61977	0.887903	6.26631	0.395607	2.79679	0.519368	3.65952	0.732197	5.16481	0.833338	5.89027
0.391714	2.73727	0.263106	1.83826	0.391537	2.73745	0.523812	3.67986	0.655564	4.59819	0.888558	6.22997	0.397525	2.79197	0.520698	3.64496	0.732886	5.13592	0.834554	5.86027
0.393946	2.73505	0.265133	1.84044	0.393768	2.73523	0.525302	3.66633	0.656798	4.57693	0.889218	6.19414	0.399442	2.78719	0.522037	3.63065	0.733582	5.10745	0.835775	5.8307
0.396186	2.73293	0.267161	1.8426	0.396007	2.73309	0.526793	3.65298	0.658038	4.55599	0.889883	6.15879	0.401356	2.78246	0.523384	3.61659	0.734283	5.07939	0.836999	5.80153
0.398435	2.73089	0.269188	1.84473	0.398255	2.73105	0.528285	3.63981	0.659286	4.53537	0.890551	6.12393	0.403268	2.77777	0.52474	3.60277	0.734991	5.05172	0.838226	5.77276
0.400691	2.72892	0.271215	1.84683	0.400511	2.72908	0.529778	3.62681	0.66054	4.51506	0.891224	6.08955	0.405178	2.77313	0.526105	3.58918	0.735704	5.02445	0.839458	5.74438
0.402954	2.72703	0.273242	1.8489	0.402773	2.72718	0.531272	3.61399	0.661801	4.49506	0.891902	6.05562	0.407085	2.76853	0.527478	3.57582	0.736423	4.99756	0.840692	5.71638
0.405224	2.72522	0.275269	1.85095	0.405043	2.72536	0.532767	3.60134	0.663068	4.47534	0.892583	6.02216	0.40899	2.76397	0.52886	3.56268	0.737149	4.97105	0.841931	5.68876
0.407501	2.72346	0.277295	1.85296	0.40732	2.7236	0.534264	3.58885	0.664343	4.45593	0.89327	5.98914	0.410893	2.75945	0.530251	3.54977	0.73788	4.94491	0.843172	5.66151
0.409784	2.72177	0.279321	1.85495	0.409602	2.72191	0.535761	3.57652	0.665624	4.43679	0.89396	5.95656	0.412793	2.75498	0.53165	3.53708	0.738616	4.91914	0.844418	5.63462
0.412073	2.72014	0.281347	1.85692	0.411891	2.72027	0.53726	3.56436	0.666911	4.41794	0.894655	5.92441	0.414691	2.75054	0.533057	3.52459	0.739359	4.89372	0.845666	5.60809
0.414368	2.71857	0.283372	1.85886	0.414185	2.71869	0.538759	3.55235	0.668206	4.39936	0.895354	5.89268	0.416587	2.74614	0.534474	3.51232	0.740108	4.86865	0.846918	5.5819
0.416668	2.71705	0.285398	1.86077	0.416484	2.71717	0.54026	3.54049	0.669506	4.38105	0.896058	5.86137	0.41848	2.74179	0.535898	3.50025	0.740862	4.84392	0.848174	5.55606
0.418972	2.71558	0.287423	1.86265	0.418789	2.7157	0.541761	3.52879	0.670814	4.363	0.896766	5.83047	0.420371	2.73746	0.537331	3.48838	0.741622	4.81953	0.849432	5.53055
0.421282	2.71416	0.289447	1.86452	0.421098	2.71427	0.543264	3.51723	0.672127	4.34522	0.897478	5.79997	0.42226	2.73318	0.538773	3.47671	0.742388	4.79548	0.850694	5.50537
0.423596	2.71278	0.291471	1.86636	0.423411	2.71289	0.544767	3.50582	0.673447	4.32768	0.898195	5.76986	0.424146	2.72893	0.540223	3.46524	0.74316	4.77174	0.85196	5.48051
0.425914	2.71145	0.293495	1.86817	0.425729	2.71156	0.546272	3.49455	0.674774	4.3104	0.898916	5.74014	0.426029	2.72472	0.541681	3.45395	0.743937	4.74833	0.853228	5.45597
0.428236	2.71016	0.295519	1.86996	0.428051	2.71026	0.547778	3.48342	0.676107	4.29336	0.899642	5.7108	0.427911	2.72054	0.543148	3.44285	0.74472	4.72523	0.8545	5.43174
0.430562	2.70891	0.297542	1.87173	0.430377	2.70901	0.549284	3.47243	0.677446	4.27656	0.900372	5.68183	0.42979	2.71639	0.544623	3.43193	0.745509	4.70243	0.855775	5.40782
0.432892	2.70769	0.299565	1.87347	0.432706	2.70779	0.550792	3.46157	0.678791	4.26	0.901106	5.65322	0.431666	2.71228	0.546106	3.42119	0.746304	4.67994	0.857053	5.3842
0.435225	2.70652	0.301587	1.87519	0.435039	2.70661	0.552301	3.45085	0.680143	4.24367	0.901844	5.62498	0.43354	2.7082	0.547597	3.41062	0.747104	4.65775	0.858334	5.36087
0.437561	2.70537	0.303609	1.87689	0.437375	2.70546	0.553811	3.44025	0.681501	4.22757	0.902587	5.59708	0.435412	2.70416	0.549097	3.40023	0.74791	4.63585	0.859619	5.33783
0.439901	2.70425	0.305631	1.87857	0.439714	2.70434	0.555322	3.42979	0.682865	4.21169	0.903335	5.56954	0.437281	2.70014	0.550605	3.39001	0.748722	4.61423	0.860906	5.31507
0.442243	2.70317	0.307652	1.88023	0.442056	2.70326	0.556834	3.41945	0.684235	4.19602	0.904087	5.54234	0.439148	2.69616	0.552121	3.37996	0.749539	4.5929	0.862196	5.2926
0.444588	2.70212	0.309673	1.88186	0.444401	2.7022	0.558347	3.40923	0.685611	4.18058	0.904843	5.51547	0.441013	2.69221	0.553645	3.37006	0.750362	4.57184	0.86349	5.2704
0.446935	2.70109	0.311693	1.88347	0.446748	2.70117	0.559861	3.39914	0.686993	4.16534	0.905603	5.48893	0.442875	2.68828	0.555176	3.36033	0.751191	4.55105	0.864786	5.24846
0.449285	2.70009	0.313713	1.88507	0.449098	2.70016	0.561376	3.38917	0.688381	4.15031	0.906368	5.46272	0.444735	2.68439	0.556716	3.35075	0.752025	4.53053	0.866086	5.22679
0.451637	2.69911	0.315732	1.88664	0.45145	2.69919	0.562892	3.37931	0.689775	4.13548	0.907137	5.43683	0.446592	2.68053	0.558264	3.34133	0.752865	4.51028	0.867388	5.20539
0.453992	2.69816	0.317752	1.88819	0.453804	2.69823	0.564409	3.36958	0.691174	4.12086	0.907911	5.41125	0.448447	2.6767	0.559819	3.33206	0.75371	4.49028	0.868694	5.18423
0.456348	2.69722	0.31977	1.88973	0.45616	2.6973	0.565928	3.35995	0.69258	4.10643	0.908689	5.38598	0.4503	2.67289	0.561383	3.32294	0.754561	4.47053	0.870002	5.16333
0.458706	2.69632	0.321788	1.89124	0.458518	2.69639	0.567447	3.35044	0.693991	4.09219	0.909472	5.36101	0.452151	2.66911	0.562954	3.31396	0.755418	4.45104	0.871313	5.14268
0.461066	2.69543	0.323806	1.89273	0.460878	2.6955	0.568968	3.34104	0.695408	4.07814	0.910258	5.33634	0.453999	2.66537	0.564533	3.30513	0.75628	4.43179	0.872627	5.12226
0.463428	2.69456	0.325823	1.89421	0.46324	2.69462	0.57049	3.33175	0.696831	4.06428	0.91105	5.31197	0.455845	2.66164	0.566119	3.29644	0.757148	4.41278	0.873944	5.10209
0.465791	2.6937	0.327839	1.89566	0.465603	2.69377	0.572013	3.32256	0.698259	4.0506	0.911845	5.28788	0.457689	2.65795	0.567713	3.28788	0.758021	4.39401	0.875263	5.08215
0.468156	2.69287	0.329856	1.8971	0.467968	2.69294	0.573537	3.31349	0.699693	4.03709	0.912645	5.26408	0.45953	2.65428	0.569315	3.27946	0.7589	4.37547	0.876585	5.06244
0.470522	2.69205	0.331871	1.89852	0.470334	2.69212	0.575063	3.30451	0.701133	4.02377	0.913449	5.24055	0.46137	2.65064	0.570924	3.27117	0.759784	4.35717	0.87791	5.04296
0.47289	2.69125	0.333886	1.89992	0.472701	2.69132	0.576589	3.29564	0.702578	4.01062	0.914258	5.2173	0.463207	2.64703	0.57254	3.26302	0.760674	4.33909	0.879238	5.0237
0.475258	2.69047	0.335901	1.9013	0.475069	2.69053	0.578117	3.28687	0.704028	3.99764	0.915071	5.19433	0.465042	2.64344	0.574164	3.25499	0.761569	4.32123	0.880568	5.00466
0.477628	2.68969	0.337915	1.90267	0.477439	2.68975	0.579646	3.2782	0.705484	3.98482	0.915889	5.17162	0.466875	2.63988	0.575795	3.24708	0.76247	4.30359	0.881901	4.98583
0.479998	2.68894	0.339928	1.90402	0.479809	2.689	0.581177	3.26963	0.706945	3.97217	0.916711	5.14917	0.468705	2.63634	0.577433	3.2393	0.763376	4.28616	0.883237	4.96722
0.48237	2.68819	0.341941	1.90535	0.482181	2.68825	0.582708	3.26115	0.708411	3.95968	0.917537	5.12698	0.470534	2.63283	0.579079	3.23164	0.764288	4.26895	0.884575	4.94881
0.484742	2.68746	0.343954	1.90666	0.484553	2.68751	0.584241	3.25277	0.709883	3.94735	0.918367	5.10504	0.472361	2.62934	0.580731	3.2241	0.765205	4.25194	0.885916	4.93061
0.487115	2.68673	0.345965	1.90796	0.486926	2.68679	0.585776	3.24448	0.71136	3.93517	0.919203	5.08336	0.474185	2.62588	0.582391	3.21668	0.766127	4.23515	0.887259	4.91261
0.489489	2.68602	0.347977	1.90924	0.4893	2.68608	0.587312	3.23629	0.712842	3.92315	0.920042	5.06192	0.476008	2.62244	0.584058	3.20937	0.767055	4.21855	0.888604	4.89481
0.491863	2.68532	0.349987	1.91051	0.491674	2.68538	0.588849	3.22818	0.714329	3.91128	0.920886	5.04072	0.477829	2.61903	0.585731	3.20217	0.767989	4.20215	0.889953	4.87721
0.494238	2.68463	0.351998	1.91176	0.494049	2.68469	0.590387	3.22017	0.715821	3.89956	0.921734	5.01976	0.479648	2.61564	0.587411	3.19508	0.768928	4.18595	0.891303	4.8598
0.496613	2.68395	0.354007	1.91299	0.496424	2.68401	0.591928	3.21225	0.717318	3.88798	0.922586	4.99904	0.481464	2.61228	0.589098	3.1881	0.769872	4.16994	0.892656	4.84257
0.498989	2.68328	0.356016	1.91421	0.498799	2.68333	0.593469	3.20441	0.71882	3.87655	0.923443	4.97855	0.48328	2.60894	0.590792	3.18122	0.770821	4.15412	0.894012	4.82554
0.501365	2.68262	0.358024	1.91542	0.501175	2.68267	0.595012	3.19666	0.720327	3.86525	0.924305	4.95829	0.485093	2.60562	0.592492	3.17445	0.771776	4.13848	0.89537	4.80868
0.503741	2.68196	0.360032	1.9166	0.503552	2.68201	0.596557	3.189	0.721839	3.8541	0.92517	4.93825	0.486904	2.60233	0.594199	3.16779	0.772737	4.12303	0.89673	4.79201
0.506117	2.68131	0.362039	1.91778	0.505928	2.68136	0.598104	3.18142	0.723356	3.84308	0.926041	4.91844	0.488714	2.59906	0.595912	3.16122	0.773702	4.10777	0.898092	4.77552
0.508494	2.68067	0.364046	1.91894	0.508304	2.68072	0.599651	3.17393	0.724877	3.83219	0.926915	4.89884	0.490522	2.59581	0.597632	3.15475	0.774673	4.09268	0.899457	4.7592
0.51087	2.68003	0.366052	1.92008	0.510681	2.68008	0.601201	3.16651	0.726403	3.82143	0.927794	4.87946	0.492328	2.59259	0.599358	3.14837	0.77565	4.07776	0.900824	4.74305
0.513246	2.6794	0.368057	1.92121	0.513057	2.67945	0.602752	3.15918	0.727934	3.81081	0.928677	4.86029	0.494133	2.58939	0.60109	3.1421	0.776631	4.06302	0.902193	4.72707
0.515623	2.67878	0.370062	1.92232	0.515433	2.67883	0.604305	3.15193	0.729469	3.80031	0.929565	4.84133	0.495936	2.58621	0.602828	3.13591	0.777618	4.04845	0.903565	4.71125
0.517999	2.67816	0.372066	1.92343	0.517809	2.67821	0.60586	3.14476	0.731009	3.78994	0.930457	4.82257	0.497738	2.58306	0.604573	3.12982	0.778611	4.03405	0.904939	4.69561
0.520374	2.67755	0.374069	1.92451	0.520185	2.6776	0.607417	3.13766	0.732554	3.77969	0.931353	4.80402	0.499538	2.57992	0.606323	3.12381	0.779608	4.01982	0.906315	4.68012
0.52275	2.67694	0.376072	1.92559	0.522561	2.67699	0.608975	3.13065	0.734102	3.76956	0.932254	4.78567	0.501337	2.57682	0.60808	3.11789	0.780611	4.00574	0.907693	4.66479
0.525125	2.67633	0.378074	1.92665	0.524936	2.67638	0.610536	3.12371	0.735656	3.75955	0.93316	4.76751	0.503134	2.57373	0.609842	3.11206	0.781619	3.99183	0.909073	4.64962
0.5275	2.67573	0.380076	1.9277	0.527311	2.67578	0.612098	3.11684	0.737213	3.74965	0.934069	4.74955	0.50493	2.57066	0.61161	3.10631	0.782633	3.97808	0.910455	4.63461
0.529874	2.67513	0.382077	1.92873	0.529685	2.67518	0.613662	3.11005	0.738775	3.73987	0.934983	4.73178	0.506725	2.56762	0.613384	3.10065	0.783651	3.96448	0.911839	4.61974
0.532248	2.67453	0.384077	1.92975	0.532059	2.67458	0.615229	3.10334	0.740341	3.73021	0.935902	4.7142	0.508518	2.5646	0.615163	3.09507	0.784675	3.95104	0.913225	4.60503
0.534621	2.67394	0.386077	1.93076	0.534432	2.67399	0.616797	3.0967	0.741912	3.72066	0.936825	4.69681	0.51031	2.5616	0.616948	3.08957	0.785705	3.93775	0.914614	4.59046
0.536993	2.67335	0.388075	1.93175	0.536805	2.67339	0.618368	3.09013	0.743486	3.71121	0.937752	4.6796	0.512101	2.55862	0.618738	3.08414	0.786739	3.92461	0.916004	4.57604
0.539365	2.67276	0.390074	1.93274	0.539176	2.6728	0.619941	3.08363	0.745065	3.70187	0.938683	4.66257	0.513891	2.55567	0.620534	3.07879	0.787779	3.91161	0.917396	4.56176
0.541736	2.67217	0.392071	1.93371	0.541547	2.67222	0.621516	3.0772	0.746647	3.69264	0.939619	4.64572	0.515679	2.55274	0.622335	3.07352	0.788824	3.89877	0.91879	4.54763
0.544106	2.67158	0.394068	1.93467	0.543917	2.67163	0.623093	3.07085	0.748234	3.68352	0.94056	4.62905	0.517467	2.54983	0.624141	3.06832	0.789874	3.88606	0.920186	4.53363
0.546475	2.67099	0.396064	1.93561	0.546286	2.67104	0.624673	3.06456	0.749824	3.67449	0.941505	4.61254	0.519253	2.54694	0.625952	3.0632	0.790929	3.8735	0.921584	4.51977
0.548843	2.67041	0.39806	1.93655	0.548655	2.67045	0.626255	3.05834	0.751419	3.66557	0.942454	4.59622	0.521039	2.54407	0.627768	3.05814	0.79199	3.86107	0.922984	4.50605
0.55121	2.66982	0.400054	1.93747	0.551022	2.66987	0.627839	3.05219	0.753017	3.65675	0.943407	4.58006	0.522824	2.54122	0.62959	3.05316	0.793055	3.84879	0.924386	4.49246
0.553576	2.66924	0.402049	1.93838	0.553387	2.66928	0.629426	3.04611	0.754619	3.64802	0.944366	4.56406	0.524607	2.5384	0.631416	3.04824	0.794126	3.83664	0.925789	4.479
0.55594	2.66865	0.404042	1.93928	0.555752	2.66869	0.631016	3.04009	0.756225	3.63939	0.945328	4.54823	0.52639	2.53559	0.633247	3.04339	0.795203	3.82462	0.927195	4.46566
0.558304	2.66806	0.406035	1.94017	0.558116	2.66811	0.632608	3.03415	0.757835	3.63086	0.946295	4.53257	0.528172	2.53281	0.635083	3.03861	0.796284	3.81274	0.928602	4.45246
0.560666	2.66747	0.408027	1.94105	0.560478	2.66752	0.634203	3.02826	0.759448	3.62242	0.947266	4.51706	0.529954	2.53005	0.636923	3.03389	0.79737	3.80098	0.93001	4.43938
0.563026	2.66688	0.410018	1.94191	0.562838	2.66693	0.6358	3.02245	0.761065	3.61407	0.948242	4.50171	0.531734	2.52731	0.638768	3.02923	0.798462	3.78936	0.931421	4.42643
0.565385	2.66629	0.412009	1.94277	0.565197	2.66633	0.637401	3.01669	0.762685	3.60581	0.949222	4.48652	0.533514	2.52459	0.640617	3.02464	0.799559	3.77786	0.932833	4.4136
0.567743	2.66569	0.413999	1.94361	0.567555	2.66574	0.639004	3.01101	0.764309	3.59764	0.950206	4.47148	0.535293	2.52189	0.642471	3.0201	0.800661	3.76648	0.934247	4.40089
0.570098	2.66509	0.415988	1.94445	0.569911	2.66514	0.640611	3.00538	0.765936	3.58956	0.951195	4.4566	0.537072	2.51921	0.644329	3.01563	0.801768	3.75523	0.935662	4.3883
0.572453	2.66449	0.417976	1.94527	0.572265	2.66454	0.64222	2.99982	0.767567	3.58156	0.952188	4.44186	0.53885	2.51655	0.646191	3.01122	0.802881	3.74411	0.937079	4.37582
0.574805	2.66389	0.419964	1.94608	0.574617	2.66394	0.643833	2.99432	0.769201	3.57365	0.953186	4.42727	0.540628	2.51392	0.648057	3.00686	0.803998	3.7331	0.938498	4.36346
0.577155	2.66328	0.421951	1.94688	0.576968	2.66333	0.645448	2.98888	0.770839	3.56582	0.954188	4.41283	0.542405	2.5113	0.649928	3.00256	0.805121	3.72221	0.939918	4.35122
0.579503	2.66267	0.423938	1.94768	0.579316	2.66272	0.647067	2.98351	0.772479	3.55808	0.955194	4.39853	0.544182	2.50871	0.651802	2.99831	0.806248	3.71143	0.94134	4.33908
0.58185	2.66206	0.425923	1.94846	0.581663	2.66211	0.64869	2.97819	0.774123	3.55041	0.956205	4.38438	0.545959	2.50613	0.653681	2.99412	0.807381	3.70078	0.942763	4.32706
0.584194	2.66144	0.427908	1.94923	0.584007	2.66149	0.650316	2.97294	0.77577	3.54283	0.957221	4.37036	0.547735	2.50358	0.655563	2.98998	0.808519	3.69023	0.944188	4.31515
0.586536	2.66081	0.429892	1.94999	0.586349	2.66086	0.651945	2.96775	0.77742	3.53532	0.958241	4.35649	0.549511	2.50104	0.657449	2.9859	0.809663	3.6798	0.945615	4.30334
0.588875	2.66018	0.431876	1.95075	0.588689	2.66023	0.653578	2.96262	0.779074	3.52789	0.959265	4.34275	0.551286	2.49853	0.659338	2.98186	0.810811	3.66949	0.947043	4.29165
0.591212	2.65954	0.433858	1.95149	0.591026	2.6596	0.655214	2.95755	0.78073	3.52054	0.960293	4.32915	0.553062	2.49604	0.661232	2.97787	0.811964	3.65928	0.948472	4.28005
0.593547	2.6589	0.43584	1.95222	0.593361	2.65895	0.656855	2.95253	0.782389	3.51326	0.961326	4.31568	0.554837	2.49356	0.663128	2.97394	0.813123	3.64917	0.949902	4.26856
0.595879	2.65825	0.437821	1.95295	0.595693	2.65831	0.658499	2.94758	0.784051	3.50606	0.962364	4.30234	0.556612	2.49111	0.665028	2.97005	0.814287	3.63918	0.951334	4.25717
0.598208	2.6576	0.439802	1.95366	0.598023	2.65765	0.660148	2.94269	0.785716	3.49893	0.963405	4.28913	0.558387	2.48868	0.666932	2.96621	0.815456	3.62929	0.952768	4.24588
0.600535	2.65694	0.441782	1.95437	0.600349	2.65699	0.6618	2.93785	0.787384	3.49187	0.964452	4.27605	0.560162	2.48627	0.668839	2.96241	0.81663	3.61951	0.954203	4.2347
0.602858	2.65627	0.443761	1.95506	0.602673	2.65632	0.663457	2.93308	0.789055	3.48488	0.965502	4.2631	0.561938	2.48387	0.670749	2.95866	0.817809	3.60983	0.955639	4.22361
0.605179	2.65559	0.445739	1.95575	0.604994	2.65565	0.665118	2.92836	0.790728	3.47796	0.966557	4.25027	0.563713	2.4815	0.672662	2.95496	0.818993	3.60025	0.957076	4.21261
0.607496	2.65491	0.447716	1.95643	0.607312	2.65496	0.666783	2.9237	0.792404	3.4711	0.967617	4.23757	0.565488	2.47915	0.674578	2.95129	0.820182	3.59077	0.958515	4.20171
0.60981	2.65421	0.449693	1.9571	0.609626	2.65427	0.668453	2.91909	0.794083	3.46432	0.968681	4.22499	0.567263	2.47681	0.676497	2.94767	0.821377	3.58139	0.959955	4.19091
0.612121	2.65351	0.451669	1.95776	0.611937	2.65357	0.670127	2.91455	0.795765	3.4576	0.969749	4.21253	0.569038	2.4745	0.678419	2.9441	0.822576	3.57211	0.961396	4.1802
0.614428	2.6528	0.453644	1.95841	0.614245	2.65285	0.671807	2.91006	0.797449	3.45095	0.970822	4.20019	0.570814	2.4722	0.680343	2.94056	0.823781	3.56293	0.962839	4.16958
0.616732	2.65207	0.455619	1.95906	0.616549	2.65213	0.673491	2.90563	0.799135	3.44436	0.971899	4.18797	0.57259	2.46993	0.682271	2.93706	0.824991	3.55384	0.964282	4.15905
0.619032	2.65134	0.457593	1.95969	0.618849	2.6514	0.67518	2.90125	0.800824	3.43783	0.972981	4.17587	0.574366	2.46767	0.684201	2.93361	0.826205	3.54484	0.965727	4.14861
0.621328	2.6506	0.459566	1.96032	0.621145	2.65066	0.676874	2.89693	0.802516	3.43137	0.974067	4.16388	0.576142	2.46543	0.686134	2.93019	0.827425	3.53594	0.967173	4.13826
0.62362	2.64985	0.461538	1.96094	0.623438	2.64991	0.678573	2.89267	0.804209	3.42497	0.975158	4.15201	0.577919	2.46322	0.688069	2.92681	0.828651	3.52714	0.96862	4.128
0.625908	2.64908	0.46351	1.96155	0.625726	2.64914	0.680278	2.88847	0.805906	3.41863	0.976253	4.14024	0.579696	2.46102	0.690006	2.92346	0.829881	3.51842	0.970069	4.11782
0.628192	2.6483	0.46548	1.96216	0.62801	2.64836	0.681989	2.88432	0.807604	3.41235	0.977352	4.12859	0.581474	2.45884	0.691946	2.92015	0.831116	3.50979	0.971518	4.10773
0.630471	2.64751	0.46745	1.96275	0.63029	2.64758	0.683705	2.88023	0.809305	3.40612	0.978456	4.11705	0.583251	2.45668	0.693889	2.91688	0.832357	3.50126	0.972969	4.09772
0.632746	2.64671	0.46942	1.96334	0.632565	2.64677	0.685426	2.87619	0.811008	3.39996	0.979564	4.10562	0.58503	2.45453	0.695833	2.91365	0.833602	3.49281	0.97442	4.08779
0.635016	2.6459	0.471388	1.96392	0.634836	2.64596	0.687154	2.87221	0.812713	3.39385	0.980677	4.0943	0.586809	2.45241	0.69778	2.91044	0.834853	3.48444	0.975873	4.07794
0.637282	2.64507	0.473356	1.96449	0.637101	2.64513	0.688888	2.86829	0.81442	3.3878	0.981794	4.08308	0.588588	2.45031	0.699728	2.90727	0.836109	3.47617	0.977327	4.06818
0.639542	2.64422	0.475323	1.96506	0.639362	2.64429	0.690627	2.86442	0.81613	3.3818	0.982915	4.07196	0.590368	2.44822	0.701679	2.90413	0.83737	3.46798	0.978781	4.0585
0.641798	2.64337	0.477289	1.96562	0.641618	2.64344	0.692373	2.86061	0.817841	3.37586	0.984041	4.06095	0.592148	2.44615	0.703632	2.90103	0.838636	3.45987	0.980237	4.04889
0.644048	2.64249	0.479254	1.96617	0.643869	2.64256	0.694126	2.85685	0.819555	3.36997	0.985172	4.05005	0.593929	2.4441	0.705586	2.89796	0.839907	3.45185	0.981694	4.03936
0.646293	2.64161	0.481219	1.96671	0.646114	2.64168	0.695885	2.85315	0.82127	3.36414	0.986307	4.03924	0.595711	2.44207	0.707543	2.89491	0.841184	3.44391	0.983151	4.02991
0.648532	2.6407	0.483183	1.96724	0.648354	2.64078	0.697651	2.84951	0.822987	3.35836	0.987446	4.02854	0.597493	2.44006	0.7095	2.8919	0.842465	3.43605	0.98461	4.02053
0.650766	2.63978	0.485146	1.96777	0.650588	2.63986	0.699424	2.84592	0.824707	3.35263	0.98859	4.01793	0.599276	2.43806	0.71146	2.88892	0.843752	3.42827	0.986069	4.01123
0.652994	2.63885	0.487109	1.96829	0.652817	2.63892	0.701204	2.84239	0.826428	3.34695	0.989738	4.00742	0.60106	2.43609	0.713421	2.88596	0.845044	3.42057	0.98753	4.00201
0.655216	2.6379	0.48907	1.96881	0.655039	2.63797	0.702991	2.83891	0.828151	3.34132	0.990891	3.99701	0.602844	2.43413	0.715384	2.88304	0.846341	3.41295	0.988991	3.99285
0.657432	2.63693	0.491031	1.96932	0.657256	2.63701	0.704786	2.83549	0.829875	3.33574	0.992048	3.9867	0.604629	2.43219	0.717348	2.88014	0.847643	3.4054	0.990453	3.98377
0.659642	2.63594	0.492992	1.96982	0.659466	2.63602	0.706588	2.83212	0.831602	3.3302	0.993209	3.97647	0.606415	2.43026	0.719314	2.87727	0.84895	3.39794	0.991916	3.97476
0.661845	2.63494	0.494951	1.97031	0.66167	2.63502	0.708398	2.82881	0.83333	3.32472	0.994375	3.96635	0.608202	2.42835	0.721281	2.87442	0.850263	3.39055	0.99338	3.96582
0.664042	2.63391	0.49691	1.9708	0.663867	2.63399	0.710215	2.82556	0.83506	3.31928	0.995546	3.95631	0.60999	2.42647	0.723249	2.8716	0.851581	3.38323	0.994845	3.95695
0.666233	2.63287	0.498868	1.97128	0.666058	2.63295	0.71204	2.82236	0.836791	3.31389	0.996721	3.94637	0.611778	2.42459	0.725218	2.86881	0.852903	3.37599	0.99631	3.94815
0.668416	2.63181	0.500825	1.97176	0.668242	2.63189	0.713874	2.81921	0.838524	3.30855	0.9979	3.93652	0.613568	2.42274	0.727189	2.86604	0.854231	3.36882	0.997777	3.93941
0.670593	2.63073	0.502781	1.97222	0.670419	2.63081	0.715715	2.81612	0.840259	3.30325	0.999084	3.92676	0.615358	2.4209	0.72916	2.8633	0.855565	3.36173	0.999244	3.93075
0.672762	2.62963	0.504737	1.97269	0.67259	2.62972	0.717565	2.81309	0.841995	3.29799	1.00027	3.91708	0.617149	2.41908	0.731133	2.86058	0.856903	3.35471	1.00071	3.92215
0.674925	2.62851	0.506692	1.97314	0.674753	2.6286	0.719423	2.81011	0.843733	3.29278			0.618941	2.41728	0.733106	2.85788	0.858247	3.34775		
0.67708	2.62737	0.508646	1.97359	0.676908	2.62746	0.72129	2.80719	0.845471	3.28762			0.620734	2.41549	0.73508	2.85521	0.859595	3.34087		
0.679228	2.62621	0.510599	1.97403	0.679057	2.6263	0.723166	2.80432	0.847212	3.28249			0.622528	2.41372	0.737055	2.85255	0.860949	3.33406		
0.681368	2.62503	0.512552	1.97447	0.681198	2.62512	0.72505	2.8015	0.848954	3.27741			0.624323	2.41197	0.739031	2.84992	0.862309	3.32732		
0.683501	2.62382	0.514504	1.9749	0.683331	2.62392	0.726943	2.79874	0.850697	3.27237			0.626119	2.41023	0.741007	2.84732	0.863673	3.32065		
0.685626	2.6226	0.516455	1.97533	0.685457	2.6227	0.728846	2.79604	0.852441	3.26737			0.627916	2.40851	0.742984	2.84473	0.865043	3.31404		
0.687743	2.62136	0.518405	1.97575	0.687575	2.62146	0.730757	2.79338	0.854187	3.26241			0.629714	2.40681	0.744962	2.84216	0.866418	3.30751		
0.689853	2.6201	0.520355	1.97616	0.689685	2.6202	0.732677	2.79079	0.855934	3.25749			0.631513	2.40512	0.74694	2.83961	0.867798	3.30103		
0.691954	2.61881	0.522304	1.97657	0.691787	2.61891	0.734607	2.78824	0.857682	3.25261			0.633314	2.40345	0.748919	2.83709	0.869183	3.29463		
0.694048	2.6175	0.524252	1.97697	0.693881	2.61761	0.736546	2.78575	0.859431	3.24777			0.635115	2.40179	0.750897	2.83458	0.870574	3.28829		
0.696134	2.61618	0.5262	1.97737	0.695968	2.61628	0.738494	2.78331	0.861181	3.24296			0.636917	2.40015	0.752877	2.83209	0.87197	3.28201		
0.698211	2.61483	0.528147	1.97776	0.698046	2.61494	0.740452	2.78092	0.862933	3.2382			0.638721	2.39853	0.754856	2.82962	0.873371	3.2758		
0.700281	2.61346	0.530093	1.97814	0.700116	2.61357	0.742419	2.77859	0.864685	3.23347			0.640526	2.39692	0.756836	2.82716	0.874778	3.26965		
0.702343	2.61207	0.532038	1.97852	0.702179	2.61219	0.744395	2.7763	0.866439	3.22878			0.642332	2.39532	0.758815	2.82473	0.87619	3.26356		
0.704396	2.61067	0.533982	1.9789	0.704233	2.61078	0.746381	2.77407	0.868194	3.22412			0.644139	2.39374	0.760795	2.82231	0.877607	3.25753		
0.706442	2.60924	0.535926	1.97927	0.706279	2.60935	0.748377	2.77189	0.869949	3.2195			0.645947	2.39218	0.762775	2.81991	0.879029	3.25157		
0.708479	2.60779	0.537869	1.97963	0.708317	2.6079	0.750381	2.76976	0.871706	3.21492			0.647756	2.39063	0.764755	2.81752	0.880457	3.24566		
0.710509	2.60632	0.539812	1.97999	0.710347	2.60644	0.752396	2.76767	0.873463	3.21037			0.649567	2.3891	0.766735	2.81515	0.88189	3.23982		
0.71253	2.60483	0.541753	1.98035	0.71237	2.60495	0.754419	2.76564	0.875221	3.20585			0.651379	2.38758	0.768714	2.8128	0.883328	3.23403		
0.714544	2.60333	0.543694	1.9807	0.714384	2.60345	0.756452	2.76365	0.87698	3.20137			0.653192	2.38608	0.770693	2.81046	0.884772	3.2283		
0.71655	2.6018	0.545634	1.98104	0.71639	2.60193	0.758494	2.76171	0.87874	3.19692			0.655006	2.38459	0.772673	2.80814	0.886221	3.22264		
0.718548	2.60026	0.547574	1.98138	0.718389	2.60039	0.760546	2.75982	0.880501	3.19251			0.656821	2.38312	0.774651	2.80583	0.887675	3.21703		
0.720538	2.5987	0.549513	1.98171	0.72038	2.59883	0.762606	2.75797	0.882263	3.18812			0.658638	2.38166	0.77663	2.80353	0.889135	3.21147		
0.722521	2.59713	0.551451	1.98204	0.722363	2.59725	0.764676	2.75617	0.884025	3.18377			0.660456	2.38021	0.778608	2.80125	0.8906	3.20597		
0.724496	2.59554	0.553388	1.98237	0.724339	2.59566	0.766754	2.75441	0.885788	3.17945			0.662275	2.37878	0.780585	2.79898	0.892071	3.20053		
0.726464	2.59393	0.555325	1.98269	0.726308	2.59406	0.768841	2.7527	0.887551	3.17516			0.664096	2.37737	0.782562	2.79673	0.893546	3.19515		
0.728425	2.5923	0.557261	1.983	0.728269	2.59243	0.770938	2.75102	0.889316	3.17091			0.665918	2.37596	0.784539	2.79449	0.895028	3.18982		
0.730378	2.59067	0.559196	1.98332	0.730223	2.5908	0.773042	2.74939	0.891081	3.16668			0.667741	2.37457	0.786515	2.79226	0.896514	3.18454		
0.732325	2.58901	0.561131	1.98362	0.73217	2.58915	0.775155	2.7478	0.892846	3.16248			0.669565	2.3732	0.78849	2.79004	0.898006	3.17932		
0.734264	2.58735	0.563065	1.98392	0.73411	2.58748	0.777277	2.74625	0.894612	3.15832			0.671391	2.37184	0.790464	2.78784	0.899504	3.17415		
0.736197	2.58567	0.564998	1.98422	0.736043	2.58581	0.779407	2.74474	0.896379	3.15418			0.673218	2.37049	0.792438	2.78565	0.901006	3.16904		
0.738123	2.58398	0.56693	1.98452	0.73797	2.58412	0.781545	2.74327	0.898146	3.15007			0.675047	2.36916	0.794411	2.78347	0.902515	3.16397		
0.740043	2.58228	0.568862	1.9848	0.73989	2.58241	0.78369	2.74184	0.899914	3.14599			0.676876	2.36784	0.796383	2.7813	0.904028	3.15896		
0.741957	2.58057	0.570793	1.98509	0.741804	2.5807	0.785844	2.74044	0.901682	3.14194			0.678707	2.36653	0.798354	2.77914	0.905548	3.154		
0.743864	2.57884	0.572724	1.98537	0.743712	2.57898	0.788005	2.73907	0.90345	3.13791			0.68054	2.36523	0.800324	2.77699	0.907072	3.14909		
0.745765	2.57711	0.574653	1.98565	0.745614	2.57725	0.790173	2.73775	0.905219	3.13391			0.682373	2.36395	0.802293	2.77485	0.908602	3.14423		
0.747661	2.57537	0.576583	1.98592	0.74751	2.57551	0.792349	2.73645	0.906989	3.12994			0.684208	2.36268	0.804261	2.77272	0.910138	3.13942		
0.749551	2.57362	0.578511	1.98619	0.7494	2.57376	0.794532	2.73519	0.908759	3.126			0.686045	2.36143	0.806228	2.7706	0.911679	3.13467		
0.751435	2.57186	0.580439	1.98645	0.751285	2.572	0.796722	2.73396	0.910529	3.12208			0.687883	2.36018	0.808194	2.7685	0.913225	3.12996		
0.753314	2.5701	0.582366	1.98671	0.753165	2.57024	0.798919	2.73276	0.912299	3.11819			0.689722	2.35895	0.810159	2.7664	0.914777	3.12529		
0.755188	2.56833	0.584292	1.98697	0.755039	2.56847	0.801122	2.73159	0.91407	3.11433			0.691562	2.35773	0.812122	2.76431	0.916334	3.12068		
0.757057	2.56655	0.586218	1.98722	0.756908	2.56669	0.803331	2.73045	0.915842	3.11049			0.693404	2.35653	0.814084	2.76223	0.917897	3.11612		
0.758921	2.56477	0.588143	1.98747	0.758773	2.56491	0.805547	2.72934	0.917613	3.10668			0.695247	2.35533	0.816045	2.76015	0.919465	3.1116		
0.760781	2.56298	0.590068	1.98772	0.760633	2.56313	0.807769	2.72825	0.919385	3.10289			0.697092	2.35415	0.818005	2.75809	0.921039	3.10713		
0.762636	2.56119	0.591992	1.98796	0.762488	2.56134	0.809997	2.7272	0.921157	3.09912			0.698938	2.35298	0.819963	2.75603	0.922618	3.1027		
0.764486	2.5594	0.593915	1.98819	0.764339	2.55954	0.812231	2.72617	0.922929	3.09538			0.700785	2.35183	0.821919	2.75399	0.924203	3.09832		
0.766333	2.55761	0.595837	1.98843	0.766186	2.55775	0.81447	2.72516	0.924701	3.09167			0.702634	2.35068	0.823875	2.75195	0.925793	3.09399		
0.768175	2.55581	0.597759	1.98866	0.768029	2.55595	0.816715	2.72418	0.926474	3.08797			0.704484	2.34955	0.825829	2.74991	0.927388	3.0897		
0.770014	2.55401	0.599681	1.98889	0.769868	2.55415	0.818964	2.72322	0.928247	3.0843			0.706335	2.34842	0.827781	2.74789	0.92899	3.08546		
0.771849	2.55221	0.601601	1.98911	0.771703	2.55235	0.821219	2.72228	0.93002	3.08066			0.708188	2.34731	0.829731	2.74587	0.930596	3.08126		
0.77368	2.5504	0.603521	1.98933	0.773534	2.55055	0.823479	2.72137	0.931793	3.07704			0.710042	2.34621	0.831681	2.74386	0.932208	3.07711		
0.775508	2.5486	0.605441	1.98955	0.775362	2.54875	0.825744	2.72048	0.933566	3.07344			0.711898	2.34512	0.833628	2.74186	0.933826	3.073		
0.777333	2.5468	0.60736	1.98976	0.777187	2.54694	0.828013	2.71961	0.93534	3.06986			0.713755	2.34405	0.835574	2.73986	0.935449	3.06893		
0.779154	2.545	0.609278	1.98997	0.779009	2.54514	0.830287	2.71875	0.937113	3.0663			0.715613	2.34298	0.837518	2.73787	0.937077	3.0649		
0.780973	2.5432	0.611195	1.99018	0.780828	2.54334	0.832565	2.71792	0.938887	3.06277			0.717473	2.34192	0.83946	2.73589	0.938711	3.06092		
0.782788	2.5414	0.613112	1.99038	0.782644	2.54155	0.834847	2.71711	0.940661	3.05926			0.719334	2.34088	0.841401	2.73391	0.940351	3.05698		
0.784601	2.53961	0.615029	1.99058	0.784457	2.53975	0.837133	2.71631	0.942434	3.05577			0.721196	2.33985	0.84334	2.73194	0.941996	3.05308		
0.786411	2.53781	0.616945	1.99078	0.786267	2.53795	0.839423	2.71553	0.944208	3.0523			0.72306	2.33882	0.845277	2.72998	0.943646	3.04922		
0.788219	2.53602	0.61886	1.99097	0.788075	2.53616	0.841717	2.71477	0.945982	3.04885			0.724925	2.33781	0.847212	2.72802	0.945302	3.0454		
0.790024	2.53423	0.620774	1.99117	0.789881	2.53438	0.844015	2.71403	0.947756	3.04542			0.726791	2.33681	0.849145	2.72607	0.946963	3.04162		
0.791828	2.53245	0.622689	1.99135	0.791684	2.53259	0.846316	2.7133	0.94953	3.04201			0.728659	2.33582	0.851077	2.72412	0.94863	3.03789		
0.793629	2.53067	0.624602	1.99154	0.793485	2.53081	0.84862	2.71258	0.951304	3.03863			0.730528	2.33484	0.853007	2.72218	0.950302	3.03419		
0.795428	2.52889	0.626515	1.99172	0.795284	2.52903	0.850928	2.71188	0.953078	3.03526			0.732399	2.33386	0.854934	2.72024	0.95198	3.03053		
0.797225	2.52712	0.628427	1.9919	0.797082	2.52726	0.853238	2.71119	0.954852	3.03191			0.734271	2.3329	0.85686	2.71831	0.953663	3.02691		
0.79902	2.52535	0.630339	1.99208	0.798877	2.52549	0.855552	2.71052	0.956626	3.02859			0.736144	2.33195	0.858784	2.71638	0.955351	3.02333		
0.800814	2.52359	0.63225	1.99225	0.800671	2.52373	0.857869	2.70986	0.9584	3.02528			0.738019	2.33101	0.860705	2.71446	0.957045	3.01978		
0.802606	2.52183	0.634161	1.99242	0.802463	2.52197	0.860188	2.70922	0.960174	3.02199			0.739895	2.33008	0.862625	2.71255	0.958744	3.01628		
0.804396	2.52008	0.636071	1.99259	0.804253	2.52022	0.86251	2.70858	0.961948	3.01872			0.741772	2.32916	0.864543	2.71064	0.960449	3.01281		
0.806185	2.51833	0.63798	1.99276	0.806042	2.51847	0.864835	2.70796	0.963722	3.01547			0.743651	2.32825	0.866458	2.70873	0.962158	3.00938		
0.807973	2.51659	0.639889	1.99292	0.80783	2.51673	0.867162	2.70735	0.965496	3.01224			0.745531	2.32734	0.868372	2.70683	0.963873	3.00598		
0.809759	2.51486	0.641798	1.99308	0.809617	2.515	0.869492	2.70675	0.96727	3.00903			0.747412	2.32645	0.870283	2.70493	0.965594	3.00262		
0.811544	2.51313	0.643705	1.99324	0.811402	2.51327	0.871824	2.70616	0.969044	3.00584			0.749295	2.32556	0.872193	2.70304	0.96732	2.9993		
0.813328	2.51141	0.645613	1.99339	0.813186	2.51155	0.874158	2.70558	0.970818	3.00266			0.751179	2.32469	0.8741	2.70115	0.969051	2.99601		
0.815111	2.5097	0.64752	1.99354	0.814969	2.50983	0.876494	2.70501	0.972592	2.99951			0.753064	2.32382	0.876006	2.69927	0.970787	2.99276		
0.816893	2.50799	0.649426	1.99369	0.816751	2.50812	0.878832	2.70445	0.974365	2.99637			0.754951	2.32297	0.877909	2.69739	0.972529	2.98954		
0.818675	2.50629	0.651332	1.99384	0.818533	2.50642	0.881172	2.7039	0.976139	2.99325			0.756839	2.32212	0.87981	2.69551	0.974275	2.98636		
0.820455	2.5046	0.653237	1.99399	0.820313	2.50473	0.883513	2.70335	0.977913	2.99014			0.758728	2.32128	0.881709	2.69364	0.976027	2.98321		
0.822235	2.50291	0.655141	1.99413	0.822093	2.50304	0.885857	2.70282	0.979687	2.98706			0.760619	2.32045	0.883605	2.69177	0.977784	2.98009		
0.824014	2.50123	0.657046	1.99427	0.823872	2.50136	0.888202	2.70229	0.98146	2.98399			0.762511	2.31963	0.8855	2.68991	0.979547	2.97701		
0.825792	2.49956	0.658949	1.99441	0.82565	2.49969	0.890549	2.70177	0.983234	2.98094			0.764404	2.31882	0.887393	2.68805	0.981314	2.97396		
0.82757	2.4979	0.660853	1.99454	0.827428	2.49803	0.892897	2.70126	0.985008	2.9779			0.766298	2.31801	0.889283	2.6862	0.983086	2.97094		
0.829347	2.49624	0.662755	1.99468	0.829206	2.49637	0.895247	2.70076	0.986781	2.97488			0.768194	2.31722	0.891171	2.68435	0.984864	2.96796		
0.831124	2.49459	0.664657	1.99481	0.830983	2.49473	0.897598	2.70026	0.988555	2.97188			0.770091	2.31643	0.893057	2.6825	0.986647	2.96501		
0.832901	2.49296	0.666559	1.99494	0.832759	2.49309	0.89995	2.69977	0.990329	2.9689			0.771989	2.31565	0.894941	2.68066	0.988434	2.96208		
0.834677	2.49132	0.66846	1.99507	0.834535	2.49145	0.902303	2.69928	0.992103	2.96593			0.773889	2.31488	0.896823	2.67882	0.990227	2.95919		
0.836453	2.4897	0.670361	1.99519	0.836311	2.48983	0.904658	2.69881	0.993876	2.96298			0.77579	2.31411	0.898702	2.67698	0.992024	2.95633		
0.838228	2.48809	0.672261	1.99531	0.838087	2.48821	0.907013	2.69833	0.99565	2.96005			0.777692	2.31336	0.90058	2.67515	0.993827	2.95351		
0.840004	2.48648	0.674161	1.99543	0.839862	2.48661	0.90937	2.69787	0.997424	2.95713			0.779595	2.31261	0.902455	2.67332	0.995634	2.95071		
0.841779	2.48488	0.676061	1.99555	0.841638	2.48501	0.911728	2.6974	0.999198	2.95423			0.7815	2.31187	0.904329	2.6715	0.997446	2.94794		
0.843554	2.48329	0.677959	1.99567	0.843413	2.48342	0.914086	2.69695	1.00097	2.95135			0.783406	2.31114	0.9062	2.66968	0.999263	2.9452		
0.84533	2.48171	0.679858	1.99578	0.845188	2.48184	0.916445	2.6965					0.785313	2.31042	0.908069	2.66786	1.00109	2.94249		
0.847105	2.48014	0.681756	1.9959	0.846963	2.48026	0.918805	2.69605					0.787221	2.3097	0.909935	2.66605				
0.84888	2.47858	0.683653	1.99601	0.848738	2.4787	0.921165	2.69561					0.789131	2.30899	0.9118	2.66424				
0.850655	2.47702	0.68555	1.99612	0.850514	2.47714	0.923527	2.69517					0.791042	2.30829	0.913663	2.66243				
0.85243	2.47547	0.687447	1.99622	0.852289	2.4756	0.925888	2.69473					0.792954	2.30759	0.915524	2.66063				
0.854206	2.47394	0.689343	1.99633	0.854064	2.47406	0.92825	2.6943					0.794867	2.30691	0.917382	2.65883				
0.855982	2.47241	0.691239	1.99643	0.85584	2.47253	0.930613	2.69387					0.796782	2.30623	0.919239	2.65704				
0.857757	2.47089	0.693134	1.99653	0.857616	2.47101	0.932976	2.69345					0.798697	2.30555	0.921093	2.65525				
0.859533	2.46938	0.695029	1.99663	0.859392	2.4695	0.935339	2.69303					0.800614	2.30489	0.922946	2.65346				
0.86131	2.46787	0.696924	1.99673	0.861168	2.46799	0.937703	2.69261					0.802532	2.30423	0.924796	2.65168				
0.863086	2.46638	0.698818	1.99683	0.862945	2.4665	0.940066	2.6922					0.804452	2.30358	0.926644	2.6499				
0.864863	2.46489	0.700711	1.99692	0.864722	2.46501	0.94243	2.69178					0.806372	2.30293	0.928491	2.64812				
0.86664	2.46342	0.702605	1.99702	0.866499	2.46354	0.944794	2.69137					0.808294	2.3023	0.930335	2.64635				
0.868418	2.46195	0.704497	1.99711	0.868276	2.46207	0.947158	2.69096					0.810216	2.30166	0.932178	2.64459				
0.870196	2.46049	0.70639	1.9972	0.870054	2.46061	0.949522	2.69056					0.81214	2.30104	0.934019	2.64282				
0.871974	2.45904	0.708282	1.99728	0.871833	2.45916	0.951885	2.69015					0.814065	2.30042	0.935857	2.64106				
0.873753	2.4576	0.710174	1.99737	0.873612	2.45772	0.954249	2.68975					0.815992	2.29981	0.937694	2.63931				
0.875533	2.45617	0.712065	1.99746	0.875391	2.45628	0.956612	2.68935					0.817919	2.2992	0.939529	2.63755				
0.877312	2.45475	0.713956	1.99754	0.877171	2.45486	0.958975	2.68895					0.819847	2.2986	0.941363	2.63581				
0.879093	2.45333	0.715846	1.99762	0.878951	2.45345	0.961338	2.68855					0.821777	2.29801	0.943194	2.63406				
0.880874	2.45193	0.717736	1.9977	0.880732	2.45204	0.9637	2.68815					0.823708	2.29743	0.945024	2.63232				
0.882655	2.45053	0.719626	1.99778	0.882513	2.45064	0.966062	2.68776					0.82564	2.29684	0.946851	2.63059				
0.884437	2.44914	0.721516	1.99786	0.884295	2.44925	0.968424	2.68736					0.827573	2.29627	0.948677	2.62886				
0.886219	2.44776	0.723405	1.99794	0.886077	2.44787	0.970785	2.68697					0.829507	2.2957	0.950502	2.62713				
0.888003	2.44639	0.725293	1.99801	0.88786	2.4465	0.973145	2.68657					0.831442	2.29514	0.952324	2.62541				
0.889786	2.44503	0.727182	1.99808	0.889644	2.44514	0.975505	2.68618					0.833378	2.29458	0.954145	2.62369				
0.891571	2.44368	0.72907	1.99816	0.891428	2.44379	0.977863	2.68578					0.835315	2.29403	0.955965	2.62197				
0.893356	2.44233	0.730957	1.99823	0.893213	2.44244	0.980222	2.68538					0.837254	2.29349	0.957782	2.62026				
0.895141	2.441	0.732844	1.9983	0.894999	2.4411	0.982579	2.68499					0.839193	2.29295	0.959599	2.61856				
0.896928	2.43967	0.734731	1.99837	0.896785	2.43978	0.984935	2.68459					0.841134	2.29241	0.961413	2.61685				
0.898715	2.43835	0.736618	1.99843	0.898572	2.43846	0.98729	2.6842					0.843075	2.29189	0.963226	2.61516				
0.900502	2.43704	0.738504	1.9985	0.90036	2.43715	0.989645	2.6838					0.845018	2.29136	0.965038	2.61346				
0.902291	2.43574	0.74039	1.99856	0.902148	2.43584	0.991998	2.6834					0.846961	2.29085	0.966848	2.61178				
0.90408	2.43445	0.742276	1.99863	0.903937	2.43455	0.99435	2.683					0.848906	2.29033	0.968656	2.61009				
0.90587	2.43316	0.744161	1.99869	0.905727	2.43327	0.996701	2.6826					0.850852	2.28983	0.970463	2.60841				
0.907661	2.43189	0.746046	1.99875	0.907518	2.43199	0.99905	2.6822					0.852798	2.28933	0.972269	2.60674				
0.909452	2.43062	0.747931	1.99881	0.909309	2.43072	1.0014	2.68179					0.854746	2.28883	0.974073	2.60507				
0.911244	2.42936	0.749815	1.99887	0.911101	2.42946							0.856695	2.28834	0.975876	2.6034				
0.913037	2.42811	0.751699	1.99893	0.912894	2.42821							0.858645	2.28785	0.977678	2.60174				
0.914831	2.42687	0.753583	1.99898	0.914688	2.42697							0.860595	2.28737	0.979478	2.60009				
0.916625	2.42563	0.755466	1.99904	0.916482	2.42573							0.862547	2.2869	0.981277	2.59844				
0.918421	2.42441	0.757349	1.99909	0.918278	2.4245							0.8645	2.28643	0.983075	2.59679				
0.920217	2.42319	0.759232	1.99915	0.920074	2.42328							0.866454	2.28596	0.984872	2.59515				
0.922014	2.42198	0.761115	1.9992	0.921871	2.42207							0.868408	2.2855	0.986667	2.59351				
0.923812	2.42077	0.762997	1.99925	0.923668	2.42087							0.870364	2.28504	0.988462	2.59188				
0.92561	2.41958	0.764879	1.9993	0.925467	2.41968							0.872321	2.28459	0.990255	2.59026				
0.92741	2.41839	0.766761	1.99935	0.927266	2.41849							0.874278	2.28415	0.992047	2.58864				
0.92921	2.41722	0.768642	1.9994	0.929067	2.41731							0.876236	2.2837	0.993838	2.58702				
0.931011	2.41605	0.770524	1.99945	0.930868	2.41614							0.878196	2.28327	0.995628	2.58541				
0.932813	2.41488	0.772404	1.99949	0.93267	2.41498							0.880156	2.28283	0.997417	2.5838				
0.934616	2.41373	0.774285	1.99954	0.934473	2.41382							0.882117	2.2824	0.999205	2.5822				
0.93642	2.41258	0.776166	1.99958	0.936276	2.41267							0.88408	2.28198	1.00099	2.58061				
0.938225	2.41144	0.778046	1.99963	0.938081	2.41153							0.886043	2.28156						
0.94003	2.41031	0.779926	1.99967	0.939887	2.4104							0.888007	2.28115						
0.941837	2.40919	0.781805	1.99971	0.941693	2.40928							0.889972	2.28073						
0.943644	2.40807	0.783685	1.99976	0.9435	2.40816							0.891937	2.28033						
0.945453	2.40697	0.785564	1.9998	0.945308	2.40705							0.893904	2.27992						
0.947262	2.40586	0.787443	1.99984	0.947118	2.40595							0.895871	2.27953						
0.949072	2.40477	0.789321	1.99988	0.948928	2.40486							0.89784	2.27913						
0.950883	2.40369	0.7912	1.99991	0.950738	2.40377							0.899809	2.27874						
0.952695	2.40261	0.793078	1.99995	0.95255	2.40269							0.901779	2.27835						
0.954507	2.40154	0.794956	1.99999	0.954363	2.40162							0.90375	2.27797						
0.956321	2.40047	0.796834	2.00002	0.956177	2.40056							0.905722	2.27759						
0.958136	2.39942	0.798711	2.00006	0.957991	2.3995							0.907695	2.27722						
0.959951	2.39837	0.800589	2.00009	0.959807	2.39845							0.909668	2.27685						
0.961768	2.39732	0.802466	2.00013	0.961623	2.39741							0.911642	2.27648						
0.963585	2.39629	0.804343	2.00016	0.96344	2.39637							0.913618	2.27612						
0.965404	2.39526	0.806219	2.00019	0.965259	2.39534							0.915594	2.27576						
0.967223	2.39424	0.808096	2.00023	0.967078	2.39432							0.91757	2.2754						
0.969043	2.39323	0.809972	2.00026	0.968898	2.39331							0.919548	2.27505						
0.970864	2.39222	0.811848	2.00029	0.970719	2.3923							0.921526	2.2747						
0.972686	2.39122	0.813724	2.00032	0.972541	2.3913							0.923505	2.27435						
0.974509	2.39023	0.8156	2.00035	0.974364	2.39031							0.925485	2.27401						
0.976333	2.38924	0.817475	2.00038	0.976188	2.38932							0.927466	2.27367						
0.978158	2.38826	0.819351	2.0004	0.978013	2.38834							0.929447	2.27334						
0.979984	2.38729	0.821226	2.00043	0.979839	2.38737							0.93143	2.27301						
0.981811	2.38632	0.823101	2.00046	0.981665	2.3864							0.933413	2.27268						
0.983639	2.38536	0.824975	2.00049	0.983493	2.38544							0.935397	2.27236						
0.985468	2.38441	0.82685	2.00051	0.985322	2.38449							0.937381	2.27203						
0.987297	2.38347	0.828724	2.00054	0.987151	2.38354							0.939366	2.27172						
0.989128	2.38253	0.830598	2.00056	0.988982	2.3826							0.941352	2.2714						
0.990959	2.38159	0.832472	2.00059	0.990813	2.38167							0.943339	2.27109						
0.992792	2.38067	0.834346	2.00061	0.992646	2.38074							0.945326	2.27078						
0.994625	2.37975	0.83622	2.00063	0.994479	2.37982							0.947315	2.27048						
0.99646	2.37883	0.838094	2.00066	0.996314	2.37891							0.949304	2.27017						
0.998295	2.37793	0.839967	2.00068	0.998149	2.378							0.951293	2.26987						
1.00013	2.37702	0.84184	2.0007	0.999985	2.3771							0.953283	2.26958						
		0.843713	2.00072	1.00182	2.3762							0.955275	2.26928						
		0.845586	2.00074									0.957266	2.26899						
		0.847459	2.00076									0.959259	2.2687						
		0.849332	2.00078									0.961252	2.26842						
		0.851204	2.0008									0.963245	2.26814						
		0.853076	2.00082									0.96524	2.26786						
		0.854948	2.00084									0.967235	2.26758						
		0.85682	2.00086									0.969231	2.26731						
		0.858692	2.00088									0.971227	2.26704						
		0.860564	2.00089									0.973224	2.26677						
		0.862436	2.00091									0.975222	2.2665						
		0.864307	2.00093									0.97722	2.26624						
		0.866179	2.00094									0.979219	2.26598						
		0.86805	2.00096									0.981219	2.26572						
		0.869921	2.00098									0.983219	2.26547						
		0.871792	2.00099									0.98522	2.26522						
		0.873663	2.00101									0.987221	2.26497						
		0.875534	2.00102									0.989223	2.26472						
		0.877404	2.00104									0.991226	2.26447						
		0.879275	2.00105									0.993229	2.26423						
		0.881145	2.00106									0.995233	2.26399						
		0.883015	2.00108									0.997238	2.26375						
		0.884885	2.00109									0.999243	2.26352						
		0.886755	2.0011									1.00125	2.26328						
		0.888625	2.00111																
		0.890495	2.00113																
		0.892365	2.00114																
		0.894235	2.00115																
		0.896104	2.00116																
		0.897974	2.00117																
		0.899843	2.00118																
		0.901712	2.00119																
		0.903581	2.0012																
		0.90545	2.00121																
		0.907319	2.00122																
		0.909188	2.00123																
		0.911057	2.00124																
		0.912926	2.00125																
		0.914794	2.00126																
		0.916663	2.00127																
		0.918531	2.00128																
		0.9204	2.00129																
		0.922268	2.00129																
		0.924136	2.0013																
		0.926004	2.00131																
		0.927872	2.00132																
		0.92974	2.00132																
		0.931608	2.00133																
		0.933476	2.00134																
		0.935344	2.00135																
		0.937212	2.00135																
		0.939079	2.00136																
		0.940947	2.00136																
		0.942814	2.00137																
		0.944682	2.00138																
		0.946549	2.00138																
		0.948416	2.00139																
		0.950284	2.00139																
		0.952151	2.0014																
		0.954018	2.0014																
		0.955885	2.00141																
		0.957752	2.00141																
		0.959619	2.00142																
		0.961486	2.00142																
		0.963353	2.00143																
		0.96522	2.00143																
		0.967086	2.00144																
		0.968953	2.00144																
		0.97082	2.00144																
		0.972686	2.00145																
		0.974553	2.00145																
		0.976419	2.00145																
		0.978286	2.00146																
		0.980152	2.00146																
		0.982019	2.00147																
		0.983885	2.00147																
		0.985751	2.00147																
		0.987618	2.00147																
		0.989484	2.00148																
		0.99135	2.00148																
		0.993216	2.00148																
		0.995082	2.00149																
		0.996948	2.00149																
		0.998814	2.00149																
		1.00068	2.00149																
