Sym0		Asym0		Sym1		Sym2		Sym3		Sym4		Asym1		Asym2		Asym3		Asym4	
457  Points		540  Points		457  Points		406  Points		369  Points		280  Points		481  Points		421  Points		370  Points		280  Points	
Freq (MHz)	Vph (m/ms)	Freq (MHz)	Vph (m/ms)	Freq (MHz)	Vph (m/ms)	Freq (MHz)	Vph (m/ms)	Freq (MHz)	Vph (m/ms)	Freq (MHz)	Vph (m/ms)	Freq (MHz)	Vph (m/ms)	Freq (MHz)	Vph (m/ms)	Freq (MHz)	Vph (m/ms)	Freq (MHz)	Vph (m/ms)
0.279506	321.812	0.000242754	0.0960086	0.279507	366.798	0.3565	4449.11	0.559017	1834.72	0.838526	2326.15	0.139755	1218.5	0.419264	713.173	0.69877	1619.18	0.713001	4919.13
0.279499	155.257	0.000453938	0.13119	0.2795	165.022	0.356517	352.351	0.559024	452.145	0.83853	648.93	0.139796	133.598	0.419274	275.914	0.698759	512.567	0.713018	662.262
0.279488	102.304	0.000729843	0.166181	0.279489	106.456	0.356561	183.462	0.55904	257.85	0.838538	377.063	0.139903	70.7266	0.419292	171.051	0.698737	304.467	0.71306	355.051
0.279471	76.2827	0.00106968	0.200934	0.279473	78.5677	0.356633	124.037	0.559064	180.356	0.83855	265.737	0.140076	48.1398	0.419319	123.95	0.698703	216.542	0.713128	242.558
0.27945	60.8119	0.00147268	0.235432	0.279453	62.2556	0.356732	93.7065	0.559096	138.683	0.838566	205.166	0.140314	36.5262	0.419355	97.1929	0.69866	168.014	0.713221	184.213
0.279424	50.5561	0.00193761	0.269602	0.279427	51.5502	0.356859	75.3089	0.559136	112.657	0.838587	167.084	0.140617	29.4599	0.419399	79.9409	0.698606	137.25	0.713338	148.506
0.279394	43.2585	0.00246333	0.303417	0.279398	43.9845	0.357013	62.962	0.559185	94.8599	0.838612	140.928	0.140984	24.7129	0.419451	67.8937	0.698543	116.004	0.71348	124.405
0.27936	37.8004	0.00304853	0.336842	0.279364	38.3537	0.357195	54.1041	0.559243	81.9217	0.838641	121.854	0.141413	21.3082	0.419512	59.0052	0.698471	100.45	0.713644	107.044
0.279322	33.5639	0.0036917	0.369835	0.279327	33.9996	0.357404	47.4408	0.559309	72.0921	0.838675	107.329	0.141904	18.7499	0.419582	52.1774	0.69839	88.5707	0.713831	93.9436
0.27928	30.1801	0.00439142	0.402376	0.279285	30.5321	0.357639	42.2473	0.559383	64.3713	0.838713	95.8997	0.142455	16.7596	0.41966	46.7685	0.698303	79.2013	0.71404	83.7073
0.279235	27.415	0.00514611	0.434439	0.27924	27.7052	0.357902	38.0865	0.559466	58.1466	0.838755	86.6713	0.143066	15.1687	0.419747	42.378	0.69821	71.6222	0.714269	75.489
0.279186	25.113	0.00595396	0.465987	0.279192	25.3565	0.35819	34.6788	0.559557	53.0218	0.838801	79.0641	0.143734	13.8694	0.419843	38.7433	0.698111	65.3649	0.714519	68.7461
0.279135	23.1669	0.00681343	0.497011	0.279141	23.374	0.358505	31.8374	0.559656	48.7292	0.838852	72.6856	0.144457	12.7895	0.419947	35.6848	0.698007	60.1113	0.714787	63.1143
0.279081	21.4999	0.00772274	0.527492	0.279087	21.6783	0.358845	29.4324	0.559764	45.0815	0.838906	67.2604	0.145236	11.8785	0.420059	33.0757	0.697899	55.6379	0.715074	58.3402
0.279025	20.056	0.00868016	0.557415	0.279031	20.2112	0.35921	27.3708	0.559881	41.9436	0.838965	62.5897	0.146066	11.1006	0.42018	30.824	0.697788	51.7828	0.715379	54.2419
0.278967	18.7933	0.00968386	0.586762	0.278973	18.9296	0.359601	25.5843	0.560005	39.2158	0.839029	58.5264	0.146948	10.4292	0.42031	28.8609	0.697675	48.4262	0.715701	50.6857
0.278907	17.6796	0.0107322	0.615533	0.278914	17.8002	0.360017	24.0215	0.560139	36.8226	0.839096	54.9593	0.147879	9.84432	0.420449	27.1345	0.69756	45.4772	0.716039	47.5708
0.278846	16.69	0.0118234	0.643719	0.278853	16.7975	0.360457	22.6432	0.56028	34.7062	0.839168	51.8028	0.148858	9.33074	0.420595	25.6044	0.697444	42.8659	0.716392	44.82
0.278785	15.805	0.0129556	0.671313	0.278792	15.9014	0.36092	21.4188	0.56043	32.8213	0.839244	48.9898	0.149882	8.87655	0.420751	24.239	0.697327	40.5374	0.71676	42.3731
0.278723	15.0087	0.0141274	0.698316	0.27873	15.0957	0.361408	20.324	0.560588	31.1319	0.839324	46.4673	0.150951	8.47233	0.420915	23.0133	0.69721	38.4482	0.717143	40.1825
0.278661	14.2885	0.015337	0.72473	0.278668	14.3673	0.361919	19.3394	0.560755	29.6091	0.839409	44.1925	0.151916	8.1549	0.421088	21.9068	0.697094	36.5632	0.717539	38.21
0.278599	13.634	0.0165828	0.750553	0.278606	13.7058	0.362452	18.4494	0.56093	28.2296	0.839498	42.1306	0.152763	7.90663	0.421269	20.903	0.69698	34.8539	0.717948	36.4246
0.278538	13.0366	0.0178631	0.775789	0.278545	13.1023	0.363008	17.6411	0.561114	26.9741	0.839591	40.2531	0.153481	7.71522	0.421459	19.9884	0.696867	33.2969	0.71837	34.801
0.278479	12.4892	0.0191767	0.800449	0.278486	12.5495	0.363585	16.9038	0.561306	25.8266	0.839688	38.5364	0.154058	7.57199	0.421657	19.1515	0.696755	31.8727	0.718804	33.3182
0.278421	11.9858	0.0205219	0.824532	0.278428	12.0413	0.364185	16.2287	0.561506	24.7738	0.83979	36.9607	0.154488	7.47096	0.421864	18.383	0.696646	30.5651	0.719251	31.9587
0.278365	11.5213	0.0218973	0.848046	0.278372	11.5726	0.364805	15.6083	0.561715	23.8045	0.839895	35.5093	0.154766	7.4081	0.42208	17.6748	0.69654	29.3602	0.719708	30.7078
0.278312	11.0914	0.0233016	0.871006	0.278318	11.1389	0.365446	15.0363	0.561932	22.9091	0.840006	34.168	0.155169	7.32012	0.422304	17.0202	0.696438	28.2466	0.720177	29.553
0.278262	10.6924	0.0247335	0.893415	0.278267	10.7365	0.366108	14.5074	0.562158	22.0797	0.84012	32.9249	0.155611	7.22753	0.422536	16.4132	0.696338	27.2142	0.720656	28.4836
0.278215	10.3211	0.0261917	0.915284	0.27822	10.3622	0.366789	14.0169	0.562392	21.3091	0.840239	31.7695	0.15622	7.10643	0.422778	15.849	0.696242	26.2544	0.721147	27.4907
0.278171	9.9747	0.027675	0.936623	0.278176	10.0131	0.36749	13.5609	0.562634	20.5913	0.840361	30.6929	0.157002	6.96077	0.423028	15.3232	0.69615	25.36	0.721647	26.5662
0.278132	9.65086	0.0291823	0.957446	0.278136	9.68681	0.36821	13.1358	0.562885	19.9212	0.840489	29.6874	0.157964	6.79493	0.423286	14.832	0.696062	24.5244	0.722157	25.7034
0.278097	9.34746	0.0307125	0.977761	0.278101	9.38117	0.368948	12.7387	0.563144	19.2942	0.84062	28.746	0.159116	6.6135	0.423553	14.3721	0.695979	23.7421	0.722677	24.8963
0.278067	9.06264	0.0322644	0.997578	0.27807	9.09432	0.369705	12.367	0.563412	18.7062	0.840756	27.8629	0.160467	6.42102	0.423829	13.9408	0.6959	23.0081	0.723207	24.1397
0.278042	8.79478	0.0338372	1.01691	0.278045	8.82459	0.370479	12.0184	0.563688	18.1538	0.840895	27.0329	0.161849	6.24353	0.424113	13.5353	0.695825	22.3182	0.723745	23.4291
0.278023	8.54243	0.0354298	1.03577	0.278025	8.57054	0.371271	11.6907	0.563972	17.6339	0.84104	26.2512	0.163259	6.07943	0.424406	13.1535	0.695756	21.6684	0.724293	22.7604
0.27801	8.3043	0.0370413	1.05417	0.278011	8.33084	0.37208	11.3823	0.564265	17.1436	0.841188	25.5139	0.164697	5.92732	0.424707	12.7935	0.695692	21.0555	0.72485	22.1299
0.278003	8.07925	0.038671	1.07213	0.278005	8.13277	0.372905	11.0914	0.564566	16.6806	0.841341	24.8172	0.166161	5.786	0.425018	12.4533	0.695633	20.4763	0.725416	21.5347
0.278003	7.86626	0.0403179	1.08964	0.278003	7.97132	0.373747	10.8167	0.564876	16.2426	0.841498	24.1579	0.16765	5.6544	0.425336	12.1315	0.695579	19.9282	0.72599	20.9717
0.278011	7.66441	0.0419812	1.10672	0.278004	7.84265	0.374605	10.5569	0.565193	15.8277	0.841659	23.5331	0.169163	5.53161	0.425663	11.8265	0.695531	19.4087	0.726573	20.4384
0.278025	7.47286	0.0436603	1.1234	0.278007	7.74388	0.375478	10.3107	0.56552	15.4342	0.841825	22.9401	0.170698	5.41679	0.425999	11.5372	0.695488	18.9158	0.727164	19.9327
0.278047	7.29088	0.0453544	1.13967	0.27801	7.67285	0.376367	10.0773	0.565854	15.0603	0.841994	22.3766	0.172256	5.30924	0.426344	11.2623	0.695451	18.4473	0.727764	19.4523
0.278078	7.11778	0.0470628	1.15554	0.278013	7.62809	0.37727	9.85564	0.566197	14.7048	0.842168	21.8405	0.173834	5.20831	0.426697	11.0009	0.69542	18.0016	0.728371	18.9955
0.278116	6.95296	0.0487849	1.17104	0.278017	7.56467	0.378188	9.64487	0.566549	14.3663	0.842347	21.3297	0.175432	5.11344	0.427058	10.752	0.695394	17.577	0.728987	18.5606
0.278164	6.79585	0.0505202	1.18616	0.278023	7.49694	0.37912	9.44424	0.566908	14.0437	0.842529	20.8426	0.177048	5.02413	0.427429	10.5147	0.695375	17.1721	0.72961	18.146
0.27822	6.64596	0.0522678	1.20092	0.278032	7.40681	0.380066	9.25304	0.567276	13.7357	0.842716	20.3776	0.178683	4.93991	0.427808	10.2882	0.695361	16.7856	0.730242	17.7504
0.278286	6.5028	0.0540274	1.21534	0.278047	7.29596	0.381026	9.07065	0.567653	13.4416	0.842907	19.9331	0.180334	4.86038	0.428195	10.0718	0.695353	16.4162	0.730881	17.3725
0.278362	6.36597	0.0557985	1.22941	0.278068	7.16638	0.381998	8.89649	0.568037	13.1604	0.843103	19.5079	0.182003	4.78517	0.428591	9.86495	0.695352	16.0628	0.731527	17.0111
0.278447	6.23507	0.0575804	1.24315	0.278099	7.02028	0.382984	8.73001	0.568431	12.8912	0.843302	19.1008	0.183686	4.71397	0.428996	9.66695	0.695357	15.7245	0.732182	16.6653
0.278542	6.10974	0.0593728	1.25657	0.278143	6.86004	0.383982	8.57074	0.568832	12.6334	0.843506	18.7106	0.185385	4.64646	0.429409	9.4773	0.695368	15.4003	0.732843	16.3339
0.278648	5.98966	0.0611752	1.26968	0.278196	6.70722	0.384992	8.41823	0.569242	12.3862	0.843715	18.3362	0.187098	4.58238	0.429831	9.29547	0.695385	15.0893	0.733512	16.0163
0.278765	5.87451	0.0629872	1.28249	0.278258	6.56133	0.386015	8.27207	0.56966	12.149	0.843927	17.9768	0.188824	4.52149	0.430262	9.121	0.695409	14.7908	0.734189	15.7114
0.278893	5.76403	0.0648083	1.295	0.278329	6.42192	0.386916	8.14958	0.570087	11.9212	0.844144	17.6315	0.190563	4.46355	0.430701	8.95347	0.695439	14.504	0.734872	15.4186
0.279031	5.65795	0.0666381	1.30723	0.27841	6.28861	0.38769	8.04856	0.570522	11.7023	0.844365	17.2995	0.192315	4.40837	0.431149	8.79249	0.695475	14.2283	0.735563	15.1372
0.279182	5.55603	0.0684764	1.31918	0.278502	6.16101	0.388336	7.9673	0.570965	11.4918	0.844591	16.98	0.194078	4.35577	0.431605	8.63768	0.695518	13.963	0.736261	14.8665
0.279344	5.45806	0.0703227	1.33086	0.278603	6.03879	0.388849	7.90444	0.571416	11.2892	0.84482	16.6723	0.195853	4.30557	0.43207	8.4887	0.695568	13.7076	0.736966	14.606
0.279518	5.36381	0.0721767	1.34228	0.278715	5.92164	0.389228	7.85899	0.571876	11.0941	0.845054	16.3758	0.197638	4.25761	0.432544	8.34525	0.695623	13.4616	0.737678	14.355
0.279704	5.2731	0.0740381	1.35345	0.278838	5.80926	0.389472	7.83023	0.572344	10.906	0.845292	16.09	0.199434	4.21176	0.432964	8.22452	0.695686	13.2243	0.738397	14.1131
0.279902	5.18576	0.0759065	1.36436	0.278973	5.70139	0.389822	7.78934	0.572821	10.7247	0.845535	15.8141	0.201239	4.16788	0.433327	8.1246	0.695755	12.9955	0.739122	13.8798
0.280113	5.10161	0.0777818	1.37504	0.279118	5.59777	0.390205	7.74549	0.573306	10.5498	0.845782	15.5478	0.203054	4.12585	0.43363	8.04398	0.695831	12.7746	0.739855	13.6547
0.280337	5.0205	0.0796635	1.38549	0.279275	5.49819	0.390728	7.68681	0.573799	10.3809	0.846033	15.2905	0.204877	4.08556	0.433873	7.98148	0.695913	12.5612	0.740594	13.4373
0.280574	4.94228	0.0815515	1.39571	0.279444	5.40242	0.391392	7.61416	0.5743	10.2177	0.846288	15.0419	0.20671	4.04691	0.434053	7.9362	0.696002	12.3551	0.741341	13.2272
0.280824	4.86681	0.0834454	1.40571	0.279625	5.31027	0.392201	7.52852	0.57481	10.06	0.846548	14.8014	0.20855	4.0098	0.434168	7.90752	0.696097	12.1557	0.742093	13.0241
0.281088	4.79397	0.0853452	1.41549	0.279818	5.22155	0.393157	7.43106	0.575328	9.90753	0.846812	14.5687	0.210398	3.97414	0.434335	7.8667	0.696199	11.9629	0.742853	12.8277
0.281366	4.72365	0.0872504	1.42507	0.280024	5.1361	0.394263	7.32302	0.575855	9.76	0.84708	14.3434	0.212254	3.93986	0.434517	7.82286	0.696308	11.7762	0.743619	12.6376
0.281657	4.65571	0.0891609	1.43445	0.280243	5.05374	0.39538	7.21883	0.576389	9.6172	0.847353	14.1251	0.214117	3.90687	0.434767	7.7641	0.696424	11.5955	0.744392	12.4536
0.281962	4.59007	0.0910765	1.44363	0.280474	4.97434	0.396506	7.1183	0.576932	9.47891	0.84763	13.9137	0.215986	3.8751	0.435086	7.69119	0.696546	11.4203	0.745171	12.2753
0.282282	4.52662	0.0929969	1.45262	0.280719	4.89775	0.397641	7.02125	0.577484	9.34492	0.847911	13.7086	0.217862	3.8445	0.435477	7.60504	0.696675	11.2506	0.745956	12.1024
0.282616	4.46526	0.0949221	1.46142	0.280977	4.82384	0.398786	6.92749	0.578043	9.21504	0.848196	13.5097	0.219745	3.81499	0.43594	7.5067	0.696811	11.086	0.746748	11.9349
0.282965	4.40591	0.0968516	1.47004	0.281249	4.75249	0.39994	6.83688	0.578611	9.08909	0.848486	13.3167	0.221633	3.78653	0.43648	7.39733	0.696954	10.9263	0.747547	11.7723
0.283328	4.34849	0.0987856	1.47849	0.281534	4.68358	0.401102	6.74925	0.579187	8.9669	0.84878	13.1294	0.223527	3.75905	0.437029	7.2915	0.697103	10.7713	0.748351	11.6146
0.283707	4.29292	0.100724	1.48676	0.281834	4.617	0.402273	6.66448	0.579771	8.84832	0.849078	12.9474	0.225426	3.7325	0.437587	7.18905	0.697259	10.6208	0.749162	11.4615
0.284101	4.23912	0.102666	1.49487	0.282148	4.55265	0.403453	6.58241	0.580364	8.73319	0.849381	12.7706	0.22733	3.70685	0.438153	7.08983	0.697422	10.4746	0.749979	11.3127
0.28451	4.18702	0.104612	1.50282	0.282476	4.49044	0.40464	6.50294	0.580965	8.62136	0.849688	12.5987	0.22924	3.68205	0.438728	6.99369	0.697591	10.3326	0.750803	11.1682
0.284936	4.13656	0.106561	1.51061	0.282818	4.43027	0.405836	6.42594	0.581574	8.5127	0.849999	12.4316	0.231154	3.65805	0.439311	6.90051	0.697768	10.1945	0.751633	11.0277
0.285377	4.08767	0.108515	1.51824	0.283176	4.37206	0.407039	6.3513	0.582112	8.4205	0.850315	12.269	0.233072	3.63482	0.439904	6.81015	0.697951	10.0603	0.752468	10.8911
0.285834	4.0403	0.110471	1.52573	0.283548	4.31573	0.408251	6.27892	0.582575	8.34366	0.850635	12.1108	0.234995	3.61232	0.440504	6.72249	0.69814	9.92965	0.75331	10.7582
0.286245	4.00021	0.112431	1.53307	0.283936	4.2612	0.409469	6.20869	0.582961	8.28132	0.850959	11.9568	0.236922	3.59051	0.441114	6.63741	0.698337	9.80255	0.754158	10.6289
0.286606	3.96689	0.114394	1.54027	0.284339	4.2084	0.410695	6.14053	0.583269	8.23276	0.851288	11.8069	0.238853	3.56938	0.441732	6.55482	0.698541	9.67882	0.755012	10.503
0.286912	3.9399	0.116107	1.54643	0.284758	4.15727	0.411928	6.07435	0.583497	8.19748	0.85162	11.6608	0.240787	3.54887	0.442359	6.47461	0.698751	9.55834	0.755872	10.3804
0.287158	3.91893	0.117569	1.5516	0.285192	4.10774	0.413169	6.01007	0.583643	8.17507	0.851958	11.5185	0.242725	3.52898	0.442995	6.39668	0.698968	9.44099	0.756738	10.261
0.287341	3.9037	0.118779	1.55582	0.285642	4.05975	0.414416	5.9476	0.583854	8.14311	0.852299	11.3798	0.244667	3.50966	0.443639	6.32095	0.699192	9.32664	0.75761	10.1447
0.287459	3.89404	0.119737	1.55912	0.286109	4.01324	0.415669	5.88688	0.584084	8.10869	0.852645	11.2445	0.246611	3.4909	0.444292	6.24732	0.699422	9.21519	0.758488	10.0313
0.287631	3.88028	0.120442	1.56153	0.286592	3.96816	0.41693	5.82783	0.584399	8.06241	0.852995	11.1126	0.248559	3.47267	0.444954	6.17572	0.69966	9.10653	0.759372	9.92073
0.28782	3.86548	0.120893	1.56306	0.287092	3.92445	0.418196	5.77039	0.5848	8.00473	0.853349	10.9839	0.250509	3.45494	0.445624	6.10606	0.699904	9.00056	0.760261	9.81291
0.288081	3.8456	0.121542	1.56525	0.287609	3.88207	0.419469	5.71449	0.585289	7.93624	0.853708	10.8583	0.252462	3.43771	0.446303	6.03828	0.700155	8.89719	0.761156	9.70772
0.288416	3.82089	0.122247	1.56762	0.288142	3.84097	0.420749	5.66007	0.585868	7.85759	0.854071	10.7357	0.254418	3.42094	0.446991	5.97231	0.700412	8.79632	0.762057	9.60508
0.28883	3.79161	0.123207	1.57082	0.288694	3.80111	0.422034	5.60708	0.586541	7.76953	0.854438	10.616	0.256376	3.40462	0.447688	5.90806	0.700677	8.69787	0.762964	9.50489
0.289329	3.7581	0.124422	1.57481	0.289262	3.76245	0.423325	5.55547	0.587221	7.68371	0.85481	10.499	0.258337	3.38872	0.448393	5.8455	0.700913	8.61398	0.763877	9.40707
0.289917	3.72072	0.125892	1.57959	0.289849	3.72494	0.424621	5.50517	0.58791	7.60008	0.855186	10.3848	0.260299	3.37324	0.449107	5.78455	0.701118	8.54383	0.764795	9.31154
0.290524	3.68445	0.127619	1.5851	0.290454	3.68854	0.425923	5.45615	0.588608	7.51853	0.855567	10.2732	0.262264	3.35816	0.44983	5.72515	0.70129	8.48674	0.765718	9.21821
0.29115	3.64926	0.129602	1.59132	0.291077	3.65323	0.427231	5.40835	0.589313	7.43901	0.855951	10.1641	0.264231	3.34345	0.450561	5.66726	0.701429	8.44218	0.766648	9.12703
0.291794	3.61512	0.131588	1.59743	0.291719	3.61897	0.428544	5.36174	0.590026	7.36144	0.85634	10.0575	0.266199	3.32911	0.451301	5.61081	0.701531	8.40973	0.767583	9.03791
0.292457	3.58199	0.133576	1.60343	0.29238	3.58572	0.429863	5.31626	0.590748	7.28575	0.856734	9.95317	0.268169	3.31512	0.45205	5.55577	0.701597	8.38911	0.768523	8.95079
0.293139	3.54984	0.135566	1.60932	0.29306	3.55346	0.431186	5.27188	0.591478	7.21188	0.857131	9.85117	0.270141	3.30147	0.452808	5.50208	0.701693	8.35965	0.769469	8.86561
0.293841	3.51864	0.137558	1.6151	0.29376	3.52216	0.432514	5.22856	0.592216	7.13977	0.857533	9.75137	0.272114	3.28815	0.453574	5.4497	0.701798	8.32789	0.77042	8.78229
0.294563	3.48837	0.139552	1.62078	0.29448	3.49178	0.433848	5.18627	0.592962	7.06936	0.85794	9.65371	0.274089	3.27513	0.454349	5.39858	0.701942	8.28511	0.771254	8.71117
0.295306	3.459	0.141547	1.62636	0.29522	3.46231	0.435186	5.14496	0.593716	7.00059	0.85835	9.55813	0.276064	3.26242	0.455133	5.34868	0.702126	8.23167	0.771968	8.6516
0.296069	3.4305	0.143545	1.63184	0.295981	3.43371	0.436529	5.10461	0.594479	6.93341	0.858765	9.46455	0.278041	3.25	0.455926	5.29997	0.702352	8.16805	0.77256	8.60306
0.296853	3.40285	0.145544	1.63723	0.296763	3.40597	0.437876	5.06518	0.595249	6.86777	0.859185	9.37293	0.280019	3.23786	0.456727	5.2524	0.702623	8.09476	0.77303	8.56513
0.297659	3.37603	0.147545	1.64252	0.297566	3.37906	0.439228	5.02664	0.596028	6.80362	0.859608	9.2832	0.281998	3.22599	0.457538	5.20593	0.702939	8.0124	0.773376	8.53749
0.298487	3.35002	0.149547	1.64772	0.298391	3.35295	0.440584	4.98896	0.596815	6.74091	0.860036	9.1953	0.283978	3.21438	0.458357	5.16055	0.703262	7.93185	0.773598	8.51991
0.299337	3.32479	0.151551	1.65283	0.299239	3.32764	0.441944	4.95212	0.597609	6.6796	0.860469	9.10918	0.285959	3.20302	0.459184	5.1162	0.703592	7.85304	0.773918	8.49479
0.30021	3.30033	0.153556	1.65786	0.300109	3.30309	0.443309	4.91609	0.598412	6.61964	0.860905	9.02479	0.28794	3.1919	0.460021	5.07286	0.703928	7.77594	0.774266	8.46768
0.301106	3.27663	0.155563	1.66279	0.301002	3.2793	0.444677	4.88084	0.599223	6.56099	0.861346	8.94208	0.289922	3.18102	0.460866	5.0305	0.704271	7.70047	0.77474	8.43115
0.302026	3.25365	0.157571	1.66765	0.301919	3.25624	0.44605	4.84634	0.600042	6.50361	0.861734	8.87133	0.291905	3.17036	0.461721	4.98908	0.704621	7.6266	0.775342	8.38547
0.30297	3.23139	0.15958	1.67242	0.302861	3.2339	0.447426	4.81258	0.60087	6.44747	0.862068	8.81198	0.293888	3.15992	0.462584	4.94859	0.704977	7.55428	0.776073	8.33101
0.303939	3.20982	0.16159	1.67712	0.303827	3.21225	0.448806	4.77953	0.601705	6.39252	0.862345	8.76354	0.295871	3.14969	0.463456	4.90899	0.70534	7.48346	0.776933	8.26818
0.304933	3.18894	0.163602	1.68173	0.304818	3.1913	0.45019	4.74716	0.602548	6.33873	0.862565	8.72565	0.297854	3.13967	0.464336	4.87025	0.70571	7.41409	0.777926	8.19746
0.305953	3.16874	0.165615	1.68627	0.305835	3.17101	0.451578	4.71547	0.603399	6.28608	0.862728	8.69802	0.299838	3.12984	0.465226	4.83236	0.706086	7.34614	0.778923	8.12817
0.306999	3.14918	0.167628	1.69074	0.306878	3.15139	0.452969	4.68442	0.604258	6.23452	0.862833	8.68044	0.301822	3.12021	0.466124	4.79528	0.706469	7.27956	0.779926	8.06027
0.308072	3.13028	0.169643	1.69513	0.307948	3.13241	0.454363	4.654	0.605126	6.18402	0.862983	8.6553	0.303806	3.11075	0.467031	4.759	0.706859	7.21432	0.780934	7.99372
0.309173	3.112	0.171659	1.69945	0.309046	3.11406	0.455761	4.62418	0.606001	6.13455	0.863147	8.62815	0.30579	3.10148	0.467947	4.72349	0.707255	7.15037	0.781947	7.92848
0.310301	3.09434	0.173676	1.7037	0.310171	3.09633	0.457162	4.59496	0.606884	6.08609	0.863372	8.59153	0.307774	3.09238	0.468872	4.68873	0.707658	7.08768	0.782965	7.8645
0.311459	3.07729	0.175693	1.70788	0.311325	3.07921	0.458566	4.56632	0.607775	6.03861	0.863657	8.54569	0.309758	3.08345	0.469805	4.6547	0.708067	7.02621	0.783988	7.80177
0.312645	3.06083	0.177712	1.712	0.312507	3.06268	0.459974	4.53823	0.608674	5.99207	0.864003	8.49097	0.311741	3.07467	0.470748	4.62138	0.708483	6.96594	0.785016	7.74023
0.31386	3.04495	0.179731	1.71605	0.31372	3.04674	0.461384	4.51068	0.609581	5.94646	0.864413	8.42776	0.313724	3.06606	0.471699	4.58875	0.708906	6.90682	0.786049	7.67987
0.315106	3.02965	0.181751	1.72003	0.314962	3.03137	0.462798	4.48366	0.610496	5.90175	0.864888	8.35648	0.315707	3.0576	0.47266	4.55679	0.709335	6.84883	0.787087	7.62064
0.316382	3.01491	0.183772	1.72396	0.316234	3.01657	0.464214	4.45715	0.611419	5.85791	0.865367	8.28651	0.31769	3.04928	0.473629	4.52548	0.709771	6.79194	0.78813	7.56252
0.317688	3.00072	0.185793	1.72782	0.317537	3.00232	0.465633	4.43114	0.61235	5.81492	0.86585	8.21782	0.319672	3.04111	0.474607	4.49481	0.710213	6.73612	0.789178	7.50547
0.319026	2.98707	0.187815	1.73162	0.318872	2.98861	0.467055	4.40561	0.613288	5.77276	0.866338	8.15037	0.321653	3.03308	0.475593	4.46476	0.710661	6.68133	0.790231	7.44948
0.320396	2.97395	0.189838	1.73536	0.320238	2.97543	0.46848	4.38055	0.614235	5.7314	0.866829	8.08414	0.323634	3.02518	0.476589	4.43531	0.711117	6.62755	0.791288	7.3945
0.321797	2.96135	0.191861	1.73905	0.321635	2.96276	0.469908	4.35595	0.615189	5.69083	0.867326	8.01909	0.325614	3.01741	0.477594	4.40646	0.711578	6.57477	0.79235	7.34052
0.32323	2.94925	0.193885	1.74267	0.323065	2.95061	0.471337	4.33179	0.616151	5.65103	0.867826	7.95519	0.327593	3.00976	0.478607	4.37817	0.712046	6.52294	0.793417	7.2875
0.324695	2.93765	0.195909	1.74625	0.324526	2.93895	0.47277	4.30807	0.617121	5.61197	0.868331	7.89242	0.329572	3.00224	0.47963	4.35045	0.712521	6.47205	0.794489	7.23543
0.326193	2.92653	0.197934	1.74976	0.32602	2.92777	0.474205	4.28477	0.618099	5.57364	0.868841	7.83073	0.33155	2.99484	0.480661	4.32327	0.713002	6.42207	0.795566	7.18427
0.327722	2.91587	0.19996	1.75323	0.327546	2.91707	0.475642	4.26187	0.619085	5.53601	0.869354	7.77011	0.333526	2.98755	0.481701	4.29662	0.713489	6.37298	0.796647	7.13401
0.329284	2.90568	0.201985	1.75664	0.329104	2.90682	0.477082	4.23938	0.620078	5.49908	0.869872	7.71054	0.335502	2.98038	0.48275	4.27048	0.713983	6.32475	0.797733	7.08463
0.330877	2.89593	0.204012	1.76	0.330693	2.89702	0.478524	4.21728	0.621079	5.46282	0.870395	7.65197	0.337477	2.97331	0.483808	4.24486	0.714484	6.27738	0.798823	7.03609
0.332501	2.88661	0.206038	1.76331	0.332314	2.88765	0.479968	4.19556	0.622088	5.42722	0.870922	7.5944	0.339451	2.96636	0.484875	4.21972	0.71499	6.23082	0.799918	6.98839
0.334157	2.87771	0.208065	1.76657	0.333966	2.87871	0.481414	4.1742	0.623104	5.39226	0.871453	7.53779	0.341424	2.9595	0.485951	4.19507	0.715503	6.18508	0.801018	6.94149
0.335844	2.86921	0.210092	1.76978	0.335649	2.87016	0.482863	4.15321	0.624128	5.35792	0.871988	7.48213	0.343395	2.95274	0.487036	4.17089	0.716023	6.14011	0.802122	6.89539
0.33756	2.8611	0.21212	1.77295	0.337362	2.86201	0.484313	4.13257	0.62516	5.32419	0.872528	7.42738	0.345366	2.94608	0.488129	4.14717	0.716549	6.09592	0.80323	6.85005
0.339306	2.85337	0.214148	1.77606	0.339105	2.85423	0.485766	4.11227	0.6262	5.29106	0.873072	7.37353	0.347335	2.93952	0.489232	4.12389	0.717081	6.05247	0.804343	6.80547
0.341081	2.84599	0.216176	1.77914	0.340877	2.84682	0.487221	4.09231	0.627247	5.25851	0.873621	7.32056	0.349302	2.93304	0.490343	4.10105	0.717619	6.00976	0.805461	6.76162
0.342884	2.83897	0.218204	1.78216	0.342677	2.83976	0.488677	4.07267	0.628301	5.22653	0.874174	7.26845	0.351269	2.92666	0.491464	4.07864	0.718164	5.96776	0.806582	6.71849
0.344715	2.83228	0.220232	1.78515	0.344504	2.83303	0.490135	4.05335	0.629364	5.19511	0.874731	7.21718	0.353234	2.92036	0.492593	4.05664	0.718715	5.92645	0.807709	6.67606
0.346572	2.8259	0.222261	1.78809	0.346358	2.82662	0.491596	4.03434	0.630434	5.16422	0.875293	7.16672	0.355197	2.91415	0.493731	4.03506	0.719273	5.88583	0.808839	6.63432
0.348454	2.81983	0.22429	1.79099	0.348238	2.82051	0.493058	4.01564	0.631511	5.13386	0.875859	7.11706	0.357159	2.90801	0.494879	4.01387	0.719836	5.84587	0.809974	6.59324
0.350362	2.81405	0.226319	1.79384	0.350143	2.8147	0.494521	3.99723	0.632596	5.10402	0.876429	7.06818	0.35912	2.90196	0.496035	3.99307	0.720406	5.80657	0.811113	6.55282
0.352294	2.80855	0.228348	1.79666	0.352072	2.80916	0.495987	3.97911	0.633688	5.07469	0.877004	7.02007	0.361079	2.89599	0.4972	3.97265	0.720982	5.7679	0.812257	6.51303
0.354248	2.80331	0.230377	1.79943	0.354024	2.8039	0.497454	3.96127	0.634788	5.04585	0.877583	6.97271	0.363036	2.89009	0.498373	3.95261	0.721565	5.72985	0.813404	6.47387
0.356225	2.79832	0.232406	1.80217	0.355998	2.79888	0.498923	3.94371	0.635895	5.01749	0.878167	6.92607	0.364991	2.88427	0.499556	3.93293	0.722154	5.69241	0.814556	6.43531
0.358223	2.79357	0.234436	1.80486	0.357993	2.7941	0.500393	3.92641	0.63701	4.98961	0.878755	6.88015	0.366945	2.87851	0.500748	3.9136	0.722748	5.65556	0.815712	6.39736
0.360241	2.78904	0.236465	1.80752	0.360009	2.78955	0.501865	3.90938	0.638132	4.96218	0.879347	6.83493	0.368897	2.87283	0.501949	3.89463	0.723349	5.6193	0.816872	6.35998
0.362279	2.78473	0.238495	1.81014	0.362045	2.78522	0.503338	3.89261	0.639262	4.93521	0.879944	6.79039	0.370848	2.86721	0.503158	3.87599	0.723957	5.5836	0.818036	6.32318
0.364335	2.78062	0.240524	1.81273	0.364099	2.78108	0.504813	3.87609	0.640399	4.90868	0.880545	6.74652	0.372796	2.86167	0.504377	3.85769	0.72457	5.54846	0.819205	6.28693
0.366409	2.77671	0.242553	1.81528	0.366171	2.77715	0.50629	3.85981	0.641543	4.88258	0.88115	6.70331	0.374743	2.85618	0.505604	3.83972	0.72519	5.51387	0.820377	6.25123
0.368499	2.77297	0.244583	1.81779	0.36826	2.77339	0.507768	3.84377	0.642694	4.8569	0.88176	6.66074	0.376688	2.85076	0.50684	3.82206	0.725815	5.4798	0.821553	6.21607
0.370606	2.76941	0.246612	1.82027	0.370364	2.76981	0.509247	3.82797	0.643853	4.83164	0.882374	6.6188	0.37863	2.8454	0.508085	3.80472	0.726447	5.44626	0.822734	6.18142
0.372728	2.76601	0.248641	1.82271	0.372485	2.76639	0.510728	3.8124	0.645019	4.80678	0.882992	6.57747	0.380571	2.8401	0.509339	3.78768	0.727085	5.41324	0.823918	6.14729
0.374864	2.76276	0.250671	1.82512	0.374619	2.76312	0.51221	3.79706	0.646192	4.78232	0.883615	6.53674	0.38251	2.83486	0.510602	3.77095	0.727729	5.38071	0.825106	6.11365
0.377014	2.75966	0.2527	1.8275	0.376768	2.76	0.513693	3.78193	0.647372	4.75825	0.884243	6.4966	0.384447	2.82967	0.511873	3.7545	0.728379	5.34867	0.826298	6.08051
0.379178	2.75669	0.254729	1.82984	0.37893	2.75702	0.515177	3.76702	0.648559	4.73455	0.884874	6.45704	0.386382	2.82454	0.513154	3.73835	0.729035	5.31711	0.827494	6.04785
0.381353	2.75385	0.256757	1.83215	0.381104	2.75417	0.516663	3.75233	0.649754	4.71123	0.88551	6.41805	0.388314	2.81947	0.514443	3.72247	0.729697	5.28602	0.828694	6.01565
0.38354	2.75114	0.258786	1.83443	0.38329	2.75144	0.51815	3.73783	0.650955	4.68827	0.886151	6.37961	0.390245	2.81445	0.515741	3.70688	0.730365	5.25539	0.829898	5.98392
0.385739	2.74854	0.260815	1.83668	0.385487	2.74883	0.519639	3.72354	0.652164	4.66567	0.886795	6.34172	0.392173	2.80948	0.517048	3.69155	0.73104	5.22521	0.831105	5.95264
0.387948	2.74605	0.262843	1.8389	0.387695	2.74633	0.521128	3.70945	0.65338	4.64341	0.887444	6.30435	0.394099	2.80456	0.518364	3.67649	0.73172	5.19547	0.832316	5.92179
0.390167	2.74366	0.264871	1.84109	0.389913	2.74393	0.522619	3.69556	0.654602	4.6215	0.888098	6.26751	0.396024	2.79969	0.519688	3.66168	0.732406	5.16617	0.833531	5.89138
0.392395	2.74137	0.266899	1.84325	0.39214	2.74163	0.524111	3.68185	0.655832	4.59992	0.888756	6.23119	0.397945	2.79486	0.521021	3.64713	0.733098	5.13729	0.83475	5.8614
0.394632	2.73917	0.268927	1.84538	0.394376	2.73942	0.525604	3.66833	0.657068	4.57867	0.889418	6.19536	0.399865	2.79009	0.522363	3.63283	0.733796	5.10883	0.835972	5.83183
0.396878	2.73706	0.270955	1.84748	0.396621	2.7373	0.527099	3.65499	0.658312	4.55775	0.890085	6.16003	0.401782	2.78536	0.523714	3.61878	0.734501	5.08077	0.837198	5.80267
0.399132	2.73503	0.272982	1.84956	0.398874	2.73526	0.528594	3.64183	0.659562	4.53714	0.890756	6.12517	0.403697	2.78067	0.525073	3.60496	0.735211	5.05312	0.838427	5.7739
0.401394	2.73308	0.275009	1.8516	0.401135	2.7333	0.53009	3.62885	0.660819	4.51683	0.891431	6.0908	0.40561	2.77603	0.526441	3.59138	0.735927	5.02585	0.83966	5.74553
0.403663	2.7312	0.277036	1.85362	0.403403	2.73141	0.531588	3.61604	0.662082	4.49683	0.892111	6.05688	0.40752	2.77144	0.527818	3.57803	0.736648	4.99898	0.840897	5.71754
0.405938	2.72939	0.279063	1.85561	0.405678	2.72959	0.533087	3.6034	0.663353	4.47713	0.892795	6.02343	0.409428	2.76688	0.529203	3.56491	0.737376	4.97248	0.842137	5.68993
0.40822	2.72765	0.281089	1.85758	0.407959	2.72784	0.534587	3.59092	0.66463	4.45772	0.893484	5.99042	0.411334	2.76237	0.530597	3.552	0.73811	4.94635	0.843381	5.66268
0.410508	2.72597	0.283115	1.85952	0.410246	2.72615	0.536087	3.5786	0.665914	4.43859	0.894177	5.95785	0.413238	2.75789	0.531999	3.53932	0.738849	4.92058	0.844628	5.6358
0.412802	2.72434	0.285141	1.86143	0.41254	2.72453	0.537589	3.56645	0.667204	4.41975	0.894874	5.92571	0.415139	2.75346	0.53341	3.52684	0.739595	4.89517	0.845878	5.60927
0.415102	2.72278	0.287166	1.86332	0.414839	2.72295	0.539092	3.55445	0.668501	4.40118	0.895576	5.89399	0.417037	2.74907	0.53483	3.51458	0.740346	4.87011	0.847132	5.58309
0.417407	2.72126	0.289191	1.86518	0.417143	2.72143	0.540596	3.5426	0.669805	4.38288	0.896282	5.86269	0.418933	2.74471	0.536258	3.50252	0.741103	4.84539	0.84839	5.55725
0.419716	2.7198	0.291216	1.86702	0.419452	2.71997	0.542102	3.53091	0.671115	4.36484	0.896992	5.8318	0.420827	2.74039	0.537695	3.49066	0.741866	4.82101	0.84965	5.53175
0.42203	2.71839	0.29324	1.86884	0.421766	2.71855	0.543608	3.51936	0.672431	4.34706	0.897707	5.8013	0.422719	2.7361	0.53914	3.479	0.742634	4.79696	0.850914	5.50658
0.424349	2.71702	0.295264	1.87063	0.424084	2.71717	0.545115	3.50796	0.673754	4.32953	0.898426	5.7712	0.424608	2.73186	0.540593	3.46753	0.743409	4.77324	0.852181	5.48173
0.426672	2.71569	0.297288	1.8724	0.426406	2.71584	0.546623	3.4967	0.675084	4.31226	0.89915	5.74149	0.426494	2.72764	0.542055	3.45625	0.744189	4.74983	0.853452	5.4572
0.428999	2.7144	0.299311	1.87415	0.428733	2.71455	0.548133	3.48558	0.676419	4.29523	0.899878	5.71215	0.428379	2.72347	0.543525	3.44516	0.744975	4.72674	0.854726	5.43297
0.43133	2.71316	0.301334	1.87587	0.431063	2.7133	0.549643	3.4746	0.677761	4.27844	0.90061	5.68319	0.43026	2.71932	0.545003	3.43425	0.745766	4.70396	0.856002	5.40906
0.433664	2.71194	0.303357	1.87757	0.433397	2.71208	0.551154	3.46376	0.67911	4.26188	0.901347	5.6546	0.43214	2.71521	0.54649	3.42352	0.746564	4.68148	0.857283	5.38544
0.436002	2.71077	0.305379	1.87925	0.435734	2.7109	0.552667	3.45304	0.680464	4.24556	0.902088	5.62636	0.434017	2.71113	0.547985	3.41296	0.747367	4.65929	0.858566	5.36212
0.438342	2.70963	0.3074	1.8809	0.438075	2.70975	0.55418	3.44246	0.681825	4.22946	0.902834	5.59848	0.435891	2.70709	0.549488	3.40258	0.748176	4.6374	0.859852	5.33908
0.440686	2.70851	0.309422	1.88254	0.440418	2.70864	0.555695	3.432	0.683191	4.21359	0.903584	5.57094	0.437763	2.70308	0.550999	3.39236	0.74899	4.61579	0.861142	5.31633
0.443033	2.70743	0.311442	1.88415	0.442764	2.70756	0.557211	3.42168	0.684564	4.19793	0.904338	5.54375	0.439633	2.69909	0.552518	3.38232	0.74981	4.59446	0.862434	5.29386
0.445382	2.70638	0.313463	1.88575	0.445113	2.7065	0.558727	3.41147	0.685943	4.18249	0.905097	5.51689	0.4415	2.69514	0.554046	3.37243	0.750636	4.57341	0.86373	5.27167
0.447734	2.70536	0.315483	1.88732	0.447465	2.70547	0.560245	3.40139	0.687328	4.16726	0.90586	5.49036	0.443365	2.69122	0.555581	3.36271	0.751468	4.55264	0.865028	5.24974
0.450088	2.70436	0.317502	1.88887	0.449819	2.70447	0.561764	3.39143	0.688719	4.15224	0.906627	5.46416	0.445228	2.68733	0.557124	3.35314	0.752305	4.53213	0.86633	5.22808
0.452444	2.70338	0.319521	1.89041	0.452175	2.70349	0.563284	3.38158	0.690116	4.13742	0.907399	5.43827	0.447088	2.68346	0.558676	3.34373	0.753147	4.51188	0.867634	5.20668
0.454803	2.70243	0.32154	1.89192	0.454533	2.70254	0.564805	3.37186	0.691518	4.1228	0.908176	5.4127	0.448946	2.67963	0.560235	3.33446	0.753996	4.49189	0.868942	5.18553
0.457163	2.7015	0.323558	1.89342	0.456893	2.7016	0.566327	3.36224	0.692927	4.10838	0.908956	5.38744	0.450802	2.67583	0.561802	3.32535	0.75485	4.47215	0.870252	5.16463
0.459526	2.70059	0.325575	1.89489	0.459256	2.70069	0.567851	3.35274	0.694341	4.09414	0.909741	5.36248	0.452655	2.67205	0.563376	3.31638	0.755709	4.45267	0.871565	5.14398
0.46189	2.6997	0.327592	1.89635	0.46162	2.6998	0.569375	3.34335	0.695761	4.0801	0.910531	5.33782	0.454506	2.6683	0.564959	3.30755	0.756574	4.43343	0.872881	5.12358
0.464256	2.69883	0.329609	1.89779	0.463985	2.69893	0.570901	3.33407	0.697187	4.06625	0.911324	5.31345	0.456354	2.66458	0.566549	3.29887	0.757445	4.41443	0.8742	5.10341
0.466623	2.69798	0.331625	1.89921	0.466352	2.69808	0.572428	3.32489	0.698618	4.05257	0.912123	5.28937	0.458201	2.66088	0.568146	3.29032	0.758321	4.39567	0.875522	5.08347
0.468992	2.69715	0.333641	1.90061	0.468721	2.69724	0.573956	3.31583	0.700055	4.03908	0.912925	5.26557	0.460045	2.65722	0.569751	3.28191	0.759203	4.37714	0.876846	5.06377
0.471362	2.69633	0.335656	1.90199	0.471091	2.69643	0.575485	3.30686	0.701497	4.02576	0.913732	5.24206	0.461887	2.65357	0.571364	3.27363	0.76009	4.35884	0.878173	5.04429
0.473733	2.69553	0.33767	1.90336	0.473462	2.69562	0.577016	3.298	0.702945	4.01261	0.914544	5.21882	0.463727	2.64996	0.572984	3.26548	0.760983	4.34077	0.879503	5.02504
0.476106	2.69474	0.339684	1.90471	0.475835	2.69483	0.578548	3.28924	0.704398	3.99964	0.915359	5.19585	0.465564	2.64637	0.574612	3.25746	0.761881	4.32292	0.880835	5.006
0.478479	2.69397	0.341698	1.90604	0.478208	2.69406	0.580081	3.28058	0.705857	3.98683	0.91618	5.17314	0.4674	2.64281	0.576246	3.24956	0.762785	4.30528	0.882171	4.98719
0.480854	2.69321	0.343711	1.90736	0.480582	2.6933	0.581615	3.27202	0.707321	3.97418	0.917004	5.1507	0.469233	2.63927	0.577888	3.24179	0.763694	4.28787	0.883508	4.96858
0.483229	2.69247	0.345723	1.90865	0.482958	2.69255	0.583151	3.26355	0.70879	3.9617	0.917833	5.12852	0.471064	2.63576	0.579537	3.23414	0.764609	4.27066	0.884849	4.95018
0.485605	2.69173	0.347735	1.90994	0.485334	2.69182	0.584688	3.25518	0.710265	3.94938	0.918666	5.10659	0.472893	2.63227	0.581194	3.2266	0.765529	4.25367	0.886192	4.93198
0.487982	2.69101	0.349746	1.9112	0.48771	2.69109	0.586226	3.2469	0.711745	3.93721	0.919504	5.08491	0.47472	2.62881	0.582857	3.21919	0.766455	4.23688	0.887537	4.91399
0.49036	2.6903	0.351756	1.91245	0.490088	2.69038	0.587766	3.23872	0.71323	3.92519	0.920346	5.06348	0.476546	2.62537	0.584527	3.21188	0.767386	4.22029	0.888885	4.8962
0.492738	2.6896	0.353766	1.91369	0.492466	2.68968	0.589307	3.23062	0.71472	3.91333	0.921193	5.04229	0.478369	2.62195	0.586204	3.20469	0.768322	4.2039	0.890236	4.8786
0.495116	2.68891	0.355776	1.91491	0.494844	2.68899	0.59085	3.22262	0.716215	3.90161	0.922044	5.02134	0.48019	2.61856	0.587888	3.19761	0.769264	4.1877	0.891588	4.86119
0.497495	2.68822	0.357785	1.91611	0.497223	2.6883	0.592394	3.21471	0.717715	3.89004	0.922899	5.00063	0.482009	2.6152	0.589579	3.19064	0.770211	4.1717	0.892944	4.84398
0.499875	2.68755	0.359793	1.9173	0.499603	2.68763	0.59394	3.20688	0.71922	3.87861	0.923759	4.98015	0.483827	2.61186	0.591276	3.18377	0.771164	4.15589	0.894302	4.82695
0.502254	2.68689	0.361801	1.91847	0.501982	2.68696	0.595487	3.19914	0.72073	3.86732	0.924623	4.95989	0.485642	2.60854	0.59298	3.17701	0.772122	4.14026	0.895662	4.8101
0.504634	2.68623	0.363808	1.91963	0.504362	2.6863	0.597036	3.19149	0.722245	3.85617	0.925491	4.93986	0.487456	2.60524	0.594691	3.17035	0.773086	4.12482	0.897024	4.79343
0.507014	2.68558	0.365814	1.92078	0.506742	2.68565	0.598587	3.18392	0.723764	3.84516	0.926364	4.92005	0.489268	2.60197	0.596408	3.16379	0.774054	4.10956	0.898389	4.77694
0.509394	2.68493	0.36782	1.92191	0.509122	2.68501	0.600139	3.17644	0.725289	3.83428	0.927241	4.90046	0.491078	2.59872	0.598131	3.15732	0.775029	4.09448	0.899756	4.76063
0.511774	2.6843	0.369825	1.92302	0.511502	2.68437	0.601693	3.16903	0.726818	3.82353	0.928123	4.88109	0.492887	2.5955	0.599861	3.15096	0.776008	4.07958	0.901125	4.74448
0.514154	2.68366	0.37183	1.92412	0.513882	2.68374	0.603248	3.16171	0.728352	3.81291	0.929009	4.86192	0.494694	2.59229	0.601597	3.14469	0.776993	4.06484	0.902497	4.72851
0.516533	2.68304	0.373834	1.92521	0.516261	2.68311	0.604805	3.15447	0.72989	3.80241	0.929899	4.84297	0.4965	2.58911	0.603339	3.13851	0.777983	4.05028	0.903871	4.7127
0.518913	2.68242	0.375837	1.92629	0.518641	2.68249	0.606365	3.14731	0.731433	3.79205	0.930794	4.82422	0.498303	2.58596	0.605087	3.13242	0.778979	4.03589	0.905247	4.69706
0.521292	2.6818	0.37784	1.92735	0.52102	2.68187	0.607925	3.14022	0.73298	3.7818	0.931694	4.80568	0.500106	2.58282	0.606841	3.12642	0.779979	4.02166	0.906625	4.68158
0.523671	2.68119	0.379842	1.92839	0.523399	2.68126	0.609488	3.13322	0.734532	3.77168	0.932597	4.78733	0.501907	2.57971	0.608602	3.12051	0.780985	4.0076	0.908006	4.66626
0.52605	2.68058	0.381843	1.92943	0.525778	2.68065	0.611053	3.12629	0.736088	3.76167	0.933505	4.76918	0.503706	2.57662	0.610368	3.11469	0.781997	3.99369	0.909388	4.65109
0.528428	2.67997	0.383844	1.93045	0.528156	2.68004	0.61262	3.11943	0.737649	3.75178	0.934418	4.75123	0.505504	2.57355	0.612139	3.10895	0.783014	3.97995	0.910773	4.63608
0.530806	2.67937	0.385844	1.93146	0.530534	2.67944	0.614188	3.11265	0.739214	3.74201	0.935335	4.73347	0.507301	2.5705	0.613917	3.10329	0.784036	3.96636	0.912159	4.62122
0.533183	2.67877	0.387844	1.93245	0.532911	2.67884	0.615759	3.10595	0.740783	3.73235	0.936256	4.71589	0.509096	2.56748	0.6157	3.09771	0.785063	3.95292	0.913548	4.60652
0.535559	2.67817	0.389842	1.93344	0.535287	2.67824	0.617332	3.09932	0.742356	3.7228	0.937182	4.69851	0.51089	2.56448	0.617489	3.09222	0.786095	3.93964	0.914939	4.59196
0.537935	2.67758	0.39184	1.93441	0.537663	2.67765	0.618907	3.09276	0.743934	3.71336	0.938112	4.6813	0.512683	2.5615	0.619283	3.0868	0.787133	3.92651	0.916332	4.57754
0.54031	2.67698	0.393838	1.93537	0.540038	2.67705	0.620484	3.08627	0.745516	3.70403	0.939046	4.66428	0.514475	2.55854	0.621082	3.08146	0.788176	3.91352	0.917726	4.56327
0.542684	2.67639	0.395835	1.93632	0.542412	2.67646	0.622064	3.07985	0.747101	3.69481	0.939985	4.64744	0.516265	2.5556	0.622887	3.07619	0.789224	3.90068	0.919123	4.54914
0.545057	2.6758	0.397831	1.93725	0.544785	2.67587	0.623645	3.07351	0.748691	3.68569	0.940928	4.63077	0.518055	2.55269	0.624697	3.071	0.790278	3.88798	0.920521	4.53515
0.547429	2.67521	0.399826	1.93817	0.547158	2.67528	0.62523	3.06723	0.750285	3.67667	0.941876	4.61428	0.519843	2.5498	0.626512	3.06588	0.791336	3.87543	0.921922	4.52129
0.5498	2.67462	0.401821	1.93908	0.549529	2.67469	0.626816	3.06102	0.751882	3.66775	0.942828	4.59795	0.521631	2.54692	0.628332	3.06084	0.7924	3.86301	0.923324	4.50758
0.55217	2.67403	0.403815	1.93998	0.551899	2.6741	0.628405	3.05488	0.753484	3.65893	0.943784	4.5818	0.523417	2.54407	0.630157	3.05586	0.793469	3.85073	0.924729	4.49399
0.554539	2.67344	0.405808	1.94087	0.554268	2.67351	0.629997	3.04881	0.755089	3.65021	0.944745	4.56581	0.525203	2.54125	0.631987	3.05095	0.794544	3.83859	0.926134	4.48054
0.556906	2.67285	0.407801	1.94175	0.556636	2.67291	0.631591	3.04281	0.756698	3.64159	0.945711	4.54999	0.526988	2.53844	0.633822	3.0461	0.795623	3.82658	0.927542	4.46721
0.559272	2.67225	0.409793	1.94262	0.559002	2.67232	0.633188	3.03687	0.75831	3.63306	0.94668	4.53433	0.528772	2.53565	0.635662	3.04133	0.796708	3.81471	0.928952	4.45401
0.561637	2.67166	0.411784	1.94347	0.561367	2.67173	0.634787	3.031	0.759927	3.62463	0.947655	4.51883	0.530555	2.53288	0.637506	3.03661	0.797798	3.80296	0.930363	4.44094
0.564001	2.67106	0.413774	1.94432	0.56373	2.67113	0.63639	3.02519	0.761547	3.61628	0.948633	4.50349	0.532337	2.53014	0.639355	3.03196	0.798893	3.79134	0.931776	4.42799
0.566362	2.67047	0.415764	1.94515	0.566092	2.67053	0.637995	3.01945	0.76317	3.60803	0.949616	4.4883	0.534119	2.52742	0.641208	3.02738	0.799993	3.77985	0.933191	4.41517
0.568723	2.66986	0.417753	1.94598	0.568453	2.66993	0.639603	3.01377	0.764797	3.59986	0.950603	4.47327	0.5359	2.52471	0.643065	3.02285	0.801098	3.76848	0.934607	4.40246
0.571081	2.66926	0.419742	1.94679	0.570811	2.66933	0.641215	3.00815	0.766428	3.59179	0.951595	4.45839	0.53768	2.52203	0.644927	3.01838	0.802209	3.75724	0.936025	4.38988
0.573438	2.66866	0.421729	1.94759	0.573168	2.66872	0.642829	3.0026	0.768061	3.5838	0.952591	4.44366	0.53946	2.51937	0.646793	3.01397	0.803325	3.74612	0.937445	4.37741
0.575793	2.66805	0.423716	1.94838	0.575523	2.66812	0.644446	2.99712	0.769699	3.57589	0.953592	4.42908	0.54124	2.51673	0.648664	3.00962	0.804446	3.73512	0.938866	4.36505
0.578145	2.66743	0.425702	1.94917	0.577876	2.6675	0.646067	2.99169	0.771339	3.56807	0.954597	4.41464	0.543018	2.51411	0.650538	3.00533	0.805572	3.72424	0.940289	4.35282
0.580496	2.66682	0.427688	1.94994	0.580228	2.66689	0.647691	2.98633	0.772983	3.56033	0.955607	4.40035	0.544797	2.51151	0.652416	3.00109	0.806703	3.71347	0.941714	4.34069
0.582845	2.66619	0.429673	1.9507	0.582576	2.66626	0.649318	2.98102	0.77463	3.55267	0.95662	4.3862	0.546575	2.50893	0.654299	2.9969	0.807839	3.70282	0.94314	4.32867
0.585191	2.66557	0.431657	1.95146	0.584923	2.66564	0.650949	2.97578	0.77628	3.54509	0.957639	4.37219	0.548353	2.50637	0.656185	2.99277	0.808981	3.69228	0.944567	4.31676
0.587536	2.66493	0.43364	1.9522	0.587268	2.66501	0.652584	2.9706	0.777934	3.53759	0.958661	4.35832	0.55013	2.50383	0.658074	2.98869	0.810128	3.68186	0.945996	4.30496
0.589878	2.6643	0.435623	1.95293	0.58961	2.66437	0.654222	2.96548	0.77959	3.53016	0.959689	4.34459	0.551907	2.50132	0.659968	2.98466	0.811279	3.67155	0.947427	4.29327
0.592217	2.66365	0.437605	1.95366	0.591949	2.66373	0.655864	2.96042	0.78125	3.52281	0.96072	4.33099	0.553685	2.49882	0.661865	2.98068	0.812436	3.66135	0.948859	4.28168
0.594554	2.66301	0.439586	1.95437	0.594287	2.66308	0.657509	2.95542	0.782912	3.51554	0.961756	4.31753	0.555461	2.49634	0.663765	2.97675	0.813599	3.65125	0.950292	4.2702
0.596888	2.66235	0.441566	1.95508	0.596621	2.66242	0.659159	2.95048	0.784577	3.50834	0.962796	4.3042	0.557238	2.49388	0.665669	2.97286	0.814766	3.64127	0.951727	4.25882
0.599219	2.66169	0.443546	1.95578	0.598953	2.66176	0.660813	2.9456	0.786246	3.50121	0.963841	4.291	0.559015	2.49144	0.667577	2.96903	0.815938	3.63139	0.953163	4.24753
0.601547	2.66102	0.445525	1.95647	0.601281	2.66109	0.662471	2.94077	0.787917	3.49416	0.964891	4.27792	0.560791	2.48903	0.669487	2.96524	0.817116	3.62161	0.954601	4.23635
0.603873	2.66034	0.447503	1.95715	0.603607	2.66042	0.664133	2.93601	0.789591	3.48717	0.965944	4.26498	0.562568	2.48663	0.671401	2.96149	0.818298	3.61194	0.95604	4.22527
0.606195	2.65965	0.44948	1.95782	0.60593	2.65973	0.665799	2.9313	0.791267	3.48026	0.967002	4.25216	0.564344	2.48425	0.673318	2.95779	0.819486	3.60236	0.95748	4.21428
0.608514	2.65896	0.451457	1.95848	0.608249	2.65904	0.66747	2.92665	0.792947	3.47341	0.968065	4.23946	0.566121	2.48189	0.675238	2.95414	0.820679	3.59289	0.958921	4.20339
0.61083	2.65826	0.453433	1.95913	0.610565	2.65834	0.669145	2.92206	0.794629	3.46663	0.969132	4.22689	0.567897	2.47955	0.677161	2.95052	0.821877	3.58352	0.960364	4.19259
0.613142	2.65754	0.455408	1.95978	0.612878	2.65763	0.670826	2.91753	0.796313	3.45992	0.970203	4.21443	0.569674	2.47723	0.679087	2.94695	0.82308	3.57425	0.961808	4.18188
0.615451	2.65682	0.457383	1.96041	0.615187	2.6569	0.672511	2.91305	0.798001	3.45327	0.971279	4.2021	0.571451	2.47493	0.681015	2.94342	0.824288	3.56507	0.963253	4.17127
0.617756	2.65609	0.459356	1.96104	0.617493	2.65617	0.674201	2.90864	0.799691	3.44669	0.972359	4.18988	0.573228	2.47265	0.682946	2.93993	0.825502	3.55599	0.9647	4.16074
0.620057	2.65535	0.461329	1.96166	0.619795	2.65543	0.675896	2.90428	0.801383	3.44017	0.973444	4.17779	0.575005	2.47039	0.68488	2.93648	0.82672	3.547	0.966148	4.15031
0.622355	2.65459	0.463302	1.96227	0.622092	2.65468	0.677596	2.89997	0.803078	3.43371	0.974533	4.1658	0.576783	2.46815	0.686817	2.93306	0.827944	3.53811	0.967596	4.13997
0.624648	2.65383	0.465273	1.96288	0.624386	2.65392	0.679301	2.89572	0.804775	3.42731	0.975627	4.15393	0.578561	2.46592	0.688756	2.92969	0.829173	3.52931	0.969046	4.12971
0.626937	2.65305	0.467244	1.96348	0.626676	2.65314	0.681012	2.89153	0.806474	3.42097	0.976724	4.14218	0.580339	2.46372	0.690697	2.92635	0.830406	3.5206	0.970498	4.11954
0.629222	2.65226	0.469214	1.96406	0.628961	2.65236	0.682729	2.8874	0.808176	3.4147	0.977827	4.13053	0.582118	2.46154	0.692641	2.92304	0.831645	3.51198	0.97195	4.10945
0.631502	2.65146	0.471183	1.96464	0.631242	2.65156	0.684451	2.88332	0.80988	3.40848	0.978934	4.119	0.583897	2.45937	0.694587	2.91978	0.83289	3.50345	0.973403	4.09944
0.633778	2.65065	0.473152	1.96522	0.633518	2.65074	0.686179	2.8793	0.811586	3.40232	0.980045	4.10757	0.585676	2.45722	0.696536	2.91654	0.834139	3.49501	0.974858	4.08952
0.636049	2.64982	0.475119	1.96578	0.63579	2.64992	0.687913	2.87533	0.813295	3.39622	0.981161	4.09625	0.587456	2.45509	0.698486	2.91334	0.835393	3.48665	0.976313	4.07968
0.638315	2.64898	0.477086	1.96634	0.638056	2.64908	0.689653	2.87143	0.815005	3.39017	0.982281	4.08504	0.589237	2.45298	0.700439	2.91018	0.836653	3.47838	0.97777	4.06992
0.640576	2.64813	0.479053	1.96689	0.640318	2.64822	0.691399	2.86757	0.816718	3.38418	0.983406	4.07393	0.591018	2.45089	0.702393	2.90705	0.837918	3.4702	0.979228	4.06025
0.642832	2.64726	0.481018	1.96744	0.642575	2.64736	0.693152	2.86378	0.818433	3.37824	0.984535	4.06293	0.592799	2.44882	0.704349	2.90395	0.839187	3.4621	0.980686	4.05065
0.645083	2.64637	0.482983	1.96797	0.644826	2.64647	0.694911	2.86004	0.82015	3.37236	0.985668	4.05202	0.594581	2.44676	0.706308	2.90088	0.840462	3.45408	0.982146	4.04112
0.647328	2.64547	0.484947	1.9685	0.647072	2.64557	0.696677	2.85635	0.821869	3.36653	0.986806	4.04122	0.596364	2.44472	0.708268	2.89784	0.841743	3.44615	0.983606	4.03168
0.649568	2.64455	0.48691	1.96903	0.649312	2.64466	0.69845	2.85272	0.823589	3.36075	0.987949	4.03052	0.598147	2.4427	0.71023	2.89483	0.843028	3.43829	0.985068	4.02231
0.651801	2.64362	0.488873	1.96954	0.651546	2.64373	0.70023	2.84915	0.825312	3.35503	0.989096	4.01992	0.599931	2.4407	0.712193	2.89185	0.844318	3.43052	0.98653	4.01301
0.654029	2.64267	0.490834	1.97005	0.653775	2.64278	0.702017	2.84563	0.827036	3.34935	0.990247	4.00942	0.601716	2.43872	0.714158	2.8889	0.845614	3.42283	0.987994	4.00379
0.656251	2.6417	0.492795	1.97055	0.655998	2.64181	0.703811	2.84217	0.828763	3.34373	0.991403	3.99901	0.603502	2.43676	0.716124	2.88598	0.846915	3.41521	0.989458	3.99464
0.658467	2.64072	0.494755	1.97105	0.658214	2.64083	0.705613	2.83877	0.830491	3.33815	0.992563	3.9887	0.605288	2.43481	0.718092	2.88308	0.848221	3.40768	0.990923	3.98557
0.660676	2.63971	0.496715	1.97154	0.660424	2.63983	0.707422	2.83542	0.832221	3.33262	0.993727	3.97849	0.607075	2.43288	0.720062	2.88022	0.849532	3.40022	0.992389	3.97656
0.662879	2.63869	0.498674	1.97202	0.662628	2.63881	0.709239	2.83213	0.833952	3.32714	0.994897	3.96836	0.608862	2.43097	0.722032	2.87738	0.850848	3.39283	0.993856	3.96763
0.665076	2.63765	0.500632	1.97249	0.664825	2.63777	0.711064	2.82889	0.835685	3.32171	0.99607	3.95834	0.610651	2.42907	0.724004	2.87456	0.85217	3.38553	0.995324	3.95876
0.667265	2.6366	0.502589	1.97296	0.667015	2.63672	0.712897	2.82571	0.83742	3.31632	0.997248	3.9484	0.61244	2.42719	0.725977	2.87177	0.853496	3.37829	0.996793	3.94997
0.669448	2.63552	0.504545	1.97342	0.669199	2.63564	0.714738	2.82258	0.839157	3.31098	0.998431	3.93855	0.61423	2.42533	0.727951	2.86901	0.854828	3.37113	0.998262	3.94124
0.671624	2.63442	0.506501	1.97388	0.671376	2.63455	0.716587	2.81951	0.840895	3.30569	0.999617	3.92879	0.616021	2.42349	0.729926	2.86627	0.856165	3.36404	0.999732	3.93258
0.673793	2.6333	0.508456	1.97433	0.673545	2.63343	0.718445	2.81649	0.842634	3.30044	1.00081	3.91912	0.617813	2.42166	0.731903	2.86355	0.857507	3.35703	1.0012	3.92398
0.675954	2.63217	0.510411	1.97478	0.675707	2.6323	0.720311	2.81353	0.844375	3.29523			0.619606	2.41985	0.73388	2.86086	0.858855	3.35008		
0.678108	2.63101	0.512364	1.97521	0.677862	2.63114	0.722186	2.81063	0.846118	3.29007			0.6214	2.41806	0.735857	2.85819	0.860208	3.34321		
0.680255	2.62983	0.514317	1.97565	0.68001	2.62997	0.724069	2.80778	0.847861	3.28495			0.623195	2.41628	0.737836	2.85554	0.861565	3.33641		
0.682394	2.62863	0.516269	1.97607	0.68215	2.62877	0.725962	2.80498	0.849607	3.27987			0.624991	2.41452	0.739816	2.85291	0.862929	3.32967		
0.684525	2.62741	0.51822	1.97649	0.684282	2.62755	0.727863	2.80224	0.851353	3.27484			0.626787	2.41278	0.741796	2.85031	0.864297	3.32301		
0.686649	2.62617	0.520171	1.97691	0.686407	2.62632	0.729774	2.79955	0.853101	3.26984			0.628585	2.41105	0.743776	2.84772	0.865671	3.31641		
0.688765	2.62491	0.522121	1.97732	0.688523	2.62506	0.731693	2.79692	0.85485	3.26489			0.630384	2.40934	0.745757	2.84516	0.867049	3.30988		
0.690873	2.62363	0.52407	1.97772	0.690632	2.62378	0.733622	2.79434	0.856601	3.25997			0.632184	2.40765	0.747739	2.84261	0.868434	3.30341		
0.692973	2.62233	0.526018	1.97812	0.692733	2.62248	0.73556	2.79181	0.858352	3.2551			0.633985	2.40597	0.749721	2.84009	0.869823	3.29701		
0.695065	2.621	0.527966	1.97851	0.694826	2.62116	0.737507	2.78934	0.860105	3.25026			0.635787	2.40431	0.751704	2.83758	0.871218	3.29068		
0.697149	2.61966	0.529913	1.9789	0.696911	2.61981	0.739464	2.78692	0.861859	3.24546			0.63759	2.40266	0.753686	2.8351	0.872618	3.28441		
0.699225	2.61829	0.531859	1.97928	0.698988	2.61845	0.74143	2.78455	0.863614	3.2407			0.639394	2.40103	0.755669	2.83263	0.874023	3.2782		
0.701293	2.61691	0.533805	1.97965	0.701057	2.61707	0.743405	2.78224	0.86537	3.23598			0.641199	2.39941	0.757652	2.83018	0.875433	3.27205		
0.703353	2.6155	0.53575	1.98003	0.703118	2.61566	0.74539	2.77997	0.867127	3.23129			0.643006	2.39781	0.759636	2.82775	0.876849	3.26597		
0.705405	2.61407	0.537694	1.98039	0.70517	2.61424	0.747385	2.77776	0.868885	3.22664			0.644813	2.39623	0.761619	2.82533	0.87827	3.25995		
0.707448	2.61263	0.539637	1.98075	0.707215	2.61279	0.749388	2.77559	0.870644	3.22202			0.646622	2.39466	0.763602	2.82293	0.879697	3.254		
0.709484	2.61116	0.54158	1.98111	0.709252	2.61133	0.751402	2.77348	0.872404	3.21744			0.648432	2.3931	0.765586	2.82055	0.881128	3.2481		
0.711512	2.60967	0.543522	1.98146	0.71128	2.60984	0.753424	2.77141	0.874165	3.2129			0.650243	2.39156	0.767569	2.81818	0.882566	3.24226		
0.713532	2.60817	0.545463	1.9818	0.713301	2.60834	0.755456	2.7694	0.875927	3.20838			0.652055	2.39004	0.769552	2.81583	0.884008	3.23648		
0.715543	2.60665	0.547403	1.98214	0.715314	2.60682	0.757498	2.76743	0.87769	3.20391			0.653869	2.38853	0.771535	2.81349	0.885456	3.23076		
0.717547	2.6051	0.549343	1.98248	0.717319	2.60528	0.759548	2.76551	0.879453	3.19946			0.655683	2.38704	0.773517	2.81117	0.886909	3.2251		
0.719544	2.60354	0.551282	1.98281	0.719316	2.60372	0.761608	2.76363	0.881217	3.19505			0.657499	2.38555	0.775499	2.80886	0.888367	3.2195		
0.721532	2.60197	0.553221	1.98314	0.721305	2.60215	0.763677	2.7618	0.882982	3.19067			0.659316	2.38409	0.777481	2.80657	0.889831	3.21395		
0.723513	2.60038	0.555158	1.98346	0.723287	2.60056	0.765755	2.76002	0.884748	3.18633			0.661135	2.38264	0.779463	2.80429	0.891301	3.20846		
0.725487	2.59877	0.557095	1.98378	0.725262	2.59895	0.767842	2.75828	0.886515	3.18201			0.662954	2.3812	0.781443	2.80203	0.892775	3.20302		
0.727453	2.59714	0.559032	1.98409	0.727229	2.59733	0.769937	2.75658	0.888282	3.17773			0.664775	2.37978	0.783424	2.79977	0.894255	3.19765		
0.729412	2.5955	0.560967	1.9844	0.729189	2.59569	0.772041	2.75492	0.89005	3.17347			0.666598	2.37837	0.785404	2.79753	0.895741	3.19232		
0.731364	2.59385	0.562902	1.9847	0.731141	2.59404	0.774154	2.75331	0.891818	3.16925			0.668421	2.37697	0.787383	2.79531	0.897231	3.18705		
0.733309	2.59218	0.564836	1.985	0.733087	2.59237	0.776275	2.75173	0.893587	3.16506			0.670246	2.37559	0.789361	2.79309	0.898728	3.18184		
0.735247	2.5905	0.56677	1.98529	0.735026	2.59069	0.778405	2.7502	0.895357	3.1609			0.672072	2.37422	0.791339	2.79089	0.900229	3.17667		
0.737179	2.58881	0.568703	1.98558	0.736958	2.589	0.780543	2.7487	0.897127	3.15676			0.673899	2.37287	0.793316	2.7887	0.901736	3.17157		
0.739103	2.5871	0.570635	1.98587	0.738884	2.5873	0.782688	2.74725	0.898898	3.15266			0.675728	2.37153	0.795292	2.78652	0.903249	3.16651		
0.741022	2.58539	0.572567	1.98615	0.740803	2.58558	0.784842	2.74582	0.90067	3.14858			0.677558	2.3702	0.797267	2.78435	0.904767	3.1615		
0.742934	2.58366	0.574497	1.98643	0.742716	2.58386	0.787003	2.74444	0.902441	3.14453			0.679389	2.36888	0.799241	2.78219	0.90629	3.15655		
0.744841	2.58192	0.576428	1.9867	0.744623	2.58212	0.789172	2.74309	0.904214	3.14051			0.681222	2.36758	0.801215	2.78004	0.907819	3.15165		
0.746741	2.58018	0.578357	1.98697	0.746524	2.58038	0.791348	2.74178	0.905986	3.13652			0.683056	2.36629	0.803187	2.77791	0.909353	3.1468		
0.748635	2.57842	0.580286	1.98724	0.748419	2.57862	0.793531	2.74049	0.907759	3.13256			0.684891	2.36502	0.805158	2.77578	0.910893	3.142		
0.750524	2.57666	0.582214	1.9875	0.750309	2.57686	0.795721	2.73924	0.909533	3.12862			0.686728	2.36375	0.807128	2.77366	0.912438	3.13724		
0.752408	2.57489	0.584142	1.98776	0.752193	2.57509	0.797918	2.73803	0.911307	3.1247			0.688565	2.3625	0.809097	2.77156	0.913989	3.13254		
0.754286	2.57312	0.586069	1.98801	0.754072	2.57332	0.800122	2.73684	0.913081	3.12082			0.690405	2.36127	0.811065	2.76946	0.915545	3.12789		
0.75616	2.57133	0.587995	1.98826	0.755946	2.57154	0.802333	2.73568	0.914856	3.11696			0.692245	2.36004	0.813031	2.76737	0.917107	3.12328		
0.758028	2.56955	0.589921	1.98851	0.757815	2.56975	0.804549	2.73455	0.91663	3.11312			0.694087	2.35883	0.814997	2.76529	0.918674	3.11872		
0.759891	2.56775	0.591846	1.98875	0.759679	2.56796	0.806772	2.73345	0.918406	3.10931			0.695931	2.35763	0.816961	2.76322	0.920247	3.11421		
0.76175	2.56596	0.59377	1.98899	0.761538	2.56616	0.809001	2.73238	0.920181	3.10553			0.697775	2.35644	0.818923	2.76115	0.921825	3.10975		
0.763605	2.56416	0.595694	1.98923	0.763393	2.56436	0.811235	2.73133	0.921957	3.10177			0.699621	2.35526	0.820884	2.7591	0.923409	3.10533		
0.765455	2.56235	0.597617	1.98946	0.765244	2.56256	0.813476	2.73031	0.923733	3.09803			0.701469	2.3541	0.822844	2.75705	0.924998	3.10096		
0.767302	2.56055	0.599539	1.98969	0.767091	2.56075	0.815721	2.72931	0.925509	3.09432			0.703317	2.35295	0.824802	2.75501	0.926593	3.09663		
0.769144	2.55874	0.601461	1.98991	0.768934	2.55895	0.817973	2.72834	0.927285	3.09063			0.705167	2.3518	0.826759	2.75298	0.928193	3.09235		
0.770982	2.55693	0.603382	1.99014	0.770772	2.55714	0.820229	2.72739	0.929062	3.08697			0.707019	2.35067	0.828714	2.75096	0.929798	3.08811		
0.772817	2.55512	0.605303	1.99036	0.772608	2.55533	0.82249	2.72646	0.930839	3.08333			0.708872	2.34956	0.830668	2.74894	0.931409	3.08392		
0.774649	2.55331	0.607223	1.99057	0.774439	2.55352	0.824756	2.72555	0.932615	3.07971			0.710726	2.34845	0.83262	2.74693	0.933026	3.07977		
0.776477	2.5515	0.609142	1.99078	0.776268	2.55171	0.827027	2.72467	0.934393	3.07611			0.712581	2.34735	0.83457	2.74493	0.934648	3.07567		
0.778301	2.54969	0.611061	1.99099	0.778093	2.5499	0.829302	2.7238	0.93617	3.07254			0.714438	2.34627	0.836518	2.74293	0.936276	3.07161		
0.780123	2.54788	0.612979	1.9912	0.779915	2.54809	0.831582	2.72296	0.937947	3.06899			0.716296	2.3452	0.838465	2.74094	0.937909	3.06759		
0.781942	2.54607	0.614897	1.9914	0.781734	2.54628	0.833866	2.72213	0.939724	3.06546			0.718156	2.34414	0.840411	2.73896	0.939547	3.06361		
0.783758	2.54427	0.616814	1.9916	0.78355	2.54447	0.836154	2.72132	0.941502	3.06195			0.720017	2.34308	0.842354	2.73698	0.941191	3.05968		
0.785571	2.54247	0.61873	1.99179	0.785364	2.54267	0.838446	2.72053	0.943279	3.05846			0.721879	2.34204	0.844296	2.73501	0.942841	3.05578		
0.787382	2.54066	0.620646	1.99199	0.787175	2.54087	0.840742	2.71976	0.945057	3.055			0.723743	2.34101	0.846235	2.73304	0.944496	3.05193		
0.78919	2.53887	0.622562	1.99218	0.788983	2.53907	0.843042	2.71901	0.946835	3.05155			0.725608	2.33999	0.848173	2.73108	0.946156	3.04812		
0.790996	2.53707	0.624476	1.99236	0.79079	2.53728	0.845345	2.71827	0.948613	3.04813			0.727474	2.33898	0.850109	2.72913	0.947822	3.04435		
0.7928	2.53528	0.62639	1.99255	0.792594	2.53549	0.847651	2.71754	0.95039	3.04473			0.729342	2.33799	0.852044	2.72718	0.949494	3.04062		
0.794601	2.53349	0.628304	1.99273	0.794395	2.5337	0.849961	2.71683	0.952168	3.04135			0.731211	2.337	0.853976	2.72524	0.95117	3.03693		
0.796401	2.53171	0.630217	1.99291	0.796195	2.53191	0.852274	2.71614	0.953946	3.03798			0.733081	2.33602	0.855906	2.7233	0.952853	3.03328		
0.798199	2.52993	0.632129	1.99308	0.797993	2.53014	0.85459	2.71545	0.955724	3.03464			0.734953	2.33505	0.857834	2.72137	0.95454	3.02966		
0.799995	2.52816	0.634041	1.99325	0.79979	2.52836	0.856909	2.71479	0.957502	3.03132			0.736826	2.33409	0.859761	2.71945	0.956233	3.02609		
0.801789	2.52639	0.635952	1.99342	0.801584	2.52659	0.859231	2.71413	0.95928	3.02802			0.738701	2.33315	0.861685	2.71752	0.957932	3.02255		
0.803582	2.52463	0.637863	1.99359	0.803377	2.52483	0.861555	2.71349	0.961058	3.02473			0.740576	2.33221	0.863607	2.71561	0.959636	3.01905		
0.805373	2.52287	0.639773	1.99376	0.805169	2.52307	0.863883	2.71286	0.962835	3.02147			0.742453	2.33128	0.865528	2.71369	0.961345	3.01559		
0.807163	2.52112	0.641683	1.99392	0.806959	2.52132	0.866212	2.71224	0.964613	3.01822			0.744332	2.33036	0.867446	2.71179	0.963059	3.01216		
0.808952	2.51938	0.643592	1.99408	0.808747	2.51958	0.868545	2.71163	0.966391	3.015			0.746212	2.32945	0.869362	2.70988	0.964779	3.00878		
0.810739	2.51764	0.645501	1.99423	0.810535	2.51784	0.870879	2.71103	0.968169	3.01179			0.748093	2.32855	0.871276	2.70799	0.966504	3.00542		
0.812525	2.5159	0.647409	1.99439	0.812321	2.5161	0.873216	2.71044	0.969947	3.0086			0.749975	2.32766	0.873188	2.70609	0.968235	3.00211		
0.81431	2.51418	0.649316	1.99454	0.814106	2.51438	0.875554	2.70987	0.971725	3.00543			0.751859	2.32678	0.875098	2.7042	0.969971	2.99883		
0.816095	2.51246	0.651223	1.99469	0.815891	2.51266	0.877895	2.7093	0.973502	3.00227			0.753744	2.3259	0.877005	2.70232	0.971712	2.99558		
0.817878	2.51075	0.65313	1.99483	0.817674	2.51094	0.880238	2.70874	0.97528	2.99914			0.75563	2.32504	0.878911	2.70044	0.973458	2.99237		
0.81966	2.50904	0.655036	1.99498	0.819456	2.50924	0.882583	2.70819	0.977058	2.99602			0.757518	2.32418	0.880814	2.69856	0.97521	2.98919		
0.821442	2.50735	0.656941	1.99512	0.821238	2.50754	0.884929	2.70765	0.978836	2.99292			0.759407	2.32334	0.882716	2.69669	0.976966	2.98605		
0.823222	2.50566	0.658846	1.99526	0.823019	2.50585	0.887277	2.70712	0.980613	2.98984			0.761297	2.3225	0.884615	2.69482	0.978728	2.98294		
0.825003	2.50397	0.660751	1.9954	0.824799	2.50417	0.889627	2.70659	0.982391	2.98678			0.763189	2.32167	0.886512	2.69295	0.980495	2.97986		
0.826782	2.5023	0.662655	1.99553	0.826579	2.50249	0.891978	2.70607	0.984169	2.98373			0.765082	2.32085	0.888407	2.69109	0.982268	2.97682		
0.828561	2.50063	0.664558	1.99567	0.828358	2.50082	0.894331	2.70556	0.985946	2.9807			0.766976	2.32004	0.890299	2.68924	0.984045	2.97381		
0.83034	2.49897	0.666461	1.9958	0.830137	2.49916	0.896685	2.70506	0.987724	2.97769			0.768871	2.31924	0.89219	2.68738	0.985827	2.97083		
0.832118	2.49732	0.668364	1.99593	0.831915	2.49751	0.89904	2.70456	0.989502	2.97469			0.770768	2.31845	0.894078	2.68554	0.987615	2.96789		
0.833896	2.49568	0.670266	1.99605	0.833693	2.49587	0.901396	2.70407	0.99128	2.97171			0.772666	2.31766	0.895964	2.68369	0.989407	2.96497		
0.835673	2.49404	0.672168	1.99618	0.83547	2.49423	0.903754	2.70359	0.993057	2.96875			0.774565	2.31688	0.897848	2.68185	0.991205	2.96209		
0.837451	2.49242	0.674069	1.9963	0.837247	2.4926	0.906113	2.70311	0.994835	2.9658			0.776465	2.31611	0.89973	2.68001	0.993007	2.95923		
0.839228	2.4908	0.675969	1.99642	0.839024	2.49098	0.908473	2.70264	0.996613	2.96287			0.778367	2.31535	0.90161	2.67818	0.994814	2.95641		
0.841004	2.48919	0.677869	1.99654	0.840801	2.48937	0.910833	2.70217	0.998391	2.95996			0.78027	2.31459	0.903487	2.67635	0.996627	2.95362		
0.842781	2.48759	0.679769	1.99665	0.842578	2.48777	0.913195	2.70171	1.00017	2.95706			0.782174	2.31385	0.905363	2.67452	0.998444	2.95086		
0.844558	2.486	0.681668	1.99677	0.844354	2.48618	0.915557	2.70126					0.78408	2.31311	0.907236	2.6727	1.00027	2.94812		
0.846334	2.48441	0.683567	1.99688	0.846131	2.48459	0.91792	2.7008					0.785986	2.31238	0.909107	2.67088				
0.848111	2.48284	0.685466	1.99699	0.847907	2.48302	0.920284	2.70036					0.787894	2.31166	0.910976	2.66907				
0.849887	2.48127	0.687364	1.9971	0.849684	2.48145	0.922649	2.69991					0.789803	2.31094	0.912843	2.66726				
0.851664	2.47971	0.689261	1.99721	0.851461	2.47989	0.925014	2.69947					0.791714	2.31023	0.914708	2.66545				
0.85344	2.47816	0.691158	1.99731	0.853237	2.47834	0.927379	2.69904					0.793625	2.30953	0.916571	2.66365				
0.855217	2.47662	0.693055	1.99741	0.855014	2.4768	0.929745	2.69861					0.795538	2.30884	0.918431	2.66185				
0.856994	2.47509	0.694951	1.99752	0.856791	2.47526	0.932111	2.69818					0.797452	2.30815	0.92029	2.66005				
0.858772	2.47357	0.696847	1.99761	0.858568	2.47374	0.934478	2.69775					0.799367	2.30747	0.922146	2.65826				
0.860549	2.47205	0.698742	1.99771	0.860346	2.47222	0.936845	2.69733					0.801284	2.3068	0.924001	2.65647				
0.862327	2.47055	0.700637	1.99781	0.862124	2.47072	0.939212	2.69691					0.803201	2.30613	0.925853	2.65468				
0.864105	2.46905	0.702532	1.9979	0.863901	2.46922	0.941579	2.6965					0.80512	2.30547	0.927704	2.6529				
0.865883	2.46756	0.704426	1.998	0.86568	2.46773	0.943947	2.69608					0.80704	2.30482	0.929552	2.65112				
0.867662	2.46608	0.70632	1.99809	0.867458	2.46625	0.946314	2.69567					0.808961	2.30418	0.931399	2.64935				
0.869441	2.46461	0.708213	1.99818	0.869237	2.46478	0.948681	2.69526					0.810883	2.30354	0.933243	2.64758				
0.87122	2.46315	0.710106	1.99827	0.871017	2.46332	0.951048	2.69485					0.812806	2.30291	0.935086	2.64582				
0.873	2.4617	0.711999	1.99835	0.872797	2.46187	0.953415	2.69445					0.814731	2.30228	0.936927	2.64405				
0.87478	2.46026	0.713891	1.99844	0.874577	2.46042	0.955782	2.69404					0.816656	2.30167	0.938766	2.6423				
0.876561	2.45882	0.715783	1.99852	0.876358	2.45898	0.958149	2.69364					0.818583	2.30105	0.940603	2.64054				
0.878342	2.4574	0.717674	1.9986	0.878139	2.45756	0.960515	2.69324					0.820511	2.30045	0.942438	2.63879				
0.880124	2.45598	0.719566	1.99868	0.87992	2.45614	0.962881	2.69284					0.82244	2.29985	0.944271	2.63705				
0.881906	2.45457	0.721456	1.99876	0.881703	2.45473	0.965247	2.69244					0.82437	2.29926	0.946103	2.6353				
0.883689	2.45317	0.723347	1.99884	0.883485	2.45333	0.967612	2.69204					0.826301	2.29867	0.947932	2.63357				
0.885473	2.45178	0.725237	1.99892	0.885269	2.45194	0.969976	2.69164					0.828234	2.29809	0.94976	2.63183				
0.887257	2.4504	0.727126	1.99899	0.887053	2.45056	0.97234	2.69124					0.830167	2.29751	0.951587	2.6301				
0.889041	2.44903	0.729016	1.99907	0.888837	2.44918	0.974703	2.69084					0.832102	2.29694	0.953411	2.62838				
0.890826	2.44766	0.730905	1.99914	0.890622	2.44782	0.977066	2.69044					0.834037	2.29638	0.955234	2.62666				
0.892612	2.4463	0.732793	1.99921	0.892408	2.44646	0.979427	2.69004					0.835974	2.29582	0.957055	2.62494				
0.894399	2.44496	0.734682	1.99928	0.894194	2.44511	0.981788	2.68965					0.837912	2.29527	0.958875	2.62323				
0.896186	2.44362	0.736569	1.99935	0.895981	2.44377	0.984148	2.68925					0.83985	2.29473	0.960693	2.62152				
0.897973	2.44229	0.738457	1.99941	0.897769	2.44244	0.986507	2.68885					0.84179	2.29419	0.962509	2.61981				
0.899762	2.44097	0.740344	1.99948	0.899557	2.44112	0.988865	2.68845					0.843731	2.29365	0.964324	2.61811				
0.901551	2.43966	0.742231	1.99954	0.901346	2.43981	0.991222	2.68805					0.845673	2.29312	0.966138	2.61642				
0.903341	2.43835	0.744118	1.99961	0.903136	2.4385	0.993578	2.68764					0.847616	2.2926	0.96795	2.61473				
0.905131	2.43706	0.746004	1.99967	0.904927	2.4372	0.995932	2.68724					0.84956	2.29208	0.96976	2.61304				
0.906923	2.43577	0.74789	1.99973	0.906718	2.43592	0.998285	2.68684					0.851505	2.29157	0.971569	2.61136				
0.908715	2.43449	0.749776	1.99979	0.90851	2.43464	1.00064	2.68643					0.853451	2.29106	0.973376	2.60968				
0.910508	2.43322	0.751662	1.99985	0.910303	2.43336							0.855398	2.29056	0.975183	2.60801				
0.912301	2.43196	0.753547	1.99991	0.912096	2.4321							0.857346	2.29006	0.976987	2.60634				
0.914095	2.4307	0.755431	1.99997	0.91389	2.43085							0.859295	2.28957	0.978791	2.60468				
0.915891	2.42946	0.757316	2.00002	0.915685	2.4296							0.861245	2.28908	0.980593	2.60302				
0.917686	2.42822	0.7592	2.00008	0.917481	2.42836							0.863196	2.2886	0.982394	2.60137				
0.919483	2.42699	0.761084	2.00013	0.919278	2.42713							0.865148	2.28813	0.984194	2.59972				
0.921281	2.42577	0.762968	2.00018	0.921075	2.42591							0.867101	2.28765	0.985992	2.59808				
0.923079	2.42456	0.764851	2.00024	0.922873	2.4247							0.869055	2.28719	0.987789	2.59644				
0.924878	2.42335	0.766734	2.00029	0.924672	2.42349							0.87101	2.28672	0.989585	2.59481				
0.926678	2.42216	0.768617	2.00034	0.926472	2.42229							0.872966	2.28627	0.99138	2.59318				
0.928479	2.42097	0.7705	2.00039	0.928273	2.4211							0.874923	2.28581	0.993174	2.59155				
0.930281	2.41979	0.772382	2.00043	0.930075	2.41992							0.87688	2.28537	0.994967	2.58994				
0.932083	2.41861	0.774264	2.00048	0.931877	2.41875							0.878839	2.28492	0.996759	2.58832				
0.933887	2.41745	0.776146	2.00053	0.93368	2.41758							0.880799	2.28448	0.99855	2.58671				
0.935691	2.41629	0.778027	2.00057	0.935484	2.41642							0.882759	2.28405	1.00034	2.58511				
0.937496	2.41514	0.779908	2.00062	0.937289	2.41527							0.88472	2.28362						
0.939302	2.414	0.781789	2.00066	0.939095	2.41413							0.886683	2.28319						
0.941109	2.41287	0.78367	2.0007	0.940902	2.413							0.888646	2.28277						
0.942916	2.41174	0.785551	2.00074	0.94271	2.41187							0.89061	2.28236						
0.944725	2.41062	0.787431	2.00079	0.944518	2.41075							0.892575	2.28194						
0.946535	2.40951	0.789311	2.00083	0.946328	2.40964							0.894541	2.28153						
0.948345	2.40841	0.791191	2.00087	0.948138	2.40853							0.896508	2.28113						
0.950156	2.40731	0.79307	2.0009	0.949949	2.40744							0.898475	2.28073						
0.951968	2.40622	0.79495	2.00094	0.951761	2.40635							0.900444	2.28033						
0.953782	2.40514	0.796829	2.00098	0.953574	2.40527							0.902413	2.27994						
0.955596	2.40407	0.798707	2.00102	0.955388	2.40419							0.904383	2.27955						
0.957411	2.403	0.800586	2.00105	0.957203	2.40312							0.906354	2.27917						
0.959226	2.40194	0.802465	2.00109	0.959019	2.40206							0.908326	2.27879						
0.961043	2.40089	0.804343	2.00112	0.960835	2.40101							0.910299	2.27841						
0.962861	2.39985	0.806221	2.00115	0.962653	2.39996							0.912272	2.27804						
0.964679	2.39881	0.808099	2.00119	0.964471	2.39893							0.914247	2.27767						
0.966499	2.39778	0.809976	2.00122	0.966291	2.39789							0.916222	2.2773						
0.968319	2.39675	0.811854	2.00125	0.968111	2.39687							0.918198	2.27694						
0.970141	2.39574	0.813731	2.00128	0.969933	2.39585							0.920175	2.27658						
0.971963	2.39473	0.815608	2.00131	0.971755	2.39484							0.922152	2.27623						
0.973786	2.39372	0.817485	2.00134	0.973578	2.39384							0.92413	2.27588						
0.975611	2.39273	0.819361	2.00137	0.975402	2.39284							0.926109	2.27553						
0.977436	2.39174	0.821238	2.0014	0.977227	2.39185							0.928089	2.27519						
0.979262	2.39076	0.823114	2.00143	0.979053	2.39087							0.93007	2.27485						
0.981089	2.38978	0.82499	2.00146	0.98088	2.38989							0.932052	2.27451						
0.982917	2.38881	0.826866	2.00148	0.982708	2.38892							0.934034	2.27418						
0.984745	2.38785	0.828742	2.00151	0.984536	2.38796							0.936017	2.27385						
0.986575	2.3869	0.830617	2.00154	0.986366	2.387							0.938	2.27352						
0.988406	2.38595	0.832492	2.00156	0.988197	2.38605							0.939985	2.2732						
0.990238	2.385	0.834368	2.00159	0.990028	2.38511							0.94197	2.27288						
0.99207	2.38407	0.836243	2.00161	0.991861	2.38417							0.943956	2.27256						
0.993904	2.38314	0.838118	2.00163	0.993694	2.38324							0.945943	2.27225						
0.995738	2.38221	0.839992	2.00166	0.995528	2.38232							0.94793	2.27194						
0.997574	2.3813	0.841867	2.00168	0.997364	2.3814							0.949918	2.27163						
0.99941	2.38039	0.843741	2.0017	0.9992	2.38049							0.951907	2.27132						
1.00125	2.37948	0.845615	2.00172	1.00104	2.37959							0.953896	2.27102						
		0.847489	2.00175									0.955886	2.27072						
		0.849363	2.00177									0.957877	2.27043						
		0.851237	2.00179									0.959869	2.27013						
		0.853111	2.00181									0.961861	2.26984						
		0.854984	2.00183									0.963854	2.26956						
		0.856857	2.00185									0.965848	2.26927						
		0.858731	2.00187									0.967842	2.26899						
		0.860604	2.00188									0.969837	2.26871						
		0.862477	2.0019									0.971832	2.26844						
		0.864349	2.00192									0.973828	2.26816						
		0.866222	2.00194									0.975825	2.26789						
		0.868094	2.00195									0.977823	2.26763						
		0.869967	2.00197									0.979821	2.26736						
		0.871839	2.00199									0.98182	2.2671						
		0.873711	2.002									0.983819	2.26684						
		0.875583	2.00202									0.985819	2.26658						
		0.877455	2.00203									0.98782	2.26633						
		0.879327	2.00205									0.989821	2.26607						
		0.881199	2.00206									0.991823	2.26582						
		0.88307	2.00208									0.993825	2.26558						
		0.884941	2.00209									0.995828	2.26533						
		0.886813	2.0021									0.997832	2.26509						
		0.888684	2.00212									0.999836	2.26485						
		0.890555	2.00213									1.00184	2.26461						
		0.892426	2.00214																
		0.894297	2.00215																
		0.896168	2.00217																
		0.898038	2.00218																
		0.899909	2.00219																
		0.90178	2.0022																
		0.90365	2.00221																
		0.90552	2.00222																
		0.90739	2.00223																
		0.909261	2.00224																
		0.911131	2.00225																
		0.913001	2.00226																
		0.91487	2.00227																
		0.91674	2.00228																
		0.91861	2.00229																
		0.920479	2.0023																
		0.922349	2.00231																
		0.924218	2.00232																
		0.926088	2.00232																
		0.927957	2.00233																
		0.929826	2.00234																
		0.931695	2.00235																
		0.933564	2.00236																
		0.935433	2.00236																
		0.937302	2.00237																
		0.939171	2.00238																
		0.94104	2.00238																
		0.942909	2.00239																
		0.944777	2.0024																
		0.946646	2.0024																
		0.948514	2.00241																
		0.950383	2.00241																
		0.952251	2.00242																
		0.954119	2.00243																
		0.955988	2.00243																
		0.957856	2.00244																
		0.959724	2.00244																
		0.961592	2.00245																
		0.96346	2.00245																
		0.965328	2.00246																
		0.967196	2.00246																
		0.969064	2.00247																
		0.970932	2.00247																
		0.9728	2.00248																
		0.974667	2.00248																
		0.976535	2.00248																
		0.978403	2.00249																
		0.98027	2.00249																
		0.982138	2.0025																
		0.984005	2.0025																
		0.985873	2.0025																
		0.98774	2.00251																
		0.989608	2.00251																
		0.991475	2.00251																
		0.993342	2.00252																
		0.99521	2.00252																
		0.997077	2.00252																
		0.998944	2.00252																
		1.00081	2.00253																
