Sym0		Asym0		Sym1		Sym2		Sym3		Sym4		Asym1		Asym2		Asym3		Asym4	
457  Points		540  Points		456  Points		405  Points		368  Points		279  Points		480  Points		420  Points		369  Points		279  Points	
Freq (MHz)	Vph (m/ms)	Freq (MHz)	Vph (m/ms)	Freq (MHz)	Vph (m/ms)	Freq (MHz)	Vph (m/ms)	Freq (MHz)	Vph (m/ms)	Freq (MHz)	Vph (m/ms)	Freq (MHz)	Vph (m/ms)	Freq (MHz)	Vph (m/ms)	Freq (MHz)	Vph (m/ms)	Freq (MHz)	Vph (m/ms)
0.279509	40255.9	0.000173991	0.081431	0.279507	365.105	0.356565	4024.84	0.559017	1784.67	0.838526	2279.65	0.139755	1165.45	0.419265	704.883	0.69877	1595.27	0.71313	4542.73
0.279506	297.778	0.000358342	0.116786	0.279501	164.679	0.356582	349.492	0.559025	449.042	0.83853	645.258	0.139797	132.936	0.419274	274.665	0.698759	510.147	0.713147	655.058
0.279499	149.438	0.000607933	0.151981	0.27949	106.313	0.356626	182.7	0.55904	256.838	0.838538	375.82	0.139905	70.5412	0.419293	170.57	0.698737	303.612	0.71319	352.999
0.279487	99.7446	0.000922082	0.186968	0.279474	78.4899	0.356698	123.696	0.559064	179.861	0.83855	265.119	0.140079	48.0544	0.41932	123.697	0.698704	216.109	0.713258	241.613
0.279471	74.8504	0.00129984	0.221685	0.279454	62.2069	0.356798	93.5159	0.559097	138.39	0.838567	204.798	0.140318	36.4776	0.419356	97.0376	0.698661	167.754	0.713351	183.675
0.27945	59.8981	0.00174026	0.256103	0.279429	51.5169	0.356925	75.1886	0.559138	112.464	0.838588	166.84	0.140623	29.4289	0.4194	79.836	0.698608	137.076	0.713468	148.162
0.279424	49.9229	0.00224213	0.290174	0.2794	43.9604	0.35708	62.8799	0.559187	94.7228	0.838613	140.754	0.140991	24.6916	0.419453	67.8182	0.698546	115.88	0.713609	124.167
0.279394	42.7941	0.00280425	0.323872	0.279367	38.3356	0.357262	54.045	0.559245	81.8196	0.838643	121.724	0.141422	21.2928	0.419515	58.9483	0.698474	100.357	0.713773	106.871
0.279361	37.4453	0.0034252	0.357156	0.27933	33.9855	0.357471	47.3965	0.559311	72.0132	0.838677	107.229	0.141916	18.7385	0.419585	52.133	0.698396	88.4988	0.713959	93.8119
0.279323	33.2837	0.00410349	0.389994	0.27929	30.5208	0.357707	42.2131	0.559386	64.3085	0.838715	95.8193	0.14247	16.7509	0.419664	46.7329	0.69831	79.144	0.714167	83.6043
0.279282	29.9534	0.00483746	0.422353	0.279246	27.6961	0.35797	38.0595	0.55947	58.0954	0.838757	86.6057	0.143083	15.1621	0.419752	42.3489	0.698217	71.5755	0.714396	75.4065
0.279238	27.2278	0.00562552	0.454209	0.279199	25.349	0.358259	34.6571	0.559561	52.9794	0.838804	79.0096	0.143753	13.8644	0.419849	38.7191	0.69812	65.3262	0.714646	68.6788
0.27919	24.956	0.00646604	0.485548	0.279149	23.3678	0.358574	31.8197	0.559662	48.6935	0.838855	72.6396	0.14448	12.7856	0.419953	35.6644	0.698017	60.0788	0.714914	63.0584
0.27914	23.0333	0.00735719	0.516341	0.279097	21.6731	0.358915	29.4178	0.559771	45.051	0.83891	67.2211	0.145262	11.8756	0.420067	33.0584	0.697911	55.6102	0.7152	58.2932
0.279087	21.3849	0.0082973	0.54658	0.279042	20.2069	0.359281	27.3586	0.559888	41.9173	0.83897	62.5557	0.146096	11.0985	0.420189	30.809	0.697802	51.7589	0.715505	54.202
0.279032	19.956	0.00928457	0.576249	0.278986	18.9259	0.359673	25.574	0.560013	39.1929	0.839034	58.4967	0.146982	10.4277	0.42032	28.8479	0.69769	48.4055	0.715826	50.6514
0.278975	18.7055	0.0103173	0.605341	0.278928	17.7971	0.360089	24.0128	0.560148	36.8025	0.839102	54.9332	0.147917	9.84338	0.42046	27.1231	0.697576	45.4591	0.716163	47.5411
0.278917	17.602	0.0113936	0.633842	0.278869	16.7949	0.36053	22.6358	0.56029	34.6885	0.839174	51.7796	0.148899	9.33028	0.420608	25.5944	0.697462	42.8499	0.716516	44.794
0.278858	16.621	0.0125119	0.661754	0.27881	15.8992	0.360994	21.4124	0.560441	32.8055	0.839251	48.9692	0.149928	8.8765	0.420765	24.2302	0.697346	40.5233	0.716884	42.3503
0.278798	15.7432	0.0136703	0.689068	0.27875	15.0939	0.361483	20.3185	0.560601	31.1178	0.839332	46.4488	0.151	8.47263	0.420931	23.0054	0.697231	38.4356	0.717266	40.1623
0.278738	14.9531	0.0148674	0.715791	0.27869	14.3659	0.361994	19.3347	0.560769	29.5965	0.839417	44.1758	0.151969	8.15548	0.421105	21.8998	0.697117	36.552	0.717662	38.192
0.278679	14.2382	0.0161014	0.741921	0.27863	13.7046	0.362528	18.4454	0.560945	28.2182	0.839507	42.1155	0.15282	7.90744	0.421288	20.8968	0.697004	34.8439	0.718071	36.4086
0.278619	13.5884	0.0173706	0.767458	0.278572	13.1013	0.363085	17.6376	0.56113	26.9638	0.839601	40.2394	0.15354	7.71618	0.421479	19.9828	0.696892	33.2879	0.718493	34.7867
0.278561	12.995	0.0186736	0.79241	0.278514	12.5488	0.363664	16.9008	0.561324	25.8172	0.839699	38.5239	0.15412	7.57308	0.421679	19.1465	0.696783	31.8646	0.718927	33.3053
0.278504	12.4512	0.020009	0.816781	0.278459	12.0408	0.364264	16.2261	0.561526	24.7653	0.839802	36.9493	0.154552	7.47214	0.421888	18.3785	0.696676	30.5577	0.719374	31.9471
0.278448	11.9509	0.0213752	0.840582	0.278405	11.5723	0.364886	15.6061	0.561736	23.7967	0.839908	35.4988	0.154831	7.40933	0.422106	17.6708	0.696571	29.3535	0.719831	30.6973
0.278395	11.4892	0.0227709	0.863818	0.278354	11.1388	0.365528	15.0345	0.561955	22.9021	0.840019	34.1584	0.155235	7.32142	0.422332	17.0166	0.69647	28.2405	0.7203	29.5434
0.278345	11.0618	0.0241946	0.886496	0.278306	10.7366	0.36619	14.5058	0.562182	22.0732	0.840135	32.916	0.155679	7.22891	0.422566	16.41	0.696372	27.2086	0.72078	28.475
0.278297	10.665	0.0256453	0.90863	0.278261	10.3624	0.366873	14.0156	0.562418	21.3031	0.840255	31.7613	0.15629	7.10792	0.42281	15.8461	0.696277	26.2494	0.72127	27.4828
0.278253	10.2957	0.0271216	0.930228	0.27822	10.0134	0.367575	13.5598	0.562662	20.5859	0.840379	30.6853	0.157074	6.96238	0.423062	15.3206	0.696187	25.3554	0.721771	26.559
0.278213	9.95117	0.0286222	0.9513	0.278183	9.68725	0.368296	13.1349	0.562914	19.9162	0.840507	29.6803	0.15804	6.79668	0.423323	14.8297	0.696101	24.5202	0.722281	25.6968
0.278176	9.62899	0.0301463	0.971858	0.27815	9.38173	0.369036	12.7381	0.563175	19.2896	0.840639	28.7394	0.159196	6.61542	0.423592	14.3701	0.696019	23.7382	0.722802	24.8903
0.278145	9.32709	0.0316925	0.991913	0.278123	9.09499	0.369794	12.3665	0.563445	18.702	0.840776	27.8568	0.160553	6.42309	0.42387	13.939	0.695941	23.0046	0.723332	24.1342
0.278118	9.04365	0.03326	1.01148	0.278101	8.82537	0.37057	12.018	0.563723	18.15	0.840917	27.0272	0.161939	6.24576	0.424157	13.5337	0.695869	22.315	0.723871	23.424
0.278097	8.77705	0.0348477	1.03056	0.278084	8.57141	0.371363	11.6905	0.564009	17.6303	0.841063	26.2459	0.163355	6.0818	0.424452	13.1522	0.695801	21.6655	0.724419	22.7557
0.278082	8.52585	0.0364548	1.04918	0.278073	8.33182	0.372174	11.3822	0.564304	17.1403	0.841213	25.509	0.164797	5.92983	0.424756	12.7923	0.695739	21.0528	0.724977	22.1257
0.278072	8.28879	0.0380802	1.06734	0.278069	8.13383	0.373001	11.0914	0.564607	16.6776	0.841367	24.8126	0.166266	5.78863	0.425069	12.4523	0.695681	20.4738	0.725543	21.5308
0.278069	8.06473	0.0397232	1.08506	0.27807	7.97244	0.373844	10.8168	0.564919	16.2399	0.841525	24.1536	0.167761	5.65714	0.42539	12.1306	0.695629	19.9259	0.726118	20.9681
0.278073	7.85265	0.041383	1.10234	0.278073	7.84383	0.374704	10.5571	0.565239	15.8252	0.841688	23.5291	0.169279	5.53446	0.42572	11.8258	0.695582	19.4067	0.726702	20.4351
0.278084	7.65165	0.0430588	1.1192	0.278078	7.74509	0.375579	10.3111	0.565567	15.4319	0.841855	22.9364	0.17082	5.41974	0.426059	11.5367	0.695541	18.9139	0.727294	19.9296
0.278103	7.46089	0.0447499	1.13565	0.278083	7.6741	0.376469	10.0778	0.565904	15.0582	0.842026	22.3731	0.172382	5.31229	0.426407	11.2619	0.695506	18.4456	0.727894	19.4495
0.278129	7.27964	0.0464555	1.15171	0.278086	7.62935	0.377374	9.85618	0.56625	14.7029	0.842202	21.8372	0.173966	5.21145	0.426763	11.0007	0.695476	18	0.728503	18.9929
0.278164	7.10723	0.0481751	1.16738	0.278091	7.56596	0.378294	9.64549	0.566603	14.3646	0.842382	21.3266	0.175569	5.11667	0.427127	10.7518	0.695453	17.5756	0.729119	18.5582
0.278207	6.94305	0.0499081	1.18267	0.278098	7.49827	0.379228	9.44494	0.566965	14.0421	0.842566	20.8397	0.177191	5.02743	0.427501	10.5146	0.695435	17.1708	0.729743	18.1439
0.278259	6.78655	0.0516537	1.19759	0.278109	7.40818	0.380176	9.25381	0.567336	13.7344	0.842754	20.3749	0.178831	4.94329	0.427883	10.2883	0.695423	16.7844	0.730376	17.7484
0.27832	6.63722	0.0534114	1.21216	0.278126	7.29737	0.381138	9.07149	0.567715	13.4404	0.842947	19.9306	0.180488	4.86383	0.428273	10.072	0.695417	16.4152	0.731016	17.3707
0.27839	6.4946	0.0551808	1.22639	0.278151	7.16784	0.382112	8.89739	0.568103	13.1593	0.843144	19.5056	0.182162	4.7887	0.428673	9.86526	0.695418	16.0619	0.731663	17.0095
0.27847	6.35827	0.0569613	1.24028	0.278185	7.02182	0.3831	8.73098	0.568498	12.8903	0.843346	19.0986	0.183851	4.71756	0.429081	9.66737	0.695424	15.7237	0.732319	16.6638
0.278561	6.22784	0.0587524	1.25384	0.278233	6.86165	0.3841	8.57177	0.568903	12.6326	0.843552	18.7085	0.185555	4.65012	0.429498	9.4778	0.695437	15.3996	0.732981	16.3326
0.278661	6.10296	0.0605536	1.26708	0.278289	6.70889	0.385113	8.41931	0.569315	12.3855	0.843762	18.3343	0.187273	4.5861	0.429923	9.29606	0.695457	15.0887	0.733652	16.0151
0.278772	5.9833	0.0623646	1.28002	0.278355	6.56307	0.386138	8.27321	0.569736	12.1484	0.843976	17.9751	0.189005	4.52526	0.430357	9.12169	0.695482	14.7903	0.734329	15.7104
0.278894	5.86855	0.0641849	1.29267	0.27843	6.42373	0.387041	8.15076	0.570166	11.9208	0.844195	17.6299	0.19075	4.46738	0.4308	8.95424	0.695514	14.5036	0.735014	15.4177
0.279026	5.75845	0.066014	1.30502	0.278515	6.29048	0.387817	8.04979	0.570603	11.702	0.844418	17.298	0.192507	4.41226	0.431251	8.79334	0.695552	14.228	0.735706	15.1364
0.27917	5.65274	0.0678517	1.31709	0.278611	6.16295	0.388464	7.96855	0.57105	11.4915	0.844645	16.9786	0.194276	4.35971	0.431711	8.63861	0.695597	13.9628	0.736405	14.8658
0.279326	5.55116	0.0696975	1.32888	0.278717	6.04079	0.388979	7.90572	0.571504	11.289	0.844877	16.671	0.196056	4.30955	0.43218	8.48972	0.695649	13.7075	0.737112	14.6054
0.279493	5.45351	0.0715511	1.34041	0.278833	5.9237	0.389359	7.86028	0.571967	11.094	0.845113	16.3746	0.197848	4.26164	0.432658	8.34634	0.695707	13.4615	0.737825	14.3545
0.279673	5.35958	0.0734123	1.35169	0.27896	5.81138	0.389603	7.83154	0.572439	10.9061	0.845353	16.0889	0.199649	4.21584	0.433081	8.22567	0.695771	13.2243	0.738545	14.1127
0.279865	5.26917	0.0752805	1.36271	0.279099	5.70356	0.389954	7.79066	0.572918	10.7248	0.845598	15.8131	0.20146	4.172	0.433447	8.1258	0.695842	12.9956	0.739272	13.8795
0.280069	5.18211	0.0771557	1.37349	0.279249	5.6	0.390338	7.74683	0.573406	10.55	0.845847	15.5469	0.203281	4.13002	0.433753	8.04522	0.69592	12.7747	0.740007	13.6544
0.280286	5.09824	0.0790374	1.38403	0.279411	5.50047	0.390862	7.68817	0.573903	10.3811	0.8461	15.2897	0.20511	4.08977	0.433998	7.98275	0.696004	12.5614	0.740747	13.4371
0.280515	5.01739	0.0809255	1.39434	0.279584	5.40476	0.391528	7.61554	0.574407	10.2181	0.846358	15.0411	0.206948	4.05116	0.434179	7.9375	0.696095	12.3553	0.741495	13.2271
0.280758	4.93942	0.0828196	1.40443	0.27977	5.31266	0.392339	7.52994	0.574921	10.0604	0.84662	14.8007	0.208794	4.01409	0.434295	7.90884	0.696193	12.156	0.74225	13.0241
0.281015	4.8642	0.0847196	1.41431	0.279968	5.224	0.393297	7.43252	0.575442	9.90804	0.846886	14.5681	0.210648	3.97847	0.434463	7.86804	0.696298	11.9632	0.743011	12.8278
0.281284	4.79159	0.0866251	1.42397	0.280179	5.1386	0.394406	7.32452	0.575972	9.76058	0.847157	14.3429	0.21251	3.94422	0.434647	7.82422	0.696409	11.7766	0.743778	12.6377
0.281568	4.72149	0.088536	1.43343	0.280402	5.0563	0.395525	7.22037	0.57651	9.61785	0.847431	14.1247	0.214378	3.91127	0.434899	7.7655	0.696527	11.5959	0.744553	12.4537
0.281866	4.65377	0.090452	1.44269	0.280639	4.97694	0.396654	7.11988	0.577057	9.47962	0.847711	13.9133	0.216254	3.87954	0.435221	7.69262	0.696651	11.4208	0.745333	12.2755
0.282177	4.58834	0.092373	1.45175	0.280888	4.90041	0.397793	7.02287	0.577611	9.34569	0.847994	13.7083	0.218136	3.84897	0.435614	7.60652	0.696783	11.2512	0.746121	12.1027
0.282504	4.52509	0.0942986	1.46063	0.281152	4.82655	0.39894	6.92915	0.578175	9.21588	0.848282	13.5095	0.220024	3.81949	0.436081	7.50824	0.696921	11.0866	0.746914	11.9352
0.282844	4.46393	0.0962289	1.46932	0.281429	4.75524	0.400097	6.83858	0.578746	9.08999	0.848574	13.3166	0.221918	3.79106	0.436626	7.39892	0.697066	10.9269	0.747715	11.7728
0.2832	4.40477	0.0981635	1.47784	0.281719	4.68638	0.401262	6.75099	0.579326	8.96787	0.848871	13.1293	0.223818	3.76361	0.437179	7.29315	0.697217	10.772	0.748521	11.6151
0.28357	4.34753	0.100102	1.48618	0.282024	4.61985	0.402436	6.66625	0.579914	8.84934	0.849172	12.9474	0.225723	3.7371	0.437741	7.19076	0.697376	10.6216	0.749334	11.462
0.283956	4.29213	0.102045	1.49436	0.282343	4.55555	0.403619	6.58422	0.58051	8.73427	0.849477	12.7706	0.227633	3.71148	0.438311	7.09159	0.697541	10.4754	0.750153	11.3133
0.284357	4.23851	0.103992	1.50237	0.282677	4.49338	0.40481	6.50478	0.581115	8.62249	0.849787	12.5988	0.229549	3.6867	0.438891	6.99551	0.697713	10.3334	0.750978	11.1688
0.284774	4.18658	0.105942	1.51022	0.283025	4.43326	0.406009	6.42782	0.581728	8.51389	0.850101	12.4317	0.231469	3.66273	0.439479	6.90238	0.697892	10.1954	0.75181	11.0283
0.285206	4.13628	0.107896	1.51791	0.283388	4.3751	0.407216	6.35321	0.582269	8.42173	0.850419	12.2692	0.233393	3.63953	0.440075	6.81207	0.698078	10.0612	0.752648	10.8918
0.285655	4.08755	0.109854	1.52545	0.283767	4.31882	0.40843	6.28086	0.582735	8.34494	0.850742	12.1111	0.235322	3.61706	0.440681	6.72447	0.69827	9.93058	0.753491	10.7589
0.286119	4.04033	0.111815	1.53285	0.28416	4.26434	0.409652	6.21067	0.583124	8.28263	0.851069	11.9571	0.237255	3.59528	0.441295	6.63944	0.69847	9.80352	0.754341	10.6296
0.286538	4.00038	0.113778	1.5401	0.284569	4.21159	0.410882	6.14254	0.583434	8.2341	0.8514	11.8072	0.239192	3.57417	0.441918	6.5569	0.698676	9.67983	0.755197	10.5038
0.286904	3.96716	0.115492	1.54631	0.284994	4.16051	0.412118	6.0764	0.583663	8.19883	0.851736	11.6612	0.241133	3.55369	0.442549	6.47674	0.698889	9.55938	0.756059	10.3813
0.287214	3.94027	0.116955	1.55152	0.285435	4.11103	0.413362	6.01215	0.58381	8.17643	0.852076	11.5189	0.243077	3.53382	0.44319	6.39886	0.699109	9.44206	0.756927	10.2619
0.287464	3.91936	0.118166	1.55577	0.285891	4.06308	0.414613	5.94971	0.584022	8.14449	0.85242	11.3803	0.245024	3.51453	0.443839	6.32317	0.699335	9.32775	0.757801	10.1456
0.28765	3.90419	0.119124	1.55909	0.286365	4.01662	0.41587	5.88902	0.584254	8.11008	0.852769	11.245	0.246975	3.49579	0.444497	6.24959	0.699569	9.21633	0.758681	10.0322
0.287771	3.89456	0.119829	1.56152	0.286854	3.97159	0.417134	5.83	0.584571	8.06383	0.853122	11.1132	0.248929	3.47758	0.445163	6.17803	0.699809	9.1077	0.759567	9.92172
0.287945	3.88084	0.12028	1.56306	0.287361	3.92793	0.418405	5.77259	0.584974	8.00618	0.853479	10.9845	0.250885	3.45988	0.445838	6.10842	0.700056	9.00177	0.760459	9.81393
0.288137	3.86609	0.120929	1.56527	0.287884	3.8856	0.419681	5.71672	0.585466	7.93773	0.853841	10.8589	0.252845	3.44267	0.446522	6.04068	0.70031	8.89843	0.761356	9.70878
0.288401	3.84629	0.121635	1.56765	0.288425	3.84455	0.420964	5.66233	0.586049	7.85912	0.854207	10.7364	0.254807	3.42592	0.447215	5.97475	0.70057	8.79759	0.762259	9.60617
0.288742	3.82165	0.122596	1.57087	0.288983	3.80474	0.422253	5.60937	0.586726	7.7711	0.854577	10.6167	0.256771	3.40962	0.447917	5.91055	0.700838	8.69916	0.763169	9.50601
0.289162	3.79248	0.123811	1.5749	0.289559	3.76613	0.423548	5.55779	0.587411	7.68533	0.854952	10.4998	0.258738	3.39375	0.448627	5.84803	0.701076	8.6153	0.764083	9.40822
0.289668	3.75908	0.125282	1.5797	0.290153	3.72867	0.424849	5.50752	0.588104	7.60174	0.855331	10.3857	0.260707	3.37829	0.449346	5.78712	0.701284	8.54517	0.765004	9.31271
0.290265	3.72184	0.12701	1.58526	0.290765	3.69233	0.426155	5.45853	0.588805	7.52024	0.855715	10.2741	0.262678	3.36323	0.450074	5.72776	0.701458	8.4881	0.76593	9.21942
0.290881	3.6857	0.128995	1.59152	0.291396	3.65707	0.427467	5.41076	0.589515	7.44076	0.856103	10.165	0.26465	3.34854	0.450811	5.66991	0.701598	8.44356	0.766861	9.12827
0.291515	3.65064	0.130981	1.59767	0.292046	3.62287	0.428784	5.36417	0.590233	7.36323	0.856495	10.0584	0.266625	3.33422	0.451556	5.6135	0.701702	8.41112	0.767799	9.03917
0.292169	3.61662	0.13297	1.6037	0.292715	3.58967	0.430107	5.31872	0.590959	7.28758	0.856891	9.95416	0.268602	3.32026	0.45231	5.5585	0.701768	8.39051	0.768741	8.95208
0.292841	3.58362	0.134961	1.60963	0.293403	3.55747	0.431434	5.27437	0.591693	7.21375	0.857292	9.85218	0.27058	3.30662	0.453073	5.50484	0.701865	8.36106	0.76969	8.86692
0.293533	3.55159	0.136955	1.61545	0.294111	3.52622	0.432767	5.23108	0.592435	7.14168	0.857698	9.75242	0.272559	3.29332	0.453845	5.4525	0.701971	8.32931	0.770643	8.78363
0.294245	3.52052	0.13895	1.62116	0.294839	3.4959	0.434105	5.18882	0.593186	7.07131	0.858107	9.6548	0.27454	3.28032	0.454625	5.40142	0.702117	8.28654	0.771479	8.71253
0.294977	3.49037	0.140946	1.62678	0.295588	3.46649	0.435447	5.14754	0.593945	7.00258	0.858521	9.55925	0.276522	3.26763	0.455415	5.35155	0.702303	8.23312	0.772195	8.65298
0.29573	3.46112	0.142945	1.63229	0.296358	3.43795	0.436794	5.10721	0.594712	6.93544	0.85894	9.46571	0.278506	3.25523	0.456213	5.30288	0.702531	8.16952	0.772789	8.60445
0.296504	3.43274	0.144945	1.63771	0.297149	3.41027	0.438146	5.06781	0.595487	6.86984	0.859363	9.37412	0.28049	3.24311	0.45702	5.25534	0.702804	8.09625	0.77326	8.56653
0.297299	3.40522	0.146947	1.64303	0.297962	3.38342	0.439502	5.0293	0.59627	6.80572	0.85979	9.28442	0.282475	3.23125	0.457836	5.20891	0.703124	8.01392	0.773607	8.5389
0.298115	3.37852	0.148951	1.64826	0.298797	3.35738	0.440863	4.99165	0.597061	6.74305	0.860221	9.19656	0.284462	3.21966	0.45866	5.16356	0.70345	7.93339	0.77383	8.52133
0.298954	3.35263	0.150956	1.65341	0.299654	3.33213	0.442228	4.95484	0.597861	6.68177	0.860657	9.11047	0.286449	3.20832	0.459493	5.11925	0.703783	7.85462	0.77415	8.49622
0.299816	3.32752	0.152962	1.65846	0.300535	3.30765	0.443597	4.91883	0.598668	6.62184	0.861097	9.02611	0.288436	3.19722	0.460336	5.07594	0.704123	7.77754	0.774499	8.46912
0.300701	3.30319	0.15497	1.66342	0.301439	3.28393	0.44497	4.8836	0.599484	6.56323	0.861542	8.94343	0.290425	3.18635	0.461187	5.03361	0.70447	7.7021	0.774975	8.43259
0.301609	3.2796	0.156979	1.6683	0.302367	3.26094	0.446348	4.84913	0.600308	6.50588	0.861933	8.87271	0.292414	3.17571	0.462047	4.99223	0.704823	7.62826	0.775578	8.38693
0.302542	3.25675	0.158989	1.6731	0.303319	3.23867	0.447729	4.8154	0.60114	6.44977	0.862269	8.81337	0.294403	3.16529	0.462915	4.95177	0.705183	7.55596	0.77631	8.33248
0.303499	3.23461	0.161001	1.67782	0.304297	3.2171	0.449114	4.78237	0.60198	6.39486	0.862549	8.76496	0.296393	3.15508	0.463793	4.9122	0.705549	7.48516	0.777173	8.26968
0.304481	3.21317	0.163014	1.68246	0.3053	3.19622	0.450503	4.75003	0.602828	6.34111	0.862771	8.72708	0.298383	3.14507	0.464679	4.8735	0.705923	7.41582	0.778168	8.19898
0.305489	3.19242	0.165028	1.68703	0.306329	3.17601	0.451895	4.71836	0.603684	6.28848	0.862935	8.69946	0.300373	3.13526	0.465574	4.83563	0.706303	7.3479	0.779169	8.12971
0.306523	3.17233	0.167043	1.69151	0.307384	3.15647	0.453291	4.68734	0.604548	6.23695	0.86304	8.68188	0.302364	3.12564	0.466478	4.79859	0.706689	7.28134	0.780174	8.06183
0.307583	3.15291	0.169059	1.69593	0.308467	3.13757	0.45469	4.65695	0.60542	6.18648	0.863192	8.65675	0.304354	3.1162	0.467391	4.76234	0.707082	7.21612	0.781184	7.9953
0.308671	3.13413	0.171076	1.70027	0.309578	3.1193	0.456093	4.62716	0.6063	6.13705	0.863357	8.62962	0.306345	3.10694	0.468313	4.72686	0.707482	7.1522	0.7822	7.93008
0.309787	3.11598	0.173094	1.70454	0.310716	3.10166	0.4575	4.59796	0.607188	6.08862	0.863583	8.59301	0.308335	3.09786	0.469244	4.69213	0.707889	7.08953	0.783221	7.86613
0.310931	3.09845	0.175112	1.70874	0.311884	3.08463	0.458909	4.56934	0.608084	6.04116	0.863871	8.54719	0.310325	3.08894	0.470183	4.65812	0.708302	7.02809	0.784247	7.80341
0.312104	3.08153	0.177132	1.71288	0.313081	3.06819	0.460322	4.54128	0.608988	5.99466	0.86422	8.49249	0.312315	3.08018	0.471132	4.62483	0.708722	6.96784	0.785278	7.7419
0.313306	3.0652	0.179152	1.71695	0.314307	3.05234	0.461737	4.51376	0.6099	5.94908	0.864634	8.4293	0.314305	3.07158	0.472089	4.59223	0.709148	6.90875	0.786314	7.68155
0.314539	3.04946	0.181174	1.72095	0.315564	3.03707	0.463156	4.48676	0.61082	5.90439	0.865112	8.35805	0.316295	3.06313	0.473055	4.5603	0.709581	6.85078	0.787354	7.62234
0.315801	3.0343	0.183196	1.72489	0.316852	3.02236	0.464578	4.46028	0.611748	5.86058	0.865595	8.28811	0.318284	3.05483	0.47403	4.52902	0.71002	6.79391	0.7884	7.56424
0.317095	3.01969	0.185218	1.72877	0.318171	3.00821	0.466002	4.43429	0.612684	5.81762	0.866082	8.21944	0.320272	3.04667	0.475014	4.49838	0.710466	6.73811	0.789451	7.50721
0.318419	3.00564	0.187241	1.73259	0.319521	2.99459	0.46743	4.40879	0.613628	5.77548	0.866573	8.15203	0.32226	3.03865	0.476007	4.46835	0.710919	6.68334	0.790506	7.45123
0.319775	2.99212	0.189265	1.73635	0.320903	2.98151	0.46886	4.38375	0.614579	5.73416	0.867069	8.08582	0.324247	3.03077	0.477009	4.43893	0.711378	6.62959	0.791567	7.39627
0.321163	2.97914	0.19129	1.74004	0.322317	2.96895	0.470293	4.35918	0.615539	5.69361	0.867569	8.0208	0.326234	3.02301	0.47802	4.4101	0.711844	6.57683	0.792632	7.34231
0.322583	2.96667	0.193315	1.74369	0.323763	2.95689	0.471728	4.33505	0.616506	5.65384	0.868074	7.95692	0.32822	3.01538	0.479039	4.38185	0.712316	6.52502	0.793702	7.28931
0.324035	2.95471	0.19534	1.74727	0.325241	2.94533	0.473166	4.31135	0.617481	5.61481	0.868583	7.89417	0.330205	3.00787	0.480068	4.35415	0.712795	6.47415	0.794777	7.23725
0.32552	2.94324	0.197366	1.7508	0.326752	2.93426	0.474607	4.28807	0.618464	5.5765	0.869096	7.83251	0.33219	3.00048	0.481105	4.32699	0.71328	6.4242	0.795856	7.18611
0.327036	2.93225	0.199393	1.75428	0.328295	2.92365	0.47605	4.2652	0.619455	5.5389	0.869614	7.77192	0.334173	2.99321	0.482151	4.30037	0.713771	6.37513	0.79694	7.13587
0.328585	2.92173	0.20142	1.75771	0.32987	2.9135	0.477495	4.24274	0.620453	5.50199	0.870136	7.71237	0.336156	2.98605	0.483207	4.27426	0.71427	6.32693	0.798029	7.0865
0.330166	2.91167	0.203447	1.76108	0.331477	2.9038	0.478943	4.22066	0.62146	5.46576	0.870662	7.65383	0.338137	2.97899	0.484271	4.24866	0.714774	6.27957	0.799123	7.03798
0.331779	2.90205	0.205475	1.7644	0.333116	2.89453	0.480393	4.19896	0.622474	5.43018	0.871193	7.59628	0.340118	2.97205	0.485344	4.22355	0.715285	6.23304	0.800221	6.99029
0.333423	2.89285	0.207503	1.76767	0.334785	2.88568	0.481845	4.17763	0.623495	5.39524	0.871729	7.5397	0.342097	2.9652	0.486426	4.19892	0.715802	6.18731	0.801323	6.94342
0.335099	2.88408	0.209531	1.7709	0.336485	2.87722	0.483299	4.15667	0.624525	5.36093	0.872268	7.48406	0.344075	2.95845	0.487517	4.17476	0.716326	6.14237	0.80243	6.89733
0.336805	2.8757	0.21156	1.77407	0.338216	2.86916	0.484756	4.13605	0.625562	5.32723	0.872812	7.42933	0.346052	2.95181	0.488617	4.15106	0.716856	6.0982	0.803542	6.85201
0.338541	2.86771	0.213589	1.7772	0.339976	2.86148	0.486214	4.11578	0.626607	5.29412	0.873361	7.37551	0.348028	2.94525	0.489726	4.12781	0.717393	6.05478	0.804658	6.80744
0.340306	2.86009	0.215618	1.78029	0.341765	2.85415	0.487675	4.09584	0.627659	5.26159	0.873913	7.32256	0.350002	2.93879	0.490844	4.105	0.717936	6.01208	0.805779	6.76361
0.3421	2.85283	0.217647	1.78332	0.343581	2.84717	0.489137	4.07622	0.628719	5.22964	0.874471	7.27047	0.351975	2.93241	0.49197	4.08261	0.718485	5.9701	0.806904	6.7205
0.343922	2.84591	0.219677	1.78632	0.345426	2.84052	0.490602	4.05693	0.629787	5.19823	0.875032	7.21922	0.353947	2.92613	0.493106	4.06064	0.719041	5.92882	0.808034	6.67808
0.345771	2.83932	0.221707	1.78927	0.347296	2.83419	0.492068	4.03794	0.630862	5.16737	0.875598	7.16879	0.355917	2.91992	0.49425	4.03907	0.719603	5.88822	0.809167	6.63635
0.347647	2.83305	0.223736	1.79217	0.349192	2.82816	0.493536	4.01926	0.631945	5.13703	0.876169	7.11915	0.357885	2.9138	0.495404	4.01791	0.720171	5.84828	0.810305	6.59529
0.349547	2.82707	0.225767	1.79504	0.351113	2.82242	0.495006	4.00087	0.633035	5.10722	0.876743	7.0703	0.359852	2.90776	0.496566	3.99713	0.720745	5.809	0.811448	6.55488
0.351473	2.82138	0.227797	1.79786	0.353058	2.81696	0.496478	3.98278	0.634133	5.0779	0.877323	7.02221	0.361818	2.9018	0.497738	3.97674	0.721326	5.77035	0.812595	6.51511
0.353422	2.81597	0.229827	1.80064	0.355026	2.81175	0.497951	3.96496	0.635238	5.04909	0.877906	6.97486	0.363782	2.89591	0.498918	3.95671	0.721913	5.73232	0.813746	6.47596
0.355393	2.81081	0.231857	1.80339	0.357015	2.8068	0.499426	3.94742	0.636351	5.02075	0.878494	6.92825	0.365744	2.89009	0.500107	3.93705	0.722506	5.6949	0.814901	6.43742
0.357387	2.8059	0.233888	1.80609	0.359026	2.80208	0.500903	3.93015	0.637471	4.99289	0.879086	6.88235	0.367704	2.88435	0.501306	3.91775	0.723106	5.65807	0.81606	6.39948
0.359401	2.80123	0.235918	1.80876	0.361056	2.79759	0.502381	3.91314	0.638599	4.96548	0.879683	6.83715	0.369663	2.87867	0.502513	3.8988	0.723712	5.62183	0.817224	6.36212
0.361436	2.79678	0.237949	1.81139	0.363106	2.7933	0.503861	3.8964	0.639734	4.93853	0.880284	6.79264	0.37162	2.87307	0.503729	3.88018	0.724324	5.58615	0.818391	6.32533
0.363489	2.79253	0.239979	1.81398	0.365175	2.78922	0.505342	3.8799	0.640876	4.91202	0.88089	6.74879	0.373575	2.86753	0.504954	3.8619	0.724942	5.55104	0.819563	6.2891
0.365561	2.78849	0.24201	1.81653	0.36726	2.78533	0.506825	3.86364	0.642026	4.88594	0.8815	6.7056	0.375528	2.86205	0.506187	3.84395	0.725566	5.51646	0.820739	6.25342
0.36765	2.78463	0.24404	1.81905	0.369363	2.78162	0.50831	3.84763	0.643183	4.86028	0.882114	6.66305	0.377479	2.85664	0.50743	3.82631	0.726197	5.48242	0.821919	6.21826
0.369755	2.78095	0.24607	1.82154	0.371481	2.77808	0.509796	3.83186	0.644347	4.83504	0.882733	6.62112	0.379428	2.85128	0.508682	3.80899	0.726834	5.4489	0.823102	6.18363
0.371876	2.77744	0.248101	1.82398	0.373614	2.7747	0.511283	3.81631	0.645518	4.8102	0.883356	6.57982	0.381376	2.84599	0.509942	3.79197	0.727476	5.41589	0.82429	6.14951
0.374012	2.77409	0.250131	1.8264	0.375762	2.77148	0.512771	3.80099	0.646697	4.78576	0.883983	6.53911	0.383321	2.84076	0.511212	3.77526	0.728125	5.38338	0.825482	6.11589
0.376163	2.77089	0.252161	1.82878	0.377923	2.76839	0.514261	3.78588	0.647883	4.7617	0.884615	6.49899	0.385264	2.83558	0.51249	3.75883	0.72878	5.35136	0.826678	6.08276
0.378326	2.76784	0.254191	1.83113	0.380097	2.76545	0.515753	3.771	0.649076	4.73803	0.885252	6.45945	0.387205	2.83046	0.513777	3.7427	0.729442	5.31982	0.827877	6.05011
0.380503	2.76491	0.256221	1.83345	0.382284	2.76263	0.517245	3.75632	0.650276	4.71472	0.885892	6.42048	0.389145	2.82539	0.515073	3.72685	0.730109	5.28875	0.829081	6.01793
0.382691	2.76212	0.258251	1.83573	0.384482	2.75993	0.518739	3.74185	0.651483	4.69178	0.886538	6.38206	0.391081	2.82037	0.516378	3.71127	0.730782	5.25814	0.830288	5.98621
0.384891	2.75944	0.26028	1.83799	0.386691	2.75734	0.520234	3.72759	0.652697	4.6692	0.887187	6.34418	0.393016	2.81541	0.517691	3.69596	0.731461	5.22798	0.831499	5.95494
0.387102	2.75687	0.26231	1.84021	0.38891	2.75487	0.521731	3.71352	0.653919	4.64696	0.887841	6.30684	0.394949	2.8105	0.519014	3.68092	0.732147	5.19826	0.832714	5.92411
0.389323	2.75442	0.264339	1.84241	0.391139	2.75249	0.523228	3.69964	0.655147	4.62507	0.888499	6.27002	0.396879	2.80563	0.520345	3.66613	0.732838	5.16898	0.833932	5.89372
0.391554	2.75206	0.266368	1.84457	0.393378	2.75021	0.524727	3.68596	0.656382	4.60351	0.889162	6.23371	0.398807	2.80082	0.521685	3.6516	0.733535	5.14012	0.835155	5.86375
0.393794	2.7498	0.268397	1.8467	0.395625	2.74802	0.526227	3.67246	0.657624	4.58228	0.889829	6.1979	0.400733	2.79605	0.523033	3.63732	0.734239	5.11168	0.836381	5.83419
0.396043	2.74763	0.270425	1.84881	0.397881	2.74592	0.527729	3.65915	0.658873	4.56137	0.890501	6.16259	0.402657	2.79132	0.524391	3.62329	0.734948	5.08364	0.83761	5.80504
0.398301	2.74554	0.272454	1.85089	0.400145	2.7439	0.529231	3.64601	0.660129	4.54077	0.891176	6.12776	0.404578	2.78664	0.525757	3.60949	0.735664	5.056	0.838843	5.77629
0.400566	2.74354	0.274482	1.85294	0.402416	2.74196	0.530735	3.63305	0.661392	4.52049	0.891857	6.0934	0.406497	2.78201	0.527132	3.59593	0.736385	5.02876	0.84008	5.74793
0.402839	2.74161	0.27651	1.85496	0.404694	2.74009	0.532239	3.62026	0.662661	4.5005	0.892542	6.0595	0.408414	2.77741	0.528515	3.58259	0.737112	5.0019	0.841321	5.71995
0.405118	2.73975	0.278537	1.85696	0.406979	2.73829	0.533745	3.60764	0.663937	4.48082	0.893231	6.02607	0.410328	2.77286	0.529908	3.56949	0.737845	4.97542	0.842565	5.69235
0.407404	2.73796	0.280564	1.85892	0.409271	2.73655	0.535252	3.59518	0.66522	4.46142	0.893924	5.99307	0.41224	2.76835	0.531308	3.5566	0.738584	4.94931	0.843812	5.66512
0.409697	2.73623	0.282591	1.86087	0.411568	2.73487	0.53676	3.58289	0.66651	4.44231	0.894622	5.96052	0.41415	2.76388	0.532718	3.54393	0.739329	4.92356	0.845063	5.63825
0.411996	2.73457	0.284618	1.86278	0.413872	2.73326	0.538269	3.57076	0.667806	4.42348	0.895324	5.9284	0.416057	2.75945	0.534136	3.53148	0.74008	4.89817	0.846318	5.61174
0.4143	2.73296	0.286644	1.86468	0.41618	2.7317	0.53978	3.55878	0.669109	4.40493	0.896031	5.8967	0.417962	2.75506	0.535562	3.51923	0.740837	4.87313	0.847575	5.58557
0.41661	2.73141	0.28867	1.86654	0.418494	2.73019	0.541291	3.54696	0.670418	4.38664	0.896742	5.86542	0.419864	2.75071	0.536997	3.50719	0.741599	4.84843	0.848837	5.55975
0.418924	2.72991	0.290696	1.86839	0.420813	2.72873	0.542803	3.53529	0.671734	4.36862	0.897458	5.83454	0.421764	2.74639	0.538441	3.49535	0.742367	4.82407	0.850101	5.53426
0.421244	2.72846	0.292722	1.8702	0.423136	2.72732	0.544317	3.52376	0.673056	4.35086	0.898178	5.80407	0.423661	2.74211	0.539893	3.4837	0.743142	4.80004	0.851369	5.5091
0.423568	2.72706	0.294746	1.872	0.425464	2.72595	0.545832	3.51238	0.674385	4.33335	0.898902	5.77398	0.425556	2.73787	0.541353	3.47225	0.743922	4.77633	0.85264	5.48426
0.425897	2.7257	0.296771	1.87377	0.427796	2.72462	0.547347	3.50114	0.67572	4.31609	0.899631	5.74429	0.427449	2.73366	0.542822	3.46099	0.744707	4.75295	0.853915	5.45974
0.428229	2.72438	0.298795	1.87552	0.430131	2.72334	0.548864	3.49005	0.677062	4.29907	0.900364	5.71497	0.429339	2.72948	0.544299	3.44992	0.745499	4.72987	0.855193	5.43553
0.430566	2.72311	0.300819	1.87724	0.432471	2.72209	0.550382	3.47909	0.678409	4.2823	0.901101	5.68603	0.431227	2.72534	0.545785	3.43902	0.746296	4.70711	0.856474	5.41162
0.432906	2.72187	0.302843	1.87894	0.434814	2.72089	0.551901	3.46826	0.679763	4.26576	0.901843	5.65745	0.433112	2.72123	0.547278	3.42831	0.747099	4.68464	0.857758	5.38802
0.435249	2.72066	0.304866	1.88063	0.43716	2.71971	0.553421	3.45757	0.681124	4.24945	0.90259	5.62923	0.434995	2.71716	0.54878	3.41777	0.747908	4.66248	0.859045	5.36471
0.437596	2.7195	0.306888	1.88228	0.439509	2.71857	0.554942	3.44701	0.68249	4.23337	0.90334	5.60136	0.436875	2.71311	0.550291	3.4074	0.748723	4.6406	0.860336	5.34169
0.439946	2.71836	0.308911	1.88392	0.441861	2.71746	0.556464	3.43657	0.683863	4.21751	0.904096	5.57384	0.438753	2.7091	0.551809	3.39721	0.749543	4.61901	0.861629	5.31895
0.442299	2.71725	0.310932	1.88554	0.444216	2.71638	0.557987	3.42627	0.685242	4.20187	0.904855	5.54667	0.440628	2.70512	0.553336	3.38718	0.750369	4.5977	0.862926	5.29649
0.444654	2.71618	0.312954	1.88713	0.446574	2.71532	0.559512	3.41608	0.686626	4.18644	0.905619	5.51982	0.442502	2.70117	0.55487	3.37731	0.751201	4.57667	0.864226	5.27431
0.447012	2.71513	0.314975	1.88871	0.448934	2.7143	0.561037	3.40602	0.688017	4.17122	0.906387	5.49331	0.444372	2.69724	0.556413	3.3676	0.752038	4.55591	0.865529	5.25239
0.449373	2.71411	0.316995	1.89026	0.451297	2.7133	0.562564	3.39608	0.689414	4.15621	0.90716	5.46712	0.44624	2.69335	0.557963	3.35805	0.752881	4.53542	0.866834	5.23074
0.451736	2.71311	0.319015	1.8918	0.453662	2.71232	0.564092	3.38626	0.690817	4.14141	0.907937	5.44126	0.448106	2.68949	0.559522	3.34865	0.75373	4.51519	0.868143	5.20935
0.454101	2.71214	0.321035	1.89331	0.456028	2.71137	0.565621	3.37655	0.692225	4.1268	0.908719	5.4157	0.44997	2.68566	0.561088	3.33941	0.754584	4.49522	0.869455	5.18822
0.456468	2.71119	0.323054	1.89481	0.458397	2.71044	0.567151	3.36696	0.693639	4.11239	0.909505	5.39045	0.451831	2.68185	0.562662	3.33031	0.755444	4.4755	0.87077	5.16733
0.458837	2.71027	0.325072	1.89629	0.460768	2.70953	0.568682	3.35748	0.69506	4.09818	0.910295	5.36551	0.453689	2.67807	0.564244	3.32136	0.756309	4.45603	0.872087	5.1467
0.461208	2.70936	0.32709	1.89775	0.46314	2.70864	0.570214	3.34811	0.696486	4.08415	0.91109	5.34086	0.455546	2.67432	0.565834	3.31255	0.75718	4.43681	0.873407	5.1263
0.463581	2.70848	0.329108	1.89918	0.465514	2.70777	0.571748	3.33885	0.697917	4.0703	0.911889	5.31651	0.4574	2.6706	0.567432	3.30388	0.758057	4.41783	0.874731	5.10615
0.465955	2.70761	0.331125	1.90061	0.467889	2.70691	0.573283	3.3297	0.699354	4.05664	0.912693	5.29245	0.459252	2.6669	0.569037	3.29535	0.758939	4.39909	0.876057	5.08622
0.468331	2.70676	0.333141	1.90201	0.470266	2.70608	0.574819	3.32065	0.700797	4.04316	0.913501	5.26867	0.461101	2.66324	0.570649	3.28695	0.759827	4.38057	0.877385	5.06653
0.470708	2.70593	0.335157	1.90339	0.472644	2.70526	0.576356	3.31171	0.702245	4.02986	0.914313	5.24517	0.462948	2.65959	0.572269	3.27869	0.760721	4.36229	0.878717	5.04707
0.473086	2.70511	0.337173	1.90476	0.475023	2.70446	0.577895	3.30286	0.703699	4.01672	0.91513	5.22195	0.464793	2.65598	0.573897	3.27055	0.761619	4.34424	0.880051	5.02783
0.475465	2.70431	0.339188	1.90611	0.477404	2.70367	0.579435	3.29412	0.705159	4.00376	0.915951	5.19899	0.466636	2.65239	0.575532	3.26255	0.762524	4.3264	0.881388	5.0088
0.477846	2.70352	0.341202	1.90745	0.479785	2.70289	0.580976	3.28548	0.706623	3.99096	0.916777	5.1763	0.468477	2.64882	0.577174	3.25467	0.763434	4.30879	0.882728	4.99
0.480227	2.70275	0.343216	1.90876	0.482167	2.70213	0.582518	3.27694	0.708093	3.97833	0.917607	5.15388	0.470315	2.64528	0.578823	3.24691	0.764349	4.29139	0.88407	4.9714
0.48261	2.70199	0.34523	1.91006	0.48455	2.70138	0.584062	3.2685	0.709569	3.96586	0.918442	5.13171	0.472151	2.64176	0.58048	3.23927	0.76527	4.2742	0.885415	4.95301
0.484993	2.70124	0.347242	1.91135	0.486934	2.70064	0.585608	3.26015	0.711049	3.95355	0.91928	5.1098	0.473986	2.63827	0.582144	3.23175	0.766197	4.25722	0.886763	4.93483
0.487377	2.70051	0.349254	1.91261	0.489319	2.69992	0.587154	3.25189	0.712535	3.94139	0.920124	5.08813	0.475818	2.63481	0.583814	3.22435	0.767129	4.24045	0.888113	4.91685
0.489762	2.69978	0.351266	1.91386	0.491704	2.6992	0.588702	3.24373	0.714026	3.92939	0.920971	5.06672	0.477648	2.63136	0.585492	3.21706	0.768066	4.22388	0.889465	4.89907
0.492147	2.69907	0.353277	1.9151	0.49409	2.69849	0.590252	3.23565	0.715522	3.91754	0.921823	5.04554	0.479476	2.62795	0.587177	3.20989	0.769009	4.2075	0.89082	4.88148
0.494533	2.69836	0.355288	1.91632	0.496476	2.6978	0.591803	3.22767	0.717024	3.90583	0.92268	5.02461	0.481302	2.62455	0.588868	3.20282	0.769957	4.19133	0.892178	4.86409
0.496919	2.69767	0.357298	1.91752	0.498862	2.69711	0.593356	3.21978	0.71853	3.89427	0.923541	5.00391	0.483126	2.62118	0.590567	3.19586	0.770911	4.17534	0.893538	4.84688
0.499306	2.69699	0.359307	1.91871	0.501249	2.69643	0.59491	3.21197	0.720041	3.88286	0.924406	4.98344	0.484948	2.61784	0.592272	3.18901	0.77187	4.15955	0.8949	4.82986
0.501692	2.69631	0.361316	1.91989	0.503636	2.69576	0.596466	3.20425	0.721557	3.87158	0.925276	4.9632	0.486769	2.61451	0.593983	3.18226	0.772834	4.14394	0.896265	4.81303
0.504079	2.69564	0.363324	1.92105	0.506023	2.6951	0.598023	3.19662	0.723078	3.86044	0.92615	4.94318	0.488587	2.61121	0.595702	3.17562	0.773804	4.12851	0.897632	4.79637
0.506467	2.69498	0.365331	1.92219	0.50841	2.69444	0.599582	3.18907	0.724604	3.84944	0.927029	4.92339	0.490404	2.60794	0.597426	3.16907	0.774779	4.11327	0.899002	4.77989
0.508854	2.69432	0.367338	1.92332	0.510798	2.69379	0.601143	3.18161	0.726134	3.83857	0.927911	4.90381	0.492219	2.60468	0.599157	3.16263	0.77576	4.09821	0.900374	4.76359
0.511241	2.69367	0.369344	1.92444	0.513185	2.69315	0.602705	3.17422	0.72767	3.82784	0.928799	4.88445	0.494032	2.60145	0.600895	3.15627	0.776746	4.08332	0.901748	4.74746
0.513628	2.69303	0.37135	1.92554	0.515572	2.69251	0.604269	3.16692	0.72921	3.81723	0.929691	4.8653	0.495844	2.59825	0.602639	3.15002	0.777737	4.0686	0.903125	4.7315
0.516016	2.6924	0.373355	1.92663	0.517959	2.69188	0.605835	3.1597	0.730754	3.80675	0.930587	4.84636	0.497654	2.59506	0.604388	3.14385	0.778734	4.05406	0.904503	4.7157
0.518402	2.69176	0.375359	1.92771	0.520346	2.69125	0.607403	3.15256	0.732303	3.79639	0.931487	4.82763	0.499462	2.5919	0.606144	3.13778	0.779736	4.03968	0.905884	4.70007
0.520789	2.69114	0.377363	1.92877	0.522732	2.69063	0.608973	3.14549	0.733857	3.78616	0.932392	4.8091	0.501269	2.58876	0.607906	3.1318	0.780743	4.02547	0.907267	4.6846
0.523175	2.69052	0.379366	1.92982	0.525118	2.69001	0.610544	3.13851	0.735415	3.77604	0.933302	4.79077	0.503074	2.58564	0.609674	3.1259	0.781756	4.01142	0.908653	4.66929
0.525561	2.6899	0.381369	1.93085	0.527504	2.6894	0.612118	3.1316	0.736977	3.76605	0.934216	4.77263	0.504878	2.58254	0.611448	3.12009	0.782774	3.99753	0.91004	4.65414
0.527947	2.68928	0.38337	1.93187	0.529889	2.68878	0.613694	3.12477	0.738544	3.75617	0.935134	4.75469	0.50668	2.57947	0.613228	3.11437	0.783798	3.9838	0.91143	4.63914
0.530332	2.68867	0.385372	1.93288	0.532273	2.68818	0.615271	3.11801	0.740115	3.74641	0.936057	4.73694	0.508481	2.57642	0.615013	3.10872	0.784826	3.97023	0.912821	4.6243
0.532716	2.68806	0.387372	1.93388	0.534657	2.68757	0.616851	3.11132	0.741691	3.73676	0.936984	4.71939	0.51028	2.57339	0.616804	3.10316	0.78586	3.95681	0.914215	4.6096
0.5351	2.68746	0.389372	1.93486	0.53704	2.68696	0.618433	3.10471	0.74327	3.72723	0.937915	4.70201	0.512079	2.57038	0.618601	3.09768	0.786899	3.94354	0.915611	4.59505
0.537483	2.68685	0.391371	1.93584	0.539423	2.68636	0.620017	3.09817	0.744854	3.7178	0.938851	4.68482	0.513875	2.56739	0.620402	3.09228	0.787944	3.93042	0.917009	4.58065
0.539865	2.68625	0.39337	1.9368	0.541804	2.68576	0.621603	3.09171	0.746442	3.70848	0.939791	4.66781	0.515671	2.56442	0.62221	3.08695	0.788993	3.91745	0.918408	4.56639
0.542246	2.68565	0.395368	1.93774	0.544185	2.68516	0.623192	3.08531	0.748034	3.69927	0.940736	4.65098	0.517466	2.56148	0.624022	3.0817	0.790048	3.90463	0.91981	4.55227
0.544627	2.68505	0.397365	1.93868	0.546564	2.68456	0.624783	3.07898	0.74963	3.69016	0.941685	4.63433	0.519259	2.55856	0.62584	3.07652	0.791109	3.89195	0.921214	4.53829
0.547006	2.68445	0.399361	1.9396	0.548943	2.68396	0.626377	3.07273	0.75123	3.68115	0.942639	4.61785	0.521052	2.55566	0.627663	3.07141	0.792174	3.87941	0.922619	4.52445
0.549385	2.68385	0.401357	1.94052	0.551321	2.68336	0.627973	3.06654	0.752834	3.67224	0.943597	4.60154	0.522843	2.55278	0.629491	3.06638	0.793245	3.86701	0.924027	4.51074
0.551762	2.68325	0.403352	1.94142	0.553697	2.68276	0.629571	3.06042	0.754442	3.66344	0.944559	4.5854	0.524633	2.54992	0.631324	3.06141	0.794321	3.85475	0.925436	4.49717
0.554138	2.68265	0.405347	1.94231	0.556072	2.68216	0.631172	3.05437	0.756053	3.65473	0.945526	4.56942	0.526423	2.54708	0.633162	3.05652	0.795402	3.84262	0.926847	4.48372
0.556513	2.68205	0.407341	1.94319	0.558446	2.68156	0.632776	3.04839	0.757669	3.64611	0.946497	4.55361	0.528211	2.54427	0.635005	3.05169	0.796488	3.83062	0.92826	4.47041
0.558887	2.68145	0.409334	1.94405	0.560818	2.68096	0.634382	3.04247	0.759288	3.6376	0.947473	4.53797	0.529999	2.54147	0.636852	3.04692	0.79758	3.81876	0.929675	4.45722
0.561259	2.68085	0.411326	1.94491	0.563189	2.68035	0.635992	3.03662	0.760911	3.62917	0.948453	4.52248	0.531785	2.5387	0.638705	3.04222	0.798677	3.80703	0.931092	4.44416
0.563629	2.68024	0.413318	1.94576	0.565558	2.67975	0.637604	3.03084	0.762537	3.62084	0.949438	4.50715	0.533571	2.53594	0.640561	3.03759	0.799779	3.79543	0.93251	4.43123
0.565998	2.67963	0.415309	1.94659	0.567926	2.67914	0.639219	3.02512	0.764167	3.6126	0.950427	4.49198	0.535357	2.53321	0.642422	3.03301	0.800886	3.78395	0.93393	4.41841
0.568366	2.67903	0.417299	1.94741	0.570292	2.67853	0.640837	3.01946	0.7658	3.60444	0.95142	4.47696	0.537141	2.5305	0.644288	3.0285	0.801999	3.7726	0.935352	4.40572
0.570731	2.67841	0.419289	1.94823	0.572656	2.67791	0.642458	3.01387	0.767437	3.59638	0.952418	4.46209	0.538925	2.52781	0.646158	3.02404	0.803116	3.76137	0.936775	4.39315
0.573095	2.6778	0.421278	1.94903	0.575019	2.6773	0.644082	3.00834	0.769078	3.5884	0.95342	4.44737	0.540708	2.52514	0.648032	3.01965	0.804239	3.75027	0.938201	4.38069
0.575457	2.67718	0.423266	1.94983	0.577379	2.67667	0.64571	3.00287	0.770721	3.5805	0.954427	4.4328	0.542491	2.52249	0.64991	3.01531	0.805367	3.73928	0.939627	4.36835
0.577817	2.67656	0.425253	1.95061	0.579737	2.67605	0.647341	2.99747	0.772368	3.57269	0.955438	4.41838	0.544274	2.51986	0.651792	3.01103	0.8065	3.72842	0.941056	4.35612
0.580175	2.67593	0.42724	1.95138	0.582094	2.67542	0.648975	2.99213	0.774019	3.56496	0.956453	4.4041	0.546055	2.51725	0.653679	3.0068	0.807638	3.71767	0.942486	4.344
0.582531	2.6753	0.429226	1.95215	0.584448	2.67479	0.650613	2.98685	0.775672	3.55731	0.957473	4.38997	0.547837	2.51466	0.655569	3.00262	0.808782	3.70703	0.943917	4.332
0.584885	2.67467	0.431211	1.9529	0.586799	2.67415	0.652254	2.98163	0.777329	3.54974	0.958497	4.37597	0.549618	2.51209	0.657463	2.9985	0.809931	3.69651	0.94535	4.3201
0.587236	2.67403	0.433196	1.95365	0.589149	2.6735	0.653899	2.97648	0.778989	3.54225	0.959526	4.36211	0.551398	2.50954	0.659361	2.99444	0.811084	3.6861	0.946785	4.30832
0.589585	2.67338	0.43518	1.95438	0.591496	2.67285	0.655548	2.97138	0.780652	3.53483	0.960559	4.34839	0.553179	2.50702	0.661262	2.99042	0.812243	3.6758	0.948221	4.29663
0.591931	2.67273	0.437163	1.95511	0.59384	2.67219	0.657201	2.96634	0.782318	3.5275	0.961597	4.3348	0.554959	2.50451	0.663167	2.98645	0.813408	3.66562	0.949658	4.28506
0.594275	2.67207	0.439146	1.95582	0.596181	2.67153	0.658857	2.96137	0.783987	3.52023	0.962639	4.32135	0.556738	2.50202	0.665076	2.98253	0.814577	3.65554	0.951097	4.27358
0.596616	2.67141	0.441127	1.95653	0.59852	2.67086	0.660518	2.95645	0.785659	3.51304	0.963686	4.30803	0.558518	2.49955	0.666987	2.97866	0.815751	3.64557	0.952537	4.26221
0.598954	2.67073	0.443108	1.95723	0.600856	2.67018	0.662182	2.95159	0.787334	3.50593	0.964737	4.29484	0.560298	2.4971	0.668903	2.97483	0.816931	3.6357	0.953979	4.25094
0.60129	2.67005	0.445089	1.95792	0.603189	2.6695	0.663851	2.94679	0.789012	3.49888	0.965792	4.28178	0.562077	2.49468	0.670821	2.97106	0.818116	3.62594	0.955422	4.23977
0.603622	2.66937	0.447068	1.9586	0.605519	2.6688	0.665525	2.94205	0.790692	3.49191	0.966852	4.26885	0.563856	2.49227	0.672743	2.96732	0.819306	3.61628	0.956867	4.2287
0.605951	2.66867	0.449047	1.95927	0.607845	2.6681	0.667203	2.93737	0.792376	3.485	0.967916	4.25604	0.565636	2.48988	0.674668	2.96363	0.820501	3.60672	0.958313	4.21772
0.608277	2.66797	0.451025	1.95994	0.610169	2.66739	0.668885	2.93275	0.794062	3.47817	0.968985	4.24335	0.567415	2.48751	0.676596	2.95999	0.821701	3.59726	0.95976	4.20684
0.6106	2.66725	0.453003	1.96059	0.612488	2.66667	0.670572	2.92819	0.795751	3.4714	0.970058	4.23079	0.569194	2.48516	0.678526	2.95638	0.822906	3.58791	0.961209	4.19605
0.612919	2.66653	0.454979	1.96124	0.614804	2.66594	0.672264	2.92368	0.797442	3.46469	0.971136	4.21835	0.570974	2.48283	0.68046	2.95282	0.824117	3.57865	0.962658	4.18536
0.615234	2.6658	0.456955	1.96188	0.617117	2.6652	0.673961	2.91923	0.799136	3.45805	0.972218	4.20603	0.572753	2.48052	0.682397	2.9493	0.825332	3.56949	0.964109	4.17476
0.617546	2.66506	0.45893	1.96251	0.619425	2.66445	0.675663	2.91484	0.800832	3.45148	0.973304	4.19382	0.574533	2.47823	0.684336	2.94582	0.826553	3.56042	0.965562	4.16425
0.619854	2.66431	0.460905	1.96313	0.62173	2.66369	0.67737	2.91051	0.802531	3.44497	0.974395	4.18174	0.576313	2.47595	0.686278	2.94238	0.827779	3.55145	0.967015	4.15382
0.622158	2.66354	0.462878	1.96374	0.624031	2.66291	0.679083	2.90623	0.804233	3.43852	0.97549	4.16976	0.578093	2.4737	0.688222	2.93898	0.82901	3.54257	0.96847	4.14349
0.624458	2.66277	0.464851	1.96435	0.626327	2.66213	0.680801	2.90201	0.805937	3.43213	0.97659	4.15791	0.579874	2.47146	0.690169	2.93561	0.830246	3.53378	0.969926	4.13324
0.626753	2.66198	0.466824	1.96494	0.628619	2.66133	0.682524	2.89785	0.807643	3.42581	0.977694	4.14616	0.581654	2.46925	0.692118	2.93228	0.831488	3.52509	0.971383	4.12308
0.629045	2.66118	0.468795	1.96553	0.630907	2.66052	0.684253	2.89374	0.809352	3.41954	0.978803	4.13453	0.583436	2.46705	0.69407	2.92899	0.832734	3.51648	0.972841	4.11301
0.631331	2.66037	0.470766	1.96612	0.63319	2.6597	0.685988	2.88969	0.811062	3.41333	0.979916	4.123	0.585217	2.46487	0.696024	2.92573	0.833986	3.50796	0.9743	4.10301
0.633613	2.65954	0.472736	1.96669	0.635468	2.65886	0.687729	2.8857	0.812776	3.40718	0.981034	4.11159	0.586999	2.46271	0.69798	2.92251	0.835243	3.49954	0.975761	4.0931
0.635891	2.6587	0.474705	1.96726	0.637741	2.65801	0.689477	2.88177	0.814491	3.40109	0.982156	4.10028	0.588781	2.46057	0.699938	2.91932	0.836505	3.4912	0.977222	4.08328
0.638163	2.65785	0.476674	1.96782	0.640009	2.65715	0.69123	2.87789	0.816208	3.39505	0.983282	4.08908	0.590564	2.45845	0.701899	2.91616	0.837772	3.48294	0.978685	4.07353
0.64043	2.65699	0.478642	1.96837	0.642272	2.65627	0.69299	2.87407	0.817928	3.38907	0.984413	4.07798	0.592347	2.45635	0.703861	2.91304	0.839044	3.47477	0.980149	4.06386
0.642692	2.6561	0.480609	1.96892	0.64453	2.65537	0.694756	2.8703	0.81965	3.38315	0.985549	4.06699	0.59413	2.45426	0.705825	2.90995	0.840322	3.46669	0.981613	4.05427
0.644949	2.65521	0.482575	1.96946	0.646782	2.65446	0.69653	2.8666	0.821373	3.37727	0.986688	4.05609	0.595915	2.45219	0.707791	2.90689	0.841604	3.45868	0.983079	4.04476
0.6472	2.65429	0.48454	1.96999	0.649029	2.65354	0.69831	2.86294	0.823099	3.37145	0.987833	4.0453	0.597699	2.45015	0.709759	2.90386	0.842892	3.45076	0.984546	4.03533
0.649446	2.65336	0.486505	1.97051	0.65127	2.65259	0.700097	2.85935	0.824827	3.36568	0.988981	4.03462	0.599485	2.44811	0.711729	2.90086	0.844185	3.44292	0.986013	4.02597
0.651685	2.65242	0.48847	1.97103	0.653505	2.65163	0.701891	2.85581	0.826556	3.35997	0.990135	4.02403	0.601271	2.4461	0.7137	2.89789	0.845483	3.43517	0.987482	4.01669
0.653919	2.65145	0.490433	1.97154	0.655734	2.65066	0.703693	2.85233	0.828288	3.3543	0.991292	4.01353	0.603057	2.44411	0.715672	2.89495	0.846787	3.42749	0.988951	4.00748
0.656147	2.65047	0.492396	1.97204	0.657956	2.64966	0.705502	2.8489	0.830021	3.34869	0.992454	4.00314	0.604845	2.44213	0.717647	2.89203	0.848095	3.41989	0.990422	3.99834
0.658368	2.64948	0.494357	1.97254	0.660172	2.64865	0.707318	2.84553	0.831756	3.34312	0.993621	3.99284	0.606633	2.44017	0.719622	2.88915	0.849409	3.41236	0.991893	3.98927
0.660584	2.64846	0.496319	1.97303	0.662382	2.64762	0.709142	2.84222	0.833493	3.3376	0.994792	3.98263	0.608422	2.43822	0.721599	2.88629	0.850728	3.40492	0.993366	3.98028
0.662792	2.64743	0.498279	1.97351	0.664585	2.64657	0.710975	2.83896	0.835231	3.33213	0.995968	3.97252	0.610211	2.4363	0.723577	2.88345	0.852052	3.39755	0.994839	3.97136
0.664994	2.64637	0.500239	1.97399	0.666782	2.6455	0.712815	2.83576	0.836972	3.32671	0.997148	3.9625	0.612001	2.43439	0.725557	2.88065	0.853381	3.39025	0.996313	3.9625
0.667189	2.6453	0.502198	1.97446	0.668971	2.64441	0.714663	2.83261	0.838713	3.32133	0.998332	3.95257	0.613792	2.4325	0.727538	2.87786	0.854716	3.38303	0.997788	3.95372
0.669377	2.64421	0.504156	1.97493	0.671154	2.6433	0.71652	2.82952	0.840457	3.316	0.999521	3.94274	0.615584	2.43063	0.729519	2.87511	0.856056	3.37589	0.999263	3.945
0.671558	2.6431	0.506114	1.97539	0.673329	2.64218	0.718385	2.82649	0.842202	3.31072	1.00071	3.93299	0.617377	2.42877	0.731502	2.87237	0.857401	3.36881	1.00074	3.93635
0.673732	2.64196	0.50807	1.97584	0.675497	2.64103	0.720259	2.82351	0.843949	3.30548			0.619171	2.42693	0.733486	2.86967	0.858751	3.36181		
0.675899	2.64081	0.510026	1.97629	0.677658	2.63986	0.722141	2.82059	0.845697	3.30028			0.620965	2.42511	0.73547	2.86698	0.860106	3.35488		
0.678058	2.63964	0.511982	1.97673	0.679811	2.63867	0.724032	2.81772	0.847446	3.29513			0.62276	2.4233	0.737456	2.86432	0.861467	3.34802		
0.68021	2.63845	0.513936	1.97716	0.681956	2.63746	0.725932	2.81491	0.849197	3.29002			0.624557	2.42151	0.739442	2.86167	0.862833	3.34123		
0.682354	2.63723	0.51589	1.97759	0.684094	2.63623	0.727841	2.81215	0.850949	3.28495			0.626354	2.41974	0.741429	2.85905	0.864204	3.33451		
0.68449	2.636	0.517843	1.97801	0.686224	2.63498	0.729759	2.80945	0.852703	3.27992			0.628152	2.41798	0.743416	2.85646	0.865581	3.32786		
0.686619	2.63474	0.519796	1.97843	0.688346	2.6337	0.731686	2.8068	0.854458	3.27494			0.629951	2.41624	0.745404	2.85388	0.866962	3.32127		
0.68874	2.63346	0.521748	1.97884	0.69046	2.63241	0.733623	2.8042	0.856214	3.26999			0.631751	2.41452	0.747393	2.85132	0.868349	3.31476		
0.690852	2.63217	0.523699	1.97925	0.692567	2.63109	0.735569	2.80166	0.857972	3.26508			0.633553	2.41281	0.749382	2.84878	0.869742	3.3083		
0.692957	2.63085	0.525649	1.97965	0.694665	2.62976	0.737524	2.79918	0.859731	3.26022			0.635355	2.41112	0.751371	2.84626	0.871139	3.30192		
0.695054	2.6295	0.527599	1.98004	0.696755	2.6284	0.739488	2.79674	0.861491	3.25539			0.637158	2.40945	0.753361	2.84377	0.872542	3.2956		
0.697143	2.62814	0.529547	1.98043	0.698837	2.62702	0.741462	2.79436	0.863252	3.2506			0.638962	2.40778	0.755351	2.84128	0.87395	3.28934		
0.699223	2.62676	0.531496	1.98081	0.700911	2.62562	0.743445	2.79203	0.865014	3.24585			0.640768	2.40614	0.757341	2.83882	0.875364	3.28315		
0.701296	2.62536	0.533443	1.98119	0.702977	2.6242	0.745438	2.78976	0.866777	3.24113			0.642574	2.40451	0.759331	2.83638	0.876782	3.27702		
0.70336	2.62393	0.53539	1.98156	0.705035	2.62276	0.74744	2.78753	0.868541	3.23646			0.644382	2.4029	0.761322	2.83395	0.878206	3.27095		
0.705416	2.62249	0.537336	1.98193	0.707084	2.6213	0.749452	2.78535	0.870307	3.23181			0.64619	2.4013	0.763312	2.83154	0.879636	3.26494		
0.707464	2.62102	0.539281	1.9823	0.709126	2.61982	0.751473	2.78323	0.872073	3.22721			0.648	2.39972	0.765303	2.82914	0.881071	3.259		
0.709504	2.61954	0.541226	1.98265	0.711159	2.61832	0.753504	2.78115	0.87384	3.22264			0.649811	2.39815	0.767293	2.82677	0.882511	3.25311		
0.711536	2.61804	0.54317	1.98301	0.713185	2.6168	0.755544	2.77912	0.875609	3.2181			0.651623	2.39659	0.769284	2.8244	0.883956	3.24729		
0.71356	2.61651	0.545113	1.98336	0.715202	2.61526	0.757593	2.77715	0.877378	3.2136			0.653436	2.39506	0.771274	2.82206	0.885407	3.24153		
0.715576	2.61497	0.547055	1.9837	0.717212	2.6137	0.759652	2.77521	0.879148	3.20913			0.655251	2.39353	0.773263	2.81973	0.886863	3.23582		
0.717584	2.61341	0.548997	1.98404	0.719214	2.61213	0.76172	2.77333	0.880919	3.2047			0.657066	2.39202	0.775253	2.81741	0.888325	3.23017		
0.719585	2.61184	0.550938	1.98437	0.721208	2.61054	0.763797	2.77149	0.88269	3.20029			0.658883	2.39053	0.777242	2.8151	0.889792	3.22458		
0.721577	2.61024	0.552879	1.9847	0.723194	2.60893	0.765882	2.76969	0.884463	3.19592			0.660701	2.38905	0.779231	2.81282	0.891264	3.21905		
0.723562	2.60863	0.554819	1.98502	0.725173	2.60731	0.767977	2.76794	0.886236	3.19159			0.66252	2.38758	0.781219	2.81054	0.892742	3.21357		
0.72554	2.607	0.556758	1.98534	0.727145	2.60567	0.770081	2.76624	0.88801	3.18728			0.66434	2.38613	0.783207	2.80828	0.894225	3.20815		
0.72751	2.60536	0.558696	1.98566	0.729109	2.60401	0.772193	2.76457	0.889784	3.18301			0.666162	2.3847	0.785194	2.80603	0.895714	3.20279		
0.729473	2.6037	0.560634	1.98597	0.731066	2.60234	0.774314	2.76295	0.89156	3.17876			0.667985	2.38327	0.787181	2.80379	0.897208	3.19748		
0.731429	2.60203	0.562571	1.98628	0.733016	2.60066	0.776443	2.76137	0.893336	3.17455			0.669809	2.38186	0.789166	2.80157	0.898707	3.19222		
0.733378	2.60034	0.564507	1.98658	0.73496	2.59896	0.778581	2.75982	0.895112	3.17036			0.671634	2.38047	0.791152	2.79936	0.900212	3.18702		
0.73532	2.59865	0.566443	1.98688	0.736896	2.59725	0.780727	2.75832	0.896889	3.16621			0.673461	2.37908	0.793136	2.79716	0.901723	3.18187		
0.737255	2.59693	0.568378	1.98717	0.738826	2.59553	0.782881	2.75685	0.898667	3.16209			0.675289	2.37772	0.79512	2.79497	0.903238	3.17678		
0.739184	2.59521	0.570313	1.98746	0.740749	2.5938	0.785042	2.75543	0.900445	3.15799			0.677118	2.37636	0.797102	2.79279	0.90476	3.17173		
0.741106	2.59348	0.572246	1.98774	0.742667	2.59206	0.787211	2.75403	0.902224	3.15392			0.678948	2.37502	0.799084	2.79063	0.906287	3.16674		
0.743022	2.59173	0.574179	1.98802	0.744578	2.5903	0.789388	2.75268	0.904003	3.14988			0.68078	2.37369	0.801065	2.78847	0.907819	3.1618		
0.744932	2.58998	0.576112	1.9883	0.746483	2.58854	0.791572	2.75135	0.905783	3.14587			0.682613	2.37237	0.803045	2.78633	0.909356	3.15691		
0.746836	2.58821	0.578044	1.98857	0.748382	2.58677	0.793764	2.75007	0.907563	3.14189			0.684447	2.37107	0.805023	2.78419	0.9109	3.15208		
0.748734	2.58644	0.579975	1.98884	0.750276	2.58499	0.795962	2.74881	0.909344	3.13793			0.686283	2.36978	0.807001	2.78207	0.912448	3.14729		
0.750627	2.58466	0.581905	1.98911	0.752164	2.5832	0.798167	2.74758	0.911125	3.134			0.68812	2.36851	0.808977	2.77995	0.914003	3.14255		
0.752514	2.58287	0.583835	1.98937	0.754047	2.58141	0.800379	2.74639	0.912906	3.1301			0.689958	2.36724	0.810953	2.77785	0.915562	3.13786		
0.754396	2.58108	0.585764	1.98962	0.755925	2.57961	0.802598	2.74523	0.914688	3.12622			0.691798	2.36599	0.812927	2.77575	0.917127	3.13322		
0.756273	2.57928	0.587693	1.98988	0.757798	2.57781	0.804822	2.74409	0.91647	3.12237			0.693639	2.36475	0.814899	2.77366	0.918698	3.12863		
0.758145	2.57747	0.589621	1.99013	0.759666	2.576	0.807053	2.74298	0.918253	3.11854			0.695481	2.36352	0.816871	2.77158	0.920274	3.12408		
0.760013	2.57566	0.591548	1.99037	0.76153	2.57418	0.80929	2.7419	0.920036	3.11474			0.697324	2.36231	0.818841	2.76951	0.921856	3.11959		
0.761875	2.57385	0.593475	1.99062	0.763389	2.57237	0.811533	2.74085	0.921819	3.11097			0.699169	2.3611	0.82081	2.76745	0.923443	3.11514		
0.763733	2.57203	0.595401	1.99086	0.765243	2.57055	0.813781	2.73982	0.923602	3.10721			0.701015	2.35991	0.822777	2.76539	0.925036	3.11073		
0.765587	2.57021	0.597326	1.99109	0.767094	2.56872	0.816035	2.73882	0.925386	3.10349			0.702862	2.35873	0.824743	2.76335	0.926634	3.10637		
0.767437	2.56838	0.599251	1.99132	0.76894	2.5669	0.818294	2.73784	0.927169	3.09978			0.704711	2.35757	0.826707	2.76131	0.928238	3.10206		
0.769283	2.56656	0.601175	1.99155	0.770783	2.56507	0.820558	2.73688	0.928954	3.0961			0.706561	2.35641	0.828669	2.75928	0.929848	3.0978		
0.771125	2.56473	0.603099	1.99177	0.772622	2.56324	0.822827	2.73595	0.930738	3.09245			0.708413	2.35527	0.830631	2.75725	0.931463	3.09357		
0.772963	2.5629	0.605022	1.992	0.774458	2.56142	0.825102	2.73504	0.932522	3.08881			0.710265	2.35414	0.83259	2.75524	0.933083	3.0894		
0.774798	2.56108	0.606944	1.99221	0.77629	2.55959	0.82738	2.73415	0.934307	3.08521			0.71212	2.35302	0.834548	2.75323	0.934709	3.08526		
0.77663	2.55925	0.608866	1.99243	0.778119	2.55776	0.829664	2.73328	0.936092	3.08162			0.713975	2.35191	0.836504	2.75122	0.93634	3.08117		
0.778458	2.55742	0.610787	1.99264	0.779944	2.55593	0.831951	2.73243	0.937877	3.07805			0.715832	2.35081	0.838458	2.74923	0.937977	3.07712		
0.780283	2.5556	0.612708	1.99285	0.781767	2.55411	0.834243	2.7316	0.939662	3.07451			0.71769	2.34972	0.840411	2.74724	0.93962	3.07312		
0.782105	2.55377	0.614628	1.99305	0.783587	2.55229	0.836539	2.73078	0.941447	3.07099			0.719549	2.34864	0.842362	2.74525	0.941268	3.06916		
0.783925	2.55195	0.616547	1.99326	0.785404	2.55047	0.838839	2.72999	0.943232	3.06749			0.72141	2.34758	0.844311	2.74328	0.942921	3.06524		
0.785742	2.55013	0.618466	1.99346	0.787219	2.54865	0.841143	2.72921	0.945017	3.06401			0.723272	2.34652	0.846258	2.7413	0.94458	3.06136		
0.787556	2.54831	0.620384	1.99365	0.789031	2.54683	0.84345	2.72845	0.946803	3.06056			0.725135	2.34548	0.848204	2.73934	0.946245	3.05752		
0.789367	2.5465	0.622302	1.99385	0.790841	2.54502	0.845761	2.7277	0.948588	3.05712			0.727	2.34444	0.850147	2.73738	0.947915	3.05372		
0.791177	2.54468	0.624219	1.99403	0.792648	2.54321	0.848076	2.72697	0.950374	3.05371			0.728866	2.34342	0.852089	2.73542	0.94959	3.04996		
0.792984	2.54288	0.626136	1.99422	0.794454	2.54141	0.850394	2.72626	0.95216	3.05031			0.730734	2.34241	0.854028	2.73348	0.951271	3.04625		
0.794789	2.54107	0.628052	1.99441	0.796257	2.53961	0.852714	2.72556	0.953945	3.04694			0.732602	2.34141	0.855966	2.73153	0.952957	3.04257		
0.796592	2.53927	0.629967	1.99459	0.798058	2.53781	0.855038	2.72487	0.955731	3.04358			0.734472	2.34041	0.857901	2.72959	0.954649	3.03893		
0.798393	2.53748	0.631882	1.99477	0.799858	2.53602	0.857365	2.7242	0.957517	3.04025			0.736344	2.33943	0.859835	2.72766	0.956347	3.03533		
0.800192	2.53569	0.633797	1.99494	0.801656	2.53423	0.859695	2.72354	0.959303	3.03694			0.738216	2.33846	0.861767	2.72573	0.958049	3.03177		
0.80199	2.5339	0.63571	1.99512	0.803452	2.53245	0.862027	2.72289	0.961089	3.03364			0.74009	2.3375	0.863696	2.72381	0.959757	3.02825		
0.803786	2.53212	0.637624	1.99529	0.805247	2.53068	0.864362	2.72225	0.962874	3.03037			0.741966	2.33654	0.865624	2.72189	0.961471	3.02476		
0.80558	2.53035	0.639536	1.99545	0.807041	2.52891	0.8667	2.72163	0.96466	3.02711			0.743842	2.3356	0.867549	2.71997	0.96319	3.02132		
0.807374	2.52858	0.641449	1.99562	0.808833	2.52715	0.86904	2.72102	0.966446	3.02388			0.74572	2.33467	0.869472	2.71806	0.964914	3.0179		
0.809165	2.52682	0.64336	1.99578	0.810623	2.52539	0.871382	2.72041	0.968232	3.02066			0.747599	2.33374	0.871393	2.71616	0.966644	3.01453		
0.810956	2.52507	0.645272	1.99594	0.812413	2.52364	0.873726	2.71982	0.970018	3.01746			0.74948	2.33283	0.873313	2.71426	0.968379	3.01119		
0.812745	2.52332	0.647182	1.9961	0.814201	2.5219	0.876073	2.71924	0.971804	3.01428			0.751362	2.33192	0.875229	2.71236	0.970119	3.00789		
0.814534	2.52158	0.649092	1.99625	0.815989	2.52016	0.878421	2.71867	0.97359	3.01112			0.753245	2.33103	0.877144	2.71047	0.971865	3.00462		
0.816321	2.51984	0.651002	1.99641	0.817775	2.51843	0.880772	2.71811	0.975375	3.00797			0.755129	2.33014	0.879057	2.70858	0.973616	3.00139		
0.818107	2.51811	0.652911	1.99656	0.819561	2.51671	0.883124	2.71755	0.977161	3.00484			0.757015	2.32926	0.880967	2.7067	0.975372	2.99819		
0.819893	2.51639	0.65482	1.9967	0.821346	2.515	0.885478	2.717	0.978947	3.00174			0.758902	2.32839	0.882876	2.70482	0.977133	2.99503		
0.821677	2.51468	0.656728	1.99685	0.82313	2.51329	0.887834	2.71647	0.980733	2.99865			0.76079	2.32753	0.884782	2.70294	0.9789	2.9919		
0.823461	2.51297	0.658635	1.99699	0.824913	2.51159	0.890191	2.71594	0.982519	2.99557			0.76268	2.32668	0.886686	2.70107	0.980672	2.9888		
0.825244	2.51127	0.660542	1.99713	0.826696	2.5099	0.89255	2.71542	0.984305	2.99252			0.76457	2.32584	0.888587	2.6992	0.982449	2.98574		
0.827027	2.50958	0.662449	1.99727	0.828478	2.50821	0.89491	2.7149	0.986091	2.98948			0.766463	2.32501	0.890487	2.69734	0.984231	2.98271		
0.828809	2.5079	0.664355	1.99741	0.83026	2.50654	0.897272	2.71439	0.987877	2.98646			0.768356	2.32418	0.892384	2.69548	0.986018	2.97972		
0.830591	2.50623	0.666261	1.99754	0.832041	2.50487	0.899635	2.71389	0.989663	2.98345			0.77025	2.32336	0.894279	2.69362	0.987811	2.97675		
0.832372	2.50456	0.668166	1.99767	0.833822	2.50321	0.901999	2.7134	0.991449	2.98047			0.772146	2.32256	0.896172	2.69177	0.989608	2.97382		
0.834153	2.5029	0.670071	1.9978	0.835602	2.50156	0.904364	2.71291	0.993235	2.9775			0.774043	2.32176	0.898063	2.68992	0.99141	2.97092		
0.835933	2.50125	0.671975	1.99793	0.837382	2.49991	0.90673	2.71243	0.995021	2.97454			0.775942	2.32096	0.899952	2.68808	0.993218	2.96805		
0.837713	2.49961	0.673879	1.99805	0.839162	2.49828	0.909098	2.71195	0.996807	2.97161			0.777841	2.32018	0.901838	2.68624	0.99503	2.96521		
0.839493	2.49798	0.675782	1.99818	0.840942	2.49665	0.911466	2.71148	0.998593	2.96869			0.779742	2.3194	0.903722	2.6844	0.996848	2.9624		
0.841273	2.49635	0.677685	1.9983	0.842722	2.49503	0.913835	2.71101	1.00038	2.96578			0.781644	2.31863	0.905604	2.68256	0.99867	2.95962		
0.843052	2.49473	0.679587	1.99842	0.844501	2.49342	0.916205	2.71055					0.783547	2.31787	0.907484	2.68073	1.0005	2.95687		
0.844832	2.49313	0.681489	1.99854	0.84628	2.49182	0.918575	2.71009					0.785452	2.31712	0.909362	2.67891				
0.846611	2.49153	0.683391	1.99865	0.84806	2.49023	0.920946	2.70964					0.787358	2.31638	0.911237	2.67709				
0.84839	2.48994	0.685292	1.99877	0.849839	2.48865	0.923318	2.70919					0.789265	2.31564	0.91311	2.67527				
0.850169	2.48835	0.687193	1.99888	0.851618	2.48707	0.925691	2.70875					0.791173	2.31491	0.914982	2.67345				
0.851949	2.48678	0.689093	1.99899	0.853398	2.48551	0.928063	2.70831					0.793082	2.31419	0.916851	2.67164				
0.853728	2.48522	0.690992	1.9991	0.855177	2.48395	0.930437	2.70787					0.794993	2.31347	0.918718	2.66983				
0.855508	2.48366	0.692892	1.9992	0.856957	2.4824	0.93281	2.70744					0.796904	2.31277	0.920582	2.66803				
0.857288	2.48211	0.694791	1.99931	0.858737	2.48086	0.935184	2.70701					0.798817	2.31207	0.922445	2.66623				
0.859067	2.48057	0.696689	1.99941	0.860517	2.47933	0.937558	2.70658					0.800731	2.31137	0.924306	2.66443				
0.860848	2.47904	0.698587	1.99951	0.862297	2.47781	0.939932	2.70616					0.802647	2.31069	0.926165	2.66264				
0.862628	2.47752	0.700485	1.99961	0.864078	2.47629	0.942307	2.70573					0.804563	2.31001	0.928021	2.66085				
0.864409	2.47601	0.702382	1.99971	0.865859	2.47479	0.944681	2.70531					0.80648	2.30934	0.929876	2.65906				
0.866189	2.47451	0.704279	1.9998	0.86764	2.47329	0.947056	2.7049					0.808399	2.30867	0.931728	2.65728				
0.867971	2.47302	0.706176	1.9999	0.869421	2.47181	0.94943	2.70448					0.810319	2.30801	0.933579	2.6555				
0.869752	2.47153	0.708072	1.99999	0.871203	2.47033	0.951804	2.70407					0.81224	2.30736	0.935428	2.65373				
0.871534	2.47006	0.709968	2.00008	0.872985	2.46886	0.954178	2.70366					0.814162	2.30672	0.937274	2.65195				
0.873317	2.46859	0.711863	2.00017	0.874768	2.4674	0.956552	2.70325					0.816085	2.30608	0.939119	2.65019				
0.875099	2.46713	0.713758	2.00026	0.876551	2.46595	0.958926	2.70284					0.81801	2.30545	0.940962	2.64843				
0.876882	2.46568	0.715653	2.00034	0.878335	2.46451	0.961299	2.70243					0.819935	2.30482	0.942803	2.64667				
0.878666	2.46424	0.717547	2.00043	0.880119	2.46308	0.963672	2.70202					0.821862	2.3042	0.944642	2.64491				
0.88045	2.46281	0.719441	2.00051	0.881903	2.46165	0.966044	2.70162					0.82379	2.30359	0.946479	2.64316				
0.882235	2.46139	0.721334	2.0006	0.883688	2.46024	0.968416	2.70121					0.825719	2.30298	0.948315	2.64141				
0.88402	2.45997	0.723227	2.00068	0.885474	2.45883	0.970787	2.70081					0.827649	2.30238	0.950148	2.63967				
0.885806	2.45857	0.72512	2.00076	0.88726	2.45743	0.973158	2.7004					0.82958	2.30179	0.95198	2.63793				
0.887592	2.45717	0.727012	2.00083	0.889047	2.45604	0.975528	2.7					0.831512	2.3012	0.95381	2.6362				
0.889379	2.45578	0.728904	2.00091	0.890834	2.45466	0.977897	2.69959					0.833445	2.30062	0.955639	2.63447				
0.891166	2.45441	0.730796	2.00098	0.892622	2.45329	0.980265	2.69919					0.835379	2.30004	0.957465	2.63274				
0.892954	2.45304	0.732687	2.00106	0.894411	2.45193	0.982632	2.69878					0.837314	2.29947	0.95929	2.63102				
0.894743	2.45167	0.734579	2.00113	0.8962	2.45057	0.984999	2.69838					0.839251	2.29891	0.961114	2.6293				
0.896532	2.45032	0.736469	2.0012	0.89799	2.44923	0.987364	2.69797					0.841188	2.29835	0.962936	2.62759				
0.898322	2.44898	0.73836	2.00127	0.89978	2.44789	0.989728	2.69757					0.843127	2.2978	0.964756	2.62588				
0.900113	2.44764	0.74025	2.00134	0.901572	2.44656	0.992092	2.69716					0.845066	2.29725	0.966575	2.62417				
0.901904	2.44632	0.742139	2.00141	0.903363	2.44524	0.994454	2.69675					0.847007	2.29671	0.968392	2.62247				
0.903696	2.445	0.744029	2.00148	0.905156	2.44393	0.996814	2.69634					0.848948	2.29617	0.970207	2.62078				
0.905489	2.44369	0.745918	2.00154	0.906949	2.44263	0.999174	2.69592					0.850891	2.29564	0.972022	2.61909				
0.907282	2.44239	0.747807	2.0016	0.908743	2.44133	1.00153	2.69551					0.852834	2.29512	0.973834	2.6174				
0.909077	2.44109	0.749695	2.00167	0.910538	2.44005							0.854779	2.2946	0.975645	2.61572				
0.910871	2.43981	0.751583	2.00173	0.912333	2.43877							0.856725	2.29408	0.977455	2.61404				
0.912667	2.43853	0.753471	2.00179	0.91413	2.4375							0.858671	2.29357	0.979264	2.61237				
0.914463	2.43727	0.755359	2.00185	0.915926	2.43624							0.860619	2.29307	0.981071	2.6107				
0.91626	2.43601	0.757246	2.00191	0.917724	2.43499							0.862567	2.29257	0.982877	2.60904				
0.918058	2.43476	0.759133	2.00197	0.919523	2.43374							0.864517	2.29207	0.984682	2.60738				
0.919857	2.43351	0.761019	2.00202	0.921322	2.43251							0.866467	2.29158	0.986485	2.60573				
0.921656	2.43228	0.762906	2.00208	0.923122	2.43128							0.868419	2.2911	0.988287	2.60408				
0.923457	2.43105	0.764792	2.00213	0.924923	2.43006							0.870371	2.29062	0.990088	2.60243				
0.925258	2.42983	0.766678	2.00219	0.926725	2.42885							0.872324	2.29014	0.991888	2.6008				
0.92706	2.42862	0.768563	2.00224	0.928527	2.42764							0.874279	2.28967	0.993686	2.59916				
0.928862	2.42742	0.770449	2.00229	0.930331	2.42645							0.876234	2.28921	0.995484	2.59753				
0.930666	2.42623	0.772334	2.00234	0.932135	2.42526							0.87819	2.28875	0.99728	2.59591				
0.93247	2.42504	0.774218	2.00239	0.93394	2.42408							0.880147	2.28829	0.999076	2.59429				
0.934275	2.42386	0.776103	2.00244	0.935746	2.42291							0.882105	2.28784	1.00087	2.59268				
0.936081	2.42269	0.777987	2.00249	0.937552	2.42174							0.884064	2.2874						
0.937888	2.42153	0.779871	2.00253	0.93936	2.42059							0.886024	2.28695						
0.939696	2.42037	0.781755	2.00258	0.941168	2.41944							0.887985	2.28652						
0.941504	2.41923	0.783638	2.00262	0.942978	2.4183							0.889946	2.28608						
0.943314	2.41809	0.785522	2.00267	0.944788	2.41716							0.891909	2.28565						
0.945124	2.41695	0.787405	2.00271	0.946599	2.41604							0.893872	2.28523						
0.946935	2.41583	0.789287	2.00276	0.948411	2.41492							0.895837	2.28481						
0.948747	2.41471	0.79117	2.0028	0.950223	2.41381							0.897802	2.28439						
0.95056	2.4136	0.793052	2.00284	0.952037	2.41271							0.899768	2.28398						
0.952374	2.4125	0.794934	2.00288	0.953851	2.41161							0.901735	2.28357						
0.954189	2.41141	0.796816	2.00292	0.955667	2.41052							0.903702	2.28317						
0.956004	2.41032	0.798698	2.00296	0.957483	2.40944							0.905671	2.28277						
0.957821	2.40924	0.800579	2.003	0.9593	2.40837							0.90764	2.28237						
0.959638	2.40817	0.80246	2.00303	0.961118	2.4073							0.90961	2.28198						
0.961456	2.4071	0.804341	2.00307	0.962937	2.40624							0.911581	2.28159						
0.963275	2.40605	0.806222	2.00311	0.964757	2.40519							0.913553	2.28121						
0.965095	2.40499	0.808102	2.00314	0.966578	2.40414							0.915526	2.28083						
0.966916	2.40395	0.809983	2.00317	0.9684	2.40311							0.917499	2.28045						
0.968738	2.40291	0.811863	2.00321	0.970222	2.40208							0.919474	2.28008						
0.970561	2.40188	0.813743	2.00324	0.972046	2.40105							0.921449	2.27971						
0.972385	2.40086	0.815622	2.00327	0.97387	2.40004							0.923425	2.27934						
0.974209	2.39985	0.817502	2.00331	0.975696	2.39903							0.925401	2.27898						
0.976035	2.39884	0.819381	2.00334	0.977522	2.39802							0.927379	2.27862						
0.977861	2.39784	0.82126	2.00337	0.979349	2.39703							0.929357	2.27827						
0.979689	2.39684	0.823139	2.0034	0.981177	2.39604							0.931336	2.27792						
0.981517	2.39585	0.825018	2.00343	0.983006	2.39505							0.933316	2.27757						
0.983346	2.39487	0.826896	2.00346	0.984836	2.39408							0.935296	2.27722						
0.985176	2.3939	0.828775	2.00349	0.986667	2.39311							0.937277	2.27688						
0.987007	2.39293	0.830653	2.00351	0.988499	2.39214							0.939259	2.27654						
0.988839	2.39197	0.832531	2.00354	0.990331	2.39119							0.941242	2.27621						
0.990672	2.39101	0.834409	2.00357	0.992165	2.39024							0.943226	2.27588						
0.992506	2.39006	0.836287	2.00359	0.994	2.3893							0.94521	2.27555						
0.99434	2.38912	0.838164	2.00362	0.995835	2.38836							0.947195	2.27523						
0.996176	2.38819	0.840041	2.00365	0.997671	2.38743							0.94918	2.2749						
0.998013	2.38726	0.841919	2.00367	0.999509	2.3865							0.951167	2.27459						
0.99985	2.38633	0.843796	2.00369	1.00135	2.38559							0.953154	2.27427						
1.00169	2.38542	0.845673	2.00372									0.955141	2.27396						
		0.847549	2.00374									0.95713	2.27365						
		0.849426	2.00376									0.959119	2.27334						
		0.851302	2.00379									0.961109	2.27304						
		0.853178	2.00381									0.963099	2.27274						
		0.855055	2.00383									0.965091	2.27244						
		0.85693	2.00385									0.967082	2.27215						
		0.858806	2.00387									0.969075	2.27186						
		0.860682	2.00389									0.971068	2.27157						
		0.862557	2.00391									0.973062	2.27128						
		0.864433	2.00393									0.975057	2.271						
		0.866308	2.00395									0.977052	2.27072						
		0.868183	2.00397									0.979047	2.27044						
		0.870058	2.00399									0.981044	2.27016						
		0.871933	2.004									0.983041	2.26989						
		0.873808	2.00402									0.985038	2.26962						
		0.875682	2.00404									0.987037	2.26935						
		0.877557	2.00406									0.989036	2.26909						
		0.879431	2.00407									0.991035	2.26883						
		0.881305	2.00409									0.993035	2.26857						
		0.88318	2.0041									0.995036	2.26831						
		0.885054	2.00412									0.997037	2.26805						
		0.886927	2.00413									0.999039	2.2678						
		0.888801	2.00415									1.00104	2.26755						
		0.890675	2.00416																
		0.892548	2.00418																
		0.894422	2.00419																
		0.896295	2.0042																
		0.898168	2.00422																
		0.900042	2.00423																
		0.901915	2.00424																
		0.903788	2.00426																
		0.90566	2.00427																
		0.907533	2.00428																
		0.909406	2.00429																
		0.911278	2.0043																
		0.913151	2.00431																
		0.915023	2.00432																
		0.916895	2.00434																
		0.918767	2.00435																
		0.92064	2.00436																
		0.922512	2.00437																
		0.924384	2.00438																
		0.926255	2.00438																
		0.928127	2.00439																
		0.929999	2.0044																
		0.93187	2.00441																
		0.933742	2.00442																
		0.935613	2.00443																
		0.937485	2.00444																
		0.939356	2.00445																
		0.941227	2.00445																
		0.943098	2.00446																
		0.94497	2.00447																
		0.946841	2.00448																
		0.948712	2.00448																
		0.950582	2.00449																
		0.952453	2.0045																
		0.954324	2.0045																
		0.956195	2.00451																
		0.958065	2.00452																
		0.959936	2.00452																
		0.961806	2.00453																
		0.963677	2.00453																
		0.965547	2.00454																
		0.967418	2.00455																
		0.969288	2.00455																
		0.971158	2.00456																
		0.973028	2.00456																
		0.974899	2.00457																
		0.976769	2.00457																
		0.978639	2.00458																
		0.980509	2.00458																
		0.982379	2.00459																
		0.984248	2.00459																
		0.986118	2.0046																
		0.987988	2.0046																
		0.989858	2.0046																
		0.991728	2.00461																
		0.993597	2.00461																
		0.995467	2.00462																
		0.997336	2.00462																
		0.999206	2.00462																
		1.00108	2.00463																
