Sym0		Asym0		Sym1		Sym2		Sym3		Sym4		Asym1		Asym2		Asym3		Asym4	
456  Points		540  Points		456  Points		406  Points		369  Points		279  Points		480  Points		421  Points		370  Points		279  Points	
Freq (MHz)	Vph (m/ms)	Freq (MHz)	Vph (m/ms)	Freq (MHz)	Vph (m/ms)	Freq (MHz)	Vph (m/ms)	Freq (MHz)	Vph (m/ms)	Freq (MHz)	Vph (m/ms)	Freq (MHz)	Vph (m/ms)	Freq (MHz)	Vph (m/ms)	Freq (MHz)	Vph (m/ms)	Freq (MHz)	Vph (m/ms)
0.279506	310.539	0.000210272	0.0894239	0.279507	366.023	0.356529	4247.33	0.559017	1811.46	0.838526	2304.4	0.139755	1193.8	0.419264	709.353	0.69877	1608.13	0.713059	4741.16
0.279499	152.585	0.000409391	0.124696	0.2795	164.865	0.356546	351.056	0.559024	450.719	0.83853	647.226	0.139796	133.296	0.419274	275.341	0.698759	511.455	0.713075	658.978
0.279487	101.137	0.000673445	0.159781	0.279489	106.39	0.35659	183.117	0.55904	257.386	0.838538	376.487	0.139904	70.6422	0.419293	170.83	0.698737	304.075	0.713118	354.118
0.279471	75.6317	0.00100172	0.194642	0.279474	78.5321	0.356662	123.883	0.559064	180.129	0.83855	265.451	0.140077	48.1009	0.41932	123.834	0.698704	216.343	0.713186	242.129
0.27945	60.3974	0.00139335	0.229237	0.279453	62.2333	0.356761	93.6204	0.559096	138.549	0.838567	204.995	0.140316	36.5041	0.419355	97.1217	0.69866	167.895	0.713279	183.969
0.279424	50.2693	0.00184725	0.263521	0.279428	51.535	0.356889	75.2546	0.559137	112.569	0.838587	166.971	0.14062	29.4458	0.419399	79.8928	0.698607	137.17	0.713396	148.35
0.279394	43.0484	0.00236225	0.297453	0.279399	43.9735	0.357043	62.9249	0.559186	94.7971	0.838613	140.847	0.140987	24.7032	0.419452	67.8591	0.698544	115.947	0.713537	124.297
0.27936	37.6398	0.00293706	0.331	0.279366	38.3454	0.357225	54.0774	0.559244	81.8749	0.838642	121.794	0.141417	21.3012	0.419514	58.9791	0.698472	100.407	0.713701	106.965
0.279323	33.4373	0.00357021	0.364123	0.279328	33.9932	0.357434	47.4207	0.55931	72.056	0.838676	107.283	0.141909	18.7447	0.419584	52.1571	0.698393	88.5377	0.713888	93.8838
0.279281	30.0777	0.00426029	0.396798	0.279287	30.5269	0.35767	42.2318	0.559384	64.3425	0.838714	95.8625	0.142462	16.7556	0.419662	46.7522	0.698306	79.175	0.714096	83.6604
0.279236	27.3305	0.00500565	0.428993	0.279243	27.7011	0.357932	38.0743	0.559468	58.1232	0.838756	86.6409	0.143073	15.1657	0.419749	42.3647	0.698213	71.6008	0.714326	75.4515
0.279188	25.0422	0.00580467	0.460686	0.279195	25.3531	0.358221	34.669	0.559559	53.0024	0.838802	79.0389	0.143743	13.8671	0.419845	38.7322	0.698115	65.3471	0.714575	68.7155
0.279137	23.1066	0.00665561	0.491851	0.279145	23.3712	0.358536	31.8294	0.559659	48.7128	0.838853	72.6643	0.144468	12.7877	0.41995	35.6755	0.698011	60.0964	0.714844	63.0889
0.279084	21.448	0.00755674	0.522472	0.279092	21.6759	0.358876	29.4258	0.559767	45.0675	0.838908	67.2422	0.145247	11.8772	0.420063	33.0678	0.697904	55.6252	0.715131	58.3188
0.279028	20.0109	0.00850639	0.552538	0.279036	20.2092	0.359242	27.3653	0.559884	41.9315	0.838967	62.574	0.14608	11.0996	0.420184	30.8171	0.697794	51.7718	0.715435	54.2238
0.278971	18.7537	0.00950273	0.582031	0.278979	18.9279	0.359633	25.5796	0.560009	39.2053	0.839031	58.5127	0.146964	10.4285	0.420315	28.8549	0.697681	48.4167	0.715757	50.6701
0.278912	17.6446	0.010544	0.610943	0.27892	17.7988	0.360049	24.0176	0.560143	36.8134	0.839099	54.9472	0.147896	9.84388	0.420454	27.1292	0.697567	45.4689	0.716094	47.5573
0.278852	16.6589	0.0116285	0.639274	0.27886	16.7963	0.360489	22.6399	0.560285	34.6981	0.839171	51.7921	0.148877	9.33052	0.420601	25.5998	0.697452	42.8585	0.716447	44.8082
0.278791	15.7771	0.0127545	0.66701	0.2788	15.9004	0.360953	21.4159	0.560435	32.8141	0.839247	48.9803	0.149903	8.87652	0.420757	24.235	0.697336	40.5309	0.716815	42.3627
0.27873	14.9836	0.0139203	0.694156	0.278739	15.0948	0.361441	20.3215	0.560594	31.1254	0.839328	46.4588	0.150973	8.47245	0.420922	23.0097	0.69722	38.4424	0.717198	40.1733
0.278669	14.2658	0.0151242	0.720706	0.278678	14.3667	0.361952	19.3373	0.560761	29.6033	0.839413	44.1848	0.15194	8.15515	0.421095	21.9036	0.697105	36.5581	0.717594	38.2018
0.278608	13.6134	0.0163647	0.746668	0.278617	13.7052	0.362486	18.4476	0.560937	28.2244	0.839502	42.1236	0.152789	7.90699	0.421277	20.9002	0.69699	34.8493	0.718003	36.4173
0.278548	13.0179	0.0176401	0.772041	0.278557	13.1018	0.363042	17.6395	0.561121	26.9694	0.839595	40.2468	0.153508	7.71564	0.421468	19.9858	0.696878	33.2928	0.718425	34.7945
0.27849	12.4721	0.018949	0.796831	0.278498	12.5492	0.36362	16.9024	0.561314	25.8223	0.839693	38.5306	0.154086	7.57248	0.421667	19.1492	0.696768	31.869	0.718859	33.3123
0.278433	11.9701	0.0202897	0.821044	0.278442	12.0411	0.36422	16.2275	0.561515	24.7699	0.839795	36.9554	0.154517	7.47148	0.421875	18.381	0.696659	30.5617	0.719305	31.9534
0.278379	11.5069	0.021661	0.844688	0.278387	11.5724	0.364841	15.6073	0.561725	23.8009	0.839901	35.5044	0.154795	7.40865	0.422091	17.673	0.696554	29.3572	0.719763	30.703
0.278327	11.0781	0.0230614	0.867771	0.278334	11.1388	0.365483	15.0355	0.561943	22.9059	0.840012	34.1636	0.155199	7.3207	0.422316	17.0185	0.696452	28.2438	0.720232	29.5486
0.278278	10.6801	0.0244897	0.890301	0.278285	10.7365	0.366145	14.5067	0.562169	22.0767	0.840127	32.9208	0.155642	7.22814	0.42255	16.4117	0.696353	27.2116	0.720711	28.4797
0.278232	10.3096	0.0259445	0.91229	0.278238	10.3623	0.366826	14.0163	0.562404	21.3063	0.840246	31.7657	0.156252	7.1071	0.422792	15.8477	0.696258	26.2521	0.721202	27.4871
0.27819	9.9641	0.0274246	0.933746	0.278196	10.0132	0.367528	13.5604	0.562647	20.5888	0.840369	30.6894	0.157034	6.96149	0.423043	15.322	0.696166	25.3579	0.721702	26.5629
0.278152	9.641	0.028929	0.95468	0.278157	9.687	0.368248	13.1354	0.562898	19.9189	0.840497	29.6841	0.157998	6.79571	0.423303	14.8309	0.696079	24.5225	0.722212	25.7004
0.278118	9.33828	0.0304564	0.975104	0.278123	9.38142	0.368987	12.7384	0.563158	19.2921	0.840629	28.743	0.159152	6.61436	0.423571	14.3712	0.695997	23.7403	0.722733	24.8935
0.27809	9.05409	0.0320058	0.99503	0.278094	9.09461	0.369744	12.3668	0.563427	18.7043	0.840765	27.8601	0.160506	6.42194	0.423848	13.9399	0.695918	23.0065	0.723262	24.1372
0.278067	8.78679	0.0335762	1.01447	0.27807	8.82494	0.37052	12.0182	0.563704	18.1521	0.840905	27.0302	0.16189	6.24453	0.424133	13.5346	0.695845	22.3167	0.723801	23.4268
0.278049	8.53496	0.0351665	1.03343	0.278052	8.57092	0.371312	11.6906	0.563989	17.6322	0.84105	26.2488	0.163302	6.08049	0.424427	13.1529	0.695776	21.6671	0.72435	22.7582
0.278038	8.29731	0.0367761	1.05193	0.278039	8.33127	0.372122	11.3822	0.564282	17.1421	0.841199	25.5116	0.164742	5.92845	0.42473	12.7929	0.695713	21.0542	0.724907	22.128
0.278033	8.07271	0.0384039	1.06997	0.278034	8.13324	0.372948	11.0914	0.564585	16.6792	0.841353	24.8151	0.166208	5.78718	0.425041	12.4528	0.695654	20.4751	0.725473	21.5329
0.278035	7.86013	0.040049	1.08758	0.278033	7.97182	0.373791	10.8167	0.564895	16.2413	0.84151	24.1559	0.1677	5.65563	0.425361	12.1311	0.695601	19.9271	0.726047	20.97
0.278044	7.65866	0.0417108	1.10475	0.278035	7.84318	0.374649	10.557	0.565214	15.8266	0.841672	23.5312	0.169215	5.53288	0.425689	11.8262	0.695554	19.4078	0.726631	20.4369
0.27806	7.46747	0.0433884	1.12151	0.278039	7.74442	0.375523	10.3109	0.565541	15.4331	0.841838	22.9384	0.170753	5.41812	0.426026	11.5369	0.695512	18.9149	0.727222	19.9313
0.278084	7.28581	0.0450811	1.13786	0.278043	7.6734	0.376413	10.0775	0.565877	15.0594	0.842009	22.375	0.172313	5.31061	0.426372	11.2621	0.695476	18.4465	0.727822	19.451
0.278116	7.11303	0.0467883	1.15382	0.278046	7.62865	0.377317	9.85587	0.566221	14.7039	0.842183	21.8389	0.173893	5.20972	0.426726	11.0008	0.695445	18.0008	0.72843	18.9943
0.278157	6.9485	0.0485093	1.16939	0.278051	7.56524	0.378235	9.64514	0.566573	14.3655	0.842362	21.3283	0.175493	5.11489	0.427089	10.7519	0.69542	17.5763	0.729046	18.5595
0.278207	6.79166	0.0502435	1.18459	0.278057	7.49754	0.379168	9.44454	0.566934	14.0429	0.842546	20.8413	0.177112	5.02561	0.427461	10.5146	0.695401	17.1715	0.72967	18.145
0.278265	6.64202	0.0519902	1.19942	0.278067	7.40742	0.380115	9.25338	0.567303	13.7351	0.842733	20.3763	0.178749	4.94143	0.427841	10.2882	0.695389	16.785	0.730301	17.7495
0.278333	6.4991	0.053749	1.21391	0.278082	7.29659	0.381076	9.07102	0.567681	13.441	0.842925	19.932	0.180404	4.86193	0.42823	10.0719	0.695382	16.4157	0.730941	17.3716
0.27841	6.3625	0.0555193	1.22805	0.278105	7.16703	0.382049	8.89688	0.568067	13.1599	0.843122	19.5068	0.182074	4.78676	0.428628	9.86508	0.695381	16.0624	0.731588	17.0104
0.278498	6.23181	0.0573006	1.24186	0.278138	7.02097	0.383036	8.73044	0.568461	12.8908	0.843322	19.0998	0.18376	4.71558	0.429034	9.66713	0.695387	15.7241	0.732243	16.6646
0.278596	6.10668	0.0590924	1.25534	0.278183	6.86076	0.384035	8.57119	0.568864	12.633	0.843527	18.7096	0.185461	4.6481	0.429449	9.47751	0.695399	15.4	0.732905	16.3333
0.278704	5.98679	0.0608943	1.26851	0.278238	6.70797	0.385047	8.41871	0.569275	12.3859	0.843736	18.3353	0.187177	4.58405	0.429872	9.29572	0.695417	15.089	0.733574	16.0157
0.278823	5.87183	0.0627058	1.28138	0.278301	6.5621	0.38607	8.27257	0.569694	12.1487	0.843949	17.976	0.188905	4.52318	0.430305	9.1213	0.695442	14.7906	0.734251	15.7109
0.278953	5.76152	0.0645265	1.29395	0.278375	6.42273	0.386972	8.1501	0.570122	11.921	0.844167	17.6308	0.190647	4.46527	0.430745	8.95381	0.695472	14.5038	0.734936	15.4182
0.279094	5.6556	0.0663561	1.30623	0.278458	6.28945	0.387747	8.04911	0.570558	11.7021	0.844389	17.2988	0.192401	4.41012	0.431195	8.79286	0.69551	14.2281	0.735627	15.1368
0.279246	5.55384	0.0681941	1.31824	0.278551	6.16188	0.388393	7.96785	0.571003	11.4917	0.844615	16.9793	0.194167	4.35754	0.431653	8.63809	0.695554	13.9629	0.736325	14.8662
0.279411	5.45601	0.0700402	1.32997	0.278654	6.03969	0.388907	7.90501	0.571456	11.2891	0.844846	16.6717	0.195944	4.30736	0.43212	8.48915	0.695604	13.7075	0.737031	14.6057
0.279587	5.3619	0.071894	1.34144	0.278768	5.92256	0.389287	7.85956	0.571917	11.094	0.845081	16.3753	0.197732	4.25942	0.432595	8.34573	0.695661	13.4615	0.737744	14.3548
0.279776	5.27133	0.0737553	1.35265	0.278893	5.81021	0.38953	7.83081	0.572387	10.906	0.84532	16.0894	0.19953	4.21359	0.433016	8.22503	0.695724	13.2243	0.738463	14.1129
0.279977	5.18412	0.0756236	1.36362	0.279029	5.70236	0.389882	7.78993	0.572865	10.7247	0.845563	15.8136	0.201338	4.16973	0.433381	8.12513	0.695794	12.9955	0.739189	13.8797
0.280191	5.10009	0.0774988	1.37434	0.279177	5.59877	0.390265	7.74609	0.573351	10.5498	0.845811	15.5474	0.203156	4.12772	0.433686	8.04453	0.695871	12.7746	0.739923	13.6546
0.280417	5.0191	0.0793806	1.38483	0.279336	5.49921	0.390788	7.68742	0.573846	10.381	0.846063	15.2901	0.204982	4.08745	0.433929	7.98204	0.695954	12.5613	0.740663	13.4372
0.280657	4.94099	0.0812686	1.39509	0.279507	5.40347	0.391453	7.61477	0.574349	10.2179	0.846319	15.0415	0.206817	4.04882	0.434109	7.93678	0.696044	12.3552	0.74141	13.2272
0.28091	4.86563	0.0831627	1.40514	0.27969	5.31134	0.392263	7.52916	0.57486	10.0602	0.84658	14.8011	0.20866	4.01173	0.434225	7.90811	0.69614	12.1558	0.742163	13.0241
0.281176	4.7929	0.0850624	1.41496	0.279886	5.22265	0.39322	7.43171	0.575379	9.90775	0.846845	14.5684	0.210511	3.97609	0.434393	7.8673	0.696243	11.963	0.742923	12.8277
0.281456	4.72267	0.0869678	1.42458	0.280094	5.13722	0.394327	7.32369	0.575907	9.76025	0.847115	14.3431	0.212369	3.94182	0.434576	7.82347	0.696353	11.7764	0.74369	12.6377
0.281751	4.65484	0.0888785	1.43399	0.280314	5.05489	0.395445	7.21952	0.576444	9.61748	0.847388	14.1249	0.214234	3.90885	0.434827	7.76472	0.69647	11.5957	0.744464	12.4536
0.282059	4.58929	0.0907942	1.4432	0.280548	4.97551	0.396572	7.11901	0.576988	9.47922	0.847666	13.9135	0.216107	3.8771	0.435147	7.69183	0.696593	11.4206	0.745243	12.2753
0.282381	4.52593	0.0927149	1.45223	0.280795	4.89894	0.397709	7.02197	0.577541	9.34525	0.847948	13.7085	0.217985	3.84651	0.435538	7.6057	0.696723	11.2508	0.74603	12.1026
0.282718	4.46466	0.0946403	1.46106	0.281056	4.82505	0.398855	6.92823	0.578102	9.21541	0.848235	13.5096	0.21987	3.81702	0.436004	7.50739	0.69686	11.0862	0.746822	11.935
0.28307	4.4054	0.0965703	1.46972	0.28133	4.75372	0.40001	6.83764	0.578672	9.08949	0.848526	13.3167	0.221761	3.78857	0.436546	7.39804	0.697004	10.9266	0.747622	11.7725
0.283437	4.34806	0.0985045	1.47819	0.281618	4.68483	0.401174	6.75003	0.57925	8.96733	0.848821	13.1293	0.223658	3.7611	0.437097	7.29223	0.697154	10.7716	0.748427	11.6148
0.283819	4.29256	0.100443	1.4865	0.281919	4.61828	0.402346	6.66527	0.579836	8.84877	0.849121	12.9474	0.22556	3.73457	0.437656	7.18981	0.697311	10.6211	0.749239	11.4617
0.284216	4.23884	0.102385	1.49464	0.282236	4.55395	0.403527	6.58322	0.58043	8.73366	0.849424	12.7706	0.227467	3.70893	0.438224	7.09062	0.697475	10.475	0.750057	11.313
0.284629	4.18682	0.104332	1.50261	0.282566	4.49176	0.404716	6.50376	0.581033	8.62186	0.849733	12.5987	0.229379	3.68414	0.438801	6.99451	0.697646	10.333	0.750881	11.1684
0.285057	4.13643	0.106282	1.51043	0.282911	4.43161	0.405913	6.42678	0.581644	8.51323	0.850045	12.4316	0.231296	3.66016	0.439387	6.90135	0.697823	10.1949	0.751712	11.028
0.285501	4.08761	0.108235	1.51809	0.283271	4.37342	0.407118	6.35215	0.582183	8.42105	0.850362	12.2691	0.233217	3.63694	0.439981	6.81101	0.698008	10.0607	0.752549	10.8914
0.285962	4.04031	0.110192	1.5256	0.283646	4.31712	0.408331	6.27979	0.582647	8.34423	0.850683	12.1109	0.235142	3.61445	0.440584	6.72337	0.698199	9.93006	0.753391	10.7585
0.286377	4.00028	0.112152	1.53297	0.284037	4.26261	0.409551	6.20958	0.583035	8.2819	0.851008	11.9569	0.237072	3.59266	0.441195	6.63832	0.698397	9.80297	0.75424	10.6292
0.28674	3.96701	0.114116	1.54019	0.284442	4.20984	0.410779	6.14143	0.583343	8.23336	0.851338	11.807	0.239005	3.57153	0.441816	6.55575	0.698601	9.67926	0.755095	10.5033
0.287048	3.94006	0.115829	1.54637	0.284864	4.15873	0.412014	6.07527	0.583572	8.19808	0.851672	11.661	0.240943	3.55104	0.442445	6.47556	0.698813	9.5588	0.755956	10.3808
0.287295	3.91912	0.117292	1.55156	0.285301	4.10922	0.413255	6.011	0.583718	8.17568	0.852011	11.5187	0.242883	3.53116	0.443083	6.39766	0.699031	9.44146	0.756823	10.2614
0.28748	3.90392	0.118502	1.55579	0.285754	4.06125	0.414504	5.94855	0.58393	8.14372	0.852353	11.38	0.244828	3.51185	0.443729	6.32195	0.699256	9.32713	0.757696	10.1451
0.287599	3.89427	0.11946	1.55911	0.286224	4.01476	0.415759	5.88784	0.584161	8.10931	0.8527	11.2447	0.246775	3.4931	0.444384	6.24834	0.699488	9.21569	0.758575	10.0317
0.287772	3.88053	0.120165	1.56152	0.28671	3.9697	0.417021	5.8288	0.584476	8.06304	0.853052	11.1128	0.248725	3.47488	0.445048	6.17676	0.699727	9.10705	0.759459	9.92117
0.287962	3.86575	0.120616	1.56306	0.287213	3.92601	0.41829	5.77137	0.584878	8.00538	0.853408	10.9841	0.250678	3.45717	0.445721	6.10712	0.699972	9.00109	0.76035	9.81336
0.288225	3.84591	0.121265	1.56526	0.287733	3.88366	0.419565	5.71549	0.585369	7.9369	0.853768	10.8586	0.252634	3.43994	0.446402	6.03936	0.700224	8.89774	0.761246	9.70819
0.288562	3.82123	0.121971	1.56764	0.288269	3.84258	0.420845	5.66109	0.58595	7.85827	0.854132	10.736	0.254593	3.42318	0.447092	5.9734	0.700483	8.79688	0.762148	9.60556
0.288979	3.792	0.122931	1.57084	0.288824	3.80274	0.422132	5.60811	0.586624	7.77023	0.854501	10.6163	0.256554	3.40687	0.447791	5.90918	0.700749	8.69844	0.763056	9.50538
0.289481	3.75854	0.124146	1.57485	0.289396	3.7641	0.423425	5.55651	0.587307	7.68444	0.854874	10.4994	0.258517	3.39099	0.448498	5.84663	0.700986	8.61457	0.763969	9.40758
0.290074	3.72122	0.125617	1.57964	0.289986	3.72661	0.424723	5.50623	0.587998	7.60082	0.855251	10.3852	0.260483	3.37552	0.449215	5.7857	0.701192	8.54442	0.764888	9.31206
0.290684	3.68501	0.127344	1.58517	0.290594	3.69024	0.426027	5.45722	0.588697	7.51929	0.855633	10.2736	0.26245	3.36044	0.44994	5.72632	0.701366	8.48734	0.765813	9.21875
0.291314	3.64988	0.129328	1.59141	0.291221	3.65496	0.427337	5.40943	0.589404	7.43979	0.856019	10.1645	0.26442	3.34574	0.450673	5.66845	0.701505	8.44279	0.766743	9.12758
0.291962	3.61579	0.131314	1.59754	0.291866	3.62072	0.428652	5.36283	0.590119	7.36224	0.85641	10.0579	0.266391	3.33141	0.451416	5.61202	0.701608	8.41035	0.767679	9.03847
0.292629	3.58272	0.133302	1.60355	0.29253	3.5875	0.429972	5.31736	0.590843	7.28657	0.856805	9.95361	0.268364	3.31743	0.452167	5.55699	0.701674	8.38973	0.768621	8.95136
0.293316	3.55062	0.135293	1.60946	0.293214	3.55526	0.431298	5.273	0.591575	7.21272	0.857204	9.85161	0.270338	3.30379	0.452927	5.50332	0.70177	8.36028	0.769568	8.86619
0.294023	3.51948	0.137285	1.61526	0.293918	3.52398	0.432628	5.22969	0.592315	7.14063	0.857607	9.75183	0.272314	3.29047	0.453696	5.45095	0.701876	8.32852	0.77052	8.78289
0.294749	3.48927	0.13928	1.62095	0.294641	3.49363	0.433963	5.18741	0.593063	7.07023	0.858015	9.65419	0.274292	3.27747	0.454474	5.39985	0.70202	8.28574	0.771355	8.71177
0.295496	3.45995	0.141276	1.62655	0.295386	3.46419	0.435303	5.14612	0.593819	7.00148	0.858427	9.55862	0.27627	3.26477	0.45526	5.34997	0.702205	8.23232	0.772069	8.65221
0.296264	3.43151	0.143274	1.63205	0.29615	3.43562	0.436648	5.10578	0.594584	6.93432	0.858844	9.46506	0.27825	3.25235	0.456055	5.30127	0.702433	8.1687	0.772663	8.60368
0.297053	3.40391	0.145273	1.63745	0.296936	3.4079	0.437997	5.06636	0.595356	6.8687	0.859265	9.37346	0.280231	3.24022	0.456859	5.25372	0.702704	8.09542	0.773133	8.56575
0.297864	3.37715	0.147275	1.64275	0.297744	3.38102	0.439351	5.02783	0.596137	6.80456	0.85969	9.28374	0.282213	3.22836	0.457672	5.20727	0.703022	8.01308	0.77348	8.53812
0.298697	3.35119	0.149278	1.64797	0.298574	3.35494	0.440709	4.99017	0.596926	6.74187	0.86012	9.19586	0.284196	3.21675	0.458493	5.1619	0.703346	7.93253	0.773702	8.52054
0.299552	3.32602	0.151282	1.65309	0.299425	3.32966	0.442072	4.95334	0.597723	6.68057	0.860553	9.10975	0.286179	3.2054	0.459324	5.11757	0.703678	7.85374	0.774022	8.49542
0.30043	3.30161	0.153288	1.65813	0.3003	3.30514	0.443438	4.91732	0.598528	6.62062	0.860992	9.02538	0.288164	3.19429	0.460163	5.07424	0.704016	7.77665	0.77437	8.46832
0.301332	3.27796	0.155295	1.66308	0.301199	3.28138	0.444809	4.88208	0.599341	6.56199	0.861434	8.94268	0.290148	3.18342	0.461011	5.0319	0.70436	7.7012	0.774845	8.43179
0.302258	3.25504	0.157303	1.66794	0.302121	3.25835	0.446183	4.84759	0.600162	6.50463	0.861824	8.87194	0.292134	3.17277	0.461867	4.9905	0.704712	7.62734	0.775448	8.38612
0.303208	3.23283	0.159313	1.67273	0.303067	3.23604	0.447562	4.81384	0.600991	6.4485	0.862158	8.8126	0.29412	3.16234	0.462733	4.95002	0.705069	7.55503	0.776179	8.33166
0.304182	3.21132	0.161324	1.67743	0.304038	3.21443	0.448944	4.7808	0.601828	6.39357	0.862437	8.76417	0.296106	3.15212	0.463607	4.91043	0.705434	7.48422	0.777041	8.26885
0.305183	3.1905	0.163336	1.68206	0.305035	3.19351	0.45033	4.74845	0.602674	6.3398	0.862658	8.72629	0.298092	3.1421	0.46449	4.87171	0.705806	7.41487	0.778034	8.19814
0.306209	3.17035	0.16535	1.68661	0.306057	3.17326	0.45172	4.71677	0.603527	6.28716	0.862821	8.69866	0.300079	3.13228	0.465383	4.83383	0.706183	7.34692	0.779033	8.12886
0.307262	3.15086	0.167364	1.69109	0.307106	3.15367	0.453113	4.68573	0.604389	6.23561	0.862926	8.68108	0.302066	3.12265	0.466283	4.79677	0.706568	7.28036	0.780037	8.06097
0.308341	3.13201	0.169379	1.69549	0.308182	3.13473	0.45451	4.65532	0.605258	6.18512	0.863077	8.65594	0.304053	3.1132	0.467193	4.7605	0.706959	7.21512	0.781046	7.99442
0.309449	3.11379	0.171395	1.69982	0.309285	3.11641	0.45591	4.62552	0.606135	6.13567	0.863242	8.6288	0.30604	3.10394	0.468112	4.725	0.707357	7.15118	0.78206	7.92919
0.310584	3.09618	0.173413	1.70408	0.310416	3.09872	0.457314	4.59631	0.607021	6.08722	0.863467	8.59218	0.308026	3.09484	0.469039	4.69026	0.707762	7.08851	0.78308	7.86523
0.311748	3.07919	0.175431	1.70827	0.311576	3.08164	0.45872	4.56768	0.607914	6.03975	0.863753	8.54636	0.310013	3.08592	0.469976	4.65624	0.708173	7.02705	0.784104	7.8025
0.312942	3.06279	0.17745	1.7124	0.312765	3.06516	0.46013	4.5396	0.608816	5.99323	0.864101	8.49165	0.312	3.07715	0.470921	4.62293	0.70859	6.96679	0.785133	7.74097
0.314165	3.04698	0.17947	1.71645	0.313984	3.04926	0.461543	4.51206	0.609725	5.94763	0.864513	8.42844	0.313986	3.06854	0.471875	4.59031	0.709015	6.90768	0.786168	7.68062
0.315418	3.03174	0.18149	1.72045	0.315233	3.03393	0.462959	4.48505	0.610642	5.90293	0.864989	8.35718	0.315972	3.06009	0.472838	4.55836	0.709445	6.8497	0.787207	7.6214
0.316702	3.01706	0.183511	1.72438	0.316512	3.01917	0.464378	4.45855	0.611567	5.8591	0.865469	8.28722	0.317957	3.05178	0.473809	4.52707	0.709883	6.79282	0.788251	7.56329
0.318016	3.00293	0.185533	1.72825	0.317822	3.00496	0.465799	4.43255	0.6125	5.81613	0.865954	8.21854	0.319942	3.04361	0.47479	4.49641	0.710327	6.73701	0.7893	7.50625
0.319363	2.98934	0.187556	1.73206	0.319164	2.9913	0.467224	4.40704	0.613441	5.77398	0.866444	8.15111	0.321926	3.03558	0.47578	4.46638	0.710777	6.68223	0.790354	7.45026
0.32074	2.97628	0.189579	1.73581	0.320537	2.97816	0.468651	4.38199	0.61439	5.73264	0.866937	8.08489	0.32391	3.02769	0.476778	4.43694	0.711234	6.62847	0.791413	7.39529
0.32215	2.96374	0.191603	1.7395	0.321942	2.96554	0.470081	4.3574	0.615346	5.69208	0.867435	8.01985	0.325893	3.01993	0.477785	4.4081	0.711698	6.57569	0.792477	7.34131
0.323592	2.9517	0.193627	1.74313	0.323379	2.95343	0.471513	4.33325	0.616311	5.65229	0.867938	7.95597	0.327875	3.01229	0.478802	4.37982	0.712167	6.52387	0.793545	7.28831
0.325066	2.94016	0.195652	1.74671	0.324848	2.94182	0.472948	4.30954	0.617283	5.61324	0.868444	7.8932	0.329857	3.00478	0.479827	4.35211	0.712644	6.47299	0.794618	7.23624
0.326572	2.9291	0.197678	1.75023	0.326349	2.93069	0.474386	4.28625	0.618263	5.57492	0.868956	7.83153	0.331838	2.99738	0.480861	4.32494	0.713127	6.42302	0.795696	7.18509
0.32811	2.91851	0.199703	1.7537	0.327883	2.92003	0.475825	4.26337	0.619251	5.53731	0.869471	7.77092	0.333817	2.9901	0.481904	4.2983	0.713616	6.37394	0.796778	7.13484
0.32968	2.90837	0.20173	1.75712	0.329448	2.90983	0.477268	4.24089	0.620247	5.50039	0.869991	7.71136	0.335796	2.98293	0.482956	4.27218	0.714112	6.32573	0.797866	7.08546
0.331282	2.89868	0.203756	1.76049	0.331046	2.90007	0.478712	4.2188	0.62125	5.46414	0.870515	7.6528	0.337774	2.97587	0.484016	4.24657	0.714614	6.27836	0.798957	7.03694
0.332916	2.88941	0.205783	1.7638	0.332674	2.89074	0.480159	4.19709	0.622261	5.42855	0.871044	7.59524	0.339751	2.96892	0.485086	4.22144	0.715123	6.23182	0.800054	6.98924
0.33458	2.88057	0.207811	1.76707	0.334334	2.88184	0.481608	4.17574	0.62328	5.3936	0.871577	7.53864	0.341727	2.96206	0.486165	4.1968	0.715638	6.18608	0.801155	6.94235
0.336275	2.87213	0.209839	1.77029	0.336025	2.87334	0.483059	4.15476	0.624307	5.35927	0.872114	7.48299	0.343701	2.95531	0.487252	4.17263	0.716159	6.14113	0.80226	6.89625
0.338001	2.86407	0.211867	1.77346	0.337746	2.86523	0.484512	4.13413	0.625341	5.32556	0.872656	7.42825	0.345674	2.94866	0.488349	4.14892	0.716687	6.09694	0.80337	6.85093
0.339755	2.85639	0.213895	1.77658	0.339497	2.85749	0.485967	4.11385	0.626383	5.29244	0.873202	7.37442	0.347647	2.9421	0.489454	4.12565	0.717221	6.05351	0.804485	6.80635
0.341539	2.84907	0.215924	1.77966	0.341276	2.85012	0.487425	4.09389	0.627432	5.2599	0.873753	7.32146	0.349617	2.93563	0.490568	4.10282	0.717761	6.0108	0.805603	6.76251
0.343351	2.84209	0.217952	1.78269	0.343084	2.84309	0.488884	4.07427	0.62849	5.22793	0.874307	7.26936	0.351587	2.92925	0.491692	4.08042	0.718308	5.96881	0.806727	6.71939
0.345189	2.83544	0.219981	1.78568	0.344919	2.8364	0.490345	4.05496	0.629554	5.19651	0.874867	7.21809	0.353555	2.92296	0.492824	4.05844	0.718861	5.92751	0.807854	6.67697
0.347055	2.82911	0.222011	1.78862	0.34678	2.83002	0.491808	4.03596	0.630626	5.16563	0.87543	7.16764	0.355521	2.91675	0.493965	4.03686	0.719421	5.8869	0.808986	6.63523
0.348946	2.82309	0.22404	1.79152	0.348667	2.82395	0.493273	4.01727	0.631706	5.13529	0.875998	7.118	0.357486	2.91062	0.495115	4.01569	0.719987	5.84695	0.810123	6.59416
0.350861	2.81735	0.226069	1.79438	0.350579	2.81817	0.494739	3.99887	0.632794	5.10546	0.876571	7.06913	0.359449	2.90457	0.496274	3.9949	0.720559	5.80766	0.811263	6.55374
0.352801	2.81189	0.228099	1.7972	0.352515	2.81267	0.496207	3.98076	0.633889	5.07613	0.877147	7.02103	0.361411	2.8986	0.497442	3.97449	0.721137	5.769	0.812408	6.51396
0.354763	2.80668	0.230129	1.79998	0.354474	2.80743	0.497677	3.96293	0.634991	5.0473	0.877729	6.97367	0.363371	2.89271	0.498619	3.95445	0.721721	5.73096	0.813557	6.47481
0.356747	2.80173	0.232158	1.80272	0.356456	2.80244	0.499149	3.94538	0.636101	5.01896	0.878314	6.92705	0.36533	2.88689	0.499804	3.93478	0.722312	5.69353	0.814711	6.43626
0.358753	2.79701	0.234188	1.80542	0.358458	2.79769	0.500622	3.92809	0.637218	4.99108	0.878904	6.88114	0.367287	2.88114	0.500999	3.91547	0.722909	5.65669	0.815868	6.39831
0.360778	2.79252	0.236218	1.80808	0.36048	2.79317	0.502097	3.91107	0.638342	4.96367	0.879498	6.83592	0.369242	2.87546	0.502202	3.8965	0.723512	5.62043	0.81703	6.36094
0.362823	2.78824	0.238248	1.8107	0.362523	2.78886	0.503573	3.89431	0.639474	4.9367	0.880097	6.7914	0.371195	2.86985	0.503415	3.87788	0.724122	5.58475	0.818196	6.32414
0.364886	2.78416	0.240278	1.81329	0.364583	2.78475	0.505051	3.8778	0.640614	4.91018	0.8807	6.74754	0.373147	2.8643	0.504636	3.85959	0.724737	5.54962	0.819365	6.2879
0.366967	2.78027	0.242308	1.81584	0.366661	2.78083	0.506531	3.86153	0.64176	4.88409	0.881307	6.70434	0.375096	2.85882	0.505867	3.84162	0.725359	5.51503	0.820539	6.25221
0.369064	2.77656	0.244338	1.81836	0.368756	2.7771	0.508011	3.84551	0.642914	4.85842	0.881919	6.66177	0.377044	2.8534	0.507106	3.82397	0.725987	5.48098	0.821717	6.21705
0.371177	2.77302	0.246367	1.82084	0.370867	2.77353	0.509493	3.82972	0.644075	4.83317	0.882535	6.61984	0.37899	2.84805	0.508354	3.80664	0.726621	5.44745	0.822899	6.18241
0.373306	2.76965	0.248397	1.82329	0.372993	2.77013	0.510977	3.81416	0.645244	4.80832	0.883156	6.57852	0.380933	2.84275	0.50961	3.78961	0.727261	5.41443	0.824085	6.14828
0.375448	2.76642	0.250427	1.8257	0.375134	2.76688	0.512462	3.79882	0.646419	4.78387	0.883781	6.5378	0.382875	2.83751	0.510876	3.77288	0.727907	5.38191	0.825275	6.11466
0.377605	2.76334	0.252456	1.82808	0.377288	2.76378	0.513948	3.78371	0.647602	4.7598	0.88441	6.49767	0.384815	2.83233	0.512151	3.75645	0.728559	5.34988	0.826469	6.08152
0.379774	2.76039	0.254486	1.83042	0.379455	2.76081	0.515436	3.76881	0.648792	4.73611	0.885044	6.45812	0.386752	2.82721	0.513434	3.7403	0.729218	5.31832	0.827666	6.04886
0.381955	2.75757	0.256515	1.83274	0.381635	2.75798	0.516925	3.75412	0.649989	4.7128	0.885682	6.41914	0.388688	2.82213	0.514726	3.72444	0.729882	5.28724	0.828868	6.01667
0.384148	2.75487	0.258544	1.83502	0.383826	2.75526	0.518415	3.73964	0.651193	4.68985	0.886325	6.38071	0.390621	2.81711	0.516028	3.70885	0.730553	5.25662	0.830073	5.98495
0.386352	2.75229	0.260573	1.83727	0.386029	2.75266	0.519907	3.72536	0.652404	4.66725	0.886972	6.34282	0.392553	2.81215	0.517337	3.69353	0.731229	5.22645	0.831282	5.95367
0.388567	2.74981	0.262602	1.83949	0.388242	2.75017	0.521399	3.71128	0.653622	4.64501	0.887623	6.30547	0.394482	2.80723	0.518656	3.67848	0.731912	5.19673	0.832495	5.92283
0.390791	2.74744	0.264631	1.84168	0.390465	2.74778	0.522893	3.69739	0.654847	4.6231	0.888279	6.26864	0.396409	2.80236	0.519984	3.66368	0.7326	5.16743	0.833711	5.89243
0.393025	2.74516	0.266659	1.84385	0.392697	2.74549	0.524388	3.6837	0.656079	4.60153	0.888939	6.23232	0.398333	2.79754	0.52132	3.64914	0.733295	5.13856	0.834932	5.86245
0.395267	2.74298	0.268687	1.84598	0.394938	2.74329	0.525884	3.67019	0.657318	4.58029	0.889603	6.1965	0.400256	2.79277	0.522665	3.63485	0.733995	5.11011	0.836155	5.83289
0.397518	2.74088	0.270715	1.84808	0.397188	2.74118	0.527382	3.65686	0.658564	4.55937	0.890272	6.16118	0.402176	2.78804	0.524018	3.62081	0.734702	5.08206	0.837383	5.80373
0.399777	2.73886	0.272743	1.85016	0.399446	2.73915	0.52888	3.64371	0.659817	4.53877	0.890945	6.12633	0.404094	2.78336	0.525381	3.607	0.735414	5.05441	0.838614	5.77497
0.402044	2.73692	0.274771	1.8522	0.401712	2.7372	0.53038	3.63074	0.661077	4.51848	0.891623	6.09196	0.406009	2.77872	0.526752	3.59343	0.736133	5.02716	0.839849	5.7466
0.404318	2.73505	0.276798	1.85422	0.403984	2.73532	0.531881	3.61794	0.662343	4.49848	0.892305	6.05806	0.407923	2.77413	0.528132	3.58008	0.736857	5.00029	0.841087	5.71862
0.406598	2.73325	0.278825	1.85622	0.406264	2.73351	0.533383	3.6053	0.663616	4.47879	0.892991	6.02461	0.409834	2.76957	0.52952	3.56697	0.737587	4.9738	0.842329	5.69101
0.408885	2.73151	0.280852	1.85819	0.40855	2.73176	0.534886	3.59284	0.664896	4.45939	0.893682	5.99161	0.411742	2.76506	0.530917	3.55407	0.738323	4.94768	0.843574	5.66377
0.411178	2.72984	0.282878	1.86013	0.410842	2.73008	0.53639	3.58053	0.666182	4.44027	0.894377	5.95905	0.413648	2.76059	0.532323	3.54139	0.739065	4.92192	0.844823	5.6369
0.413476	2.72822	0.284905	1.86204	0.413139	2.72846	0.537895	3.56839	0.667475	4.42143	0.895077	5.92692	0.415552	2.75616	0.533737	3.52893	0.739813	4.89652	0.846076	5.61038
0.41578	2.72666	0.28693	1.86393	0.415443	2.72689	0.539401	3.5564	0.668775	4.40286	0.895781	5.89521	0.417453	2.75177	0.535159	3.51667	0.740567	4.87147	0.847331	5.5842
0.41809	2.72516	0.288956	1.8658	0.417751	2.72538	0.540909	3.54456	0.670081	4.38457	0.896489	5.86391	0.419352	2.74741	0.536591	3.50462	0.741326	4.84676	0.84859	5.55837
0.420404	2.7237	0.290981	1.86764	0.420065	2.72391	0.542417	3.53288	0.671393	4.36654	0.897202	5.83303	0.421249	2.74309	0.53803	3.49277	0.742091	4.82239	0.849853	5.53287
0.422723	2.72229	0.293006	1.86946	0.422383	2.72249	0.543927	3.52134	0.672713	4.34877	0.897919	5.80254	0.423143	2.73881	0.539479	3.48111	0.742862	4.79835	0.851118	5.50771
0.425046	2.72093	0.29503	1.87125	0.424705	2.72112	0.545437	3.50995	0.674038	4.33125	0.89864	5.77245	0.425035	2.73456	0.540935	3.46965	0.743639	4.77463	0.852387	5.48286
0.427373	2.7196	0.297054	1.87302	0.427032	2.71979	0.546949	3.4987	0.67537	4.31398	0.899366	5.74275	0.426924	2.73035	0.5424	3.45838	0.744422	4.75123	0.85366	5.45833
0.429704	2.71832	0.299078	1.87476	0.429363	2.71851	0.548461	3.48759	0.676708	4.29696	0.900097	5.71342	0.428811	2.72617	0.543873	3.4473	0.745211	4.72815	0.854935	5.43412
0.432039	2.71708	0.301101	1.87649	0.431697	2.71726	0.549975	3.47662	0.678053	4.28017	0.900831	5.68446	0.430695	2.72203	0.545355	3.4364	0.746005	4.70537	0.856214	5.41021
0.434378	2.71587	0.303124	1.87819	0.434035	2.71605	0.55149	3.46578	0.679404	4.26362	0.90157	5.65588	0.432577	2.71792	0.546845	3.42567	0.746805	4.6829	0.857496	5.3866
0.436719	2.7147	0.305147	1.87987	0.436376	2.71487	0.553006	3.45508	0.680761	4.24731	0.902314	5.62765	0.434457	2.71385	0.548343	3.41512	0.74761	4.66072	0.858781	5.36328
0.439064	2.71356	0.307169	1.88153	0.438721	2.71372	0.554523	3.4445	0.682124	4.23122	0.903062	5.59977	0.436334	2.7098	0.549849	3.40475	0.748422	4.63884	0.860069	5.34025
0.441412	2.71245	0.309191	1.88316	0.441068	2.71261	0.556041	3.43406	0.683494	4.21535	0.903814	5.57224	0.438209	2.70579	0.551364	3.39454	0.749239	4.61724	0.861361	5.31751
0.443763	2.71137	0.311212	1.88478	0.443418	2.71153	0.55756	3.42374	0.684869	4.1997	0.904571	5.54506	0.440081	2.7018	0.552886	3.3845	0.750062	4.59592	0.862655	5.29504
0.446116	2.71032	0.313233	1.88637	0.445771	2.71047	0.55908	3.41355	0.686251	4.18427	0.905332	5.51821	0.441951	2.69785	0.554417	3.37463	0.75089	4.57488	0.863953	5.27285
0.448472	2.7093	0.315253	1.88795	0.448127	2.70945	0.560601	3.40347	0.687638	4.16904	0.906097	5.49169	0.443819	2.69393	0.555955	3.36491	0.751724	4.55411	0.865253	5.25093
0.45083	2.7083	0.317273	1.8895	0.450484	2.70844	0.562124	3.39352	0.689032	4.15403	0.906867	5.46549	0.445684	2.69004	0.557502	3.35535	0.752564	4.53361	0.866556	5.22927
0.45319	2.70733	0.319293	1.89104	0.452844	2.70747	0.563647	3.38369	0.690431	4.13921	0.907641	5.43961	0.447547	2.68618	0.559056	3.34594	0.753409	4.51337	0.867863	5.20788
0.455553	2.70638	0.321312	1.89255	0.455207	2.70651	0.565172	3.37397	0.691836	4.1246	0.90842	5.41405	0.449407	2.68234	0.560619	3.33669	0.75426	4.49339	0.869172	5.18673
0.457917	2.70545	0.32333	1.89405	0.457571	2.70558	0.566698	3.36436	0.693248	4.11018	0.909203	5.38879	0.451265	2.67854	0.562189	3.32758	0.755117	4.47366	0.870484	5.16584
0.460283	2.70454	0.325348	1.89552	0.459937	2.70467	0.568224	3.35487	0.694664	4.09596	0.909991	5.36384	0.453121	2.67476	0.563767	3.31862	0.755979	4.45418	0.8718	5.1452
0.462651	2.70365	0.327366	1.89698	0.462304	2.70378	0.569753	3.34549	0.696087	4.08192	0.910782	5.33918	0.454974	2.67101	0.565353	3.3098	0.756847	4.43495	0.873118	5.1248
0.465021	2.70279	0.329383	1.89842	0.464674	2.70291	0.571282	3.33622	0.697515	4.06807	0.911579	5.31482	0.456825	2.66729	0.566946	3.30112	0.75772	4.41596	0.874438	5.10464
0.467392	2.70194	0.331399	1.89984	0.467045	2.70206	0.572812	3.32705	0.698949	4.0544	0.912379	5.29075	0.458674	2.6636	0.568547	3.29258	0.758599	4.3972	0.875762	5.08471
0.469764	2.7011	0.333415	1.90124	0.469417	2.70122	0.574344	3.31799	0.700389	4.04091	0.913184	5.26696	0.460521	2.65993	0.570155	3.28418	0.759484	4.37868	0.877088	5.06501
0.472138	2.70029	0.335431	1.90263	0.47179	2.7004	0.575877	3.30904	0.701834	4.0276	0.913994	5.24346	0.462365	2.65629	0.571771	3.2759	0.760374	4.36039	0.878417	5.04554
0.474513	2.69948	0.337446	1.90399	0.474165	2.6996	0.577411	3.30019	0.703284	4.01446	0.914808	5.22022	0.464207	2.65267	0.573395	3.26776	0.761269	4.34233	0.879749	5.02629
0.476889	2.6987	0.33946	1.90534	0.476541	2.69881	0.578946	3.29144	0.70474	4.00149	0.915626	5.19726	0.466047	2.64908	0.575026	3.25975	0.76217	4.32448	0.881084	5.00726
0.479266	2.69793	0.341474	1.90667	0.478918	2.69804	0.580483	3.28278	0.706202	3.98869	0.916448	5.17456	0.467885	2.64551	0.576664	3.25186	0.763077	4.30686	0.882421	4.98845
0.481644	2.69717	0.343487	1.90799	0.481296	2.69728	0.582021	3.27423	0.707669	3.97605	0.917275	5.15213	0.46972	2.64198	0.578309	3.24409	0.763989	4.28945	0.883761	4.96984
0.484023	2.69642	0.3455	1.90929	0.483675	2.69653	0.583561	3.26577	0.709141	3.96357	0.918107	5.12995	0.471554	2.63846	0.579961	3.23645	0.764906	4.27225	0.885103	4.95145
0.486403	2.69568	0.347512	1.91057	0.486055	2.69579	0.585101	3.25741	0.710618	3.95125	0.918943	5.10803	0.473385	2.63497	0.581621	3.22892	0.765829	4.25527	0.886448	4.93326
0.488784	2.69496	0.349524	1.91184	0.488435	2.69507	0.586644	3.24914	0.7121	3.93909	0.919783	5.08636	0.475215	2.63151	0.583288	3.22151	0.766758	4.23848	0.887796	4.91527
0.491165	2.69425	0.351535	1.91309	0.490816	2.69435	0.588187	3.24097	0.713588	3.92708	0.920628	5.06494	0.477042	2.62807	0.584961	3.21421	0.767692	4.2219	0.889146	4.89749
0.493546	2.69355	0.353545	1.91433	0.493197	2.69365	0.589732	3.23289	0.715081	3.91522	0.921477	5.04375	0.478867	2.62465	0.586642	3.20703	0.768631	4.20552	0.890498	4.87989
0.495928	2.69285	0.355555	1.91554	0.495579	2.69296	0.591279	3.22489	0.716579	3.90351	0.92233	5.02281	0.480691	2.62126	0.588329	3.19995	0.769576	4.18933	0.891853	4.86249
0.49831	2.69217	0.357565	1.91675	0.497962	2.69227	0.592827	3.21699	0.718082	3.89194	0.923188	5.0021	0.482512	2.61789	0.590023	3.19299	0.770526	4.17334	0.893211	4.84528
0.500693	2.6915	0.359573	1.91794	0.500344	2.69159	0.594376	3.20917	0.719589	3.88052	0.92405	4.98163	0.484332	2.61455	0.591724	3.18613	0.771481	4.15753	0.89457	4.82826
0.503076	2.69083	0.361582	1.91911	0.502727	2.69093	0.595927	3.20144	0.721102	3.86924	0.924917	4.96138	0.48615	2.61123	0.593432	3.17937	0.772442	4.14192	0.895933	4.81141
0.505459	2.69017	0.363589	1.92027	0.50511	2.69026	0.59748	3.1938	0.72262	3.85809	0.925788	4.94135	0.487966	2.60793	0.595146	3.17272	0.773409	4.12648	0.897297	4.79475
0.507842	2.68952	0.365596	1.92142	0.507493	2.68961	0.599034	3.18624	0.724142	3.84708	0.926663	4.92155	0.48978	2.60466	0.596866	3.16616	0.77438	4.11123	0.898664	4.77827
0.510226	2.68887	0.367602	1.92255	0.509877	2.68896	0.60059	3.17876	0.725669	3.83621	0.927543	4.90197	0.491592	2.60141	0.598593	3.15971	0.775358	4.09616	0.900034	4.76196
0.512609	2.68823	0.369608	1.92366	0.51226	2.68832	0.602148	3.17137	0.727201	3.82546	0.928427	4.8826	0.493403	2.59818	0.600326	3.15335	0.77634	4.08126	0.901405	4.74582
0.514992	2.6876	0.371613	1.92476	0.514643	2.68769	0.603707	3.16405	0.728738	3.81485	0.929316	4.86344	0.495212	2.59497	0.602066	3.14708	0.777328	4.06653	0.902779	4.72985
0.517375	2.68697	0.373618	1.92585	0.517026	2.68706	0.605269	3.15682	0.730279	3.80436	0.930209	4.8445	0.497019	2.59179	0.603811	3.14091	0.778321	4.05198	0.904155	4.71405
0.519758	2.68635	0.375621	1.92693	0.519409	2.68644	0.606832	3.14967	0.731824	3.794	0.931106	4.82575	0.498825	2.58863	0.605563	3.13483	0.779319	4.03759	0.905533	4.69841
0.52214	2.68573	0.377625	1.92799	0.521791	2.68582	0.608396	3.14259	0.733375	3.78376	0.932008	4.80722	0.50063	2.58549	0.607321	3.12884	0.780323	4.02337	0.906914	4.68294
0.524522	2.68511	0.379627	1.92904	0.524174	2.6852	0.609963	3.1356	0.734929	3.77364	0.932914	4.78888	0.502432	2.58238	0.609084	3.12294	0.781332	4.00931	0.908296	4.66762
0.526904	2.6845	0.381629	1.93007	0.526555	2.68459	0.611532	3.12867	0.736488	3.76364	0.933825	4.77073	0.504234	2.57929	0.610854	3.11712	0.782347	3.99542	0.909681	4.65246
0.529285	2.68389	0.38363	1.93109	0.528937	2.68398	0.613103	3.12183	0.738052	3.75376	0.93474	4.75279	0.506034	2.57622	0.612629	3.11138	0.783366	3.98168	0.911068	4.63746
0.531666	2.68329	0.385631	1.9321	0.531317	2.68337	0.614675	3.11506	0.73962	3.74399	0.93566	4.73503	0.507832	2.57317	0.61441	3.10573	0.784391	3.9681	0.912457	4.6226
0.534046	2.68268	0.387631	1.9331	0.533698	2.68277	0.61625	3.10836	0.741192	3.73434	0.936583	4.71746	0.50963	2.57014	0.616197	3.10016	0.785421	3.95467	0.913848	4.6079
0.536425	2.68208	0.38963	1.93408	0.536077	2.68217	0.617827	3.10174	0.742768	3.72479	0.937512	4.70008	0.511426	2.56714	0.617989	3.09468	0.786457	3.94139	0.915241	4.59335
0.538804	2.68148	0.391628	1.93505	0.538456	2.68157	0.619406	3.09519	0.744348	3.71536	0.938444	4.68288	0.51322	2.56415	0.619787	3.08926	0.787498	3.92827	0.916636	4.57894
0.541182	2.68089	0.393626	1.93601	0.540834	2.68097	0.620988	3.08871	0.745933	3.70603	0.939382	4.66587	0.515014	2.56119	0.62159	3.08393	0.788544	3.91529	0.918033	4.56467
0.543559	2.68029	0.395624	1.93696	0.543211	2.68038	0.622571	3.08231	0.747521	3.69681	0.940323	4.64903	0.516806	2.55825	0.623398	3.07867	0.789595	3.90246	0.919432	4.55054
0.545935	2.6797	0.39762	1.9379	0.545587	2.67978	0.624157	3.07597	0.749114	3.6877	0.941269	4.63237	0.518598	2.55533	0.625211	3.07348	0.790651	3.88977	0.920833	4.53656
0.54831	2.6791	0.399616	1.93882	0.547962	2.67919	0.625745	3.0697	0.75071	3.67868	0.942219	4.61588	0.520388	2.55244	0.62703	3.06837	0.791713	3.87722	0.922235	4.52271
0.550684	2.67851	0.401611	1.93973	0.550336	2.67859	0.627336	3.0635	0.752311	3.66977	0.943174	4.59956	0.522177	2.54956	0.628854	3.06333	0.79278	3.86481	0.92364	4.509
0.553056	2.67791	0.403606	1.94063	0.552709	2.678	0.62893	3.05737	0.753915	3.66096	0.944133	4.58342	0.523965	2.54671	0.630682	3.05836	0.793852	3.85254	0.925046	4.49542
0.555428	2.67732	0.4056	1.94152	0.555081	2.67741	0.630525	3.05131	0.755523	3.65224	0.945097	4.56744	0.525753	2.54388	0.632516	3.05345	0.79493	3.8404	0.926455	4.48197
0.557798	2.67672	0.407593	1.9424	0.557451	2.67681	0.632124	3.04532	0.757135	3.64363	0.946065	4.55162	0.527539	2.54106	0.634354	3.04861	0.796012	3.8284	0.927865	4.46865
0.560167	2.67612	0.409585	1.94327	0.55982	2.67621	0.633725	3.03939	0.75875	3.6351	0.947037	4.53597	0.529325	2.53827	0.636197	3.04384	0.7971	3.81653	0.929277	4.45546
0.562534	2.67553	0.411577	1.94412	0.562188	2.67561	0.635329	3.03353	0.760369	3.62667	0.948014	4.52047	0.531109	2.5355	0.638045	3.03914	0.798193	3.80479	0.930691	4.44239
0.5649	2.67492	0.413568	1.94497	0.564554	2.67501	0.636936	3.02773	0.761992	3.61833	0.948995	4.50514	0.532893	2.53276	0.639897	3.03449	0.799291	3.79318	0.932106	4.42945
0.567265	2.67432	0.415558	1.9458	0.566919	2.67441	0.638545	3.022	0.763619	3.61008	0.949981	4.48996	0.534677	2.53003	0.641754	3.02991	0.800395	3.78169	0.933523	4.41663
0.569627	2.67372	0.417548	1.94663	0.569281	2.67381	0.640158	3.01633	0.765249	3.60192	0.950971	4.47493	0.536459	2.52732	0.643615	3.02539	0.801503	3.77033	0.934942	4.40393
0.571988	2.67311	0.419537	1.94744	0.571643	2.6732	0.641774	3.01072	0.766882	3.59385	0.951965	4.46006	0.538241	2.52463	0.645481	3.02093	0.802617	3.7591	0.936362	4.39135
0.574347	2.6725	0.421525	1.94824	0.574002	2.67259	0.643393	3.00518	0.768519	3.58586	0.952964	4.44533	0.540023	2.52197	0.647351	3.01653	0.803736	3.74798	0.937785	4.37888
0.576705	2.67188	0.423513	1.94904	0.57636	2.67197	0.645015	2.99971	0.770159	3.57796	0.953968	4.43075	0.541804	2.51932	0.649224	3.01218	0.80486	3.73699	0.939208	4.36653
0.57906	2.67126	0.4255	1.94982	0.578715	2.67135	0.64664	2.99429	0.771802	3.57015	0.954975	4.41632	0.543584	2.5167	0.651102	3.00789	0.805989	3.72611	0.940634	4.3543
0.581413	2.67064	0.427486	1.95059	0.581068	2.67073	0.648268	2.98894	0.773449	3.56241	0.955988	4.40204	0.545364	2.5141	0.652984	3.00366	0.807124	3.71536	0.942061	4.34218
0.583764	2.67001	0.429471	1.95136	0.58342	2.6701	0.6499	2.98364	0.775099	3.55475	0.957004	4.38789	0.547144	2.51151	0.65487	2.99948	0.808263	3.70471	0.943489	4.33017
0.586113	2.66938	0.431456	1.95211	0.585769	2.66947	0.651536	2.97841	0.776752	3.54718	0.958025	4.37389	0.548923	2.50895	0.65676	2.99535	0.809408	3.69418	0.944919	4.31826
0.588459	2.66874	0.43344	1.95285	0.588115	2.66883	0.653175	2.97324	0.778409	3.53968	0.959051	4.36003	0.550702	2.50641	0.658653	2.99127	0.810558	3.68377	0.946351	4.30647
0.590803	2.6681	0.435423	1.95359	0.59046	2.66819	0.654818	2.96813	0.780068	3.53226	0.96008	4.3463	0.55248	2.50389	0.66055	2.98725	0.811713	3.67346	0.947784	4.29478
0.593144	2.66745	0.437405	1.95431	0.592801	2.66754	0.656465	2.96308	0.78173	3.52492	0.961115	4.33271	0.554259	2.50138	0.662451	2.98327	0.812873	3.66327	0.949218	4.2832
0.595483	2.66679	0.439387	1.95503	0.59514	2.66689	0.658115	2.95809	0.783396	3.51765	0.962154	4.31925	0.556037	2.4989	0.664355	2.97935	0.814039	3.65318	0.950654	4.27172
0.597819	2.66613	0.441368	1.95574	0.597477	2.66623	0.65977	2.95316	0.785064	3.51046	0.963197	4.30592	0.557815	2.49644	0.666262	2.97547	0.815209	3.6432	0.952091	4.26034
0.600152	2.66546	0.443348	1.95643	0.59981	2.66556	0.661429	2.94829	0.786735	3.50333	0.964244	4.29273	0.559593	2.494	0.668173	2.97164	0.816385	3.63333	0.95353	4.24906
0.602482	2.66478	0.445328	1.95712	0.602141	2.66488	0.663091	2.94348	0.788409	3.49628	0.965296	4.27966	0.561371	2.49157	0.670087	2.96786	0.817566	3.62356	0.95497	4.23789
0.604809	2.66409	0.447307	1.9578	0.604469	2.6642	0.664759	2.93873	0.790086	3.4893	0.966353	4.26672	0.563149	2.48917	0.672005	2.96412	0.818751	3.61389	0.956411	4.22681
0.607133	2.6634	0.449285	1.95847	0.606793	2.6635	0.66643	2.93403	0.791766	3.48239	0.967414	4.2539	0.564926	2.48679	0.673925	2.96042	0.819942	3.60432	0.957854	4.21582
0.609454	2.6627	0.451262	1.95914	0.609114	2.6628	0.668106	2.9294	0.793449	3.47555	0.968479	4.24121	0.566704	2.48442	0.675849	2.95677	0.821139	3.59486	0.959298	4.20494
0.611771	2.66199	0.453239	1.95979	0.611432	2.66209	0.669787	2.92482	0.795134	3.46877	0.969549	4.22864	0.568482	2.48208	0.677775	2.95316	0.82234	3.58549	0.960744	4.19414
0.614085	2.66127	0.455214	1.96044	0.613746	2.66137	0.671472	2.9203	0.796821	3.46207	0.970623	4.21619	0.57026	2.47976	0.679705	2.94959	0.823546	3.57623	0.96219	4.18344
0.616395	2.66053	0.45719	1.96107	0.616057	2.66064	0.673163	2.91583	0.798512	3.45542	0.971701	4.20387	0.572038	2.47745	0.681637	2.94607	0.824758	3.56706	0.963638	4.17284
0.618701	2.65979	0.459164	1.9617	0.618364	2.6599	0.674858	2.91143	0.800204	3.44884	0.972784	4.19166	0.573816	2.47516	0.683572	2.94258	0.825975	3.55798	0.965087	4.16232
0.621004	2.65904	0.461138	1.96232	0.620667	2.65915	0.676559	2.90708	0.8019	3.44233	0.973872	4.17956	0.575595	2.4729	0.685509	2.93913	0.827197	3.549	0.966537	4.15189
0.623302	2.65828	0.46311	1.96294	0.622966	2.65839	0.678264	2.90278	0.803597	3.43587	0.974964	4.16758	0.577374	2.47065	0.687449	2.93572	0.828424	3.54011	0.967989	4.14155
0.625597	2.6575	0.465083	1.96354	0.625261	2.65762	0.679975	2.89855	0.805298	3.42948	0.97606	4.15572	0.579153	2.46842	0.689392	2.93235	0.829656	3.53132	0.969442	4.1313
0.627887	2.65672	0.467054	1.96414	0.627552	2.65683	0.681692	2.89437	0.807	3.42315	0.977161	4.14397	0.580932	2.46621	0.691337	2.92902	0.830893	3.52262	0.970896	4.12113
0.630173	2.65592	0.469025	1.96473	0.629838	2.65604	0.683414	2.89025	0.808705	3.41688	0.978266	4.13233	0.582712	2.46402	0.693284	2.92572	0.832135	3.514	0.972351	4.11105
0.632454	2.65511	0.470995	1.96531	0.63212	2.65523	0.685142	2.88619	0.810412	3.41066	0.979376	4.1208	0.584492	2.46185	0.695234	2.92245	0.833383	3.50548	0.973807	4.10105
0.63473	2.65428	0.472964	1.96588	0.634397	2.6544	0.686876	2.88218	0.812121	3.40451	0.98049	4.10938	0.586273	2.4597	0.697186	2.91923	0.834636	3.49704	0.975264	4.09113
0.637002	2.65344	0.474932	1.96645	0.636669	2.65357	0.688616	2.87823	0.813833	3.39841	0.981609	4.09806	0.588054	2.45756	0.699139	2.91603	0.835893	3.48869	0.976722	4.0813
0.639268	2.65259	0.4769	1.96701	0.638937	2.65272	0.690362	2.87433	0.815547	3.39237	0.982732	4.08685	0.589835	2.45545	0.701096	2.91287	0.837156	3.48043	0.978181	4.07154
0.64153	2.65172	0.478867	1.96756	0.641199	2.65185	0.692114	2.87049	0.817262	3.38638	0.983859	4.07575	0.591617	2.45335	0.703054	2.90974	0.838425	3.47225	0.979642	4.06187
0.643786	2.65084	0.480833	1.96811	0.643456	2.65097	0.693873	2.86671	0.81898	3.38045	0.984991	4.06475	0.5934	2.45127	0.705013	2.90665	0.839698	3.46416	0.981103	4.05228
0.646037	2.64994	0.482799	1.96864	0.645708	2.65007	0.695639	2.86298	0.8207	3.37457	0.986127	4.05385	0.595183	2.44921	0.706975	2.90358	0.840976	3.45615	0.982565	4.04276
0.648283	2.64903	0.484763	1.96917	0.647954	2.64916	0.697411	2.85931	0.822422	3.36874	0.987268	4.04306	0.596966	2.44717	0.708939	2.90055	0.84226	3.44822	0.984029	4.03332
0.650522	2.6481	0.486727	1.9697	0.650195	2.64824	0.69919	2.8557	0.824146	3.36297	0.988414	4.03236	0.598751	2.44514	0.710904	2.89754	0.843549	3.44038	0.985493	4.02395
0.652756	2.64715	0.48869	1.97021	0.652429	2.64729	0.700977	2.85214	0.825872	3.35725	0.989563	4.02177	0.600536	2.44314	0.712871	2.89457	0.844842	3.43261	0.986958	4.01466
0.654984	2.64619	0.490653	1.97072	0.654658	2.64633	0.70277	2.84864	0.827599	3.35158	0.990717	4.01127	0.602321	2.44115	0.714839	2.89162	0.846142	3.42492	0.988424	4.00545
0.657206	2.64521	0.492615	1.97123	0.656881	2.64535	0.704571	2.8452	0.829329	3.34596	0.991876	4.00087	0.604107	2.43918	0.716809	2.8887	0.847446	3.41731	0.989891	3.9963
0.659421	2.64421	0.494576	1.97172	0.659097	2.64436	0.70638	2.84181	0.83106	3.34039	0.993039	3.99056	0.605894	2.43722	0.718781	2.88581	0.848755	3.40978	0.991359	3.98723
0.66163	2.64319	0.496536	1.97221	0.661307	2.64334	0.708196	2.83847	0.832793	3.33486	0.994207	3.98035	0.607682	2.43529	0.720754	2.88295	0.85007	3.40233	0.992828	3.97823
0.663833	2.64216	0.498496	1.97269	0.663511	2.64231	0.710019	2.8352	0.834528	3.32939	0.995379	3.97023	0.609471	2.43337	0.722728	2.88011	0.85139	3.39495	0.994298	3.9693
0.666029	2.6411	0.500454	1.97317	0.665707	2.64126	0.711851	2.83198	0.836264	3.32396	0.996555	3.96021	0.61126	2.43147	0.724703	2.8773	0.852715	3.38765	0.995768	3.96044
0.668218	2.64003	0.502412	1.97364	0.667898	2.64019	0.713691	2.82881	0.838002	3.31858	0.997736	3.95028	0.61305	2.42959	0.726679	2.87451	0.854045	3.38042	0.99724	3.95165
0.6704	2.63894	0.50437	1.9741	0.670081	2.6391	0.715539	2.8257	0.839742	3.31324	0.998921	3.94043	0.614841	2.42772	0.728657	2.87175	0.85538	3.37327	0.998712	3.94293
0.672575	2.63782	0.506326	1.97456	0.672257	2.63799	0.717395	2.82265	0.841483	3.30795	1.00011	3.93068	0.616633	2.42587	0.730635	2.86901	0.856721	3.36619	1.00019	3.93427
0.674742	2.63669	0.508282	1.97501	0.674425	2.63686	0.71926	2.81965	0.843226	3.30271			0.618426	2.42404	0.732615	2.8663	0.858067	3.35918		
0.676903	2.63554	0.510237	1.97546	0.676587	2.63571	0.721134	2.8167	0.84497	3.2975			0.620219	2.42222	0.734595	2.86361	0.859418	3.35224		
0.679056	2.63436	0.512192	1.9759	0.678741	2.63454	0.723016	2.81381	0.846715	3.29235			0.622014	2.42042	0.736577	2.86094	0.860774	3.34537		
0.681201	2.63317	0.514145	1.97633	0.680888	2.63335	0.724907	2.81098	0.848462	3.28723			0.623809	2.41864	0.738559	2.8583	0.862136	3.33858		
0.683339	2.63196	0.516098	1.97676	0.683027	2.63213	0.726807	2.8082	0.850211	3.28216			0.625606	2.41688	0.740541	2.85567	0.863502	3.33185		
0.685469	2.63072	0.51805	1.97718	0.685158	2.6309	0.728715	2.80548	0.851961	3.27712			0.627403	2.41513	0.742525	2.85307	0.864874	3.32519		
0.687592	2.62946	0.520002	1.97759	0.687282	2.62965	0.730633	2.80281	0.853712	3.27213			0.629201	2.41339	0.744509	2.85049	0.866252	3.3186		
0.689706	2.62819	0.521952	1.978	0.689397	2.62837	0.732561	2.80019	0.855464	3.26718			0.631001	2.41168	0.746493	2.84793	0.867634	3.31207		
0.691813	2.62689	0.523902	1.97841	0.691505	2.62708	0.734497	2.79763	0.857218	3.26227			0.632801	2.40998	0.748478	2.84539	0.869022	3.30561		
0.693911	2.62557	0.525852	1.97881	0.693605	2.62576	0.736443	2.79512	0.858972	3.2574			0.634603	2.40829	0.750464	2.84287	0.870415	3.29922		
0.696002	2.62422	0.5278	1.9792	0.695696	2.62442	0.738398	2.79267	0.860728	3.25257			0.636405	2.40662	0.752449	2.84036	0.871813	3.29289		
0.698085	2.62286	0.529748	1.97959	0.69778	2.62306	0.740362	2.79027	0.862485	3.24777			0.638209	2.40497	0.754435	2.83788	0.873217	3.28662		
0.700159	2.62148	0.531695	1.97997	0.699856	2.62168	0.742336	2.78791	0.864244	3.24302			0.640014	2.40333	0.756422	2.83542	0.874626	3.28042		
0.702225	2.62008	0.533641	1.98035	0.701923	2.62028	0.744319	2.78562	0.866003	3.2383			0.641819	2.40171	0.758408	2.83297	0.87604	3.27429		
0.704283	2.61865	0.535587	1.98072	0.703983	2.61886	0.746312	2.78337	0.867763	3.23361			0.643626	2.40011	0.760395	2.83054	0.87746	3.26821		
0.706334	2.61721	0.537532	1.98109	0.706034	2.61742	0.748314	2.78117	0.869525	3.22897			0.645434	2.39852	0.762381	2.82812	0.878885	3.2622		
0.708376	2.61575	0.539476	1.98145	0.708077	2.61596	0.750326	2.77903	0.871287	3.22435			0.647244	2.39694	0.764368	2.82573	0.880315	3.25625		
0.71041	2.61426	0.54142	1.98181	0.710112	2.61448	0.752347	2.77693	0.87305	3.21978			0.649054	2.39538	0.766354	2.82335	0.88175	3.25035		
0.712436	2.61276	0.543363	1.98216	0.71214	2.61298	0.754377	2.77488	0.874815	3.21524			0.650865	2.39383	0.76834	2.82098	0.883191	3.24452		
0.714454	2.61124	0.545305	1.9825	0.714159	2.61146	0.756417	2.77288	0.87658	3.21073			0.652678	2.3923	0.770327	2.81863	0.884637	3.23875		
0.716464	2.6097	0.547246	1.98285	0.71617	2.60993	0.758466	2.77093	0.878346	3.20626			0.654492	2.39079	0.772313	2.8163	0.886089	3.23304		
0.718466	2.60814	0.549187	1.98318	0.718174	2.60837	0.760525	2.76902	0.880112	3.20182			0.656307	2.38929	0.774298	2.81398	0.887546	3.22738		
0.720461	2.60657	0.551127	1.98352	0.720169	2.6068	0.762592	2.76716	0.88188	3.19741			0.658124	2.3878	0.776284	2.81167	0.889008	3.22178		
0.722448	2.60497	0.553066	1.98384	0.722158	2.60521	0.764669	2.76535	0.883648	3.19303			0.659941	2.38633	0.778269	2.80938	0.890476	3.21624		
0.724428	2.60337	0.555005	1.98417	0.724138	2.6036	0.766754	2.76358	0.885417	3.18869			0.66176	2.38487	0.780253	2.8071	0.891949	3.21076		
0.7264	2.60174	0.556943	1.98448	0.726111	2.60198	0.768849	2.76185	0.887187	3.18438			0.66358	2.38343	0.782237	2.80484	0.893427	3.20533		
0.728364	2.6001	0.55888	1.9848	0.728077	2.60034	0.770952	2.76017	0.888958	3.1801			0.665401	2.382	0.78422	2.80259	0.894911	3.19996		
0.730322	2.59845	0.560817	1.98511	0.730036	2.59869	0.773064	2.75853	0.890729	3.17585			0.667224	2.38058	0.786203	2.80035	0.896401	3.19464		
0.732272	2.59678	0.562753	1.98541	0.731987	2.59703	0.775184	2.75693	0.892501	3.17163			0.669047	2.37918	0.788185	2.79812	0.897895	3.18938		
0.734216	2.5951	0.564688	1.98571	0.733932	2.59535	0.777312	2.75537	0.894273	3.16745			0.670872	2.37779	0.790167	2.79591	0.899395	3.18417		
0.736153	2.5934	0.566622	1.98601	0.73587	2.59365	0.779449	2.75385	0.896046	3.16329			0.672699	2.37642	0.792148	2.79371	0.900901	3.17901		
0.738083	2.5917	0.568556	1.9863	0.737801	2.59195	0.781594	2.75237	0.89782	3.15916			0.674526	2.37505	0.794128	2.79152	0.902412	3.17391		
0.740007	2.58998	0.570489	1.98659	0.739725	2.59023	0.783747	2.75093	0.899594	3.15506			0.676355	2.37371	0.796107	2.78934	0.903929	3.16886		
0.741924	2.58825	0.572422	1.98687	0.741644	2.5885	0.785908	2.74952	0.901369	3.15098			0.678185	2.37237	0.798085	2.78717	0.90545	3.16386		
0.743835	2.58651	0.574354	1.98715	0.743556	2.58677	0.788076	2.74815	0.903144	3.14694			0.680017	2.37105	0.800062	2.78502	0.906978	3.15891		
0.74574	2.58476	0.576285	1.98743	0.745462	2.58502	0.790252	2.74681	0.90492	3.14292			0.68185	2.36974	0.802038	2.78287	0.908511	3.15402		
0.74764	2.583	0.578216	1.9877	0.747362	2.58326	0.792435	2.7455	0.906696	3.13894			0.683684	2.36845	0.804013	2.78074	0.910049	3.14917		
0.749534	2.58124	0.580146	1.98796	0.749257	2.5815	0.794625	2.74423	0.908472	3.13497			0.685519	2.36717	0.805987	2.77861	0.911593	3.14438		
0.751422	2.57946	0.582075	1.98823	0.751146	2.57972	0.796822	2.743	0.910249	3.13104			0.687356	2.3659	0.807961	2.77649	0.913142	3.13963		
0.753305	2.57768	0.584003	1.98849	0.753029	2.57794	0.799026	2.74179	0.912026	3.12713			0.689194	2.36464	0.809932	2.77439	0.914697	3.13493		
0.755182	2.5759	0.585931	1.98874	0.754908	2.57616	0.801236	2.74061	0.913804	3.12325			0.691033	2.3634	0.811903	2.77229	0.916257	3.13028		
0.757055	2.5741	0.587859	1.98899	0.756781	2.57437	0.803453	2.73946	0.915582	3.11939			0.692874	2.36217	0.813872	2.7702	0.917823	3.12568		
0.758923	2.5723	0.589785	1.98924	0.75865	2.57257	0.805676	2.73834	0.91736	3.11556			0.694716	2.36095	0.81584	2.76812	0.919394	3.12113		
0.760786	2.5705	0.591711	1.98949	0.760513	2.57077	0.807905	2.73725	0.919139	3.11175			0.69656	2.35974	0.817807	2.76605	0.920971	3.11663		
0.762645	2.5687	0.593637	1.98973	0.762373	2.56896	0.81014	2.73619	0.920918	3.10797			0.698404	2.35854	0.819772	2.76399	0.922553	3.11217		
0.764499	2.56689	0.595562	1.98996	0.764228	2.56715	0.812381	2.73515	0.922697	3.10422			0.70025	2.35736	0.821736	2.76193	0.924141	3.10776		
0.766349	2.56507	0.597486	1.9902	0.766078	2.56534	0.814627	2.73414	0.924476	3.10049			0.702098	2.35619	0.823699	2.75989	0.925734	3.10339		
0.768195	2.56326	0.599409	1.99043	0.767925	2.56352	0.816879	2.73315	0.926256	3.09678			0.703946	2.35503	0.825659	2.75785	0.927333	3.09907		
0.770037	2.56144	0.601332	1.99065	0.769768	2.56171	0.819136	2.73218	0.928036	3.09309			0.705796	2.35388	0.827619	2.75581	0.928937	3.0948		
0.771876	2.55963	0.603254	1.99088	0.771607	2.55989	0.821398	2.73124	0.929816	3.08943			0.707648	2.35275	0.829577	2.75379	0.930547	3.09057		
0.77371	2.55781	0.605176	1.9911	0.773442	2.55807	0.823665	2.73032	0.931596	3.08579			0.709501	2.35162	0.831533	2.75177	0.932162	3.08638		
0.775542	2.55599	0.607097	1.99131	0.775274	2.55625	0.825937	2.72942	0.933376	3.08218			0.711355	2.35051	0.833488	2.74976	0.933783	3.08224		
0.77737	2.55417	0.609018	1.99153	0.777102	2.55444	0.828214	2.72854	0.935157	3.07859			0.71321	2.34941	0.835441	2.74776	0.935409	3.07814		
0.779195	2.55235	0.610938	1.99174	0.778928	2.55262	0.830495	2.72768	0.936938	3.07502			0.715067	2.34832	0.837392	2.74576	0.937041	3.07409		
0.781017	2.55054	0.612857	1.99194	0.78075	2.5508	0.83278	2.72685	0.938718	3.07147			0.716925	2.34724	0.839341	2.74377	0.938678	3.07007		
0.782836	2.54872	0.614776	1.99215	0.782569	2.54899	0.835069	2.72603	0.940499	3.06795			0.718785	2.34617	0.841289	2.74179	0.940321	3.0661		
0.784652	2.54691	0.616694	1.99235	0.784386	2.54718	0.837363	2.72522	0.94228	3.06444			0.720646	2.34511	0.843235	2.73981	0.941969	3.06218		
0.786466	2.5451	0.618611	1.99254	0.7862	2.54537	0.83966	2.72444	0.944061	3.06096			0.722508	2.34407	0.845179	2.73784	0.943623	3.05829		
0.788277	2.54329	0.620528	1.99274	0.788012	2.54356	0.841961	2.72367	0.945843	3.0575			0.724371	2.34303	0.847121	2.73588	0.945282	3.05444		
0.790086	2.54149	0.622445	1.99293	0.789821	2.54175	0.844266	2.72292	0.947624	3.05406			0.726236	2.342	0.849062	2.73392	0.946947	3.05064		
0.791892	2.53969	0.62436	1.99312	0.791628	2.53995	0.846574	2.72219	0.949405	3.05064			0.728103	2.34099	0.851	2.73196	0.948617	3.04687		
0.793696	2.53789	0.626276	1.9933	0.793432	2.53816	0.848886	2.72147	0.951186	3.04724			0.72997	2.33998	0.852937	2.73002	0.950293	3.04315		
0.795499	2.5361	0.62819	1.99349	0.795235	2.53636	0.851201	2.72076	0.952968	3.04386			0.731839	2.33899	0.854872	2.72807	0.951974	3.03946		
0.797299	2.53431	0.630104	1.99367	0.797035	2.53457	0.853518	2.72007	0.954749	3.0405			0.733709	2.338	0.856804	2.72613	0.953661	3.03582		
0.799097	2.53253	0.632018	1.99384	0.798834	2.53279	0.855839	2.71939	0.956531	3.03716			0.735581	2.33703	0.858735	2.7242	0.955353	3.03221		
0.800894	2.53075	0.633931	1.99402	0.800631	2.53101	0.858163	2.71873	0.958312	3.03385			0.737454	2.33606	0.860664	2.72227	0.95705	3.02864		
0.802689	2.52898	0.635843	1.99419	0.802426	2.52924	0.86049	2.71807	0.960093	3.03055			0.739328	2.33511	0.862591	2.72035	0.958753	3.02511		
0.804483	2.52721	0.637755	1.99436	0.80422	2.52747	0.862819	2.71743	0.961875	3.02727			0.741204	2.33416	0.864515	2.71843	0.960461	3.02162		
0.806275	2.52545	0.639667	1.99452	0.806013	2.5257	0.865151	2.71681	0.963656	3.02401			0.74308	2.33323	0.866438	2.71652	0.962175	3.01816		
0.808066	2.52369	0.641577	1.99469	0.807803	2.52395	0.867485	2.71619	0.965438	3.02076			0.744959	2.3323	0.868358	2.71461	0.963894	3.01475		
0.809855	2.52194	0.643488	1.99485	0.809593	2.5222	0.869822	2.71558	0.967219	3.01754			0.746838	2.33139	0.870277	2.71271	0.965618	3.01136		
0.811643	2.5202	0.645397	1.995	0.811382	2.52045	0.872161	2.71499	0.969001	3.01434			0.748719	2.33048	0.872193	2.71081	0.967347	3.00802		
0.81343	2.51846	0.647307	1.99516	0.813169	2.51872	0.874502	2.7144	0.970782	3.01115			0.750601	2.32958	0.874107	2.70891	0.969082	3.00471		
0.815217	2.51673	0.649215	1.99531	0.814955	2.51698	0.876845	2.71383	0.972564	3.00799			0.752485	2.3287	0.876019	2.70702	0.970823	3.00143		
0.817002	2.51501	0.651124	1.99546	0.81674	2.51526	0.879191	2.71326	0.974345	3.00484			0.754369	2.32782	0.877929	2.70514	0.972568	2.99819		
0.818786	2.51329	0.653031	1.99561	0.818525	2.51354	0.881538	2.71271	0.976127	3.00171			0.756255	2.32695	0.879837	2.70326	0.974319	2.99499		
0.820569	2.51158	0.654938	1.99576	0.820308	2.51183	0.883886	2.71216	0.977908	2.99859			0.758143	2.32609	0.881743	2.70138	0.976075	2.99182		
0.822352	2.50988	0.656845	1.9959	0.822091	2.51013	0.886237	2.71162	0.979689	2.9955			0.760031	2.32523	0.883646	2.6995	0.977836	2.98868		
0.824134	2.50819	0.658751	1.99604	0.823873	2.50844	0.888589	2.71109	0.981471	2.99242			0.761921	2.32439	0.885547	2.69763	0.979602	2.98558		
0.825915	2.5065	0.660657	1.99618	0.825654	2.50675	0.890943	2.71057	0.983252	2.98936			0.763813	2.32355	0.887446	2.69577	0.981374	2.98251		
0.827696	2.50482	0.662562	1.99632	0.827435	2.50507	0.893298	2.71005	0.985033	2.98632			0.765705	2.32273	0.889343	2.69391	0.983151	2.97947		
0.829476	2.50315	0.664467	1.99645	0.829215	2.5034	0.895655	2.70954	0.986815	2.98329			0.767599	2.32191	0.891238	2.69205	0.984933	2.97647		
0.831256	2.50149	0.666371	1.99659	0.830995	2.50173	0.898013	2.70904	0.988596	2.98028			0.769494	2.3211	0.893131	2.69019	0.986719	2.97349		
0.833035	2.49984	0.668275	1.99672	0.832774	2.50008	0.900372	2.70854	0.990378	2.97729			0.77139	2.3203	0.895021	2.68834	0.988511	2.97055		
0.834814	2.49819	0.670178	1.99684	0.834554	2.49843	0.902733	2.70805	0.992159	2.97431			0.773288	2.31951	0.896909	2.6865	0.990308	2.96764		
0.836593	2.49655	0.672081	1.99697	0.836332	2.49679	0.905094	2.70757	0.993941	2.97135			0.775187	2.31872	0.898795	2.68465	0.99211	2.96477		
0.838371	2.49492	0.673983	1.99709	0.838111	2.49516	0.907457	2.70709	0.995722	2.96841			0.777087	2.31795	0.900679	2.68281	0.993917	2.96192		
0.840149	2.4933	0.675885	1.99721	0.839889	2.49354	0.909821	2.70662	0.997504	2.96549			0.778988	2.31718	0.902561	2.68098	0.995729	2.9591		
0.841927	2.49169	0.677786	1.99733	0.841667	2.49192	0.912185	2.70615	0.999286	2.96258			0.78089	2.31642	0.904441	2.67915	0.997546	2.95632		
0.843705	2.49009	0.679687	1.99745	0.843445	2.49032	0.91455	2.70569	1.00107	2.95969			0.782794	2.31567	0.906318	2.67732	0.999367	2.95356		
0.845483	2.48849	0.681588	1.99757	0.845223	2.48872	0.916916	2.70524					0.784699	2.31492	0.908193	2.6755	1.00119	2.95083		
0.847261	2.4869	0.683488	1.99768	0.847	2.48713	0.919283	2.70478					0.786606	2.31418	0.910066	2.67368				
0.849038	2.48532	0.685387	1.99779	0.848778	2.48555	0.921651	2.70434					0.788513	2.31345	0.911937	2.67186				
0.850816	2.48375	0.687287	1.9979	0.850556	2.48398	0.924019	2.70389					0.790422	2.31273	0.913806	2.67005				
0.852594	2.48219	0.689185	1.99801	0.852334	2.48242	0.926387	2.70345					0.792332	2.31202	0.915673	2.66824				
0.854372	2.48064	0.691084	1.99812	0.854112	2.48087	0.928756	2.70302					0.794243	2.31131	0.917538	2.66643				
0.85615	2.4791	0.692981	1.99822	0.85589	2.47932	0.931126	2.70258					0.796155	2.31061	0.9194	2.66463				
0.857929	2.47756	0.694879	1.99832	0.857668	2.47779	0.933495	2.70215					0.798069	2.30992	0.921261	2.66283				
0.859707	2.47604	0.696776	1.99843	0.859447	2.47626	0.935865	2.70173					0.799983	2.30923	0.923119	2.66104				
0.861486	2.47452	0.698673	1.99853	0.861226	2.47474	0.938236	2.70131					0.801899	2.30855	0.924975	2.65925				
0.863265	2.47301	0.700569	1.99862	0.863004	2.47323	0.940606	2.70089					0.803816	2.30788	0.92683	2.65746				
0.865044	2.47151	0.702465	1.99872	0.864784	2.47173	0.942976	2.70047					0.805734	2.30722	0.928682	2.65568				
0.866824	2.47002	0.70436	1.99881	0.866563	2.47024	0.945347	2.70005					0.807654	2.30656	0.930533	2.6539				
0.868604	2.46854	0.706255	1.99891	0.868343	2.46876	0.947718	2.69964					0.809574	2.30591	0.932381	2.65212				
0.870384	2.46707	0.70815	1.999	0.870124	2.46728	0.950088	2.69923					0.811496	2.30527	0.934227	2.65035				
0.872165	2.4656	0.710044	1.99909	0.871904	2.46582	0.952458	2.69882					0.813419	2.30463	0.936072	2.64858				
0.873946	2.46415	0.711938	1.99917	0.873685	2.46436	0.954828	2.69841					0.815343	2.304	0.937914	2.64682				
0.875728	2.4627	0.713831	1.99926	0.875467	2.46291	0.957198	2.698					0.817268	2.30337	0.939755	2.64506				
0.87751	2.46126	0.715724	1.99935	0.877249	2.46147	0.959568	2.6976					0.819194	2.30276	0.941594	2.6433				
0.879293	2.45984	0.717617	1.99943	0.879031	2.46005	0.961937	2.69719					0.821121	2.30214	0.943431	2.64155				
0.881076	2.45842	0.719509	1.99951	0.880814	2.45862	0.964306	2.69679					0.82305	2.30154	0.945266	2.6398				
0.882859	2.45701	0.721401	1.99959	0.882598	2.45721	0.966674	2.69639					0.824979	2.30094	0.947099	2.63806				
0.884643	2.4556	0.723293	1.99967	0.884382	2.45581	0.969042	2.69599					0.82691	2.30035	0.948931	2.63632				
0.886428	2.45421	0.725184	1.99975	0.886167	2.45441	0.971409	2.69559					0.828842	2.29976	0.95076	2.63458				
0.888213	2.45283	0.727075	1.99982	0.887952	2.45303	0.973776	2.69519					0.830774	2.29918	0.952588	2.63285				
0.889999	2.45145	0.728966	1.9999	0.889738	2.45165	0.976142	2.69478					0.832708	2.2986	0.954415	2.63112				
0.891786	2.45008	0.730856	1.99997	0.891524	2.45028	0.978507	2.69438					0.834643	2.29804	0.956239	2.6294				
0.893573	2.44873	0.732746	2.00004	0.893311	2.44892	0.980871	2.69398					0.836579	2.29747	0.958062	2.62768				
0.89536	2.44738	0.734635	2.00012	0.895099	2.44757	0.983235	2.69358					0.838516	2.29692	0.959884	2.62596				
0.897149	2.44604	0.736525	2.00019	0.896887	2.44623	0.985597	2.69318					0.840455	2.29636	0.961703	2.62425				
0.898938	2.4447	0.738413	2.00025	0.898676	2.4449	0.987959	2.69278					0.842394	2.29582	0.963522	2.62255				
0.900728	2.44338	0.740302	2.00032	0.900465	2.44357	0.990319	2.69237					0.844334	2.29528	0.965338	2.62084				
0.902518	2.44206	0.74219	2.00039	0.902256	2.44226	0.992678	2.69197					0.846275	2.29474	0.967153	2.61915				
0.904309	2.44076	0.744078	2.00045	0.904047	2.44095	0.995036	2.69156					0.848218	2.29421	0.968967	2.61745				
0.906101	2.43946	0.745966	2.00052	0.905839	2.43965	0.997393	2.69115					0.850161	2.29369	0.970779	2.61577				
0.907894	2.43817	0.747853	2.00058	0.907631	2.43836	0.999748	2.69074					0.852105	2.29317	0.97259	2.61408				
0.909687	2.43689	0.74974	2.00064	0.909424	2.43708	1.0021	2.69033					0.854051	2.29266	0.974399	2.6124				
0.911481	2.43562	0.751626	2.0007	0.911218	2.4358							0.855997	2.29215	0.976207	2.61073				
0.913276	2.43435	0.753513	2.00076	0.913013	2.43454							0.857945	2.29165	0.978013	2.60906				
0.915071	2.43309	0.755399	2.00082	0.914808	2.43328							0.859893	2.29115	0.979818	2.60739				
0.916868	2.43185	0.757285	2.00088	0.916605	2.43203							0.861842	2.29066	0.981622	2.60573				
0.918665	2.43061	0.75917	2.00093	0.918402	2.43079							0.863793	2.29017	0.983425	2.60408				
0.920463	2.42938	0.761055	2.00099	0.9202	2.42956							0.865744	2.28969	0.985226	2.60243				
0.922262	2.42815	0.76294	2.00104	0.921998	2.42833							0.867696	2.28921	0.987026	2.60078				
0.924061	2.42694	0.764825	2.00109	0.923798	2.42711							0.86965	2.28874	0.988825	2.59914				
0.925862	2.42573	0.766709	2.00115	0.925598	2.42591							0.871604	2.28827	0.990623	2.5975				
0.927663	2.42453	0.768593	2.0012	0.927399	2.42471							0.873559	2.28781	0.992419	2.59587				
0.929465	2.42334	0.770477	2.00125	0.929201	2.42351							0.875515	2.28735	0.994215	2.59425				
0.931268	2.42216	0.77236	2.0013	0.931004	2.42233							0.877472	2.28689	0.996009	2.59263				
0.933071	2.42098	0.774244	2.00134	0.932807	2.42115							0.87943	2.28645	0.997803	2.59101				
0.934876	2.41981	0.776127	2.00139	0.934612	2.41998							0.881389	2.286	0.999595	2.5894				
0.936681	2.41865	0.778009	2.00144	0.936417	2.41882							0.883349	2.28556	1.00139	2.5878				
0.938488	2.4175	0.779892	2.00148	0.938223	2.41767							0.885309	2.28513						
0.940295	2.41636	0.781774	2.00153	0.94003	2.41652							0.887271	2.28469						
0.942103	2.41522	0.783656	2.00157	0.941838	2.41539							0.889233	2.28427						
0.943912	2.41409	0.785538	2.00161	0.943647	2.41426							0.891197	2.28384						
0.945721	2.41297	0.787419	2.00166	0.945456	2.41313							0.893161	2.28343						
0.947532	2.41186	0.789301	2.0017	0.947267	2.41202							0.895126	2.28301						
0.949344	2.41075	0.791182	2.00174	0.949078	2.41091							0.897092	2.2826						
0.951156	2.40965	0.793062	2.00178	0.950891	2.40981							0.899059	2.2822						
0.952969	2.40856	0.794943	2.00182	0.952704	2.40872							0.901027	2.2818						
0.954784	2.40748	0.796823	2.00186	0.954518	2.40764							0.902996	2.2814						
0.956599	2.4064	0.798703	2.00189	0.956333	2.40656							0.904965	2.281						
0.958415	2.40533	0.800583	2.00193	0.958149	2.40549							0.906935	2.28062						
0.960232	2.40427	0.802463	2.00197	0.959966	2.40443							0.908906	2.28023						
0.96205	2.40322	0.804342	2.002	0.961783	2.40337							0.910878	2.27985						
0.963868	2.40217	0.806222	2.00204	0.963602	2.40232							0.912851	2.27947						
0.965688	2.40113	0.808101	2.00207	0.965422	2.40128							0.914825	2.2791						
0.967509	2.40009	0.809979	2.0021	0.967242	2.40025							0.916799	2.27873						
0.96933	2.39907	0.811858	2.00214	0.969063	2.39922							0.918774	2.27836						
0.971153	2.39805	0.813736	2.00217	0.970886	2.3982							0.92075	2.278						
0.972976	2.39704	0.815615	2.0022	0.972709	2.39718							0.922727	2.27764						
0.9748	2.39603	0.817493	2.00223	0.974533	2.39618							0.924705	2.27728						
0.976625	2.39503	0.819371	2.00226	0.976358	2.39518							0.926683	2.27693						
0.978452	2.39404	0.821248	2.00229	0.978184	2.39419							0.928662	2.27658						
0.980279	2.39306	0.823126	2.00232	0.980011	2.3932							0.930642	2.27623						
0.982107	2.39208	0.825003	2.00235	0.981839	2.39222							0.932623	2.27589						
0.983936	2.39111	0.82688	2.00238	0.983668	2.39125							0.934604	2.27555						
0.985765	2.39014	0.828757	2.0024	0.985497	2.39028							0.936586	2.27522						
0.987596	2.38918	0.830634	2.00243	0.987328	2.38932							0.938569	2.27489						
0.989428	2.38823	0.83251	2.00246	0.98916	2.38837							0.940553	2.27456						
0.99126	2.38729	0.834387	2.00248	0.990992	2.38742							0.942537	2.27423						
0.993094	2.38635	0.836263	2.00251	0.992825	2.38648							0.944522	2.27391						
0.994928	2.38541	0.838139	2.00253	0.99466	2.38555							0.946508	2.27359						
0.996764	2.38449	0.840015	2.00256	0.996495	2.38462							0.948495	2.27328						
0.9986	2.38357	0.841891	2.00258	0.998331	2.3837							0.950482	2.27296						
1.00044	2.38266	0.843766	2.0026	1.00017	2.38279							0.95247	2.27265						
		0.845642	2.00263									0.954459	2.27235						
		0.847517	2.00265									0.956448	2.27204						
		0.849392	2.00267									0.958438	2.27174						
		0.851267	2.00269									0.960429	2.27145						
		0.853142	2.00271									0.962421	2.27115						
		0.855016	2.00273									0.964413	2.27086						
		0.856891	2.00275									0.966406	2.27057						
		0.858765	2.00277									0.968399	2.27029						
		0.860639	2.00279									0.970393	2.27						
		0.862513	2.00281									0.972388	2.26972						
		0.864387	2.00283									0.974383	2.26944						
		0.866261	2.00285									0.97638	2.26917						
		0.868135	2.00286									0.978376	2.2689						
		0.870009	2.00288									0.980374	2.26863						
		0.871882	2.0029									0.982372	2.26836						
		0.873755	2.00292									0.98437	2.2681						
		0.875628	2.00293									0.986369	2.26783						
		0.877501	2.00295									0.988369	2.26757						
		0.879374	2.00296									0.99037	2.26732						
		0.881247	2.00298									0.992371	2.26706						
		0.88312	2.00299									0.994372	2.26681						
		0.884992	2.00301									0.996375	2.26656						
		0.886865	2.00302									0.998378	2.26631						
		0.888737	2.00304									1.00038	2.26607						
		0.89061	2.00305																
		0.892482	2.00306																
		0.894354	2.00308																
		0.896226	2.00309																
		0.898098	2.0031																
		0.899969	2.00311																
		0.901841	2.00312																
		0.903712	2.00314																
		0.905584	2.00315																
		0.907455	2.00316																
		0.909326	2.00317																
		0.911198	2.00318																
		0.913069	2.00319																
		0.91494	2.0032																
		0.916811	2.00321																
		0.918681	2.00322																
		0.920552	2.00323																
		0.922423	2.00324																
		0.924293	2.00325																
		0.926164	2.00326																
		0.928034	2.00326																
		0.929905	2.00327																
		0.931775	2.00328																
		0.933645	2.00329																
		0.935515	2.0033																
		0.937385	2.0033																
		0.939255	2.00331																
		0.941125	2.00332																
		0.942995	2.00333																
		0.944864	2.00333																
		0.946734	2.00334																
		0.948604	2.00335																
		0.950473	2.00335																
		0.952343	2.00336																
		0.954212	2.00337																
		0.956082	2.00337																
		0.957951	2.00338																
		0.95982	2.00338																
		0.961689	2.00339																
		0.963559	2.00339																
		0.965428	2.0034																
		0.967297	2.0034																
		0.969166	2.00341																
		0.971035	2.00341																
		0.972903	2.00342																
		0.974772	2.00342																
		0.976641	2.00343																
		0.97851	2.00343																
		0.980378	2.00344																
		0.982247	2.00344																
		0.984116	2.00344																
		0.985984	2.00345																
		0.987853	2.00345																
		0.989721	2.00346																
		0.991589	2.00346																
		0.993458	2.00346																
		0.995326	2.00347																
		0.997194	2.00347																
		0.999063	2.00347																
		1.00093	2.00348																
