Sym0		Asym0		Sym1		Sym2		Sym3		Sym4		Asym1		Asym2		Asym3		Asym4	
458  Points		542  Points		458  Points		407  Points		370  Points		281  Points		481  Points		422  Points		371  Points		280  Points	
Freq (MHz)	Vph (m/ms)	Freq (MHz)	Vph (m/ms)	Freq (MHz)	Vph (m/ms)	Freq (MHz)	Vph (m/ms)	Freq (MHz)	Vph (m/ms)	Freq (MHz)	Vph (m/ms)	Freq (MHz)	Vph (m/ms)	Freq (MHz)	Vph (m/ms)	Freq (MHz)	Vph (m/ms)	Freq (MHz)	Vph (m/ms)
0.279507	343.653	3.62838e-005	0.0371067	0.279507	368.234	0.356452	4858.56	0.559017	1879.47	0.838526	2368.88	0.139755	1265.71	0.419264	720.33	0.69877	1640.06	0.712905	5272.36
0.2795	160.169	0.000138194	0.0723711	0.2795	165.312	0.356468	354.674	0.559024	454.814	0.838529	652.211	0.139796	134.146	0.419274	276.979	0.698759	514.641	0.712921	668.211
0.279488	104.414	0.000305573	0.10755	0.279489	106.576	0.356512	184.077	0.55904	258.716	0.838537	378.168	0.139902	70.8794	0.419292	171.459	0.698737	305.198	0.712964	356.731
0.279472	77.4498	0.000537971	0.142588	0.279473	78.6332	0.356584	124.312	0.559063	180.779	0.83855	266.286	0.140074	48.21	0.419319	124.164	0.698703	216.911	0.713032	243.331
0.27945	61.5513	0.000834623	0.177406	0.279452	62.2966	0.356683	93.8603	0.559095	138.933	0.838566	205.493	0.140311	36.5661	0.419354	97.3244	0.698659	168.236	0.713124	184.652
0.279425	51.0662	0.00119489	0.211999	0.279426	51.5782	0.35681	75.4061	0.559135	112.822	0.838587	167.301	0.140613	29.4854	0.419397	80.0297	0.698604	137.398	0.713242	148.788
0.279394	43.6314	0.00161769	0.246299	0.279396	44.0048	0.356964	63.0284	0.559184	94.9765	0.838611	141.082	0.140978	24.7304	0.41945	67.9577	0.69854	116.109	0.713383	124.6
0.27936	38.0848	0.00210196	0.280273	0.279362	38.3691	0.357145	54.152	0.559241	82.0086	0.83864	121.969	0.141406	21.3208	0.41951	59.0534	0.698467	100.529	0.713548	107.186
0.279321	33.7879	0.0026464	0.313875	0.279323	34.0116	0.357353	47.4767	0.559307	72.1594	0.838674	107.418	0.141895	18.7593	0.419579	52.215	0.698387	88.632	0.713735	94.0514
0.279279	30.361	0.00324975	0.347081	0.279281	30.5416	0.357589	42.275	0.55938	64.4248	0.838711	95.9708	0.142444	16.7667	0.419657	46.7986	0.698299	79.2502	0.713944	83.7916
0.279233	27.5641	0.00391046	0.379849	0.279235	27.7129	0.35785	38.1084	0.559463	58.1902	0.838753	86.7293	0.143052	15.1741	0.419743	42.4026	0.698204	71.662	0.714174	75.5566
0.279183	25.2381	0.00462708	0.412158	0.279186	25.3629	0.358138	34.6966	0.559553	53.0579	0.838799	79.1124	0.143718	13.8736	0.419838	38.7637	0.698104	65.3979	0.714424	68.8014
0.279131	23.2732	0.00539792	0.443975	0.279134	23.3793	0.358452	31.8519	0.559652	48.7596	0.838849	72.7264	0.144439	12.7927	0.419941	35.7021	0.697999	60.1391	0.714693	63.1602
0.279076	21.5914	0.00622138	0.475282	0.27908	21.6827	0.358792	29.4444	0.559759	45.1074	0.838903	67.2952	0.145215	11.881	0.420053	33.0905	0.69789	55.6616	0.71498	58.3788
0.279019	20.1355	0.00709575	0.50606	0.279022	20.215	0.359157	27.3808	0.559875	41.966	0.838962	62.6198	0.146043	11.1024	0.420173	30.8367	0.697778	51.8032	0.715285	54.2749
0.27896	18.863	0.00801927	0.53629	0.278963	18.9327	0.359547	25.5928	0.559999	39.2352	0.839025	58.5527	0.146922	10.4305	0.420302	28.8719	0.697664	48.4438	0.715607	50.714
0.278899	17.7412	0.00899019	0.565957	0.278903	17.8029	0.359962	24.0288	0.560131	36.8397	0.839092	54.9824	0.14785	9.84515	0.42044	27.1441	0.697547	45.4927	0.715945	47.5954
0.278837	16.7448	0.0100068	0.595052	0.278841	16.7998	0.360402	22.6494	0.560272	34.7213	0.839163	51.8232	0.148825	9.33119	0.420585	25.6129	0.69743	42.8795	0.716299	44.8415
0.278774	15.854	0.0110673	0.62357	0.278778	15.9033	0.360865	21.4241	0.560421	32.8347	0.839238	49.0081	0.149846	8.87666	0.42074	24.2466	0.697312	40.5495	0.716667	42.392
0.278711	15.0528	0.0121701	0.651503	0.278714	15.0973	0.361352	20.3286	0.560579	31.1439	0.839318	46.4837	0.150911	8.47215	0.420903	23.02	0.697194	38.459	0.71705	40.1992
0.278647	14.3284	0.0133133	0.678846	0.278651	14.3687	0.361862	19.3434	0.560745	29.6199	0.839402	44.2073	0.151874	8.1545	0.421074	21.9127	0.697077	36.5729	0.717446	38.2248
0.278584	13.6702	0.0144955	0.705604	0.278587	13.7069	0.362394	18.4528	0.560919	28.2393	0.83949	42.144	0.152719	7.90606	0.421254	20.9084	0.696961	34.8626	0.717856	36.4379
0.278521	13.0696	0.0157149	0.731772	0.278525	13.1031	0.362949	17.644	0.561101	26.9829	0.839583	40.2653	0.153434	7.71451	0.421442	19.9932	0.696847	33.3047	0.718278	34.8129
0.27846	12.5194	0.0169699	0.757353	0.278464	12.5502	0.363526	16.9063	0.561292	25.8345	0.839679	38.5475	0.154009	7.57119	0.42164	19.1558	0.696735	31.8798	0.718712	33.3289
0.2784	12.0135	0.018259	0.782354	0.278404	12.0418	0.364125	16.2309	0.561491	24.781	0.83978	36.9708	0.154438	7.47008	0.421845	18.3869	0.696625	30.5715	0.719158	31.9684
0.278342	11.5467	0.0195807	0.806778	0.278346	11.5729	0.364744	15.6102	0.561699	23.8111	0.839885	35.5186	0.154715	7.40718	0.422059	17.6783	0.696517	29.3661	0.719616	30.7166
0.278287	11.1149	0.0209336	0.830635	0.27829	11.1391	0.365384	15.038	0.561915	22.9152	0.839995	34.1766	0.155117	7.31914	0.422282	17.0233	0.696413	28.2519	0.720084	29.561
0.278234	10.7141	0.0223161	0.853926	0.278237	10.7366	0.366045	14.5088	0.562139	22.0852	0.840108	32.9328	0.155558	7.22648	0.422513	16.416	0.696312	27.219	0.720564	28.4909
0.278185	10.3411	0.0237272	0.876667	0.278188	10.3622	0.366725	14.0181	0.562372	21.3142	0.840226	31.7769	0.156165	7.10531	0.422752	15.8515	0.696215	26.2589	0.721053	27.4973
0.278139	9.99333	0.0251655	0.898864	0.278142	10.013	0.367425	13.5619	0.562613	20.596	0.840348	30.6997	0.156944	6.95954	0.423001	15.3254	0.696122	25.364	0.721553	26.5723
0.278097	9.66818	0.0266296	0.920525	0.2781	9.68655	0.368144	13.1366	0.562862	19.9255	0.840474	29.6937	0.157904	6.79358	0.423257	14.834	0.696033	24.5281	0.722063	25.709
0.27806	9.36359	0.0281184	0.941662	0.278062	9.38081	0.368881	12.7394	0.56312	19.2982	0.840604	28.7519	0.159052	6.61203	0.423523	14.374	0.695948	23.7455	0.722583	24.9014
0.278027	9.07768	0.0296308	0.962287	0.278029	9.09386	0.369637	12.3676	0.563386	18.7099	0.840739	27.8684	0.1604	6.41941	0.423796	13.9424	0.695868	23.0113	0.723112	24.1444
0.278	8.80882	0.0311657	0.982409	0.278001	8.82405	0.37041	12.0188	0.56366	18.1572	0.840878	27.038	0.161777	6.2418	0.424079	13.5367	0.695792	22.3211	0.723651	23.4334
0.277978	8.55555	0.0327221	1.00204	0.277979	8.5699	0.371201	11.691	0.563943	17.637	0.841021	26.256	0.163184	6.07759	0.424369	13.1548	0.695722	21.6711	0.724198	22.7643
0.277962	8.31658	0.034299	1.02119	0.277963	8.33013	0.372008	11.3824	0.564234	17.1465	0.841169	25.5183	0.164617	5.92538	0.424669	12.7946	0.695656	21.0579	0.724755	22.1336
0.277953	8.09075	0.0358954	1.03988	0.277954	8.13199	0.372833	11.0915	0.564534	16.6832	0.84132	24.8214	0.166077	5.78396	0.424977	12.4542	0.695596	20.4785	0.72532	21.538
0.277949	7.87703	0.0375106	1.05811	0.27795	7.97049	0.373673	10.8167	0.564841	16.245	0.841476	24.1618	0.167562	5.65227	0.425293	12.1323	0.695541	19.9302	0.725894	20.9748
0.277953	7.67451	0.0391435	1.0759	0.27795	7.84178	0.37453	10.5567	0.565158	15.8299	0.841636	23.5368	0.169071	5.52938	0.425618	11.8272	0.695491	19.4106	0.726476	20.4413
0.277965	7.48234	0.0407934	1.09325	0.277951	7.74297	0.375401	10.3105	0.565482	15.4362	0.841801	22.9435	0.170603	5.41449	0.425952	11.5377	0.695447	18.9175	0.727066	19.9353
0.277984	7.29978	0.0424596	1.11018	0.277954	7.67192	0.376289	10.077	0.565815	15.0622	0.841969	22.3798	0.172156	5.30686	0.426294	11.2628	0.695409	18.4489	0.727665	19.4547
0.278011	7.12614	0.0441412	1.1267	0.277956	7.62714	0.37719	9.8553	0.566156	14.7065	0.842142	21.8435	0.17373	5.20586	0.426645	11.0012	0.695376	18.003	0.728272	18.9977
0.278046	6.96081	0.0458376	1.14283	0.277959	7.5637	0.378107	9.64446	0.566505	14.3679	0.842319	21.3325	0.175323	5.11092	0.427004	10.7522	0.695349	17.5783	0.728887	18.5626
0.27809	6.80322	0.0475482	1.15856	0.277964	7.49595	0.379037	9.44377	0.566863	14.0451	0.8425	20.8453	0.176936	5.02154	0.427372	10.5148	0.695328	17.1733	0.72951	18.1479
0.278143	6.65288	0.0492722	1.17392	0.277972	7.40579	0.379982	9.25251	0.567229	13.737	0.842686	20.3801	0.178566	4.93726	0.427748	10.2882	0.695313	16.7866	0.73014	17.7521
0.278205	6.50931	0.0510092	1.18891	0.277984	7.2949	0.380939	9.07006	0.567603	13.4428	0.842876	19.9355	0.180213	4.85767	0.428133	10.0718	0.695304	16.4171	0.730778	17.374
0.278277	6.37208	0.0527585	1.20355	0.278004	7.16527	0.38191	8.89584	0.567986	13.1614	0.84307	19.5101	0.181877	4.78241	0.428527	9.86479	0.695302	16.0637	0.731424	17.0126
0.278359	6.2408	0.0545196	1.21784	0.278033	7.01912	0.382894	8.72932	0.568377	12.8921	0.843268	19.1028	0.183556	4.71115	0.428929	9.66672	0.695305	15.7253	0.732077	16.6666
0.27845	6.11512	0.0562919	1.23179	0.278073	6.85882	0.383891	8.57	0.568776	12.6342	0.843471	18.7125	0.185251	4.64359	0.429339	9.47698	0.695315	15.401	0.732738	16.3351
0.278552	5.9947	0.058075	1.24542	0.278123	6.70594	0.384899	8.41744	0.569184	12.3869	0.843678	18.338	0.186959	4.57947	0.429759	9.29507	0.69533	15.0899	0.733406	16.0173
0.278665	5.87924	0.0598684	1.25873	0.278182	6.55999	0.38592	8.27123	0.5696	12.1496	0.843889	17.9785	0.188681	4.51852	0.430186	9.12053	0.695353	14.7913	0.734082	15.7124
0.278788	5.76846	0.0616717	1.27173	0.27825	6.42054	0.386819	8.14871	0.570024	11.9217	0.844104	17.6331	0.190416	4.46055	0.430623	8.95294	0.695381	14.5045	0.734764	15.4195
0.278923	5.66209	0.0634844	1.28443	0.278328	6.28717	0.387593	8.04766	0.570457	11.7027	0.844324	17.301	0.192163	4.40532	0.431068	8.79188	0.695416	14.2287	0.735454	15.138
0.279069	5.5599	0.0653062	1.29685	0.278416	6.15953	0.388237	7.96637	0.570898	11.4921	0.844547	16.9814	0.193922	4.35268	0.431521	8.63701	0.695457	13.9634	0.736151	14.8672
0.279227	5.46167	0.0671366	1.30898	0.278514	6.03726	0.388749	7.90349	0.571347	11.2894	0.844776	16.6736	0.195692	4.30243	0.431983	8.48797	0.695505	13.7079	0.736855	14.6066
0.279397	5.36717	0.0689754	1.32083	0.278623	5.92006	0.389127	7.85802	0.571804	11.0942	0.845008	16.377	0.197473	4.25444	0.432454	8.34446	0.69556	13.4618	0.737566	14.3555
0.279578	5.27623	0.070822	1.33242	0.278743	5.80763	0.38937	7.82926	0.57227	10.9061	0.845244	16.091	0.199264	4.20855	0.432871	8.22368	0.69562	13.2245	0.738283	14.1136
0.279772	5.18866	0.0726763	1.34376	0.278874	5.69971	0.38972	7.78836	0.572744	10.7247	0.845485	15.8151	0.201065	4.16464	0.433232	8.12371	0.695688	12.9956	0.739008	13.8802
0.279979	5.10429	0.0745378	1.35484	0.279015	5.59605	0.390102	7.74449	0.573226	10.5497	0.84573	15.5487	0.202875	4.12257	0.433534	8.04306	0.695762	12.7746	0.739739	13.655
0.280198	5.02297	0.0764064	1.36567	0.279169	5.49642	0.390624	7.6858	0.573717	10.3807	0.84598	15.2914	0.204694	4.08225	0.433775	7.98053	0.695842	12.5612	0.740478	13.4375
0.28043	4.94455	0.0782817	1.37627	0.279334	5.40061	0.391287	7.61312	0.574216	10.2175	0.846233	15.0426	0.206522	4.04357	0.433953	7.93523	0.695929	12.355	0.741222	13.2274
0.280676	4.8689	0.0801634	1.38664	0.279512	5.30841	0.392094	7.52746	0.574723	10.0598	0.846491	14.8021	0.208358	4.00643	0.434068	7.90654	0.696023	12.1556	0.741974	13.0243
0.280935	4.79587	0.0820513	1.39679	0.279701	5.21966	0.393049	7.42997	0.575238	9.90722	0.846754	14.5693	0.210201	3.97074	0.434234	7.8657	0.696124	11.9627	0.742732	12.8278
0.281207	4.72537	0.0839451	1.40671	0.279903	5.13416	0.394153	7.32189	0.575762	9.75964	0.84702	14.3439	0.212052	3.93643	0.434415	7.82184	0.696231	11.776	0.743497	12.6376
0.281494	4.65727	0.0858446	1.41643	0.280118	5.05176	0.395267	7.21767	0.576294	9.61678	0.847291	14.1256	0.21391	3.90341	0.434664	7.76306	0.696345	11.5952	0.744268	12.4535
0.281794	4.59146	0.0877496	1.42594	0.280346	4.97232	0.396391	7.1171	0.576834	9.47842	0.847566	13.9141	0.215775	3.87162	0.434981	7.69012	0.696465	11.42	0.745046	12.2752
0.282108	4.52785	0.0896598	1.43525	0.280586	4.89569	0.397524	7.02001	0.577383	9.34438	0.847845	13.709	0.217647	3.84098	0.435368	7.60393	0.696592	11.2503	0.74583	12.1023
0.282437	4.46634	0.091575	1.44437	0.28084	4.82174	0.398667	6.92623	0.577939	9.21445	0.848128	13.5101	0.219524	3.81145	0.435829	7.50555	0.696726	11.0856	0.746621	11.9347
0.282781	4.40684	0.093495	1.4533	0.281108	4.75035	0.399818	6.83559	0.578504	9.08845	0.848416	13.317	0.221408	3.78296	0.436366	7.39612	0.696867	10.9259	0.747418	11.7721
0.283139	4.34927	0.0954197	1.46204	0.281389	4.6814	0.400978	6.74793	0.579078	8.96622	0.848708	13.1296	0.223297	3.75545	0.436912	7.29024	0.697014	10.7708	0.748221	11.6143
0.283512	4.29356	0.0973489	1.47061	0.281685	4.61478	0.402146	6.66312	0.579659	8.84758	0.849005	12.9475	0.225192	3.72889	0.437466	7.18775	0.697168	10.6203	0.749031	11.4612
0.283901	4.23962	0.0992823	1.479	0.281994	4.55039	0.403323	6.58103	0.580249	8.7324	0.849305	12.7707	0.227091	3.70321	0.438028	7.08848	0.697329	10.4741	0.749846	11.3124
0.284305	4.18739	0.10122	1.48722	0.282318	4.48814	0.404508	6.50153	0.580847	8.62053	0.84961	12.5988	0.228996	3.67839	0.4386	6.9923	0.697497	10.332	0.750668	11.1678
0.284724	4.1368	0.103161	1.49528	0.282656	4.42793	0.405701	6.4245	0.581453	8.51183	0.849919	12.4316	0.230905	3.65436	0.43918	6.89907	0.697671	10.1939	0.751496	11.0273
0.285159	4.08779	0.105107	1.50317	0.283009	4.36968	0.406902	6.34983	0.581988	8.41959	0.850233	12.269	0.232819	3.63111	0.439768	6.80867	0.697852	10.0596	0.752331	10.8906
0.285611	4.0403	0.107056	1.51091	0.283377	4.31331	0.408111	6.27742	0.582449	8.34272	0.850551	12.1107	0.234737	3.60859	0.440366	6.72097	0.69804	9.92899	0.753171	10.7577
0.286017	4.00011	0.109008	1.5185	0.28376	4.25875	0.409327	6.20717	0.582833	8.28035	0.850873	11.9567	0.236659	3.58676	0.440972	6.63585	0.698234	9.80186	0.754017	10.6283
0.286373	3.96669	0.110964	1.52594	0.284158	4.20591	0.41055	6.13899	0.583139	8.23177	0.851199	11.8067	0.238585	3.56561	0.441586	6.55322	0.698436	9.67811	0.75487	10.5024
0.286675	3.93964	0.112923	1.53324	0.284572	4.15474	0.411781	6.07278	0.583366	8.19647	0.85153	11.6606	0.240515	3.54508	0.442209	6.47297	0.698644	9.5576	0.755728	10.3798
0.286918	3.91861	0.114885	1.5404	0.285002	4.10517	0.413018	6.00847	0.583511	8.17406	0.851865	11.5182	0.242448	3.52517	0.442841	6.39501	0.698859	9.44021	0.756593	10.2604
0.287099	3.90334	0.116598	1.54652	0.285447	4.05714	0.414262	5.94598	0.583721	8.14208	0.852204	11.3795	0.244385	3.50583	0.443482	6.31924	0.69908	9.32584	0.757463	10.144
0.287216	3.89366	0.118059	1.55166	0.285909	4.01059	0.415513	5.88523	0.58395	8.10764	0.852547	11.2442	0.246324	3.48705	0.444131	6.24557	0.699309	9.21436	0.758339	10.0306
0.287386	3.87986	0.119269	1.55586	0.286387	3.96547	0.41677	5.82616	0.584263	8.06134	0.852895	11.1122	0.248267	3.4688	0.444789	6.17393	0.699544	9.10567	0.759221	9.92002
0.287572	3.86502	0.120226	1.55914	0.286881	3.92173	0.418034	5.76869	0.584662	8.00365	0.853247	10.9835	0.250213	3.45106	0.445455	6.10424	0.699786	8.99968	0.760109	9.81217
0.28783	3.84509	0.120931	1.56154	0.287393	3.87931	0.419304	5.71277	0.585149	7.93513	0.853603	10.8578	0.252161	3.4338	0.446131	6.03642	0.700034	8.89628	0.761002	9.70696
0.288161	3.82031	0.121382	1.56306	0.287921	3.83817	0.42058	5.65833	0.585726	7.85644	0.853964	10.7352	0.254112	3.41702	0.446814	5.97041	0.70029	8.79538	0.761901	9.60429
0.288571	3.79095	0.12203	1.56524	0.288467	3.79827	0.421862	5.60531	0.586395	7.76834	0.854329	10.6155	0.256065	3.40068	0.447507	5.90614	0.700552	8.6969	0.762806	9.50408
0.289063	3.75735	0.122735	1.5676	0.28903	3.75957	0.42315	5.55367	0.587072	7.68249	0.854698	10.4985	0.25802	3.38477	0.448208	5.84354	0.700785	8.61299	0.763717	9.40623
0.289645	3.71986	0.123695	1.57077	0.289611	3.72201	0.424444	5.50335	0.587758	7.59882	0.855072	10.3843	0.259978	3.36927	0.448918	5.78255	0.700989	8.54283	0.764633	9.31068
0.290245	3.68349	0.124909	1.57475	0.29021	3.68558	0.425743	5.45431	0.588452	7.51724	0.85545	10.2726	0.261938	3.35417	0.449637	5.72312	0.70116	8.48572	0.765555	9.21733
0.290863	3.6482	0.126379	1.5795	0.290827	3.65023	0.427047	5.40649	0.589154	7.43768	0.855832	10.1635	0.2639	3.33945	0.450364	5.6652	0.701297	8.44115	0.766483	9.12612
0.2915	3.61396	0.128105	1.58498	0.291463	3.61592	0.428357	5.35985	0.589864	7.36008	0.856218	10.0568	0.265863	3.32509	0.4511	5.60872	0.701399	8.4087	0.767416	9.03698
0.292156	3.58073	0.130087	1.59117	0.292117	3.58263	0.429672	5.31435	0.590582	7.28436	0.856609	9.95248	0.267828	3.31109	0.451845	5.55365	0.701464	8.38807	0.768354	8.94984
0.292831	3.54848	0.132072	1.59725	0.292791	3.55033	0.430992	5.26995	0.591308	7.21045	0.857004	9.85044	0.269795	3.29742	0.452599	5.49993	0.701559	8.3586	0.769298	8.86464
0.293525	3.51718	0.134059	1.60321	0.293484	3.51898	0.432317	5.22661	0.592043	7.13831	0.857404	9.75061	0.271763	3.28408	0.453361	5.44752	0.701663	8.32683	0.770248	8.7813
0.29424	3.48681	0.136048	1.60907	0.294197	3.48856	0.433647	5.18429	0.592785	7.06787	0.857807	9.65293	0.273733	3.27105	0.454132	5.39637	0.701806	8.28404	0.77108	8.71016
0.294974	3.45735	0.138039	1.61483	0.294931	3.45904	0.434982	5.14296	0.593536	6.99907	0.858215	9.55732	0.275704	3.25832	0.454911	5.34644	0.701988	8.23059	0.771792	8.65058
0.295729	3.42875	0.140032	1.62048	0.295685	3.43039	0.436321	5.10259	0.594295	6.93186	0.858628	9.46372	0.277675	3.24589	0.4557	5.2977	0.702213	8.16695	0.772383	8.60202
0.296505	3.40101	0.142027	1.62603	0.296459	3.4026	0.437665	5.06313	0.595062	6.86619	0.859044	9.37207	0.279648	3.23373	0.456497	5.2501	0.702481	8.09364	0.772852	8.56408
0.297302	3.37409	0.144024	1.63149	0.297255	3.37564	0.439013	5.02457	0.595837	6.80201	0.859465	9.28231	0.281622	3.22185	0.457303	5.20361	0.702795	8.01126	0.773198	8.53644
0.298121	3.34799	0.146022	1.63685	0.298073	3.34949	0.440365	4.98688	0.59662	6.73927	0.859891	9.19438	0.283597	3.21022	0.458118	5.15819	0.703115	7.93068	0.773419	8.51885
0.298962	3.32267	0.148022	1.64211	0.298912	3.32412	0.441722	4.95001	0.597411	6.67792	0.86032	9.10824	0.285573	3.19885	0.458941	5.11382	0.703442	7.85186	0.773738	8.49373
0.299826	3.29811	0.150023	1.64729	0.299775	3.29952	0.443083	4.91396	0.598211	6.61793	0.860754	9.02382	0.287549	3.18772	0.459773	5.07045	0.703776	7.77473	0.774086	8.46661
0.300712	3.27431	0.152026	1.65238	0.30066	3.27567	0.444448	4.87868	0.599018	6.55926	0.861192	8.94108	0.289526	3.17682	0.460614	5.02806	0.704116	7.69924	0.774559	8.43006
0.301622	3.25123	0.15403	1.65738	0.301569	3.25256	0.445817	4.84417	0.599833	6.50185	0.861578	8.87031	0.291503	3.16615	0.461464	4.98662	0.704463	7.62535	0.77516	8.38438
0.302556	3.22888	0.156036	1.6623	0.302501	3.23016	0.447189	4.81038	0.600657	6.44568	0.861909	8.81094	0.293481	3.1557	0.462322	4.9461	0.704817	7.55301	0.775889	8.3299
0.303515	3.20721	0.158043	1.66713	0.303458	3.20846	0.448566	4.77731	0.601488	6.39071	0.862184	8.76249	0.295459	3.14546	0.46319	4.90648	0.705177	7.48217	0.776747	8.26706
0.304498	3.18624	0.160051	1.67188	0.30444	3.18744	0.449946	4.74492	0.602327	6.3369	0.862404	8.72459	0.297438	3.13542	0.464066	4.86772	0.705544	7.41278	0.777738	8.19632
0.305507	3.16593	0.162061	1.67656	0.305448	3.1671	0.451329	4.71321	0.603175	6.28422	0.862565	8.69695	0.299417	3.12558	0.464951	4.8298	0.705918	7.34481	0.778733	8.12702
0.306542	3.14628	0.164071	1.68115	0.306481	3.14741	0.452716	4.68214	0.60403	6.23263	0.862669	8.67936	0.301395	3.11593	0.465845	4.7927	0.706298	7.27821	0.779734	8.0591
0.307604	3.12727	0.166083	1.68567	0.307542	3.12836	0.454107	4.6517	0.604894	6.1821	0.862819	8.65421	0.303374	3.10647	0.466747	4.75639	0.706685	7.21294	0.78074	7.99253
0.308693	3.10889	0.168096	1.69012	0.308629	3.10995	0.455501	4.62186	0.605765	6.13262	0.862982	8.62706	0.305353	3.09718	0.467659	4.72086	0.707078	7.14897	0.781751	7.92727
0.309809	3.09113	0.17011	1.6945	0.309743	3.09215	0.456898	4.59262	0.606644	6.08413	0.863205	8.59042	0.307332	3.08807	0.468579	4.68607	0.707478	7.08627	0.782766	7.86328
0.310954	3.07398	0.172125	1.6988	0.310886	3.07496	0.458298	4.56395	0.607531	6.03662	0.863488	8.54457	0.30931	3.07912	0.469508	4.65202	0.707884	7.02478	0.783787	7.80053
0.312127	3.05741	0.174141	1.70303	0.312058	3.05836	0.459702	4.53584	0.608427	5.99006	0.863833	8.48984	0.311289	3.07034	0.470446	4.61867	0.708297	6.96449	0.784813	7.73898
0.313329	3.04143	0.176157	1.7072	0.313259	3.04235	0.461108	4.50828	0.60933	5.94443	0.86424	8.4266	0.313267	3.06172	0.471392	4.58602	0.708717	6.90535	0.785844	7.6786
0.314562	3.02603	0.178175	1.7113	0.314489	3.02691	0.462517	4.48124	0.610241	5.89969	0.864711	8.3553	0.315244	3.05324	0.472348	4.55404	0.709143	6.84734	0.78688	7.61935
0.315824	3.01118	0.180193	1.71534	0.315749	3.01203	0.46393	4.45471	0.61116	5.85583	0.865187	8.28531	0.317222	3.04492	0.473312	4.52271	0.709576	6.79043	0.787921	7.56122
0.317117	2.99689	0.182212	1.71931	0.317041	2.99771	0.465345	4.42867	0.612086	5.81282	0.865668	8.21659	0.319198	3.03673	0.474286	4.49202	0.710015	6.73459	0.788966	7.50416
0.31844	2.98313	0.184232	1.72322	0.318362	2.98392	0.466762	4.40312	0.613021	5.77063	0.866152	8.14913	0.321175	3.02869	0.475268	4.46195	0.71046	6.67978	0.790017	7.44814
0.319795	2.9699	0.186252	1.72706	0.319716	2.97066	0.468183	4.37804	0.613963	5.72926	0.866641	8.08287	0.32315	3.02078	0.476259	4.43248	0.710912	6.62599	0.791072	7.39315
0.321182	2.95719	0.188273	1.73085	0.3211	2.95792	0.469606	4.35342	0.614914	5.68867	0.867134	8.0178	0.325125	3.013	0.477258	4.4036	0.711371	6.57318	0.792132	7.33915
0.3226	2.94499	0.190295	1.73458	0.322517	2.94569	0.471031	4.32925	0.615872	5.64884	0.867632	7.95388	0.327099	3.00534	0.478267	4.37529	0.711835	6.52134	0.793197	7.28612
0.324051	2.93328	0.192317	1.73825	0.323965	2.93395	0.47246	4.3055	0.616838	5.60976	0.868133	7.89108	0.329073	2.99781	0.479285	4.34755	0.712307	6.47043	0.794266	7.23403
0.325533	2.92205	0.19434	1.74187	0.325445	2.92269	0.47389	4.28218	0.617811	5.57141	0.86864	7.82938	0.331045	2.9904	0.480311	4.32035	0.712785	6.42043	0.79534	7.18287
0.327047	2.91129	0.196364	1.74543	0.326958	2.91191	0.475323	4.25927	0.618793	5.53376	0.86915	7.76874	0.333017	2.9831	0.481347	4.29368	0.713269	6.37132	0.796419	7.13259
0.328593	2.901	0.198388	1.74894	0.328502	2.90158	0.476758	4.23676	0.619782	5.49681	0.869665	7.70914	0.334987	2.97592	0.482391	4.26752	0.713759	6.32308	0.797502	7.08319
0.33017	2.89114	0.200412	1.75239	0.330078	2.89171	0.478196	4.21464	0.620779	5.46053	0.870184	7.65056	0.336957	2.96885	0.483444	4.24188	0.714256	6.27568	0.79859	7.03464
0.33178	2.88172	0.202437	1.75579	0.331685	2.88226	0.479635	4.1929	0.621784	5.42491	0.870708	7.59297	0.338926	2.96188	0.484506	4.21672	0.71476	6.22911	0.799683	6.98692
0.33342	2.87272	0.204462	1.75914	0.333323	2.87324	0.481077	4.17152	0.622796	5.38993	0.871236	7.53634	0.340893	2.95501	0.485577	4.19205	0.715269	6.18335	0.80078	6.94002
0.335091	2.86413	0.206488	1.76244	0.334992	2.86462	0.482521	4.15051	0.623816	5.35557	0.871768	7.48065	0.34286	2.94825	0.486657	4.16785	0.715786	6.13837	0.801882	6.8939
0.336792	2.85593	0.208514	1.76569	0.336692	2.85639	0.483967	4.12985	0.624844	5.32183	0.872304	7.42589	0.344825	2.94158	0.487745	4.14411	0.716308	6.09416	0.802988	6.84855
0.338523	2.8481	0.21054	1.7689	0.338421	2.84855	0.485415	4.10954	0.625879	5.28868	0.872845	7.37202	0.346789	2.935	0.488843	4.12081	0.716837	6.05069	0.804098	6.80396
0.340282	2.84064	0.212567	1.77205	0.340179	2.84106	0.486864	4.08955	0.626922	5.25611	0.873391	7.31903	0.348751	2.92852	0.489949	4.09796	0.717372	6.00796	0.805213	6.7601
0.34207	2.83353	0.214594	1.77516	0.341965	2.83393	0.488316	4.06989	0.627972	5.22411	0.87394	7.2669	0.350712	2.92213	0.491065	4.07553	0.717913	5.96594	0.806332	6.71695
0.343886	2.82675	0.216621	1.77822	0.34378	2.82714	0.48977	4.05056	0.62903	5.19266	0.874494	7.21561	0.352672	2.91582	0.492189	4.05351	0.718461	5.92462	0.807456	6.67451
0.345729	2.8203	0.218648	1.78124	0.34562	2.82066	0.491225	4.03153	0.630096	5.16176	0.875052	7.16513	0.35463	2.9096	0.493322	4.03191	0.719014	5.88398	0.808584	6.63275
0.347597	2.81415	0.220676	1.78422	0.347487	2.8145	0.492682	4.0128	0.631169	5.13139	0.875615	7.11545	0.356587	2.90346	0.494465	4.0107	0.719574	5.84401	0.809716	6.59166
0.34949	2.8083	0.222704	1.78715	0.349379	2.80863	0.494141	3.99437	0.63225	5.10153	0.876182	7.06656	0.358542	2.8974	0.495616	3.98989	0.720141	5.80468	0.810853	6.55123
0.351408	2.80272	0.224732	1.79004	0.351296	2.80304	0.495602	3.97624	0.633338	5.07218	0.876753	7.01843	0.360496	2.89142	0.496775	3.96945	0.720713	5.766	0.811994	6.51143
0.353349	2.79742	0.22676	1.79289	0.353235	2.79772	0.497064	3.95838	0.634433	5.04332	0.877329	6.97105	0.362448	2.88551	0.497944	3.94939	0.721292	5.72793	0.813139	6.47226
0.355312	2.79236	0.228788	1.7957	0.355197	2.79265	0.498528	3.9408	0.635536	5.01495	0.877909	6.92439	0.364399	2.87968	0.499122	3.92969	0.721877	5.69048	0.814288	6.43369
0.357297	2.78755	0.230816	1.79847	0.357181	2.78782	0.499993	3.92348	0.636647	4.98704	0.878493	6.87846	0.366347	2.87392	0.500309	3.91035	0.722468	5.65361	0.815441	6.39572
0.359302	2.78297	0.232845	1.8012	0.359185	2.78323	0.50146	3.90643	0.637765	4.9596	0.879082	6.83322	0.368294	2.86823	0.501504	3.89136	0.723065	5.61733	0.816599	6.35834
0.361328	2.7786	0.234873	1.80389	0.361209	2.77885	0.502929	3.88964	0.63889	4.93262	0.879675	6.78866	0.370239	2.86261	0.502709	3.8727	0.723669	5.58162	0.81776	6.32152
0.363371	2.77444	0.236902	1.80654	0.363252	2.77468	0.504398	3.8731	0.640022	4.90607	0.880273	6.74478	0.372183	2.85705	0.503922	3.85439	0.724279	5.54646	0.818926	6.28526
0.365433	2.77047	0.23893	1.80916	0.365313	2.7707	0.50587	3.85681	0.641162	4.87995	0.880875	6.70155	0.374124	2.85156	0.505144	3.83639	0.724894	5.51185	0.820095	6.24955
0.367512	2.76669	0.240959	1.81173	0.36739	2.76691	0.507343	3.84075	0.642309	4.85426	0.881481	6.65896	0.376064	2.84613	0.506375	3.81872	0.725516	5.47777	0.821269	6.21437
0.369607	2.76308	0.242987	1.81428	0.369485	2.76329	0.508817	3.82493	0.643463	4.82898	0.882091	6.617	0.378001	2.84076	0.507615	3.80136	0.726144	5.44422	0.822447	6.17972
0.371718	2.75964	0.245016	1.81678	0.371594	2.75984	0.510292	3.80935	0.644625	4.80411	0.882706	6.57565	0.379937	2.83546	0.508863	3.78431	0.726778	5.41117	0.823628	6.14557
0.373843	2.75635	0.247044	1.81926	0.373719	2.75654	0.511769	3.79398	0.645793	4.77963	0.883325	6.53491	0.381871	2.83021	0.510121	3.76756	0.727418	5.37863	0.824814	6.11193
0.375982	2.75321	0.249073	1.8217	0.375857	2.75339	0.513247	3.77884	0.646969	4.75554	0.883949	6.49476	0.383803	2.82502	0.511387	3.7511	0.728064	5.34657	0.826003	6.07877
0.378135	2.75021	0.251101	1.8241	0.378009	2.75038	0.514726	3.76391	0.648152	4.73183	0.884577	6.45518	0.385732	2.81988	0.512663	3.73493	0.728716	5.315	0.827196	6.0461
0.3803	2.74734	0.253129	1.82647	0.380174	2.74751	0.516207	3.74919	0.649342	4.70849	0.885209	6.41617	0.38766	2.8148	0.513947	3.71904	0.729375	5.28389	0.828393	6.01389
0.382477	2.7446	0.255158	1.82881	0.38235	2.74475	0.517689	3.73468	0.65054	4.68552	0.885846	6.37772	0.389585	2.80978	0.515239	3.70343	0.730039	5.25324	0.829594	5.98215
0.384666	2.74197	0.257186	1.83112	0.384538	2.74212	0.519172	3.72038	0.651744	4.6629	0.886487	6.33981	0.391509	2.8048	0.516541	3.68808	0.730709	5.22305	0.830798	5.95085
0.386865	2.73945	0.259214	1.8334	0.386736	2.7396	0.520656	3.70627	0.652955	4.64063	0.887132	6.30243	0.39343	2.79988	0.517851	3.673	0.731385	5.1933	0.832007	5.92
0.389074	2.73704	0.261241	1.83564	0.388945	2.73718	0.522141	3.69235	0.654173	4.61871	0.887782	6.26557	0.395349	2.795	0.51917	3.65819	0.732067	5.16398	0.833219	5.88958
0.391293	2.73473	0.263269	1.83786	0.391164	2.73486	0.523628	3.67863	0.655398	4.59712	0.888436	6.22923	0.397266	2.79017	0.520498	3.64362	0.732755	5.13508	0.834434	5.85958
0.393521	2.7325	0.265296	1.84004	0.393391	2.73263	0.525115	3.66509	0.65663	4.57585	0.889095	6.19339	0.39918	2.78539	0.521835	3.62931	0.733449	5.10661	0.835653	5.83
0.395758	2.73037	0.267323	1.8422	0.395627	2.73049	0.526604	3.65173	0.657869	4.55491	0.889757	6.15804	0.401093	2.78066	0.52318	3.61524	0.734149	5.07853	0.836876	5.80083
0.398003	2.72832	0.26935	1.84433	0.397872	2.72844	0.528094	3.63856	0.659115	4.53429	0.890425	6.12317	0.403003	2.77597	0.524534	3.60141	0.734855	5.05086	0.838103	5.77205
0.400256	2.72635	0.271377	1.84642	0.400124	2.72646	0.529585	3.62556	0.660367	4.51397	0.891096	6.08878	0.40491	2.77133	0.525897	3.58781	0.735567	5.02359	0.839333	5.74367
0.402516	2.72446	0.273404	1.8485	0.402384	2.72457	0.531077	3.61273	0.661626	4.49396	0.891772	6.05485	0.406816	2.76673	0.527268	3.57445	0.736285	4.99669	0.840567	5.71567
0.404783	2.72263	0.27543	1.85054	0.40465	2.72274	0.53257	3.60007	0.662892	4.47424	0.892452	6.02138	0.408719	2.76217	0.528648	3.56131	0.737008	4.97018	0.841804	5.68805
0.407056	2.72087	0.277456	1.85255	0.406924	2.72097	0.534064	3.58757	0.664165	4.45482	0.893137	5.98835	0.41062	2.75765	0.530036	3.54839	0.737738	4.94403	0.843044	5.66079
0.409336	2.71918	0.279482	1.85454	0.409203	2.71928	0.53556	3.57524	0.665444	4.43568	0.893826	5.95577	0.412518	2.75317	0.531433	3.53569	0.738473	4.91825	0.844288	5.6339
0.411622	2.71754	0.281507	1.85651	0.411489	2.71764	0.537056	3.56307	0.66673	4.41682	0.894519	5.92361	0.414415	2.74874	0.532839	3.5232	0.739214	4.89283	0.845536	5.60736
0.413913	2.71597	0.283533	1.85844	0.41378	2.71606	0.538553	3.55105	0.668023	4.39824	0.895217	5.89188	0.416308	2.74434	0.534253	3.51092	0.739961	4.86775	0.846786	5.58117
0.41621	2.71444	0.285558	1.86035	0.416076	2.71453	0.540051	3.53919	0.669322	4.37992	0.895919	5.86057	0.4182	2.73998	0.535676	3.49885	0.740713	4.84302	0.848041	5.55532
0.418512	2.71297	0.287582	1.86224	0.418378	2.71305	0.541551	3.52748	0.670627	4.36187	0.896626	5.82966	0.420089	2.73565	0.537107	3.48698	0.741472	4.81862	0.849298	5.52981
0.420818	2.71154	0.289606	1.8641	0.420684	2.71162	0.543051	3.51591	0.671939	4.34408	0.897337	5.79915	0.421975	2.73137	0.538546	3.4753	0.742236	4.79456	0.850559	5.50463
0.42313	2.71016	0.29163	1.86594	0.422995	2.71024	0.544553	3.50449	0.673258	4.32654	0.898052	5.76904	0.42386	2.72712	0.539994	3.46382	0.743006	4.77082	0.851823	5.47977
0.425445	2.70883	0.293654	1.86775	0.42531	2.70891	0.546055	3.49322	0.674582	4.30926	0.898771	5.73931	0.425742	2.7229	0.54145	3.45253	0.743782	4.7474	0.85309	5.45522
0.427764	2.70753	0.295677	1.86954	0.427629	2.70761	0.547558	3.48208	0.675913	4.29221	0.899495	5.70996	0.427621	2.71872	0.542915	3.44142	0.744563	4.7243	0.854361	5.43099
0.430087	2.70628	0.2977	1.87131	0.429952	2.70635	0.549063	3.47108	0.677251	4.27541	0.900224	5.68098	0.429498	2.71458	0.544388	3.43049	0.74535	4.7015	0.855635	5.40706
0.432414	2.70506	0.299723	1.87305	0.432278	2.70513	0.550568	3.46022	0.678594	4.25884	0.900956	5.65238	0.431373	2.71047	0.545869	3.41975	0.746143	4.679	0.856911	5.38344
0.434744	2.70388	0.301745	1.87477	0.434609	2.70395	0.552075	3.44949	0.679944	4.24251	0.901694	5.62413	0.433245	2.70639	0.547358	3.40918	0.746942	4.6568	0.858192	5.3601
0.437078	2.70273	0.303766	1.87647	0.436942	2.7028	0.553582	3.43889	0.6813	4.2264	0.902435	5.59623	0.435115	2.70234	0.548855	3.39878	0.747746	4.63489	0.859475	5.33706
0.439415	2.70162	0.305788	1.87815	0.439278	2.70168	0.555091	3.42842	0.682663	4.21051	0.903181	5.56868	0.436983	2.69833	0.550361	3.38856	0.748556	4.61327	0.860761	5.3143
0.441754	2.70053	0.307809	1.87981	0.441618	2.70059	0.556601	3.41807	0.684031	4.19485	0.903931	5.54147	0.438848	2.69434	0.551875	3.3785	0.749372	4.59193	0.86205	5.29182
0.444096	2.69947	0.309829	1.88144	0.44396	2.69953	0.558111	3.40785	0.685405	4.17939	0.904686	5.5146	0.440711	2.69039	0.553396	3.3686	0.750193	4.57087	0.863342	5.26962
0.446441	2.69844	0.311849	1.88305	0.446304	2.6985	0.559623	3.39775	0.686785	4.16415	0.905444	5.48806	0.442571	2.68647	0.554926	3.35886	0.75102	4.55007	0.864638	5.24768
0.448788	2.69744	0.313869	1.88464	0.448651	2.6975	0.561136	3.38777	0.688171	4.14912	0.906208	5.46184	0.444429	2.68257	0.556464	3.34928	0.751852	4.52955	0.865936	5.22601
0.451138	2.69646	0.315888	1.88622	0.451001	2.69652	0.56265	3.37791	0.689564	4.13429	0.906975	5.43594	0.446285	2.67871	0.558009	3.33985	0.75269	4.50929	0.867237	5.20459
0.45349	2.69551	0.317907	1.88777	0.453352	2.69556	0.564165	3.36817	0.690962	4.11966	0.907748	5.41036	0.448138	2.67488	0.559562	3.33058	0.753534	4.48928	0.868541	5.18344
0.455843	2.69458	0.319925	1.8893	0.455706	2.69463	0.565681	3.35854	0.692365	4.10522	0.908524	5.38508	0.44999	2.67107	0.561124	3.32145	0.754383	4.46953	0.869848	5.16253
0.458199	2.69367	0.321943	1.89081	0.458062	2.69372	0.567198	3.34902	0.693775	4.09098	0.909305	5.36011	0.451838	2.6673	0.562693	3.31247	0.755238	4.45003	0.871158	5.14187
0.460556	2.69278	0.32396	1.89231	0.460419	2.69283	0.568716	3.33961	0.69519	4.07693	0.91009	5.33543	0.453685	2.66355	0.564269	3.30363	0.756098	4.43078	0.87247	5.12146
0.462916	2.69191	0.325977	1.89378	0.462778	2.69196	0.570236	3.33032	0.696611	4.06306	0.910879	5.31105	0.455529	2.65983	0.565853	3.29493	0.756964	4.41177	0.873786	5.10128
0.465276	2.69105	0.327993	1.89524	0.465139	2.6911	0.571756	3.32113	0.698038	4.04938	0.911673	5.28696	0.457371	2.65613	0.567445	3.28637	0.757835	4.39299	0.875104	5.08133
0.467639	2.69022	0.330009	1.89667	0.467501	2.69027	0.573278	3.31204	0.69947	4.03587	0.912472	5.26315	0.459211	2.65247	0.569045	3.27795	0.758712	4.37445	0.876425	5.06162
0.470002	2.6894	0.332024	1.89809	0.469864	2.68945	0.574801	3.30306	0.700907	4.02254	0.913274	5.23963	0.461049	2.64883	0.570651	3.26966	0.759595	4.35614	0.877748	5.04213
0.472367	2.6886	0.334039	1.89949	0.472229	2.68865	0.576325	3.29418	0.702351	4.00939	0.914082	5.21637	0.462885	2.64521	0.572266	3.26149	0.760483	4.33805	0.879075	5.02287
0.474733	2.68781	0.336053	1.90088	0.474595	2.68786	0.577851	3.28541	0.703799	3.9964	0.914893	5.19339	0.464718	2.64162	0.573887	3.25346	0.761376	4.32019	0.880403	5.00383
0.4771	2.68704	0.338067	1.90224	0.476962	2.68709	0.579378	3.27673	0.705253	3.98358	0.915709	5.17068	0.466549	2.63806	0.575516	3.24555	0.762275	4.30254	0.881735	4.985
0.479468	2.68628	0.34008	1.90359	0.47933	2.68633	0.580906	3.26815	0.706712	3.97093	0.916529	5.14822	0.468378	2.63453	0.577152	3.23777	0.763179	4.28511	0.883069	4.96638
0.481838	2.68554	0.342093	1.90492	0.481699	2.68558	0.582435	3.25967	0.708177	3.95843	0.917354	5.12603	0.470206	2.63102	0.578795	3.2301	0.764089	4.26789	0.884406	4.94797
0.484207	2.68481	0.344105	1.90623	0.484069	2.68485	0.583965	3.25128	0.709647	3.9461	0.918183	5.10409	0.472031	2.62753	0.580445	3.22255	0.765004	4.25088	0.885745	4.92977
0.486578	2.68409	0.346116	1.90753	0.48644	2.68413	0.585497	3.24299	0.711122	3.93392	0.919016	5.0824	0.473854	2.62407	0.582103	3.21513	0.765925	4.23408	0.887087	4.91177
0.488949	2.68338	0.348127	1.90881	0.488811	2.68342	0.587031	3.23479	0.712602	3.92189	0.919854	5.06095	0.475675	2.62063	0.583767	3.20781	0.766851	4.21748	0.888432	4.89396
0.491321	2.68268	0.350138	1.91008	0.491183	2.68272	0.588565	3.22668	0.714087	3.91002	0.920696	5.03975	0.477494	2.61722	0.585438	3.20061	0.767783	4.20107	0.889778	4.87635
0.493694	2.68199	0.352147	1.91133	0.493556	2.68203	0.590102	3.21866	0.715578	3.89829	0.921542	5.01879	0.479311	2.61383	0.587116	3.19351	0.76872	4.18486	0.891128	4.85894
0.496067	2.68131	0.354157	1.91256	0.495929	2.68134	0.591639	3.21073	0.717073	3.88671	0.922393	4.99806	0.481127	2.61047	0.588801	3.18653	0.769662	4.16885	0.892479	4.84171
0.49844	2.68063	0.356165	1.91378	0.498302	2.68067	0.593178	3.20289	0.718573	3.87527	0.923248	4.97757	0.48294	2.60713	0.590492	3.17965	0.77061	4.15302	0.893833	4.82467
0.500814	2.67997	0.358174	1.91498	0.500675	2.68001	0.594719	3.19513	0.720078	3.86397	0.924108	4.9573	0.484752	2.60382	0.59219	3.17287	0.771563	4.13739	0.89519	4.80782
0.503188	2.67932	0.360181	1.91617	0.503049	2.67935	0.596261	3.18746	0.721588	3.85281	0.924972	4.93726	0.486562	2.60052	0.593895	3.1662	0.772521	4.12193	0.896549	4.79114
0.505562	2.67867	0.362188	1.91734	0.505423	2.67871	0.597805	3.17988	0.723103	3.84179	0.92584	4.91744	0.488371	2.59726	0.595606	3.15963	0.773485	4.10666	0.89791	4.77464
0.507936	2.67803	0.364194	1.9185	0.507798	2.67806	0.59935	3.17237	0.724623	3.8309	0.926713	4.89784	0.490177	2.59401	0.597323	3.15316	0.774454	4.09156	0.899273	4.75831
0.51031	2.67739	0.3662	1.91965	0.510172	2.67743	0.600897	3.16495	0.726147	3.82014	0.92759	4.87845	0.491982	2.59079	0.599047	3.14678	0.775428	4.07664	0.900639	4.74216
0.512684	2.67676	0.368205	1.92078	0.512546	2.6768	0.602446	3.15762	0.727676	3.80951	0.928472	4.85928	0.493786	2.58759	0.600777	3.14049	0.776408	4.0619	0.902006	4.72618
0.515058	2.67614	0.370209	1.92189	0.51492	2.67618	0.603996	3.15036	0.729209	3.79901	0.929358	4.84031	0.495588	2.58441	0.602513	3.1343	0.777393	4.04732	0.903376	4.71036
0.517432	2.67552	0.372213	1.92299	0.517294	2.67556	0.605549	3.14318	0.730747	3.78863	0.930248	4.82155	0.497388	2.58126	0.604255	3.12821	0.778383	4.03292	0.904749	4.69471
0.519806	2.67491	0.374216	1.92408	0.519668	2.67495	0.607103	3.13608	0.73229	3.77838	0.931143	4.803	0.499187	2.57813	0.606003	3.1222	0.779379	4.01868	0.906123	4.67922
0.522179	2.6743	0.376218	1.92515	0.522041	2.67434	0.608658	3.12906	0.733837	3.76825	0.932042	4.78464	0.500984	2.57502	0.607757	3.11627	0.78038	4.0046	0.9075	4.66389
0.524552	2.6737	0.37822	1.92621	0.524414	2.67373	0.610216	3.12211	0.735388	3.75823	0.932946	4.76648	0.50278	2.57194	0.609517	3.11044	0.781386	3.99068	0.908878	4.64872
0.526925	2.6731	0.380221	1.92726	0.526787	2.67313	0.611776	3.11524	0.736944	3.74834	0.933854	4.74852	0.504575	2.56887	0.611282	3.10469	0.782397	3.97693	0.910259	4.6337
0.529297	2.6725	0.382222	1.92829	0.529159	2.67254	0.613337	3.10845	0.738504	3.73855	0.934766	4.73074	0.506368	2.56583	0.613054	3.09902	0.783414	3.96332	0.911642	4.61883
0.531669	2.67191	0.384222	1.92931	0.531531	2.67194	0.614901	3.10172	0.740068	3.72889	0.935682	4.71316	0.50816	2.56281	0.614831	3.09343	0.784436	3.94988	0.913026	4.60411
0.53404	2.67132	0.386221	1.93032	0.533902	2.67135	0.616467	3.09508	0.741637	3.71933	0.936604	4.69576	0.509951	2.55982	0.616613	3.08793	0.785463	3.93658	0.914413	4.58954
0.536411	2.67073	0.38822	1.93132	0.536272	2.67076	0.618035	3.0885	0.743209	3.70988	0.937529	4.67855	0.51174	2.55684	0.618401	3.0825	0.786496	3.92343	0.915802	4.57512
0.53878	2.67014	0.390217	1.9323	0.538642	2.67017	0.619605	3.082	0.744786	3.70054	0.938459	4.66151	0.513529	2.55389	0.620194	3.07715	0.787533	3.91044	0.917193	4.56084
0.541149	2.66955	0.392215	1.93327	0.541011	2.66959	0.621177	3.07557	0.746366	3.69131	0.939393	4.64466	0.515316	2.55096	0.621993	3.07187	0.788576	3.89758	0.918585	4.5467
0.543517	2.66897	0.394211	1.93423	0.543379	2.669	0.622751	3.0692	0.747951	3.68218	0.940332	4.62798	0.517102	2.54805	0.623797	3.06667	0.789624	3.88487	0.91998	4.5327
0.545884	2.66838	0.396207	1.93518	0.545746	2.66842	0.624328	3.06291	0.74954	3.67315	0.941275	4.61148	0.518888	2.54516	0.625606	3.06154	0.790677	3.87231	0.921376	4.51883
0.54825	2.6678	0.398202	1.93611	0.548113	2.66783	0.625908	3.05669	0.751132	3.66422	0.942222	4.59514	0.520672	2.5423	0.62742	3.05648	0.791736	3.85988	0.922774	4.50511
0.550615	2.66721	0.400197	1.93703	0.550478	2.66725	0.627489	3.05053	0.752729	3.6554	0.943174	4.57898	0.522455	2.53945	0.629239	3.05149	0.7928	3.84759	0.924175	4.49151
0.552979	2.66663	0.40219	1.93794	0.552842	2.66666	0.629073	3.04444	0.754329	3.64667	0.94413	4.56298	0.524238	2.53663	0.631062	3.04657	0.793869	3.83543	0.925576	4.47805
0.555342	2.66605	0.404183	1.93884	0.555205	2.66608	0.63066	3.03842	0.755933	3.63804	0.945091	4.54715	0.52602	2.53383	0.632891	3.04171	0.794943	3.82341	0.92698	4.46471
0.557704	2.66546	0.406176	1.93973	0.557566	2.66549	0.632249	3.03247	0.757541	3.6295	0.946056	4.53148	0.527801	2.53105	0.634724	3.03693	0.796022	3.81152	0.928386	4.45151
0.560064	2.66487	0.408167	1.94061	0.559926	2.66491	0.633841	3.02658	0.759152	3.62106	0.947026	4.51597	0.529581	2.52829	0.636562	3.0322	0.797106	3.79976	0.929793	4.43843
0.562423	2.66429	0.410158	1.94147	0.562285	2.66432	0.635436	3.02075	0.760767	3.6127	0.947999	4.50062	0.53136	2.52555	0.638405	3.02754	0.798196	3.78813	0.931202	4.42547
0.56478	2.6637	0.412149	1.94233	0.564643	2.66373	0.637034	3.01499	0.762385	3.60444	0.948978	4.48542	0.533139	2.52283	0.640252	3.02295	0.799291	3.77663	0.932612	4.41263
0.567136	2.6631	0.414138	1.94317	0.566998	2.66314	0.638634	3.0093	0.764007	3.59627	0.94996	4.47038	0.534917	2.52014	0.642103	3.01841	0.800391	3.76525	0.934024	4.39992
0.56949	2.66251	0.416127	1.94401	0.569353	2.66255	0.640237	3.00367	0.765632	3.58818	0.950947	4.45549	0.536695	2.51746	0.643959	3.01393	0.801496	3.754	0.935438	4.38732
0.571842	2.66191	0.418115	1.94483	0.571705	2.66195	0.641844	2.9981	0.767261	3.58018	0.951939	4.44075	0.538472	2.51481	0.645818	3.00951	0.802606	3.74286	0.936854	4.37485
0.574193	2.66131	0.420103	1.94564	0.574056	2.66135	0.643453	2.99259	0.768893	3.57227	0.952935	4.42616	0.540249	2.51217	0.647682	3.00515	0.803721	3.73185	0.938271	4.36248
0.576541	2.66071	0.422089	1.94644	0.576405	2.66075	0.645066	2.98715	0.770529	3.56444	0.953935	4.41171	0.542025	2.50956	0.649551	3.00085	0.804842	3.72096	0.939689	4.35023
0.578888	2.6601	0.424075	1.94724	0.578752	2.66014	0.646682	2.98177	0.772167	3.55669	0.95494	4.39741	0.543801	2.50697	0.651423	2.9966	0.805967	3.71018	0.94111	4.3381
0.581233	2.65949	0.42606	1.94802	0.581096	2.65953	0.648301	2.97645	0.773809	3.54902	0.955949	4.38325	0.545576	2.5044	0.653299	2.9924	0.807098	3.69952	0.942531	4.32607
0.583576	2.65888	0.428045	1.94879	0.583439	2.65891	0.649924	2.97119	0.775455	3.54143	0.956962	4.36924	0.547352	2.50184	0.655178	2.98826	0.808234	3.68897	0.943955	4.31416
0.585916	2.65825	0.430029	1.94955	0.58578	2.65829	0.65155	2.96599	0.777103	3.53392	0.95798	4.35536	0.549126	2.49931	0.657062	2.98417	0.809375	3.67853	0.945379	4.30235
0.588254	2.65763	0.432012	1.9503	0.588118	2.65766	0.65318	2.96085	0.778754	3.52649	0.959002	4.34161	0.550901	2.4968	0.658949	2.98013	0.810521	3.66821	0.946805	4.29064
0.59059	2.657	0.433994	1.95105	0.590454	2.65703	0.654813	2.95577	0.780408	3.51914	0.960029	4.32801	0.552676	2.49431	0.66084	2.97614	0.811673	3.658	0.948233	4.27905
0.592923	2.65636	0.435976	1.95178	0.592787	2.6564	0.65645	2.95075	0.782066	3.51185	0.96106	4.31453	0.55445	2.49184	0.662734	2.9722	0.812829	3.64789	0.949662	4.26755
0.595254	2.65572	0.437956	1.9525	0.595118	2.65575	0.658092	2.94579	0.783726	3.50465	0.962096	4.30119	0.556224	2.48939	0.664632	2.96831	0.813991	3.63789	0.951092	4.25616
0.597582	2.65507	0.439936	1.95322	0.597446	2.6551	0.659737	2.94089	0.785389	3.49751	0.963136	4.28798	0.557998	2.48696	0.666533	2.96446	0.815157	3.628	0.952524	4.24487
0.599907	2.65441	0.441916	1.95392	0.599772	2.65445	0.661386	2.93605	0.787055	3.49045	0.96418	4.2749	0.559773	2.48455	0.668437	2.96066	0.816329	3.61821	0.953957	4.23368
0.60223	2.65374	0.443894	1.95462	0.602094	2.65378	0.663039	2.93126	0.788723	3.48346	0.965229	4.26194	0.561547	2.48216	0.670345	2.95691	0.817506	3.60853	0.955391	4.22258
0.604549	2.65307	0.445872	1.95531	0.604414	2.65311	0.664697	2.92654	0.790395	3.47653	0.966282	4.24911	0.563321	2.47979	0.672256	2.9532	0.818688	3.59894	0.956827	4.21159
0.606865	2.65239	0.447849	1.95598	0.60673	2.65243	0.666358	2.92187	0.792069	3.46968	0.96734	4.23641	0.565095	2.47744	0.674169	2.94954	0.819875	3.58946	0.958264	4.20068
0.609178	2.6517	0.449826	1.95665	0.609043	2.65174	0.668025	2.91726	0.793746	3.46289	0.968402	4.22382	0.56687	2.47511	0.676086	2.94591	0.821067	3.58008	0.959703	4.18988
0.611488	2.65101	0.451801	1.95732	0.611353	2.65105	0.669696	2.9127	0.795425	3.45617	0.969468	4.21136	0.568644	2.4728	0.678005	2.94233	0.822265	3.57079	0.961142	4.17916
0.613794	2.6503	0.453776	1.95797	0.61366	2.65034	0.671372	2.90821	0.797107	3.44951	0.970539	4.19902	0.570419	2.47051	0.679928	2.93879	0.823467	3.5616	0.962583	4.16854
0.616097	2.64958	0.45575	1.95861	0.615963	2.64963	0.673052	2.90377	0.798792	3.44292	0.971615	4.18679	0.572194	2.46824	0.681853	2.93529	0.824675	3.55251	0.964025	4.15801
0.618396	2.64886	0.457723	1.95925	0.618262	2.6489	0.674738	2.89938	0.800479	3.43639	0.972695	4.17469	0.573969	2.46598	0.68378	2.93183	0.825887	3.54351	0.965468	4.14756
0.620691	2.64812	0.459696	1.95987	0.620558	2.64816	0.676428	2.89506	0.802168	3.42992	0.973779	4.16269	0.575745	2.46375	0.685711	2.92841	0.827105	3.53461	0.966912	4.13721
0.622983	2.64737	0.461668	1.96049	0.622849	2.64742	0.678124	2.89079	0.80386	3.42352	0.974867	4.15082	0.577521	2.46154	0.687644	2.92503	0.828328	3.52579	0.968357	4.12694
0.62527	2.64662	0.463639	1.9611	0.625137	2.64666	0.679825	2.88657	0.805554	3.41718	0.97596	4.13905	0.579297	2.45934	0.689579	2.92168	0.829556	3.51707	0.969804	4.11676
0.627553	2.64584	0.465609	1.96171	0.62742	2.64589	0.681531	2.88242	0.80725	3.41089	0.977058	4.1274	0.581074	2.45716	0.691516	2.91837	0.830789	3.50844	0.971252	4.10666
0.629832	2.64506	0.467579	1.9623	0.629699	2.64511	0.683244	2.87832	0.808949	3.40467	0.97816	4.11585	0.582851	2.45501	0.693456	2.91509	0.832027	3.4999	0.9727	4.09665
0.632106	2.64427	0.469547	1.96289	0.631974	2.64431	0.684961	2.87427	0.81065	3.3985	0.979266	4.10442	0.584628	2.45287	0.695398	2.91185	0.833271	3.49145	0.97415	4.08672
0.634376	2.64346	0.471515	1.96347	0.634244	2.64351	0.686685	2.87028	0.812353	3.39239	0.980377	4.09309	0.586407	2.45075	0.697343	2.90865	0.834519	3.48308	0.975601	4.07687
0.636641	2.64264	0.473483	1.96404	0.636509	2.64269	0.688415	2.86635	0.814058	3.38633	0.981492	4.08187	0.588185	2.44865	0.699289	2.90547	0.835773	3.4748	0.977053	4.06711
0.638901	2.6418	0.475449	1.96461	0.638769	2.64185	0.69015	2.86247	0.815766	3.38033	0.982612	4.07075	0.589964	2.44656	0.701238	2.90233	0.837031	3.46661	0.978506	4.05742
0.641156	2.64095	0.477415	1.96516	0.641025	2.641	0.691893	2.85865	0.817475	3.37439	0.983736	4.05974	0.591744	2.4445	0.703188	2.89923	0.838295	3.4585	0.97996	4.04781
0.643406	2.64009	0.47938	1.96571	0.643275	2.64014	0.693641	2.85489	0.819186	3.3685	0.984864	4.04883	0.593524	2.44245	0.70514	2.89615	0.839564	3.45047	0.981414	4.03828
0.645651	2.63921	0.481344	1.96626	0.64552	2.63926	0.695396	2.85118	0.8209	3.36266	0.985997	4.03802	0.595305	2.44043	0.707094	2.8931	0.840838	3.44252	0.98287	4.02882
0.64789	2.63832	0.483308	1.96679	0.64776	2.63837	0.697158	2.84752	0.822615	3.35688	0.987135	4.02731	0.597087	2.43842	0.709049	2.89009	0.842118	3.43466	0.984327	4.01944
0.650124	2.63741	0.48527	1.96732	0.649994	2.63746	0.698926	2.84392	0.824332	3.35114	0.988277	4.0167	0.598869	2.43643	0.711007	2.8871	0.843402	3.42687	0.985785	4.01014
0.652352	2.63648	0.487232	1.96784	0.652222	2.63653	0.700702	2.84038	0.826051	3.34546	0.989423	4.00619	0.600652	2.43445	0.712966	2.88415	0.844691	3.41917	0.987243	4.00091
0.654574	2.63554	0.489193	1.96835	0.654445	2.63559	0.702485	2.83689	0.827772	3.33983	0.990574	3.99577	0.602436	2.4325	0.714926	2.88122	0.845986	3.41154	0.988703	3.99175
0.65679	2.63458	0.491154	1.96886	0.656661	2.63463	0.704275	2.83346	0.829495	3.33424	0.991729	3.98546	0.604221	2.43056	0.716888	2.87832	0.847286	3.404	0.990163	3.98266
0.659	2.6336	0.493114	1.96936	0.658871	2.63365	0.706072	2.83008	0.831219	3.32871	0.992889	3.97523	0.606006	2.42864	0.718851	2.87544	0.848591	3.39653	0.991624	3.97365
0.661204	2.6326	0.495072	1.96986	0.661075	2.63266	0.707877	2.82676	0.832945	3.32322	0.994053	3.9651	0.607792	2.42674	0.720816	2.87259	0.849901	3.38913	0.993086	3.96471
0.663401	2.63159	0.497031	1.97034	0.663273	2.63165	0.70969	2.8235	0.834673	3.31778	0.995221	3.95506	0.609579	2.42485	0.722782	2.86977	0.851216	3.38181	0.994549	3.95583
0.665592	2.63056	0.498988	1.97082	0.665464	2.63062	0.711511	2.82029	0.836402	3.31239	0.996394	3.94512	0.611367	2.42298	0.724749	2.86698	0.852537	3.37457	0.996013	3.94703
0.667775	2.6295	0.500945	1.9713	0.667648	2.62957	0.71334	2.81713	0.838133	3.30704	0.997572	3.93526	0.613156	2.42113	0.726717	2.86421	0.853862	3.3674	0.997477	3.93829
0.669953	2.62843	0.502901	1.97176	0.669826	2.6285	0.715176	2.81403	0.839866	3.30174	0.998753	3.9255	0.614946	2.4193	0.728686	2.86146	0.855193	3.3603	0.998942	3.92962
0.672123	2.62734	0.504856	1.97223	0.671996	2.62741	0.717021	2.81099	0.8416	3.29648	0.99994	3.91582	0.616736	2.41748	0.730656	2.85874	0.856529	3.35327	1.00041	3.92101
0.674286	2.62623	0.50681	1.97268	0.67416	2.6263	0.718875	2.808	0.843335	3.29127	1.00113	3.90623	0.618528	2.41568	0.732627	2.85604	0.85787	3.34632		
0.676441	2.62511	0.508764	1.97313	0.676316	2.62517	0.720737	2.80506	0.845072	3.2861			0.620321	2.4139	0.734599	2.85336	0.859217	3.33943		
0.67859	2.62396	0.510717	1.97357	0.678465	2.62402	0.722608	2.80218	0.84681	3.28097			0.622114	2.41213	0.736572	2.85071	0.860568	3.33262		
0.680731	2.62279	0.512669	1.97401	0.680606	2.62285	0.724487	2.79935	0.84855	3.27589			0.623909	2.41038	0.738545	2.84808	0.861925	3.32587		
0.682865	2.6216	0.51462	1.97444	0.68274	2.62167	0.726375	2.79658	0.850291	3.27084			0.625704	2.40865	0.74052	2.84547	0.863287	3.31919		
0.68499	2.62038	0.516571	1.97486	0.684867	2.62046	0.728272	2.79386	0.852033	3.26584			0.627501	2.40693	0.742494	2.84288	0.864655	3.31258		
0.687109	2.61915	0.518521	1.97528	0.686985	2.61922	0.730179	2.7912	0.853776	3.26088			0.629298	2.40523	0.74447	2.84031	0.866027	3.30604		
0.689219	2.6179	0.52047	1.97569	0.689096	2.61797	0.732094	2.78859	0.855521	3.25595			0.631097	2.40355	0.746446	2.83776	0.867405	3.29957		
0.691322	2.61663	0.522418	1.9761	0.691199	2.6167	0.734018	2.78603	0.857267	3.25107			0.632897	2.40188	0.748422	2.83523	0.868788	3.29316		
0.693416	2.61533	0.524366	1.9765	0.693295	2.61541	0.735952	2.78353	0.859014	3.24623			0.634698	2.40023	0.750399	2.83272	0.870176	3.28681		
0.695503	2.61402	0.526313	1.9769	0.695382	2.61409	0.737895	2.78108	0.860762	3.24142			0.6365	2.39859	0.752375	2.83023	0.87157	3.28053		
0.697582	2.61268	0.528259	1.97729	0.697461	2.61276	0.739848	2.77868	0.862512	3.23665			0.638303	2.39697	0.754353	2.82776	0.872968	3.27431		
0.699653	2.61132	0.530204	1.97767	0.699532	2.6114	0.741809	2.77633	0.864262	3.23192			0.640108	2.39537	0.75633	2.8253	0.874372	3.26816		
0.701716	2.60995	0.532149	1.97805	0.701596	2.61003	0.743781	2.77404	0.866013	3.22723			0.641913	2.39378	0.758308	2.82286	0.875782	3.26206		
0.70377	2.60855	0.534093	1.97843	0.703651	2.60863	0.745761	2.77179	0.867766	3.22257			0.64372	2.3922	0.760285	2.82044	0.877196	3.25603		
0.705817	2.60713	0.536036	1.9788	0.705698	2.60722	0.747751	2.7696	0.869519	3.21795			0.645528	2.39064	0.762263	2.81804	0.878616	3.25006		
0.707855	2.6057	0.537978	1.97916	0.707737	2.60578	0.749751	2.76746	0.871274	3.21336			0.647337	2.3891	0.764241	2.81565	0.880041	3.24416		
0.709886	2.60424	0.53992	1.97952	0.709768	2.60432	0.75176	2.76536	0.873029	3.2088			0.649147	2.38757	0.766218	2.81328	0.881472	3.23831		
0.711909	2.60276	0.541861	1.97987	0.711791	2.60285	0.753778	2.76331	0.874785	3.20429			0.650958	2.38606	0.768196	2.81093	0.882908	3.23252		
0.713924	2.60127	0.543802	1.98022	0.713806	2.60136	0.755806	2.76132	0.876542	3.1998			0.652771	2.38456	0.770173	2.80859	0.884349	3.22679		
0.715931	2.59976	0.545741	1.98056	0.715814	2.59984	0.757843	2.75937	0.878299	3.19535			0.654585	2.38307	0.77215	2.80626	0.885795	3.22111		
0.71793	2.59822	0.54768	1.9809	0.717814	2.59831	0.759889	2.75746	0.880058	3.19093			0.6564	2.3816	0.774127	2.80395	0.887247	3.2155		
0.719921	2.59668	0.549618	1.98124	0.719805	2.59677	0.761944	2.7556	0.881817	3.18655			0.658217	2.38015	0.776103	2.80165	0.888704	3.20994		
0.721905	2.59511	0.551556	1.98157	0.72179	2.5952	0.764009	2.75379	0.883577	3.18219			0.660034	2.37871	0.778079	2.79937	0.890167	3.20444		
0.723881	2.59353	0.553492	1.98189	0.723766	2.59362	0.766082	2.75202	0.885338	3.17787			0.661854	2.37728	0.780054	2.7971	0.891635	3.199		
0.72585	2.59193	0.555428	1.98221	0.725736	2.59202	0.768164	2.7503	0.887099	3.17358			0.663674	2.37587	0.782029	2.79485	0.893108	3.19361		
0.727812	2.59032	0.557364	1.98252	0.727698	2.59041	0.770255	2.74861	0.888861	3.16932			0.665496	2.37447	0.784004	2.79261	0.894587	3.18827		
0.729766	2.58869	0.559298	1.98283	0.729653	2.58878	0.772355	2.74697	0.890624	3.16509			0.667318	2.37309	0.785977	2.79038	0.896071	3.18299		
0.731714	2.58705	0.561232	1.98314	0.731601	2.58714	0.774463	2.74537	0.892387	3.16089			0.669143	2.37172	0.787951	2.78816	0.89756	3.17776		
0.733654	2.58539	0.563166	1.98344	0.733541	2.58549	0.77658	2.74382	0.894151	3.15672			0.670968	2.37036	0.789923	2.78595	0.899055	3.17259		
0.735588	2.58372	0.565098	1.98374	0.735475	2.58382	0.778704	2.7423	0.895916	3.15258			0.672795	2.36901	0.791895	2.78376	0.900555	3.16747		
0.737515	2.58204	0.56703	1.98403	0.737403	2.58214	0.780837	2.74081	0.897681	3.14847			0.674623	2.36768	0.793865	2.78158	0.902061	3.1624		
0.739436	2.58035	0.568961	1.98432	0.739324	2.58045	0.782978	2.73937	0.899446	3.14439			0.676453	2.36637	0.795836	2.77941	0.903572	3.15739		
0.74135	2.57864	0.570892	1.9846	0.741238	2.57874	0.785127	2.73796	0.901212	3.14033			0.678284	2.36506	0.797805	2.77725	0.905088	3.15242		
0.743258	2.57693	0.572821	1.98488	0.743147	2.57703	0.787283	2.73659	0.902978	3.1363			0.680116	2.36377	0.799773	2.7751	0.90661	3.14751		
0.74516	2.57521	0.57475	1.98516	0.745049	2.57531	0.789447	2.73525	0.904745	3.1323			0.68195	2.3625	0.80174	2.77296	0.908138	3.14265		
0.747056	2.57347	0.576679	1.98543	0.746946	2.57357	0.791618	2.73395	0.906512	3.12833			0.683784	2.36123	0.803706	2.77083	0.90967	3.13784		
0.748946	2.57173	0.578607	1.9857	0.748836	2.57183	0.793797	2.73268	0.90828	3.12438			0.685621	2.35998	0.805671	2.76871	0.911209	3.13307		
0.750831	2.56998	0.580534	1.98596	0.750722	2.57008	0.795982	2.73144	0.910048	3.12047			0.687458	2.35874	0.807635	2.7666	0.912752	3.12836		
0.752711	2.56822	0.58246	1.98622	0.752602	2.56833	0.798174	2.73024	0.911816	3.11657			0.689297	2.35751	0.809598	2.7645	0.914301	3.12369		
0.754585	2.56646	0.584386	1.98648	0.754476	2.56656	0.800373	2.72906	0.913585	3.1127			0.691138	2.3563	0.811559	2.76241	0.915856	3.11908		
0.756455	2.56469	0.586311	1.98673	0.756346	2.5648	0.802578	2.72791	0.915354	3.10886			0.69298	2.3551	0.813519	2.76033	0.917416	3.11451		
0.758319	2.56292	0.588235	1.98698	0.758211	2.56302	0.80479	2.7268	0.917123	3.10505			0.694823	2.35391	0.815478	2.75826	0.918982	3.10999		
0.760179	2.56114	0.590159	1.98722	0.760071	2.56124	0.807007	2.72571	0.918892	3.10125			0.696667	2.35273	0.817436	2.75619	0.920553	3.10551		
0.762034	2.55936	0.592082	1.98746	0.761926	2.55946	0.809231	2.72464	0.920662	3.09749			0.698513	2.35157	0.819392	2.75414	0.922129	3.10108		
0.763885	2.55757	0.594005	1.9877	0.763777	2.55767	0.81146	2.7236	0.922432	3.09374			0.70036	2.35041	0.821347	2.75209	0.923711	3.0967		
0.765732	2.55578	0.595927	1.98793	0.765624	2.55588	0.813696	2.72259	0.924202	3.09003			0.702209	2.34927	0.823301	2.75005	0.925298	3.09236		
0.767574	2.55399	0.597848	1.98816	0.767467	2.55409	0.815936	2.7216	0.925972	3.08633			0.704059	2.34814	0.825253	2.74802	0.926891	3.08807		
0.769413	2.55219	0.599768	1.98839	0.769306	2.5523	0.818182	2.72064	0.927743	3.08266			0.70591	2.34702	0.827203	2.74599	0.92849	3.08382		
0.771248	2.5504	0.601688	1.98861	0.771141	2.5505	0.820433	2.7197	0.929513	3.07901			0.707763	2.34592	0.829152	2.74398	0.930093	3.07962		
0.773079	2.5486	0.603608	1.98883	0.772973	2.54871	0.822689	2.71878	0.931284	3.07538			0.709617	2.34482	0.831099	2.74197	0.931703	3.07546		
0.774907	2.5468	0.605526	1.98904	0.774801	2.54691	0.82495	2.71788	0.933055	3.07178			0.711473	2.34374	0.833045	2.73996	0.933318	3.07134		
0.776732	2.54501	0.607445	1.98926	0.776625	2.54511	0.827215	2.71701	0.934826	3.0682			0.71333	2.34266	0.834989	2.73797	0.934938	3.06727		
0.778553	2.54321	0.609362	1.98947	0.778447	2.54332	0.829485	2.71615	0.936598	3.06464			0.715188	2.3416	0.836931	2.73598	0.936564	3.06324		
0.780371	2.54142	0.611279	1.98967	0.780265	2.54152	0.831759	2.71531	0.938369	3.06111			0.717048	2.34055	0.838872	2.73399	0.938195	3.05926		
0.782187	2.53962	0.613195	1.98987	0.782081	2.53973	0.834038	2.7145	0.94014	3.05759			0.718909	2.33951	0.840811	2.73202	0.939831	3.05531		
0.783999	2.53783	0.615111	1.99007	0.783894	2.53794	0.83632	2.7137	0.941912	3.0541			0.720771	2.33848	0.842748	2.73005	0.941473	3.05141		
0.785809	2.53604	0.617026	1.99027	0.785704	2.53615	0.838607	2.71291	0.943683	3.05063			0.722635	2.33746	0.844683	2.72808	0.943121	3.04754		
0.787617	2.53426	0.61894	1.99046	0.787512	2.53436	0.840897	2.71215	0.945455	3.04718			0.7245	2.33645	0.846617	2.72612	0.944774	3.04372		
0.789422	2.53247	0.620854	1.99065	0.789317	2.53258	0.843191	2.7114	0.947226	3.04375			0.726367	2.33546	0.848549	2.72417	0.946432	3.03994		
0.791225	2.53069	0.622767	1.99084	0.79112	2.53079	0.845489	2.71067	0.948998	3.04034			0.728235	2.33447	0.850478	2.72222	0.948096	3.0362		
0.793025	2.52891	0.62468	1.99103	0.792921	2.52902	0.84779	2.70995	0.95077	3.03695			0.730104	2.33349	0.852406	2.72028	0.949766	3.03249		
0.794824	2.52714	0.626592	1.99121	0.794719	2.52724	0.850094	2.70925	0.952541	3.03358			0.731975	2.33253	0.854332	2.71835	0.95144	3.02883		
0.796621	2.52537	0.628504	1.99139	0.796516	2.52548	0.852402	2.70856	0.954313	3.03023			0.733847	2.33157	0.856256	2.71642	0.95312	3.02521		
0.798415	2.52361	0.630415	1.99156	0.798311	2.52371	0.854712	2.70788	0.956084	3.0269			0.73572	2.33062	0.858178	2.71449	0.954806	3.02162		
0.800209	2.52185	0.632325	1.99173	0.800104	2.52195	0.857025	2.70722	0.957856	3.02359			0.737595	2.32968	0.860099	2.71257	0.956497	3.01807		
0.802	2.5201	0.634235	1.9919	0.801896	2.5202	0.859342	2.70657	0.959628	3.0203			0.739471	2.32876	0.862017	2.71065	0.958193	3.01456		
0.80379	2.51835	0.636144	1.99207	0.803686	2.51845	0.861661	2.70594	0.961399	3.01703			0.741349	2.32784	0.863933	2.70874	0.959894	3.01109		
0.805578	2.5166	0.638053	1.99224	0.805474	2.51671	0.863982	2.70531	0.963171	3.01378			0.743227	2.32693	0.865847	2.70684	0.961601	3.00766		
0.807365	2.51487	0.639961	1.9924	0.807261	2.51497	0.866306	2.7047	0.964942	3.01054			0.745107	2.32603	0.867759	2.70494	0.963314	3.00426		
0.809151	2.51314	0.641869	1.99256	0.809047	2.51324	0.868633	2.70409	0.966714	3.00733			0.746989	2.32514	0.869669	2.70304	0.965031	3.00089		
0.810936	2.51141	0.643776	1.99271	0.810832	2.51151	0.870961	2.7035	0.968485	3.00413			0.748872	2.32426	0.871577	2.70115	0.966754	2.99757		
0.812719	2.50969	0.645682	1.99287	0.812615	2.50979	0.873292	2.70292	0.970257	3.00095			0.750756	2.32339	0.873483	2.69926	0.968482	2.99427		
0.814501	2.50798	0.647588	1.99302	0.814398	2.50808	0.875626	2.70235	0.972028	2.99779			0.752642	2.32253	0.875386	2.69738	0.970215	2.99102		
0.816283	2.50628	0.649494	1.99317	0.816179	2.50638	0.877961	2.70179	0.9738	2.99465			0.754528	2.32168	0.877288	2.6955	0.971954	2.98779		
0.818063	2.50458	0.651399	1.99332	0.81796	2.50468	0.880298	2.70124	0.975571	2.99153			0.756416	2.32084	0.879188	2.69362	0.973698	2.98461		
0.819843	2.50289	0.653303	1.99346	0.819739	2.50299	0.882637	2.70069	0.977342	2.98842			0.758306	2.32	0.881085	2.69175	0.975447	2.98145		
0.821622	2.50121	0.655207	1.9936	0.821518	2.5013	0.884977	2.70016	0.979114	2.98533			0.760197	2.31918	0.88298	2.68989	0.977201	2.97833		
0.8234	2.49953	0.65711	1.99374	0.823297	2.49963	0.88732	2.69963	0.980885	2.98226			0.762089	2.31836	0.884874	2.68803	0.97896	2.97525		
0.825178	2.49786	0.659013	1.99388	0.825074	2.49796	0.889664	2.69911	0.982656	2.97921			0.763982	2.31755	0.886765	2.68617	0.980724	2.97219		
0.826955	2.4962	0.660916	1.99401	0.826852	2.4963	0.892009	2.6986	0.984427	2.97617			0.765877	2.31675	0.888653	2.68431	0.982494	2.96917		
0.828732	2.49455	0.662818	1.99415	0.828628	2.49464	0.894356	2.69809	0.986198	2.97315			0.767773	2.31596	0.89054	2.68246	0.984268	2.96618		
0.830508	2.4929	0.664719	1.99428	0.830404	2.493	0.896704	2.69759	0.98797	2.97015			0.76967	2.31517	0.892425	2.68062	0.986048	2.96323		
0.832284	2.49127	0.66662	1.9944	0.83218	2.49136	0.899054	2.6971	0.989741	2.96716			0.771569	2.3144	0.894307	2.67878	0.987833	2.9603		
0.834059	2.48964	0.66852	1.99453	0.833955	2.48973	0.901405	2.69662	0.991512	2.96419			0.773469	2.31363	0.896188	2.67694	0.989622	2.95741		
0.835834	2.48802	0.67042	1.99465	0.835731	2.48811	0.903757	2.69614	0.993283	2.96124			0.77537	2.31287	0.898066	2.6751	0.991417	2.95454		
0.837609	2.4864	0.67232	1.99478	0.837505	2.4865	0.90611	2.69567	0.995054	2.9583			0.777272	2.31212	0.899942	2.67327	0.993216	2.95171		
0.839383	2.4848	0.674219	1.9949	0.83928	2.48489	0.908464	2.6952	0.996826	2.95538			0.779176	2.31138	0.901816	2.67144	0.995021	2.94891		
0.841158	2.4832	0.676117	1.99501	0.841055	2.4833	0.910819	2.69474	0.998597	2.95248			0.781081	2.31064	0.903688	2.66962	0.99683	2.94613		
0.842932	2.48162	0.678015	1.99513	0.842829	2.48171	0.913174	2.69428	1.00037	2.94959			0.782987	2.30992	0.905558	2.6678	0.998644	2.94339		
0.844707	2.48004	0.679913	1.99524	0.844603	2.48013	0.915531	2.69383					0.784894	2.3092	0.907425	2.66599	1.00046	2.94068		
0.846481	2.47847	0.68181	1.99535	0.846378	2.47856	0.917888	2.69338					0.786803	2.30848	0.909291	2.66418				
0.848255	2.4769	0.683707	1.99546	0.848152	2.477	0.920247	2.69294					0.788713	2.30778	0.911154	2.66237				
0.85003	2.47535	0.685603	1.99557	0.849926	2.47544	0.922605	2.6925					0.790624	2.30708	0.913016	2.66056				
0.851804	2.47381	0.687499	1.99568	0.851701	2.4739	0.924965	2.69206					0.792537	2.30639	0.914875	2.65876				
0.853579	2.47227	0.689394	1.99578	0.853475	2.47236	0.927324	2.69163					0.79445	2.30571	0.916732	2.65697				
0.855353	2.47074	0.691289	1.99588	0.85525	2.47083	0.929685	2.69121					0.796365	2.30503	0.918587	2.65517				
0.857128	2.46923	0.693184	1.99599	0.857025	2.46931	0.932045	2.69078					0.798281	2.30436	0.920441	2.65338				
0.858904	2.46772	0.695078	1.99608	0.8588	2.4678	0.934406	2.69036					0.800198	2.3037	0.922292	2.6516				
0.860679	2.46622	0.696971	1.99618	0.860576	2.4663	0.936767	2.68995					0.802117	2.30305	0.924141	2.64982				
0.862455	2.46472	0.698864	1.99628	0.862351	2.46481	0.939129	2.68953					0.804036	2.3024	0.925988	2.64804				
0.864231	2.46324	0.700757	1.99637	0.864127	2.46333	0.94149	2.68912					0.805957	2.30176	0.927833	2.64627				
0.866007	2.46177	0.70265	1.99646	0.865903	2.46185	0.943852	2.68871					0.807879	2.30112	0.929677	2.6445				
0.867784	2.4603	0.704542	1.99655	0.86768	2.46039	0.946214	2.6883					0.809802	2.3005	0.931518	2.64273				
0.869561	2.45884	0.706433	1.99664	0.869457	2.45893	0.948576	2.6879					0.811726	2.29988	0.933357	2.64097				
0.871338	2.4574	0.708325	1.99673	0.871235	2.45748	0.950937	2.68749					0.813652	2.29926	0.935195	2.63921				
0.873116	2.45596	0.710215	1.99681	0.873013	2.45604	0.953299	2.68709					0.815578	2.29865	0.93703	2.63745				
0.874895	2.45453	0.712106	1.9969	0.874791	2.45461	0.95566	2.68669					0.817506	2.29805	0.938864	2.6357				
0.876674	2.45311	0.713996	1.99698	0.87657	2.45319	0.958021	2.68629					0.819435	2.29746	0.940696	2.63396				
0.878453	2.45169	0.715885	1.99706	0.878349	2.45177	0.960382	2.6859					0.821365	2.29687	0.942526	2.63222				
0.880233	2.45029	0.717775	1.99714	0.880129	2.45037	0.962742	2.6855					0.823296	2.29629	0.944355	2.63048				
0.882014	2.44889	0.719664	1.99722	0.88191	2.44898	0.965102	2.68511					0.825228	2.29571	0.946181	2.62874				
0.883795	2.44751	0.721552	1.9973	0.883691	2.44759	0.967462	2.68471					0.827161	2.29514	0.948006	2.62701				
0.885576	2.44613	0.72344	1.99737	0.885472	2.44621	0.969821	2.68432					0.829096	2.29458	0.949829	2.62529				
0.887358	2.44476	0.725328	1.99745	0.887255	2.44484	0.972179	2.68392					0.831031	2.29402	0.951651	2.62357				
0.889141	2.4434	0.727216	1.99752	0.889037	2.44348	0.974537	2.68353					0.832968	2.29346	0.953471	2.62185				
0.890925	2.44205	0.729103	1.99759	0.890821	2.44213	0.976894	2.68314					0.834906	2.29292	0.955289	2.62014				
0.892709	2.44071	0.73099	1.99766	0.892605	2.44079	0.97925	2.68274					0.836844	2.29238	0.957105	2.61843				
0.894494	2.43937	0.732876	1.99773	0.89439	2.43945	0.981606	2.68235					0.838784	2.29184	0.95892	2.61672				
0.896279	2.43805	0.734762	1.9978	0.896175	2.43812	0.983961	2.68196					0.840725	2.29131	0.960734	2.61502				
0.898065	2.43673	0.736648	1.99786	0.897961	2.43681	0.986314	2.68156					0.842667	2.29079	0.962546	2.61333				
0.899852	2.43542	0.738533	1.99793	0.899748	2.4355	0.988667	2.68117					0.84461	2.29027	0.964356	2.61163				
0.90164	2.43412	0.740418	1.99799	0.901535	2.4342	0.991019	2.68077					0.846554	2.28976	0.966165	2.60995				
0.903428	2.43283	0.742303	1.99805	0.903324	2.43291	0.993369	2.68037					0.848499	2.28925	0.967972	2.60827				
0.905217	2.43155	0.744188	1.99812	0.905113	2.43162	0.995718	2.67997					0.850445	2.28874	0.969778	2.60659				
0.907007	2.43027	0.746072	1.99818	0.906902	2.43035	0.998066	2.67958					0.852393	2.28825	0.971583	2.60492				
0.908797	2.42901	0.747955	1.99824	0.908693	2.42908	1.00041	2.67917					0.854341	2.28776	0.973386	2.60325				
0.910589	2.42775	0.749839	1.99829	0.910484	2.42782							0.85629	2.28727	0.975188	2.60158				
0.912381	2.4265	0.751722	1.99835	0.912276	2.42657							0.85824	2.28679	0.976988	2.59992				
0.914174	2.42526	0.753605	1.99841	0.914069	2.42533							0.860191	2.28631	0.978787	2.59827				
0.915967	2.42403	0.755488	1.99846	0.915863	2.4241							0.862143	2.28584	0.980585	2.59662				
0.917762	2.4228	0.75737	1.99851	0.917657	2.42287							0.864097	2.28537	0.982382	2.59498				
0.919557	2.42158	0.759252	1.99857	0.919452	2.42165							0.866051	2.28491	0.984177	2.59334				
0.921353	2.42038	0.761134	1.99862	0.921249	2.42045							0.868006	2.28445	0.985972	2.5917				
0.92315	2.41918	0.763015	1.99867	0.923045	2.41924							0.869962	2.284	0.987765	2.59007				
0.924948	2.41798	0.764896	1.99872	0.924843	2.41805							0.871919	2.28355	0.989557	2.58845				
0.926747	2.4168	0.766777	1.99877	0.926642	2.41687							0.873877	2.28311	0.991348	2.58683				
0.928546	2.41562	0.768658	1.99882	0.928441	2.41569							0.875836	2.28267	0.993138	2.58521				
0.930347	2.41445	0.770538	1.99886	0.930242	2.41452							0.877796	2.28224	0.994927	2.5836				
0.932148	2.41329	0.772418	1.99891	0.932043	2.41336							0.879757	2.28181	0.996714	2.582				
0.93395	2.41214	0.774298	1.99895	0.933845	2.41221							0.881718	2.28138	0.998501	2.5804				
0.935753	2.411	0.776178	1.999	0.935648	2.41106							0.883681	2.28096	1.00029	2.57881				
0.937557	2.40986	0.778057	1.99904	0.937452	2.40992							0.885644	2.28054						
0.939362	2.40873	0.779936	1.99908	0.939256	2.40879							0.887609	2.28013						
0.941167	2.40761	0.781815	1.99913	0.941062	2.40767							0.889574	2.27973						
0.942974	2.40649	0.783693	1.99917	0.942869	2.40656							0.89154	2.27932						
0.944781	2.40539	0.785572	1.99921	0.944676	2.40545							0.893508	2.27892						
0.94659	2.40429	0.78745	1.99925	0.946484	2.40435							0.895476	2.27853						
0.948399	2.4032	0.789328	1.99928	0.948294	2.40326							0.897444	2.27814						
0.950209	2.40211	0.791205	1.99932	0.950104	2.40217							0.899414	2.27775						
0.95202	2.40103	0.793083	1.99936	0.951915	2.4011							0.901385	2.27737						
0.953832	2.39997	0.79496	1.99939	0.953727	2.40003							0.903356	2.27699						
0.955645	2.3989	0.796837	1.99943	0.95554	2.39896							0.905329	2.27661						
0.957459	2.39785	0.798713	1.99946	0.957353	2.39791							0.907302	2.27624						
0.959274	2.3968	0.80059	1.9995	0.959168	2.39686							0.909276	2.27587						
0.96109	2.39576	0.802466	1.99953	0.960984	2.39582							0.91125	2.27551						
0.962906	2.39473	0.804342	1.99956	0.962801	2.39479							0.913226	2.27515						
0.964724	2.3937	0.806218	1.9996	0.964618	2.39376							0.915203	2.27479						
0.966543	2.39268	0.808094	1.99963	0.966437	2.39274							0.91718	2.27444						
0.968362	2.39167	0.809969	1.99966	0.968256	2.39173							0.919158	2.27409						
0.970183	2.39067	0.811845	1.99969	0.970076	2.39072							0.921137	2.27375						
0.972004	2.38967	0.81372	1.99972	0.971898	2.38973							0.923116	2.27341						
0.973826	2.38868	0.815594	1.99975	0.97372	2.38873							0.925097	2.27307						
0.97565	2.38769	0.817469	1.99977	0.975543	2.38775							0.927078	2.27273						
0.977474	2.38671	0.819343	1.9998	0.977367	2.38677							0.92906	2.2724						
0.979299	2.38574	0.821218	1.99983	0.979193	2.3858							0.931043	2.27207						
0.981125	2.38478	0.823092	1.99985	0.981019	2.38484							0.933026	2.27175						
0.982952	2.38382	0.824966	1.99988	0.982846	2.38388							0.935011	2.27143						
0.98478	2.38287	0.82684	1.99991	0.984674	2.38293							0.936996	2.27111						
0.986609	2.38193	0.828713	1.99993	0.986503	2.38198							0.938981	2.27079						
0.988439	2.38099	0.830586	1.99995	0.988333	2.38104							0.940968	2.27048						
0.99027	2.38006	0.83246	1.99998	0.990163	2.38011							0.942955	2.27017						
0.992102	2.37913	0.834333	2	0.991995	2.37919							0.944943	2.26987						
0.993935	2.37821	0.836206	2.00002	0.993828	2.37827							0.946932	2.26957						
0.995768	2.3773	0.838078	2.00005	0.995662	2.37736							0.948921	2.26927						
0.997603	2.3764	0.839951	2.00007	0.997496	2.37645							0.950911	2.26897						
0.999439	2.3755	0.841823	2.00009	0.999332	2.37555							0.952902	2.26868						
1.00128	2.3746	0.843696	2.00011	1.00117	2.37466							0.954894	2.26839						
		0.845568	2.00013									0.956886	2.2681						
		0.84744	2.00015									0.958879	2.26782						
		0.849311	2.00017									0.960872	2.26753						
		0.851183	2.00019									0.962867	2.26726						
		0.853055	2.00021									0.964862	2.26698						
		0.854926	2.00023									0.966857	2.26671						
		0.856797	2.00024									0.968853	2.26644						
		0.858668	2.00026									0.97085	2.26617						
		0.860539	2.00028									0.972848	2.2659						
		0.86241	2.0003									0.974846	2.26564						
		0.864281	2.00031									0.976845	2.26538						
		0.866151	2.00033									0.978844	2.26512						
		0.868022	2.00034									0.980845	2.26487						
		0.869892	2.00036									0.982845	2.26462						
		0.871762	2.00037									0.984847	2.26437						
		0.873632	2.00039									0.986849	2.26412						
		0.875502	2.0004									0.988851	2.26388						
		0.877372	2.00042									0.990855	2.26363						
		0.879242	2.00043									0.992858	2.26339						
		0.881111	2.00044									0.994863	2.26316						
		0.882981	2.00045									0.996868	2.26292						
		0.88485	2.00047									0.998873	2.26269						
		0.886719	2.00048									1.00088	2.26246						
		0.888589	2.00049																
		0.890458	2.0005																
		0.892327	2.00051																
		0.894196	2.00053																
		0.896064	2.00054																
		0.897933	2.00055																
		0.899801	2.00056																
		0.90167	2.00057																
		0.903538	2.00058																
		0.905407	2.00059																
		0.907275	2.0006																
		0.909143	2.00061																
		0.911011	2.00061																
		0.912879	2.00062																
		0.914747	2.00063																
		0.916614	2.00064																
		0.918482	2.00065																
		0.92035	2.00066																
		0.922217	2.00066																
		0.924085	2.00067																
		0.925952	2.00068																
		0.927819	2.00069																
		0.929687	2.00069																
		0.931554	2.0007																
		0.933421	2.00071																
		0.935288	2.00071																
		0.937155	2.00072																
		0.939022	2.00072																
		0.940888	2.00073																
		0.942755	2.00074																
		0.944622	2.00074																
		0.946489	2.00075																
		0.948355	2.00075																
		0.950222	2.00076																
		0.952088	2.00076																
		0.953954	2.00077																
		0.955821	2.00077																
		0.957687	2.00078																
		0.959553	2.00078																
		0.961419	2.00078																
		0.963286	2.00079																
		0.965152	2.00079																
		0.967018	2.0008																
		0.968884	2.0008																
		0.97075	2.0008																
		0.972615	2.00081																
		0.974481	2.00081																
		0.976347	2.00081																
		0.978213	2.00082																
		0.980079	2.00082																
		0.981944	2.00082																
		0.98381	2.00083																
		0.985675	2.00083																
		0.987541	2.00083																
		0.989406	2.00084																
		0.991272	2.00084																
		0.993137	2.00084																
		0.995003	2.00084																
		0.996868	2.00085																
		0.998733	2.00085																
		1.0006	2.00085																
