Sym0		Asym0		Sym1		Sym2		Sym3		Sym4		Asym1		Asym2		Asym3		Asym4	
454  Points		539  Points		453  Points		402  Points		366  Points		277  Points		479  Points		417  Points		367  Points		277  Points	
Freq (MHz)	Vph (m/ms)	Freq (MHz)	Vph (m/ms)	Freq (MHz)	Vph (m/ms)	Freq (MHz)	Vph (m/ms)	Freq (MHz)	Vph (m/ms)	Freq (MHz)	Vph (m/ms)	Freq (MHz)	Vph (m/ms)	Freq (MHz)	Vph (m/ms)	Freq (MHz)	Vph (m/ms)	Freq (MHz)	Vph (m/ms)
0.279508	1645.05	0.000182985	0.0838187	0.279507	361.49	0.356722	3302.47	0.559017	2033.65	0.838526	2189.41	0.139755	1062.45	0.419265	687.563	0.69877	1546.07	0.713444	3872.04
0.279505	253.726	0.00037206	0.119449	0.279501	163.94	0.356739	343.113	0.559024	463.313	0.83853	637.817	0.139798	131.483	0.419275	271.995	0.698759	505.007	0.713461	639.331
0.279498	137.46	0.000626785	0.154896	0.27949	106.004	0.356784	180.979	0.55904	261.444	0.838538	373.284	0.139908	70.1317	0.419294	169.537	0.698738	301.784	0.713504	348.451
0.279486	94.2618	0.000946478	0.190125	0.279476	78.322	0.356857	122.923	0.559064	182.107	0.838551	263.855	0.140084	47.8655	0.419322	123.154	0.698706	215.182	0.713572	239.507
0.279469	71.7197	0.00133019	0.225079	0.279456	62.1016	0.356958	93.0838	0.559096	139.716	0.838568	204.042	0.140327	36.37	0.419358	96.7029	0.698664	167.195	0.713665	182.475
0.279449	57.8763	0.00177698	0.259732	0.279433	51.445	0.357086	74.9158	0.559138	113.338	0.83859	166.338	0.140635	29.36	0.419404	79.6096	0.698613	136.703	0.713781	147.392
0.279424	48.5104	0.00228563	0.294037	0.279406	43.9084	0.357242	62.6939	0.559188	95.3423	0.838615	140.397	0.141008	24.6443	0.419458	67.655	0.698553	115.614	0.713922	123.635
0.279395	41.752	0.00285483	0.327954	0.279375	38.2963	0.357425	53.9112	0.559246	82.2814	0.838646	121.457	0.141444	21.2589	0.419521	58.8253	0.698484	100.158	0.714085	106.483
0.279363	36.6451	0.00348315	0.361448	0.27934	33.955	0.357635	47.2963	0.559313	72.3707	0.83868	107.022	0.141943	18.7133	0.419593	52.0371	0.698408	88.3443	0.71427	93.5176
0.279327	32.6501	0.004169	0.394479	0.279301	30.4965	0.357872	42.1359	0.559389	64.5935	0.838719	95.6542	0.142502	16.7319	0.419674	46.6562	0.698325	79.0209	0.714477	83.3744
0.279287	29.4394	0.00491093	0.427035	0.27926	27.6765	0.358136	37.9986	0.559473	58.3281	0.838763	86.4709	0.143122	15.1476	0.419764	42.2862	0.698236	71.4752	0.714705	75.2226
0.279245	26.8026	0.00570715	0.459079	0.279216	25.3329	0.358426	34.6083	0.559566	53.1729	0.83881	78.8976	0.143799	13.8533	0.419862	38.6669	0.698141	65.2431	0.714953	68.5287
0.2792	24.5985	0.00655601	0.490593	0.279169	23.3545	0.358743	31.7799	0.559668	48.857	0.838862	72.545	0.144534	12.7772	0.419969	35.6204	0.698042	60.0089	0.71522	62.9341
0.279152	22.7286	0.0074557	0.521555	0.27912	21.662	0.359085	29.3849	0.559778	45.1911	0.838919	67.1402	0.145323	11.8693	0.420085	33.0208	0.697939	55.5507	0.715506	58.1887
0.279102	21.1223	0.00840449	0.551952	0.279069	20.1976	0.359453	27.3312	0.559897	42.0387	0.83898	62.4858	0.146166	11.0939	0.42021	30.7767	0.697833	51.7079	0.715809	54.1132
0.27905	19.7274	0.00940056	0.581771	0.279016	18.9181	0.359846	25.551	0.560024	39.2991	0.839045	58.4358	0.14706	10.4246	0.420344	28.8199	0.697725	48.3611	0.716129	50.5752
0.278997	18.5048	0.0104421	0.610998	0.278962	17.7906	0.360264	23.9934	0.56016	36.8963	0.839115	54.8796	0.148003	9.84152	0.420486	27.0986	0.697615	45.4204	0.716465	47.4751
0.278943	17.4244	0.0115275	0.639635	0.278907	16.7895	0.360706	22.6193	0.560305	34.7719	0.839189	51.7321	0.148995	9.32947	0.420638	25.5729	0.697504	42.8159	0.716817	44.7366
0.278888	16.4628	0.0126547	0.667669	0.278852	15.8947	0.361172	21.3983	0.560458	32.8803	0.839267	48.9269	0.150033	8.87661	0.420798	24.2112	0.697393	40.4932	0.717184	42.2999
0.278832	15.6015	0.0138223	0.695103	0.278796	15.0901	0.361662	20.3065	0.560619	31.1852	0.83935	46.4109	0.151115	8.47355	0.420967	22.9886	0.697282	38.4089	0.717566	40.1178
0.278777	14.8255	0.0150285	0.721935	0.278741	14.3628	0.362176	19.3244	0.56079	29.6576	0.839437	44.1416	0.152093	8.15702	0.421145	21.8848	0.697171	36.5281	0.717961	38.1526
0.278722	14.1229	0.0162716	0.748166	0.278686	13.7022	0.362712	18.4365	0.560969	28.274	0.839528	42.0846	0.152951	7.90946	0.421331	20.8834	0.697062	34.8225	0.718369	36.3734
0.278667	13.4836	0.0175501	0.773801	0.278633	13.0995	0.363271	17.63	0.561156	27.0148	0.839624	40.2113	0.153678	7.71858	0.421527	19.9709	0.696954	33.2687	0.718791	34.7552
0.278614	12.8995	0.0188623	0.798842	0.278581	12.5474	0.363852	16.8943	0.561352	25.8642	0.839725	38.4983	0.154262	7.57576	0.421731	19.1359	0.696848	31.8473	0.719225	33.2771
0.278563	12.3638	0.0202068	0.823296	0.278531	12.0399	0.364455	16.2206	0.561557	24.8086	0.839829	36.9258	0.154698	7.47501	0.421944	18.369	0.696745	30.542	0.719671	31.9216
0.278513	11.8707	0.0215821	0.847172	0.278483	11.5718	0.365079	15.6014	0.56177	23.8369	0.839938	35.4773	0.154979	7.41233	0.422166	17.6622	0.696644	29.3394	0.720129	30.6743
0.278466	11.4154	0.0229868	0.870477	0.278438	11.1387	0.365724	15.0305	0.561992	22.9394	0.840052	34.1386	0.155387	7.32459	0.422397	17.0089	0.696547	28.2277	0.720598	29.5226
0.278422	10.9937	0.0244197	0.893224	0.278395	10.7369	0.366389	14.5025	0.562223	22.1081	0.840169	32.8978	0.155835	7.23226	0.422636	16.4031	0.696452	27.197	0.721078	28.4561
0.278381	10.602	0.0258793	0.915417	0.278357	10.363	0.367074	14.0129	0.562462	21.3358	0.840292	31.7445	0.156451	7.1115	0.422884	15.84	0.696362	26.2388	0.721568	27.4656
0.278344	10.2374	0.0273645	0.937069	0.278322	10.0143	0.367779	13.5576	0.562709	20.6166	0.840418	30.6698	0.157243	6.96624	0.423141	15.3152	0.696275	25.3457	0.722069	26.5433
0.278311	9.897	0.0288741	0.958192	0.278292	9.68846	0.368503	13.1332	0.562966	19.9451	0.840549	29.6659	0.158217	6.80086	0.423407	14.8249	0.696193	24.5114	0.722581	25.6825
0.278282	9.57862	0.030407	0.978797	0.278266	9.38321	0.369246	12.7368	0.56323	19.3169	0.840684	28.7261	0.159383	6.61995	0.423682	14.3658	0.696115	23.7302	0.723102	24.8772
0.278258	9.28018	0.0319619	0.998894	0.278246	9.09673	0.370007	12.3656	0.563504	18.7278	0.840824	27.8444	0.16075	6.428	0.423966	13.9352	0.696041	22.9973	0.723633	24.1223
0.27824	8.99991	0.0335381	1.0185	0.278231	8.82735	0.370786	12.0175	0.563786	18.1744	0.840968	27.0157	0.162148	6.25101	0.424258	13.5305	0.695972	22.3083	0.724173	23.4131
0.278227	8.7362	0.0351344	1.03761	0.278221	8.57362	0.371583	11.6903	0.564076	17.6536	0.841117	26.2352	0.163575	6.08738	0.42456	13.1494	0.695908	21.6594	0.724723	22.7458
0.27822	8.48768	0.0367499	1.05626	0.278218	8.33425	0.372397	11.3822	0.564375	17.1625	0.84127	25.499	0.16503	5.9357	0.42487	12.7899	0.69585	21.0473	0.725281	22.1166
0.278219	8.25307	0.0383838	1.07445	0.278221	8.13644	0.373228	11.0918	0.564683	16.6987	0.841427	24.8033	0.166511	5.79478	0.425188	12.4503	0.695796	20.4688	0.725849	21.5224
0.278225	8.03128	0.0400351	1.09219	0.278227	7.9752	0.374075	10.8174	0.564999	16.2601	0.841588	24.1449	0.168017	5.66356	0.425516	12.129	0.695748	19.9214	0.726426	20.9605
0.278238	7.82131	0.0417033	1.1095	0.278236	7.84671	0.374938	10.558	0.565324	15.8446	0.841754	23.521	0.169547	5.54112	0.425853	11.8246	0.695705	19.4026	0.727011	20.4282
0.278258	7.62225	0.0433872	1.12638	0.278244	7.74807	0.375817	10.3122	0.565657	15.4505	0.841925	22.9288	0.1711	5.42663	0.426198	11.5357	0.695668	18.9102	0.727605	19.9233
0.278286	7.43331	0.0450864	1.14285	0.278251	7.67714	0.376712	10.079	0.565999	15.0761	0.8421	22.3661	0.172675	5.3194	0.426552	11.2613	0.695637	18.4422	0.728207	19.4437
0.278322	7.25375	0.0468001	1.15892	0.278257	7.63244	0.377621	9.85763	0.566349	14.7202	0.842279	21.8306	0.174271	5.21877	0.426915	11.0003	0.695611	17.997	0.728817	18.9876
0.278367	7.08293	0.0485276	1.1746	0.278265	7.56911	0.378546	9.64713	0.566708	14.3812	0.842462	21.3205	0.175886	5.12418	0.427287	10.7518	0.695592	17.5729	0.729435	18.5534
0.27842	6.92023	0.0502683	1.1899	0.278275	7.50148	0.379484	9.44674	0.567075	14.0582	0.84265	20.834	0.177521	5.03513	0.427667	10.5149	0.695578	17.1685	0.730062	18.1395
0.278482	6.76511	0.0520217	1.20483	0.27829	7.41147	0.380437	9.25578	0.567451	13.7499	0.842843	20.3696	0.179173	4.95116	0.428057	10.2887	0.69557	16.7823	0.730696	17.7445
0.278554	6.61708	0.0537872	1.2194	0.278312	7.30077	0.381403	9.07361	0.567836	13.4555	0.84304	19.9256	0.180843	4.87187	0.428455	10.0727	0.695569	16.4133	0.731339	17.3671
0.278635	6.47569	0.0555641	1.23363	0.278342	7.17137	0.382383	8.89966	0.568229	13.1739	0.843241	19.501	0.182529	4.7969	0.428862	9.86621	0.695574	16.0604	0.731989	17.0063
0.278726	6.34052	0.0573521	1.24752	0.278384	7.02549	0.383375	8.73338	0.56863	12.9045	0.843446	19.0943	0.184231	4.72591	0.429278	9.66854	0.695585	15.7224	0.732647	16.6609
0.278828	6.21118	0.0591505	1.26109	0.278441	6.86549	0.384381	8.57431	0.56904	12.6464	0.843656	18.7045	0.185948	4.65862	0.429702	9.47919	0.695602	15.3985	0.733312	16.3301
0.278939	6.08733	0.0609591	1.27433	0.278506	6.71289	0.385399	8.42198	0.569459	12.399	0.843871	18.3306	0.187679	4.59474	0.430136	9.29765	0.695625	15.0878	0.733985	16.0128
0.279062	5.96865	0.0627773	1.28727	0.278581	6.56722	0.386429	8.276	0.569886	12.1616	0.844089	17.9717	0.189424	4.53403	0.430578	9.12348	0.695655	14.7896	0.734665	15.7084
0.279196	5.85483	0.0646047	1.29991	0.278666	6.42803	0.387337	8.15365	0.570322	11.9336	0.844312	17.6268	0.191182	4.47628	0.431029	8.95622	0.695692	14.5031	0.735353	15.416
0.27934	5.74561	0.0664409	1.31225	0.27876	6.29492	0.388117	8.05276	0.570766	11.7145	0.84454	17.2951	0.192952	4.42128	0.431489	8.7955	0.695735	14.2277	0.736048	15.1349
0.279497	5.64073	0.0682855	1.32431	0.278865	6.16753	0.388768	7.9716	0.571218	11.5038	0.844772	16.976	0.194734	4.36885	0.431958	8.64095	0.695784	13.9627	0.73675	14.8646
0.279665	5.53995	0.0701383	1.3361	0.278981	6.04551	0.389285	7.90882	0.571679	11.301	0.845008	16.6686	0.196528	4.31881	0.432435	8.49223	0.69584	13.7075	0.737459	14.6044
0.279845	5.44306	0.0719986	1.34762	0.279107	5.92855	0.389667	7.86342	0.572149	11.1058	0.845249	16.3725	0.198332	4.27101	0.432922	8.34902	0.695903	13.4617	0.738176	14.3537
0.280037	5.34985	0.0738665	1.35889	0.279245	5.81637	0.389912	7.8347	0.572627	10.9176	0.845494	16.0869	0.200147	4.22531	0.433353	8.22849	0.695972	13.2247	0.738899	14.1121
0.280242	5.26014	0.0757414	1.3699	0.279393	5.70868	0.390266	7.79386	0.573113	10.7362	0.845744	15.8114	0.201971	4.18158	0.433725	8.12874	0.696048	12.996	0.73963	13.8791
0.280459	5.17374	0.0776232	1.38067	0.279554	5.60525	0.390652	7.75006	0.573608	10.5611	0.845997	15.5453	0.203805	4.13969	0.434037	8.04825	0.696131	12.7753	0.740367	13.6542
0.28069	5.0905	0.0795114	1.3912	0.279726	5.50585	0.391178	7.69146	0.574112	10.3921	0.846256	15.2883	0.205648	4.09954	0.434286	7.98586	0.69622	12.5622	0.741112	13.4371
0.280933	5.01026	0.0814059	1.4015	0.27991	5.41026	0.391848	7.61889	0.574624	10.2289	0.846519	15.0399	0.207499	4.06103	0.434471	7.94066	0.696316	12.3562	0.741863	13.2272
0.28119	4.93287	0.0833064	1.41158	0.280107	5.31829	0.392663	7.53337	0.575144	10.0711	0.846786	14.7997	0.209359	4.02404	0.434589	7.91204	0.696419	12.157	0.742621	13.0244
0.28146	4.85821	0.0852126	1.42144	0.280316	5.22974	0.393627	7.43603	0.575673	9.91856	0.847057	14.5672	0.211226	3.98851	0.43476	7.87128	0.696529	11.9643	0.743386	12.8282
0.281744	4.78614	0.0871243	1.43108	0.280538	5.14446	0.394743	7.32813	0.57621	9.77097	0.847333	14.3422	0.213101	3.95435	0.434948	7.82752	0.696645	11.7779	0.744157	12.6383
0.282043	4.71656	0.0890412	1.44053	0.280773	5.06228	0.395868	7.22407	0.576756	9.62811	0.847614	14.1242	0.214984	3.92148	0.435204	7.76887	0.696769	11.5973	0.744935	12.4545
0.282355	4.64934	0.0909633	1.44977	0.281021	4.98304	0.397004	7.12367	0.57731	9.48976	0.847898	13.9129	0.216873	3.88983	0.435532	7.69608	0.696898	11.4223	0.74572	12.2763
0.282682	4.58439	0.0928902	1.45882	0.281282	4.90662	0.398149	7.02675	0.577873	9.35573	0.848188	13.7081	0.218768	3.85934	0.435932	7.61008	0.697035	11.2527	0.746511	12.1037
0.283023	4.52161	0.0948218	1.46768	0.281557	4.83287	0.399303	6.93312	0.578444	9.22581	0.848481	13.5094	0.22067	3.82994	0.436408	7.51192	0.697179	11.0882	0.747309	11.9363
0.283379	4.4609	0.0967579	1.47635	0.281846	4.76169	0.400467	6.84263	0.579023	9.09983	0.848779	13.3166	0.222578	3.80158	0.436962	7.40274	0.69733	10.9287	0.748113	11.774
0.28375	4.40217	0.0986982	1.48485	0.28215	4.69294	0.401639	6.75512	0.579611	8.97761	0.849082	13.1295	0.224492	3.7742	0.437525	7.2971	0.697487	10.7738	0.748924	11.6164
0.284137	4.34536	0.100643	1.49318	0.282467	4.62652	0.402821	6.67046	0.580207	8.859	0.849388	12.9477	0.226411	3.74776	0.438097	7.19483	0.697651	10.6235	0.749741	11.4634
0.284539	4.29037	0.102591	1.50133	0.282799	4.56233	0.40401	6.58852	0.580812	8.74385	0.8497	12.771	0.228335	3.72221	0.438677	7.0958	0.697822	10.4774	0.750564	11.3148
0.284956	4.23714	0.104543	1.50932	0.283145	4.50028	0.405209	6.50916	0.581425	8.632	0.850015	12.5993	0.230264	3.6975	0.439267	6.99984	0.698	10.3355	0.751394	11.1704
0.285389	4.1856	0.106499	1.51715	0.283506	4.44027	0.406415	6.43227	0.582047	8.52333	0.850335	12.4324	0.232198	3.6736	0.439865	6.90683	0.698185	10.1976	0.75223	11.0301
0.285839	4.13568	0.108459	1.52483	0.283883	4.38222	0.40763	6.35774	0.582595	8.43112	0.85066	12.27	0.234137	3.65046	0.440472	6.81664	0.698377	10.0634	0.753072	10.8936
0.286304	4.08732	0.110421	1.53235	0.284275	4.32605	0.408852	6.28547	0.583067	8.35428	0.850989	12.112	0.23608	3.62805	0.441088	6.72915	0.698575	9.93295	0.75392	10.7609
0.286787	4.04046	0.112387	1.53972	0.284682	4.27168	0.410082	6.21535	0.583462	8.29193	0.851322	11.9581	0.238027	3.60633	0.441713	6.64424	0.698781	9.80597	0.754775	10.6317
0.287221	4.00081	0.114103	1.54603	0.285105	4.21904	0.411319	6.1473	0.583776	8.24338	0.85166	11.8084	0.239978	3.58528	0.442347	6.56181	0.698993	9.68236	0.755636	10.5059
0.287601	3.96785	0.115568	1.55133	0.285544	4.16807	0.412564	6.08123	0.584008	8.20809	0.852002	11.6624	0.241932	3.56486	0.442989	6.48176	0.699213	9.56199	0.756502	10.3835
0.287922	3.94116	0.11678	1.55565	0.285999	4.1187	0.413816	6.01705	0.584157	8.18569	0.852349	11.5203	0.243891	3.54505	0.443641	6.40399	0.699439	9.44474	0.757375	10.2642
0.288181	3.92042	0.117739	1.55903	0.28647	4.07087	0.415075	5.95469	0.584372	8.15372	0.8527	11.3817	0.245852	3.52582	0.444301	6.32841	0.699672	9.33051	0.758254	10.148
0.288373	3.90536	0.118445	1.56149	0.286958	4.02452	0.416341	5.89407	0.584607	8.1193	0.853055	11.2466	0.247817	3.50714	0.44497	6.25493	0.699912	9.21916	0.759139	10.0347
0.288498	3.89581	0.118897	1.56306	0.287463	3.9796	0.417614	5.83512	0.584928	8.07302	0.853415	11.1148	0.249785	3.48898	0.445648	6.18347	0.700159	9.1106	0.760029	9.92423
0.288679	3.88221	0.119546	1.5653	0.287985	3.93605	0.418893	5.77777	0.585337	8.01535	0.853779	10.9862	0.251756	3.47134	0.446334	6.11396	0.700412	9.00474	0.760926	9.81651
0.288877	3.86757	0.120253	1.56773	0.288524	3.89384	0.420178	5.72197	0.585835	7.94686	0.854148	10.8608	0.25373	3.45418	0.44703	6.04632	0.700673	8.90147	0.761829	9.71143
0.289151	3.84792	0.121215	1.57099	0.289081	3.85291	0.42147	5.66766	0.586426	7.86822	0.854521	10.7383	0.255706	3.43748	0.447734	5.98048	0.700941	8.80069	0.762737	9.60888
0.289503	3.82349	0.122432	1.57508	0.289655	3.81321	0.422768	5.61477	0.587112	7.78016	0.854898	10.6187	0.257685	3.42123	0.448447	5.91638	0.701215	8.70234	0.763651	9.50879
0.289938	3.79455	0.123905	1.57996	0.290248	3.77472	0.424072	5.56325	0.587806	7.69436	0.85528	10.5019	0.259666	3.40541	0.449169	5.85395	0.70146	8.61854	0.764571	9.41107
0.290461	3.76142	0.125634	1.5856	0.290859	3.73738	0.425382	5.51305	0.588508	7.61074	0.855667	10.3878	0.261649	3.39	0.4499	5.79313	0.701672	8.54846	0.765497	9.31563
0.291079	3.72448	0.127621	1.59196	0.291489	3.70116	0.426698	5.46412	0.589219	7.52921	0.856058	10.2763	0.263635	3.37499	0.45064	5.73387	0.701851	8.49143	0.766428	9.2224
0.291715	3.68865	0.12961	1.5982	0.292137	3.66602	0.428019	5.41642	0.589938	7.44971	0.856453	10.1674	0.265622	3.36035	0.451389	5.67611	0.701994	8.44691	0.767365	9.1313
0.29237	3.65389	0.131602	1.60433	0.292805	3.63194	0.429346	5.36989	0.590666	7.37216	0.856853	10.0608	0.267612	3.34608	0.452146	5.61979	0.702101	8.4145	0.768308	9.04227
0.293045	3.62017	0.133596	1.61034	0.293493	3.59888	0.430678	5.32451	0.591401	7.29649	0.857257	9.95665	0.269603	3.33215	0.452912	5.56487	0.702169	8.3939	0.769256	8.95523
0.29374	3.58746	0.135591	1.61624	0.2942	3.5668	0.432016	5.28022	0.592145	7.22264	0.857665	9.85475	0.271595	3.31857	0.453688	5.51131	0.702268	8.36447	0.77021	8.87013
0.294454	3.55573	0.137589	1.62204	0.294928	3.53568	0.433358	5.237	0.592897	7.15056	0.858078	9.75507	0.27359	3.30531	0.454472	5.45905	0.702377	8.33274	0.77117	8.7869
0.295189	3.52494	0.139588	1.62773	0.295676	3.5055	0.434706	5.1948	0.593658	7.08017	0.858496	9.65752	0.275585	3.29236	0.455265	5.40805	0.702526	8.29	0.77201	8.71585
0.295945	3.49508	0.141589	1.63332	0.296445	3.47622	0.436059	5.15358	0.594426	7.01143	0.858917	9.56204	0.277582	3.27971	0.456066	5.35827	0.702716	8.23663	0.77273	8.65633
0.296721	3.46611	0.143592	1.63882	0.297236	3.44783	0.437416	5.11332	0.595203	6.94428	0.859344	9.46858	0.27958	3.26735	0.456877	5.30967	0.702951	8.17307	0.773328	8.60784
0.29752	3.43802	0.145597	1.64421	0.298048	3.42029	0.438778	5.07398	0.595988	6.87866	0.859774	9.37706	0.281579	3.25527	0.457697	5.26222	0.70323	8.09985	0.773802	8.56995
0.29834	3.41078	0.147603	1.64951	0.298883	3.39358	0.440145	5.03553	0.596782	6.81454	0.86021	9.28744	0.28358	3.24346	0.458525	5.21587	0.703557	8.01758	0.774151	8.54233
0.299183	3.38437	0.149611	1.65472	0.299741	3.36769	0.441516	4.99794	0.597583	6.75186	0.860649	9.19964	0.285581	3.2319	0.459362	5.17059	0.703891	7.93712	0.774375	8.52477
0.300048	3.35876	0.15162	1.65983	0.300621	3.3426	0.442892	4.96119	0.598393	6.69058	0.861093	9.11362	0.287583	3.2206	0.460209	5.12636	0.704232	7.8584	0.774697	8.49968
0.300937	3.33394	0.15363	1.66486	0.301526	3.31828	0.444272	4.92525	0.599211	6.63065	0.861542	9.02933	0.289585	3.20954	0.461064	5.08313	0.704579	7.78138	0.775048	8.4726
0.30185	3.30989	0.155642	1.66981	0.302454	3.29472	0.445656	4.89008	0.600037	6.57204	0.861995	8.94672	0.291589	3.19871	0.461928	5.04088	0.704934	7.706	0.775527	8.4361
0.302787	3.28659	0.157655	1.67466	0.303408	3.27189	0.447044	4.85567	0.600871	6.51469	0.862393	8.87605	0.293593	3.18811	0.462801	4.99957	0.705295	7.63222	0.776134	8.39046
0.303749	3.26402	0.159669	1.67944	0.304386	3.24979	0.448436	4.822	0.601713	6.45858	0.862735	8.81677	0.295597	3.17773	0.463682	4.95918	0.705663	7.55998	0.776871	8.33605
0.304737	3.24217	0.161685	1.68413	0.30539	3.2284	0.449833	4.78904	0.602564	6.40367	0.86302	8.76839	0.297602	3.16755	0.464573	4.91968	0.706038	7.48924	0.777739	8.27329
0.30575	3.22102	0.163701	1.68875	0.306421	3.2077	0.451233	4.75676	0.603422	6.34993	0.863246	8.73055	0.299607	3.15758	0.465473	4.88105	0.706419	7.41995	0.77874	8.20264
0.30679	3.20056	0.165719	1.69329	0.307478	3.18768	0.452637	4.72515	0.604289	6.2973	0.863413	8.70296	0.301612	3.14781	0.466381	4.84326	0.706807	7.35208	0.779746	8.13342
0.307857	3.18078	0.167738	1.69775	0.308562	3.16832	0.454044	4.69418	0.605164	6.24578	0.863521	8.68539	0.303618	3.13822	0.467299	4.80628	0.707202	7.28558	0.780758	8.06559
0.308951	3.16165	0.169757	1.70214	0.309675	3.14961	0.455455	4.66385	0.606047	6.19532	0.863675	8.66028	0.305623	3.12882	0.468225	4.7701	0.707604	7.22042	0.781774	7.99911
0.310074	3.14317	0.171778	1.70646	0.310816	3.13154	0.45687	4.63412	0.606938	6.14589	0.863844	8.63317	0.307629	3.1196	0.46916	4.73469	0.708012	7.15655	0.782796	7.93393
0.311225	3.12533	0.173799	1.71071	0.311987	3.1141	0.458288	4.60499	0.607837	6.09747	0.864074	8.59659	0.309635	3.11055	0.470104	4.70003	0.708427	7.09393	0.783823	7.87002
0.312406	3.1081	0.175822	1.71489	0.313186	3.09727	0.459709	4.57643	0.608744	6.05002	0.864366	8.55081	0.31164	3.10166	0.471057	4.66609	0.708849	7.03255	0.784856	7.80735
0.313616	3.09149	0.177845	1.719	0.314416	3.08105	0.461134	4.54842	0.609659	6.00353	0.864723	8.49616	0.313645	3.09294	0.47202	4.63286	0.709278	6.97235	0.785893	7.74588
0.314857	3.07547	0.179869	1.72304	0.315677	3.06541	0.462562	4.52096	0.610582	5.95795	0.865143	8.43302	0.31565	3.08437	0.472991	4.60033	0.709713	6.91331	0.786935	7.68557
0.316129	3.06004	0.181893	1.72702	0.316969	3.05036	0.463993	4.49402	0.611513	5.91328	0.86563	8.36183	0.317655	3.07596	0.47397	4.56846	0.710155	6.8554	0.787983	7.62641
0.317431	3.04519	0.183918	1.73094	0.318292	3.03587	0.465427	4.4676	0.612452	5.86948	0.866122	8.29195	0.319659	3.06769	0.474959	4.53725	0.710603	6.79858	0.789035	7.56835
0.318766	3.0309	0.185944	1.7348	0.319647	3.02194	0.466864	4.44167	0.613399	5.82653	0.866618	8.22335	0.321662	3.05956	0.475957	4.50667	0.711058	6.74283	0.790092	7.51136
0.320132	3.01716	0.187971	1.73859	0.321034	3.00855	0.468304	4.41622	0.614354	5.78441	0.867118	8.15599	0.323666	3.05157	0.476964	4.47671	0.71152	6.68812	0.791154	7.45542
0.32153	3.00396	0.189998	1.74232	0.322453	2.9957	0.469747	4.39124	0.615317	5.7431	0.867623	8.08985	0.325668	3.04372	0.47798	4.44735	0.711988	6.63442	0.792222	7.4005
0.322961	2.9913	0.192025	1.746	0.323905	2.98337	0.471192	4.36673	0.616288	5.70257	0.868132	8.02488	0.32767	3.03599	0.479004	4.41858	0.712463	6.5817	0.793293	7.34658
0.324425	2.97914	0.194054	1.74962	0.32539	2.97154	0.47264	4.34265	0.617267	5.6628	0.868646	7.96107	0.329671	3.02839	0.480038	4.39038	0.712945	6.52995	0.79437	7.29362
0.325921	2.96749	0.196082	1.75318	0.326907	2.96021	0.474091	4.31901	0.618253	5.62379	0.869164	7.89837	0.331672	3.02091	0.481081	4.36274	0.713433	6.47913	0.795452	7.2416
0.32745	2.95634	0.198111	1.75669	0.328457	2.94937	0.475545	4.29579	0.619248	5.5855	0.869687	7.83677	0.333671	3.01355	0.482132	4.33564	0.713928	6.42922	0.796538	7.1905
0.329012	2.94566	0.200141	1.76014	0.33004	2.93899	0.477001	4.27298	0.62025	5.54791	0.870214	7.77623	0.33567	3.0063	0.483193	4.30908	0.714429	6.3802	0.797629	7.1403
0.330606	2.93544	0.202171	1.76355	0.331655	2.92907	0.47846	4.25057	0.62126	5.51102	0.870746	7.71674	0.337668	2.99917	0.484262	4.28303	0.714936	6.33205	0.798725	7.09097
0.332232	2.92568	0.204201	1.7669	0.333302	2.91959	0.479921	4.22855	0.622278	5.4748	0.871281	7.65825	0.339665	2.99214	0.485341	4.25749	0.715451	6.28475	0.799826	7.04249
0.33389	2.91635	0.206231	1.7702	0.33498	2.91054	0.481384	4.20691	0.623304	5.43924	0.871822	7.60076	0.34166	2.98522	0.486428	4.23243	0.715972	6.23827	0.800931	6.99483
0.33558	2.90745	0.208262	1.77344	0.33669	2.9019	0.48285	4.18564	0.624337	5.40432	0.872367	7.54423	0.343655	2.97841	0.487525	4.20786	0.716499	6.19259	0.802041	6.94799
0.3373	2.89895	0.210294	1.77665	0.33843	2.89366	0.484317	4.16473	0.625379	5.37003	0.872916	7.48864	0.345648	2.97169	0.48863	4.18376	0.717033	6.1477	0.803155	6.90194
0.339051	2.89085	0.212325	1.7798	0.3402	2.88581	0.485788	4.14416	0.626427	5.33634	0.87347	7.43397	0.347641	2.96506	0.489745	4.16011	0.717573	6.10357	0.804274	6.85666
0.340831	2.88313	0.214357	1.7829	0.342	2.87832	0.48726	4.12395	0.627484	5.30325	0.874028	7.3802	0.349631	2.95853	0.490868	4.13692	0.71812	6.0602	0.805398	6.81213
0.342641	2.87577	0.216388	1.78596	0.343827	2.87119	0.488734	4.10406	0.628548	5.27074	0.874591	7.32731	0.351621	2.95209	0.492	4.11415	0.718673	6.01755	0.806526	6.76833
0.344478	2.86876	0.218421	1.78898	0.345683	2.8644	0.490211	4.0845	0.62962	5.2388	0.875158	7.27527	0.353609	2.94574	0.493142	4.09182	0.719232	5.97562	0.807658	6.72525
0.346343	2.86209	0.220453	1.79195	0.347565	2.85794	0.491689	4.06527	0.6307	5.20742	0.875729	7.22407	0.355596	2.93948	0.494292	4.0699	0.719798	5.93438	0.808795	6.68287
0.348235	2.85573	0.222485	1.79488	0.349473	2.85178	0.49317	4.04634	0.631787	5.17657	0.876305	7.17368	0.357581	2.9333	0.495451	4.04839	0.720371	5.89383	0.809937	6.64118
0.350152	2.84968	0.224518	1.79776	0.351407	2.84592	0.494652	4.02771	0.632882	5.14626	0.876886	7.1241	0.359565	2.9272	0.49662	4.02728	0.720949	5.85394	0.811082	6.60015
0.352094	2.84392	0.22655	1.8006	0.353364	2.84034	0.496136	4.00938	0.633985	5.11646	0.87747	7.07529	0.361547	2.92118	0.497797	4.00655	0.721534	5.8147	0.812232	6.55977
0.35406	2.83844	0.228583	1.80341	0.355345	2.83503	0.497622	3.99134	0.635095	5.08717	0.87806	7.02725	0.363528	2.91524	0.498983	3.98621	0.722126	5.7761	0.813387	6.52004
0.356048	2.83322	0.230616	1.80617	0.357348	2.82997	0.49911	3.97357	0.636212	5.05837	0.878653	6.97996	0.365507	2.90937	0.500178	3.96624	0.722724	5.73812	0.814545	6.48092
0.358059	2.82825	0.232649	1.80889	0.359372	2.82516	0.5006	3.95609	0.637337	5.03005	0.879252	6.9334	0.367484	2.90358	0.501383	3.94663	0.723328	5.70075	0.815708	6.44242
0.360091	2.82352	0.234681	1.81157	0.361417	2.82057	0.502091	3.93887	0.638469	5.0022	0.879854	6.88755	0.36946	2.89785	0.502596	3.92737	0.723938	5.66397	0.816876	6.40451
0.362142	2.81901	0.236714	1.81421	0.363481	2.81621	0.503584	3.92192	0.639609	4.97482	0.880461	6.84239	0.371433	2.8922	0.503818	3.90847	0.724555	5.62777	0.818047	6.36718
0.364213	2.81472	0.238747	1.81682	0.365564	2.81204	0.505079	3.90523	0.640756	4.94789	0.881073	6.79793	0.373405	2.88661	0.505049	3.8899	0.725178	5.59214	0.819223	6.33043
0.366302	2.81062	0.24078	1.81939	0.367664	2.80808	0.506575	3.88878	0.641911	4.9214	0.881689	6.75413	0.375375	2.88109	0.506289	3.87167	0.725807	5.55707	0.820402	6.29423
0.368409	2.80672	0.242813	1.82192	0.369782	2.80429	0.508073	3.87258	0.643073	4.89534	0.882309	6.71098	0.377344	2.87563	0.507538	3.85376	0.726443	5.52254	0.821586	6.25857
0.370532	2.803	0.244845	1.82442	0.371915	2.80068	0.509573	3.85662	0.644242	4.8697	0.882934	6.66848	0.37931	2.87024	0.508796	3.83618	0.727085	5.48854	0.822774	6.22345
0.372671	2.79945	0.246878	1.82689	0.374064	2.79724	0.511074	3.8409	0.645419	4.84448	0.883564	6.6266	0.381274	2.8649	0.510063	3.8189	0.727733	5.45507	0.823966	6.18885
0.374824	2.79606	0.24891	1.82931	0.376227	2.79395	0.512576	3.82541	0.646603	4.81966	0.884197	6.58534	0.383236	2.85963	0.511338	3.80193	0.728387	5.4221	0.825162	6.15476
0.376992	2.79282	0.250943	1.83171	0.378404	2.7908	0.51408	3.81014	0.647794	4.79524	0.884836	6.54468	0.385196	2.85441	0.512623	3.78526	0.729047	5.38964	0.826362	6.12118
0.379174	2.78973	0.252975	1.83407	0.380593	2.7878	0.515586	3.79509	0.648992	4.7712	0.885478	6.50461	0.387154	2.84925	0.513917	3.76889	0.729714	5.35767	0.827566	6.08808
0.381368	2.78677	0.255007	1.8364	0.382796	2.78492	0.517092	3.78026	0.650198	4.74754	0.886126	6.46511	0.38911	2.84414	0.515219	3.7528	0.730387	5.32617	0.828774	6.05546
0.383575	2.78394	0.257039	1.8387	0.38501	2.78217	0.518601	3.76563	0.65141	4.72426	0.886777	6.42619	0.391064	2.83909	0.516531	3.73699	0.731065	5.29515	0.829986	6.02331
0.385793	2.78123	0.259071	1.84096	0.387235	2.77954	0.52011	3.75122	0.65263	4.70134	0.887433	6.38781	0.393016	2.83409	0.517851	3.72145	0.73175	5.26458	0.831201	5.99162
0.388022	2.77864	0.261103	1.84319	0.38947	2.77701	0.521621	3.737	0.653857	4.67877	0.888094	6.34998	0.394965	2.82914	0.51918	3.70619	0.732442	5.23447	0.832421	5.96038
0.390261	2.77615	0.263134	1.8454	0.391716	2.77459	0.523133	3.72299	0.655091	4.65656	0.888759	6.31268	0.396913	2.82424	0.520518	3.69119	0.733139	5.20479	0.833644	5.92958
0.39251	2.77376	0.265166	1.84757	0.393971	2.77227	0.524647	3.70916	0.656332	4.63468	0.889428	6.2759	0.398858	2.81939	0.521865	3.67645	0.733842	5.17555	0.834871	5.89922
0.394768	2.77148	0.267197	1.84971	0.396235	2.77004	0.526162	3.69553	0.657579	4.61315	0.890102	6.23964	0.4008	2.81458	0.52322	3.66197	0.734552	5.14674	0.836102	5.86928
0.397035	2.76928	0.269228	1.85183	0.398508	2.7679	0.527678	3.68209	0.658834	4.59194	0.89078	6.20387	0.402741	2.80982	0.524585	3.64773	0.735267	5.11834	0.837337	5.83975
0.399311	2.76717	0.271258	1.85392	0.400788	2.76584	0.529195	3.66882	0.660096	4.57105	0.891463	6.1686	0.404679	2.80511	0.525958	3.63374	0.735989	5.09035	0.838575	5.81063
0.401594	2.76513	0.273288	1.85597	0.403076	2.76386	0.530714	3.65574	0.661365	4.55047	0.89215	6.13381	0.406614	2.80044	0.52734	3.61998	0.736716	5.06275	0.839817	5.78191
0.403884	2.76318	0.275319	1.858	0.405372	2.76195	0.532234	3.64283	0.66264	4.53021	0.892842	6.0995	0.408548	2.79582	0.52873	3.60646	0.73745	5.03555	0.841063	5.75358
0.406182	2.7613	0.277348	1.86001	0.407674	2.76012	0.533755	3.63009	0.663922	4.51024	0.893538	6.06564	0.410478	2.79123	0.53013	3.59317	0.738189	5.00874	0.842312	5.72563
0.408487	2.75949	0.279378	1.86198	0.409982	2.75835	0.535278	3.61752	0.665211	4.49058	0.894238	6.03225	0.412407	2.78669	0.531538	3.58011	0.738935	4.9823	0.843565	5.69806
0.410797	2.75774	0.281407	1.86393	0.412297	2.75664	0.536801	3.60512	0.666507	4.4712	0.894943	5.9993	0.414333	2.78219	0.532955	3.56727	0.739686	4.95623	0.844822	5.67086
0.413114	2.75605	0.283436	1.86586	0.414617	2.75499	0.538326	3.59288	0.66781	4.45212	0.895653	5.96679	0.416257	2.77773	0.53438	3.55464	0.740444	4.93053	0.846082	5.64402
0.415436	2.75443	0.285464	1.86776	0.416943	2.7534	0.539852	3.58079	0.669119	4.43331	0.896367	5.93471	0.418178	2.77331	0.535814	3.54223	0.741207	4.90518	0.847345	5.61753
0.417764	2.75286	0.287493	1.86963	0.419274	2.75187	0.541379	3.56887	0.670434	4.41477	0.897085	5.90305	0.420096	2.76892	0.537257	3.53002	0.741977	4.88018	0.848612	5.5914
0.420097	2.75134	0.28952	1.87148	0.42161	2.75038	0.542907	3.5571	0.671757	4.3965	0.897808	5.8718	0.422013	2.76458	0.538708	3.51802	0.742752	4.85553	0.849882	5.5656
0.422435	2.74987	0.291548	1.8733	0.423951	2.74894	0.544436	3.54547	0.673086	4.3785	0.898535	5.84097	0.423926	2.76027	0.540168	3.50622	0.743533	4.83121	0.851156	5.54014
0.424777	2.74844	0.293575	1.8751	0.426296	2.74755	0.545967	3.534	0.674421	4.36076	0.899266	5.81053	0.425838	2.75599	0.541636	3.49462	0.74432	4.80722	0.852433	5.51501
0.427123	2.74707	0.295602	1.87688	0.428645	2.7462	0.547499	3.52267	0.675763	4.34327	0.900003	5.78049	0.427746	2.75175	0.543113	3.4832	0.745113	4.78356	0.853714	5.4902
0.429474	2.74573	0.297628	1.87863	0.430998	2.74489	0.549031	3.51148	0.677111	4.32603	0.900743	5.75083	0.429653	2.74755	0.544598	3.47198	0.745912	4.76021	0.854998	5.46571
0.431828	2.74444	0.299654	1.88036	0.433355	2.74362	0.550565	3.50043	0.678466	4.30904	0.901488	5.72156	0.431556	2.74337	0.546092	3.46095	0.746717	4.73718	0.856285	5.44153
0.434186	2.74318	0.30168	1.88207	0.435715	2.74238	0.552101	3.48952	0.679826	4.29228	0.902238	5.69265	0.433457	2.73924	0.547594	3.45009	0.747527	4.71446	0.857575	5.41765
0.436548	2.74196	0.303705	1.88375	0.438079	2.74119	0.553637	3.47875	0.681194	4.27576	0.902991	5.66411	0.435356	2.73513	0.549104	3.43942	0.748343	4.69203	0.858869	5.39407
0.438913	2.74077	0.30573	1.88542	0.440446	2.74002	0.555174	3.4681	0.682567	4.25947	0.90375	5.63593	0.437252	2.73106	0.550622	3.42892	0.749165	4.66991	0.860166	5.37079
0.44128	2.73962	0.307754	1.88706	0.442815	2.73889	0.556713	3.45759	0.683947	4.24341	0.904513	5.6081	0.439146	2.72701	0.552149	3.41859	0.749993	4.64807	0.861466	5.3478
0.443651	2.7385	0.309778	1.88868	0.445188	2.73779	0.558253	3.44721	0.685333	4.22757	0.90528	5.58062	0.441037	2.723	0.553684	3.40844	0.750827	4.62653	0.86277	5.32509
0.446025	2.73741	0.311802	1.89028	0.447563	2.73671	0.559794	3.43695	0.686725	4.21195	0.906051	5.55348	0.442925	2.71902	0.555227	3.39845	0.751666	4.60526	0.864076	5.30266
0.448401	2.73634	0.313825	1.89186	0.449941	2.73567	0.561336	3.42682	0.688123	4.19654	0.906827	5.52668	0.444811	2.71507	0.556779	3.38862	0.752511	4.58427	0.865385	5.28051
0.450779	2.7353	0.315848	1.89342	0.452321	2.73465	0.562879	3.4168	0.689527	4.18135	0.907608	5.5002	0.446695	2.71115	0.558338	3.37895	0.753362	4.56355	0.866698	5.25862
0.45316	2.73429	0.31787	1.89495	0.454703	2.73365	0.564424	3.40691	0.690937	4.16636	0.908393	5.47405	0.448576	2.70726	0.559906	3.36943	0.754219	4.5431	0.868014	5.237
0.455543	2.7333	0.319891	1.89647	0.457087	2.73268	0.56597	3.39714	0.692353	4.15157	0.909182	5.44822	0.450454	2.70339	0.561481	3.36008	0.755081	4.52291	0.869332	5.21564
0.457928	2.73234	0.321913	1.89797	0.459473	2.73173	0.567517	3.38748	0.693775	4.13699	0.909976	5.4227	0.45233	2.69956	0.563064	3.35087	0.755949	4.50298	0.870654	5.19453
0.460315	2.7314	0.323933	1.89945	0.461861	2.7308	0.569065	3.37793	0.695202	4.1226	0.910775	5.39749	0.454204	2.69575	0.564655	3.34181	0.756823	4.4833	0.871979	5.17367
0.462703	2.73048	0.325954	1.90091	0.464251	2.72989	0.570614	3.3685	0.696636	4.1084	0.911577	5.37259	0.456075	2.69197	0.566255	3.33289	0.757702	4.46387	0.873306	5.15306
0.465094	2.72957	0.327973	1.90236	0.466642	2.729	0.572165	3.35918	0.698075	4.09439	0.912385	5.34798	0.457944	2.68822	0.567861	3.32412	0.758587	4.44469	0.874637	5.1327
0.467485	2.72869	0.329993	1.90378	0.469035	2.72813	0.573717	3.34997	0.69952	4.08057	0.913196	5.32366	0.45981	2.68449	0.569476	3.31549	0.759478	4.42575	0.87597	5.11257
0.469879	2.72782	0.332011	1.90519	0.471429	2.72727	0.57527	3.34086	0.700971	4.06693	0.914013	5.29964	0.461674	2.68079	0.571098	3.307	0.760374	4.40705	0.877306	5.09267
0.472273	2.72698	0.334029	1.90657	0.473824	2.72644	0.576825	3.33186	0.702427	4.05346	0.914833	5.27589	0.463535	2.67712	0.572728	3.29864	0.761276	4.38857	0.878645	5.07301
0.474669	2.72614	0.336047	1.90794	0.476221	2.72561	0.578381	3.32297	0.703889	4.04018	0.915658	5.25243	0.465395	2.67347	0.574365	3.29041	0.762184	4.37033	0.879987	5.05357
0.477066	2.72533	0.338064	1.9093	0.478619	2.72481	0.579938	3.31417	0.705357	4.02707	0.916487	5.22924	0.467251	2.66985	0.57601	3.28231	0.763097	4.35232	0.881332	5.03436
0.479464	2.72453	0.340081	1.91063	0.481017	2.72401	0.581497	3.30548	0.70683	4.01412	0.917321	5.20632	0.469106	2.66625	0.577662	3.27435	0.764015	4.33452	0.882679	5.01536
0.481863	2.72374	0.342097	1.91195	0.483417	2.72323	0.583057	3.29689	0.708308	4.00135	0.91816	5.18367	0.470958	2.66268	0.579322	3.2665	0.76494	4.31695	0.884029	4.99658
0.484263	2.72296	0.344113	1.91325	0.485817	2.72247	0.584618	3.28839	0.709792	3.98873	0.919002	5.16128	0.472808	2.65913	0.580989	3.25878	0.765869	4.29959	0.885382	4.97802
0.486663	2.7222	0.346128	1.91454	0.488218	2.72171	0.586181	3.28	0.711281	3.97628	0.91985	5.13914	0.474656	2.6556	0.582663	3.25118	0.766805	4.28244	0.886738	4.95966
0.489065	2.72145	0.348142	1.91581	0.49062	2.72097	0.587745	3.27169	0.712775	3.96399	0.920701	5.11726	0.476502	2.65211	0.584344	3.2437	0.767746	4.2655	0.888096	4.9415
0.491467	2.72071	0.350156	1.91706	0.493022	2.72023	0.589311	3.26348	0.714275	3.95185	0.921557	5.09564	0.478345	2.64863	0.586032	3.23633	0.768692	4.24877	0.889457	4.92355
0.493869	2.71998	0.352169	1.9183	0.495425	2.71951	0.590878	3.25537	0.71578	3.93987	0.922418	5.07425	0.480186	2.64518	0.587728	3.22908	0.769644	4.23223	0.89082	4.90579
0.496272	2.71926	0.354182	1.91952	0.497828	2.7188	0.592447	3.24734	0.717289	3.92804	0.923283	5.05311	0.482025	2.64175	0.58943	3.22194	0.770601	4.2159	0.892186	4.88823
0.498675	2.71855	0.356194	1.92073	0.500232	2.71809	0.594018	3.23941	0.718804	3.91635	0.924152	5.03221	0.483862	2.63835	0.591139	3.21491	0.771564	4.19976	0.893554	4.87087
0.501079	2.71785	0.358206	1.92192	0.502635	2.7174	0.59559	3.23156	0.720325	3.90481	0.925026	5.01154	0.485697	2.63497	0.592855	3.20799	0.772533	4.18381	0.894925	4.85369
0.503483	2.71716	0.360217	1.92309	0.505039	2.71671	0.597164	3.2238	0.72185	3.89342	0.925905	4.99111	0.48753	2.63161	0.594578	3.20117	0.773507	4.16805	0.896298	4.8367
0.505887	2.71647	0.362227	1.92426	0.507443	2.71603	0.598739	3.21613	0.72338	3.88216	0.926787	4.9709	0.489361	2.62828	0.596308	3.19446	0.774486	4.15248	0.897674	4.81989
0.508291	2.71579	0.364237	1.9254	0.509847	2.71536	0.600316	3.20854	0.724915	3.87104	0.927675	4.95092	0.49119	2.62496	0.598044	3.18785	0.775471	4.1371	0.899053	4.80326
0.510695	2.71512	0.366246	1.92654	0.512252	2.71469	0.601895	3.20104	0.726454	3.86006	0.928566	4.93116	0.493018	2.62167	0.599786	3.18134	0.776461	4.12189	0.900433	4.78681
0.513099	2.71446	0.368255	1.92765	0.514655	2.71403	0.603475	3.19362	0.727999	3.84921	0.929462	4.91162	0.494843	2.61841	0.601535	3.17493	0.777457	4.10687	0.901816	4.77053
0.515503	2.7138	0.370263	1.92876	0.517059	2.71337	0.605058	3.18629	0.729548	3.83849	0.930363	4.89229	0.496666	2.61516	0.603291	3.16861	0.778458	4.09201	0.903202	4.75443
0.517906	2.71314	0.37227	1.92985	0.519463	2.71272	0.606642	3.17903	0.731102	3.8279	0.931268	4.87317	0.498488	2.61194	0.605052	3.16239	0.779464	4.07734	0.904589	4.7385
0.52031	2.7125	0.374277	1.93093	0.521866	2.71208	0.608228	3.17186	0.732661	3.81744	0.932177	4.85426	0.500308	2.60874	0.60682	3.15626	0.780476	4.06283	0.905979	4.72273
0.522713	2.71185	0.376283	1.93199	0.524269	2.71144	0.609816	3.16476	0.734224	3.8071	0.933091	4.83556	0.502126	2.60557	0.608594	3.15022	0.781493	4.04849	0.907372	4.70712
0.525116	2.71121	0.378288	1.93304	0.526671	2.7108	0.611406	3.15775	0.735792	3.79689	0.934009	4.81706	0.503943	2.60241	0.610374	3.14427	0.782516	4.03431	0.908766	4.69168
0.527518	2.71058	0.380293	1.93408	0.529073	2.71017	0.612998	3.15081	0.737364	3.7868	0.934932	4.79876	0.505757	2.59928	0.61216	3.13841	0.783544	4.0203	0.910163	4.6764
0.52992	2.70994	0.382297	1.9351	0.531475	2.70954	0.614593	3.14395	0.738941	3.77682	0.935859	4.78066	0.507571	2.59616	0.613952	3.13263	0.784577	4.00645	0.911562	4.66127
0.532321	2.70931	0.384301	1.93611	0.533875	2.70891	0.616189	3.13716	0.740522	3.76697	0.936791	4.76275	0.509383	2.59307	0.61575	3.12694	0.785616	3.99276	0.912963	4.6463
0.534721	2.70869	0.386304	1.93711	0.536275	2.70828	0.617787	3.13045	0.742107	3.75722	0.937727	4.74503	0.511193	2.59	0.617554	3.12133	0.78666	3.97922	0.914366	4.63148
0.537121	2.70806	0.388306	1.9381	0.538674	2.70766	0.619388	3.12381	0.743697	3.7476	0.938668	4.72751	0.513002	2.58696	0.619363	3.1158	0.787709	3.96584	0.915771	4.61681
0.53952	2.70744	0.390308	1.93907	0.541073	2.70704	0.620991	3.11725	0.745291	3.73808	0.939613	4.71016	0.514809	2.58393	0.621177	3.11035	0.788764	3.95261	0.917179	4.60229
0.541918	2.70682	0.392309	1.94003	0.54347	2.70642	0.622596	3.11076	0.746889	3.72867	0.940562	4.693	0.516615	2.58093	0.622998	3.10498	0.789824	3.93953	0.918588	4.58791
0.544315	2.7062	0.394309	1.94098	0.545867	2.7058	0.624204	3.10434	0.748491	3.71937	0.941516	4.67602	0.51842	2.57794	0.624823	3.09968	0.790889	3.9266	0.92	4.57368
0.546711	2.70558	0.396309	1.94192	0.548262	2.70518	0.625814	3.09799	0.750098	3.71017	0.942474	4.65922	0.520223	2.57498	0.626654	3.09447	0.79196	3.91381	0.921413	4.55959
0.549106	2.70496	0.398308	1.94284	0.550656	2.70456	0.627427	3.09171	0.751708	3.70108	0.943437	4.6426	0.522025	2.57204	0.62849	3.08932	0.793036	3.90116	0.922829	4.54564
0.5515	2.70434	0.400307	1.94376	0.553049	2.70394	0.629042	3.08551	0.753323	3.6921	0.944404	4.62615	0.523826	2.56912	0.630332	3.08425	0.794117	3.88866	0.924247	4.53182
0.553892	2.70372	0.402304	1.94466	0.555441	2.70332	0.630659	3.07937	0.754941	3.68321	0.945376	4.60987	0.525626	2.56622	0.632178	3.07924	0.795204	3.87629	0.925666	4.51814
0.556284	2.7031	0.404301	1.94555	0.557831	2.70269	0.63228	3.0733	0.756563	3.67442	0.946352	4.59376	0.527425	2.56334	0.63403	3.07431	0.796296	3.86407	0.927087	4.50459
0.558674	2.70247	0.406298	1.94643	0.56022	2.70207	0.633903	3.0673	0.75819	3.66573	0.947332	4.57782	0.529223	2.56049	0.635886	3.06944	0.797393	3.85198	0.928511	4.49118
0.561062	2.70185	0.408294	1.9473	0.562608	2.70145	0.635529	3.06137	0.75982	3.65714	0.948317	4.56204	0.531019	2.55765	0.637747	3.06464	0.798495	3.84002	0.929936	4.47789
0.563449	2.70123	0.410289	1.94816	0.564994	2.70082	0.637158	3.0555	0.761453	3.64864	0.949307	4.54642	0.532815	2.55483	0.639613	3.05991	0.799603	3.82819	0.931363	4.46473
0.565834	2.7006	0.412283	1.94901	0.567378	2.70019	0.63879	3.0497	0.763091	3.64024	0.950301	4.53096	0.53461	2.55204	0.641483	3.05524	0.800716	3.8165	0.932792	4.4517
0.568218	2.69997	0.414277	1.94984	0.56976	2.69956	0.640424	3.04396	0.764732	3.63192	0.951299	4.51566	0.536404	2.54927	0.643359	3.05063	0.801834	3.80493	0.934222	4.43879
0.5706	2.69934	0.41627	1.95067	0.572141	2.69892	0.642062	3.03829	0.766376	3.6237	0.952302	4.50052	0.538197	2.54651	0.645238	3.04609	0.802957	3.79349	0.935655	4.426
0.572979	2.6987	0.418262	1.95149	0.57452	2.69829	0.643703	3.03269	0.768025	3.61556	0.953309	4.48553	0.539989	2.54378	0.647122	3.04161	0.804086	3.78217	0.937089	4.41334
0.575357	2.69806	0.420254	1.95229	0.576896	2.69764	0.645348	3.02715	0.769676	3.60752	0.954321	4.47069	0.541781	2.54106	0.64901	3.03718	0.80522	3.77098	0.938525	4.40079
0.577733	2.69742	0.422245	1.95309	0.579271	2.697	0.646996	3.02167	0.771332	3.59956	0.955337	4.456	0.543572	2.53837	0.650903	3.03281	0.806359	3.75991	0.939962	4.38836
0.580107	2.69677	0.424235	1.95387	0.581643	2.69635	0.648647	3.01626	0.77299	3.59168	0.956357	4.44146	0.545362	2.5357	0.6528	3.0285	0.807503	3.74896	0.941402	4.37604
0.582479	2.69612	0.426225	1.95465	0.584013	2.69569	0.650301	3.01091	0.774652	3.58389	0.957382	4.42706	0.547151	2.53305	0.654701	3.02425	0.808653	3.73813	0.942843	4.36384
0.584848	2.69546	0.428214	1.95542	0.586381	2.69503	0.65196	3.00562	0.776317	3.57618	0.958412	4.41281	0.54894	2.53041	0.656605	3.02005	0.809807	3.72741	0.944285	4.35175
0.587215	2.6948	0.430202	1.95617	0.588746	2.69436	0.653622	3.0004	0.777986	3.56855	0.959446	4.3987	0.550729	2.5278	0.658514	3.01591	0.810967	3.71681	0.945729	4.33977
0.58958	2.69413	0.43219	1.95692	0.591109	2.69369	0.655287	2.99523	0.779658	3.561	0.960484	4.38474	0.552517	2.52521	0.660426	3.01181	0.812133	3.70632	0.947175	4.3279
0.591941	2.69345	0.434176	1.95766	0.593469	2.69301	0.656957	2.99013	0.781333	3.55352	0.961527	4.37091	0.554304	2.52264	0.662343	3.00777	0.813303	3.69595	0.948623	4.31614
0.5943	2.69277	0.436162	1.95839	0.595827	2.69233	0.658631	2.98509	0.783011	3.54613	0.962574	4.35721	0.556091	2.52009	0.664263	3.00378	0.814478	3.68569	0.950071	4.30449
0.596657	2.69208	0.438148	1.9591	0.598181	2.69163	0.660308	2.98011	0.784692	3.53881	0.963626	4.34365	0.557878	2.51755	0.666186	2.99984	0.815659	3.67553	0.951522	4.29294
0.59901	2.69139	0.440133	1.95982	0.600532	2.69093	0.66199	2.97519	0.786376	3.53157	0.964682	4.33023	0.559665	2.51504	0.668113	2.99595	0.816845	3.66549	0.952974	4.28149
0.601361	2.69068	0.442117	1.96052	0.602881	2.69022	0.663676	2.97033	0.788063	3.5244	0.965743	4.31694	0.561451	2.51255	0.670043	2.99211	0.818037	3.65555	0.954427	4.27015
0.603708	2.68997	0.4441	1.96121	0.605226	2.68951	0.665367	2.96553	0.789753	3.5173	0.966808	4.30377	0.563237	2.51007	0.671977	2.98831	0.819233	3.64572	0.955882	4.2589
0.606052	2.68925	0.446083	1.96189	0.607568	2.68878	0.667062	2.96079	0.791446	3.51028	0.967878	4.29074	0.565022	2.50762	0.673914	2.98456	0.820435	3.63599	0.957338	4.24776
0.608392	2.68852	0.448065	1.96257	0.609906	2.68805	0.668762	2.95611	0.793142	3.50332	0.968952	4.27783	0.566808	2.50519	0.675854	2.98085	0.821641	3.62637	0.958796	4.23671
0.610729	2.68779	0.450046	1.96323	0.612241	2.6873	0.670466	2.95149	0.794841	3.49643	0.97003	4.26505	0.568594	2.50277	0.677797	2.97718	0.822853	3.61684	0.960255	4.22576
0.613063	2.68704	0.452026	1.96389	0.614572	2.68655	0.672176	2.94693	0.796542	3.48962	0.971113	4.25239	0.570379	2.50038	0.679744	2.97356	0.824071	3.60742	0.961716	4.21491
0.615393	2.68628	0.454006	1.96454	0.616899	2.68578	0.67389	2.94242	0.798246	3.48287	0.972201	4.23986	0.572164	2.498	0.681693	2.96999	0.825293	3.59809	0.963177	4.20415
0.617719	2.68551	0.455985	1.96518	0.619223	2.68501	0.67561	2.93798	0.799953	3.47618	0.973293	4.22744	0.573949	2.49564	0.683645	2.96645	0.826521	3.58887	0.964641	4.19348
0.620041	2.68473	0.457964	1.96581	0.621542	2.68422	0.677334	2.93359	0.801663	3.46956	0.974389	4.21514	0.575735	2.4933	0.6856	2.96295	0.827753	3.57974	0.966105	4.1829
0.622359	2.68394	0.459941	1.96644	0.623857	2.68342	0.679065	2.92927	0.803374	3.46301	0.97549	4.20297	0.57752	2.49099	0.687557	2.9595	0.828991	3.57071	0.967571	4.17242
0.624672	2.68314	0.461918	1.96706	0.626168	2.68261	0.6808	2.925	0.805089	3.45652	0.976595	4.19091	0.579306	2.48869	0.689517	2.95608	0.830235	3.56177	0.969038	4.16202
0.626982	2.68232	0.463895	1.96766	0.628474	2.68179	0.682542	2.92079	0.806806	3.45009	0.977705	4.17896	0.581091	2.4864	0.69148	2.9527	0.831483	3.55292	0.970506	4.15172
0.629286	2.68149	0.46587	1.96827	0.630776	2.68095	0.684289	2.91664	0.808525	3.44372	0.978819	4.16713	0.582877	2.48414	0.693445	2.94936	0.832736	3.54417	0.971976	4.1415
0.631586	2.68065	0.467845	1.96886	0.633073	2.6801	0.686042	2.91254	0.810247	3.43741	0.979938	4.15541	0.584663	2.4819	0.695413	2.94605	0.833995	3.53551	0.973446	4.13136
0.633882	2.6798	0.469819	1.96945	0.635365	2.67924	0.687801	2.90851	0.811972	3.43117	0.981061	4.1438	0.586449	2.47967	0.697383	2.94278	0.835259	3.52693	0.974918	4.12131
0.636172	2.67893	0.471793	1.97002	0.637652	2.67836	0.689566	2.90453	0.813698	3.42498	0.982189	4.1323	0.588236	2.47747	0.699355	2.93955	0.836528	3.51845	0.976391	4.11135
0.638457	2.67804	0.473765	1.97059	0.639934	2.67746	0.691338	2.90061	0.815427	3.41885	0.983321	4.12091	0.590023	2.47528	0.701329	2.93634	0.837803	3.51006	0.977866	4.10146
0.640737	2.67714	0.475737	1.97116	0.642211	2.67656	0.693116	2.89675	0.817158	3.41277	0.984457	4.10963	0.59181	2.47311	0.703305	2.93318	0.839082	3.50175	0.979341	4.09166
0.643012	2.67623	0.477709	1.97171	0.644482	2.67563	0.694901	2.89294	0.818891	3.40676	0.985598	4.09845	0.593597	2.47096	0.705284	2.93004	0.840367	3.49353	0.980818	4.08194
0.645281	2.6753	0.479679	1.97226	0.646747	2.67469	0.696693	2.88919	0.820627	3.40079	0.986744	4.08738	0.595385	2.46883	0.707264	2.92694	0.841657	3.48539	0.982295	4.0723
0.647544	2.67435	0.481649	1.97281	0.649007	2.67373	0.698491	2.8855	0.822364	3.39489	0.987894	4.07641	0.597173	2.46671	0.709246	2.92387	0.842952	3.47734	0.983774	4.06274
0.649802	2.67339	0.483619	1.97334	0.651261	2.67276	0.700297	2.88187	0.824104	3.38903	0.989048	4.06554	0.598962	2.46462	0.71123	2.92083	0.844253	3.46937	0.985254	4.05325
0.652054	2.67241	0.485587	1.97387	0.653508	2.67177	0.70211	2.8783	0.825845	3.38323	0.990207	4.05478	0.600751	2.46254	0.713216	2.91782	0.845558	3.46148	0.986734	4.04385
0.654299	2.67141	0.487555	1.97439	0.65575	2.67076	0.70393	2.87478	0.827589	3.37748	0.991371	4.04411	0.602541	2.46048	0.715203	2.91484	0.846869	3.45367	0.988216	4.03451
0.656538	2.6704	0.489522	1.97491	0.657985	2.66973	0.705758	2.87132	0.829334	3.37179	0.992539	4.03355	0.604331	2.45844	0.717192	2.91189	0.848185	3.44595	0.989699	4.02526
0.658771	2.66936	0.491488	1.97541	0.660213	2.66868	0.707594	2.86792	0.831082	3.36614	0.993711	4.02308	0.606122	2.45641	0.719183	2.90897	0.849507	3.4383	0.991183	4.01607
0.660997	2.66831	0.493454	1.97591	0.662435	2.66762	0.709438	2.86457	0.832831	3.36054	0.994888	4.01271	0.607914	2.4544	0.721175	2.90607	0.850833	3.43073	0.992668	4.00696
0.663217	2.66724	0.495419	1.97641	0.66465	2.66653	0.711289	2.86128	0.834582	3.355	0.996069	4.00243	0.609706	2.45241	0.723168	2.90321	0.852165	3.42324	0.994153	3.99793
0.665429	2.66615	0.497383	1.9769	0.666858	2.66543	0.713149	2.85805	0.836335	3.3495	0.997255	3.99225	0.611498	2.45044	0.725163	2.90037	0.853502	3.41583	0.99564	3.98896
0.667635	2.66504	0.499347	1.97738	0.669059	2.66431	0.715017	2.85488	0.83809	3.34405	0.998445	3.98216	0.613292	2.44849	0.727159	2.89755	0.854844	3.40849	0.997128	3.98006
0.669834	2.6639	0.501309	1.97785	0.671253	2.66316	0.716893	2.85176	0.839846	3.33865	0.99964	3.97217	0.615086	2.44655	0.729156	2.89476	0.856192	3.40123	0.998616	3.97123
0.672025	2.66275	0.503272	1.97832	0.67344	2.662	0.718778	2.8487	0.841604	3.33329	1.00084	3.96226	0.616881	2.44463	0.731154	2.892	0.857545	3.39404	1.00011	3.96248
0.674209	2.66158	0.505233	1.97879	0.675619	2.66081	0.720671	2.8457	0.843364	3.32798			0.618676	2.44272	0.733153	2.88926	0.858903	3.38693		
0.676385	2.66039	0.507194	1.97924	0.677791	2.6596	0.722573	2.84275	0.845125	3.32271			0.620472	2.44084	0.735153	2.88654	0.860266	3.37989		
0.678554	2.65917	0.509154	1.9797	0.679954	2.65838	0.724484	2.83986	0.846888	3.31749			0.622269	2.43897	0.737154	2.88385	0.861635	3.37292		
0.680715	2.65794	0.511113	1.98014	0.682111	2.65713	0.726405	2.83702	0.848653	3.31231			0.624067	2.43711	0.739156	2.88118	0.863009	3.36602		
0.682869	2.65668	0.513072	1.98058	0.684259	2.65586	0.728334	2.83424	0.850419	3.30718			0.625866	2.43528	0.741159	2.87853	0.864388	3.35919		
0.685014	2.6554	0.51503	1.98101	0.686399	2.65456	0.730272	2.83152	0.852186	3.30209			0.627665	2.43346	0.743162	2.87591	0.865773	3.35243		
0.687152	2.6541	0.516987	1.98144	0.688532	2.65325	0.732219	2.82885	0.853955	3.29704			0.629465	2.43165	0.745166	2.8733	0.867162	3.34574		
0.689281	2.65278	0.518944	1.98186	0.690656	2.65192	0.734176	2.82624	0.855725	3.29203			0.631266	2.42986	0.747171	2.87072	0.868558	3.33912		
0.691403	2.65144	0.5209	1.98228	0.692772	2.65056	0.736142	2.82368	0.857496	3.28706			0.633068	2.42809	0.749176	2.86815	0.869958	3.33257		
0.693516	2.65008	0.522855	1.98269	0.69488	2.64918	0.738118	2.82118	0.859269	3.28214			0.634871	2.42634	0.751181	2.86561	0.871364	3.32609		
0.695621	2.64869	0.524809	1.98309	0.69698	2.64778	0.740103	2.81873	0.861043	3.27725			0.636675	2.4246	0.753187	2.86309	0.872775	3.31967		
0.697718	2.64728	0.526763	1.98349	0.699072	2.64636	0.742098	2.81633	0.862818	3.2724			0.63848	2.42287	0.755193	2.86058	0.874192	3.31331		
0.699807	2.64586	0.528716	1.98389	0.701155	2.64492	0.744102	2.81399	0.864595	3.26759			0.640286	2.42117	0.7572	2.8581	0.875613	3.30702		
0.701887	2.64441	0.530669	1.98428	0.70323	2.64346	0.746116	2.81169	0.866373	3.26282			0.642093	2.41948	0.759207	2.85563	0.877041	3.3008		
0.70396	2.64294	0.53262	1.98466	0.705297	2.64197	0.748139	2.80945	0.868151	3.25809			0.6439	2.4178	0.761213	2.85318	0.878473	3.29464		
0.706024	2.64144	0.534571	1.98504	0.707356	2.64047	0.750171	2.80727	0.869931	3.2534			0.645709	2.41614	0.76322	2.85074	0.879911	3.28854		
0.708079	2.63993	0.536522	1.98541	0.709406	2.63894	0.752213	2.80513	0.871713	3.24874			0.647519	2.41449	0.765227	2.84833	0.881355	3.2825		
0.710127	2.6384	0.538472	1.98578	0.711448	2.6374	0.754265	2.80304	0.873495	3.24411			0.64933	2.41286	0.767234	2.84593	0.882803	3.27653		
0.712166	2.63685	0.540421	1.98615	0.713483	2.63584	0.756326	2.801	0.875278	3.23953			0.651142	2.41125	0.769241	2.84355	0.884258	3.27062		
0.714198	2.63528	0.542369	1.9865	0.715509	2.63426	0.758396	2.79901	0.877062	3.23497			0.652955	2.40965	0.771248	2.84118	0.885717	3.26477		
0.716221	2.6337	0.544317	1.98686	0.717527	2.63266	0.760476	2.79707	0.878847	3.23046			0.654769	2.40806	0.773254	2.83883	0.887182	3.25897		
0.718237	2.63209	0.546264	1.98721	0.719537	2.63104	0.762565	2.79517	0.880633	3.22597			0.656584	2.40649	0.77526	2.83649	0.888652	3.25324		
0.720244	2.63046	0.54821	1.98755	0.72154	2.6294	0.764663	2.79332	0.88242	3.22153			0.6584	2.40493	0.777266	2.83417	0.890128	3.24757		
0.722244	2.62882	0.550156	1.98789	0.723535	2.62775	0.76677	2.79152	0.884208	3.21711			0.660217	2.40339	0.779272	2.83186	0.89161	3.24195		
0.724236	2.62717	0.552101	1.98823	0.725522	2.62608	0.768885	2.78976	0.885996	3.21273			0.662036	2.40187	0.781277	2.82956	0.893096	3.23639		
0.726221	2.62549	0.554046	1.98856	0.727502	2.6244	0.77101	2.78804	0.887786	3.20838			0.663855	2.40035	0.783281	2.82728	0.894589	3.23089		
0.728198	2.6238	0.555989	1.98888	0.729475	2.6227	0.773143	2.78637	0.889576	3.20406			0.665676	2.39886	0.785285	2.82502	0.896086	3.22545		
0.730168	2.6221	0.557933	1.9892	0.73144	2.62099	0.775285	2.78474	0.891367	3.19977			0.667498	2.39737	0.787289	2.82276	0.897589	3.22006		
0.732131	2.62038	0.559875	1.98952	0.733398	2.61926	0.777436	2.78315	0.893159	3.19551			0.669321	2.3959	0.789291	2.82052	0.899098	3.21473		
0.734087	2.61865	0.561817	1.98983	0.73535	2.61752	0.779594	2.78159	0.894951	3.19129			0.671145	2.39445	0.791293	2.81829	0.900612	3.20945		
0.736036	2.6169	0.563758	1.99014	0.737294	2.61577	0.781761	2.78008	0.896744	3.18709			0.67297	2.393	0.793295	2.81608	0.902132	3.20423		
0.737978	2.61514	0.565699	1.99044	0.739232	2.614	0.783935	2.77861	0.898538	3.18293			0.674796	2.39158	0.795295	2.81387	0.903657	3.19906		
0.739914	2.61338	0.567639	1.99074	0.741164	2.61222	0.786118	2.77717	0.900332	3.1788			0.676624	2.39016	0.797295	2.81168	0.905188	3.19394		
0.741843	2.6116	0.569578	1.99104	0.743089	2.61044	0.788308	2.77578	0.902127	3.17469			0.678453	2.38876	0.799293	2.80949	0.906724	3.18888		
0.743766	2.60981	0.571516	1.99133	0.745008	2.60864	0.790505	2.77441	0.903923	3.17061			0.680283	2.38737	0.801291	2.80732	0.908266	3.18387		
0.745683	2.60801	0.573454	1.99162	0.746921	2.60684	0.79271	2.77308	0.905719	3.16656			0.682114	2.386	0.803288	2.80516	0.909813	3.17891		
0.747594	2.6062	0.575392	1.9919	0.748828	2.60502	0.794922	2.77178	0.907515	3.16254			0.683947	2.38463	0.805283	2.80301	0.911366	3.174		
0.749499	2.60438	0.577328	1.99218	0.75073	2.6032	0.797141	2.77052	0.909313	3.15855			0.68578	2.38329	0.807278	2.80087	0.912924	3.16915		
0.751399	2.60255	0.579265	1.99246	0.752626	2.60137	0.799366	2.76929	0.91111	3.15459			0.687615	2.38195	0.809271	2.79874	0.914488	3.16434		
0.753293	2.60072	0.5812	1.99273	0.754517	2.59953	0.801599	2.76809	0.912908	3.15065			0.689452	2.38063	0.811263	2.79662	0.916057	3.15959		
0.755182	2.59889	0.583135	1.99299	0.756403	2.59769	0.803837	2.76692	0.914707	3.14674			0.691289	2.37932	0.813254	2.7945	0.917632	3.15488		
0.757066	2.59704	0.585069	1.99326	0.758283	2.59584	0.806082	2.76577	0.916506	3.14285			0.693128	2.37802	0.815244	2.7924	0.919213	3.15022		
0.758945	2.59519	0.587003	1.99352	0.760159	2.59399	0.808333	2.76466	0.918305	3.13899			0.694967	2.37673	0.817232	2.79031	0.920799	3.14562		
0.760819	2.59334	0.588936	1.99377	0.76203	2.59214	0.81059	2.76357	0.920105	3.13516			0.696809	2.37546	0.819219	2.78822	0.922391	3.14106		
0.762689	2.59148	0.590868	1.99403	0.763897	2.59028	0.812853	2.76251	0.921905	3.13135			0.698651	2.3742	0.821205	2.78614	0.923988	3.13654		
0.764554	2.58962	0.5928	1.99428	0.76576	2.58842	0.815122	2.76148	0.923705	3.12757			0.700494	2.37295	0.823189	2.78408	0.925591	3.13208		
0.766415	2.58776	0.594732	1.99452	0.767618	2.58655	0.817395	2.76047	0.925506	3.12381			0.702339	2.37172	0.825171	2.78201	0.9272	3.12766		
0.768272	2.58589	0.596662	1.99476	0.769472	2.58469	0.819674	2.75948	0.927307	3.12008			0.704186	2.37049	0.827152	2.77996	0.928814	3.12329		
0.770125	2.58403	0.598592	1.995	0.771323	2.58282	0.821958	2.75852	0.929108	3.11637			0.706033	2.36928	0.829132	2.77792	0.930433	3.11896		
0.771974	2.58216	0.600522	1.99524	0.77317	2.58095	0.824247	2.75758	0.93091	3.11269			0.707882	2.36808	0.83111	2.77588	0.932059	3.11468		
0.77382	2.58029	0.602451	1.99547	0.775013	2.57908	0.826541	2.75666	0.932712	3.10903			0.709731	2.36689	0.833086	2.77385	0.93369	3.11045		
0.775662	2.57842	0.604379	1.9957	0.776852	2.57721	0.82884	2.75576	0.934514	3.10539			0.711583	2.36572	0.83506	2.77182	0.935326	3.10626		
0.7775	2.57656	0.606307	1.99592	0.778689	2.57535	0.831143	2.75489	0.936316	3.10178			0.713435	2.36455	0.837033	2.7698	0.936968	3.10212		
0.779335	2.57469	0.608234	1.99614	0.780522	2.57348	0.83345	2.75403	0.938118	3.09818			0.715289	2.3634	0.839004	2.76779	0.938616	3.09801		
0.781168	2.57282	0.61016	1.99636	0.782353	2.57161	0.835761	2.75319	0.939921	3.09462			0.717144	2.36225	0.840973	2.76579	0.940269	3.09396		
0.782997	2.57096	0.612087	1.99658	0.78418	2.56975	0.838076	2.75237	0.941724	3.09107			0.719	2.36112	0.842941	2.76379	0.941928	3.08994		
0.784824	2.5691	0.614012	1.99679	0.786005	2.56789	0.840396	2.75157	0.943527	3.08755			0.720858	2.36	0.844906	2.7618	0.943592	3.08597		
0.786647	2.56724	0.615937	1.997	0.787827	2.56603	0.842719	2.75078	0.94533	3.08404			0.722716	2.35889	0.84687	2.75981	0.945262	3.08204		
0.788469	2.56538	0.617861	1.9972	0.789647	2.56418	0.845045	2.75001	0.947134	3.08056			0.724577	2.35779	0.848832	2.75783	0.946938	3.07815		
0.790287	2.56353	0.619785	1.99741	0.791464	2.56233	0.847375	2.74926	0.948937	3.0771			0.726438	2.3567	0.850791	2.75586	0.948619	3.07431		
0.792104	2.56168	0.621708	1.99761	0.793279	2.56048	0.849709	2.74852	0.950741	3.07367			0.7283	2.35563	0.852749	2.75389	0.950305	3.0705		
0.793918	2.55983	0.623631	1.9978	0.795092	2.55864	0.852046	2.7478	0.952544	3.07025			0.730164	2.35456	0.854705	2.75192	0.951997	3.06674		
0.79573	2.55799	0.625553	1.998	0.796903	2.5568	0.854385	2.74709	0.954348	3.06685			0.73203	2.3535	0.856659	2.74996	0.953695	3.06301		
0.79754	2.55615	0.627475	1.99819	0.798711	2.55496	0.856728	2.7464	0.956152	3.06348			0.733896	2.35246	0.858611	2.74801	0.955398	3.05933		
0.799349	2.55432	0.629396	1.99838	0.800519	2.55314	0.859074	2.74571	0.957956	3.06012			0.735764	2.35142	0.86056	2.74606	0.957107	3.05568		
0.801155	2.55249	0.631316	1.99856	0.802324	2.55131	0.861422	2.74505	0.95976	3.05679			0.737633	2.3504	0.862508	2.74412	0.958821	3.05208		
0.80296	2.55067	0.633236	1.99875	0.804127	2.54949	0.863773	2.74439	0.961564	3.05347			0.739503	2.34938	0.864454	2.74218	0.960541	3.04851		
0.804763	2.54886	0.635156	1.99893	0.80593	2.54768	0.866127	2.74375	0.963368	3.05018			0.741374	2.34838	0.866397	2.74025	0.962266	3.04498		
0.806564	2.54705	0.637075	1.9991	0.80773	2.54588	0.868483	2.74311	0.965173	3.0469			0.743247	2.34738	0.868338	2.73832	0.963997	3.04149		
0.808364	2.54524	0.638993	1.99928	0.809529	2.54408	0.870842	2.74249	0.966977	3.04365			0.745121	2.34639	0.870277	2.73639	0.965733	3.03804		
0.810163	2.54344	0.640911	1.99945	0.811327	2.54228	0.873202	2.74188	0.968781	3.04041			0.746996	2.34542	0.872214	2.73447	0.967475	3.03462		
0.811961	2.54165	0.642828	1.99962	0.813124	2.5405	0.875565	2.74128	0.970586	3.03719			0.748873	2.34445	0.874149	2.73256	0.969222	3.03125		
0.813757	2.53987	0.644745	1.99979	0.81492	2.53872	0.87793	2.74069	0.97239	3.03399			0.750751	2.3435	0.876082	2.73064	0.970975	3.0279		
0.815552	2.53809	0.646662	1.99995	0.816714	2.53694	0.880297	2.74011	0.974195	3.03081			0.75263	2.34255	0.878012	2.72874	0.972732	3.0246		
0.817346	2.53632	0.648577	2.00012	0.818508	2.53518	0.882665	2.73954	0.975999	3.02765			0.75451	2.34161	0.87994	2.72683	0.974496	3.02133		
0.81914	2.53456	0.650493	2.00027	0.8203	2.53342	0.885036	2.73897	0.977804	3.02451			0.756392	2.34068	0.881866	2.72493	0.976264	3.01809		
0.820932	2.5328	0.652408	2.00043	0.822092	2.53167	0.887408	2.73842	0.979609	3.02138			0.758275	2.33976	0.883789	2.72304	0.978038	3.01489		
0.822723	2.53105	0.654322	2.00059	0.823883	2.52992	0.889782	2.73787	0.981413	3.01828			0.760158	2.33885	0.885711	2.72115	0.979817	3.01173		
0.824514	2.52931	0.656236	2.00074	0.825673	2.52819	0.892157	2.73733	0.983218	3.01519			0.762044	2.33795	0.88763	2.71926	0.981602	3.0086		
0.826304	2.52758	0.65815	2.00089	0.827463	2.52646	0.894534	2.7368	0.985023	3.01212			0.76393	2.33706	0.889547	2.71737	0.983391	3.0055		
0.828093	2.52585	0.660062	2.00104	0.829252	2.52474	0.896912	2.73628	0.986828	3.00906			0.765818	2.33617	0.891461	2.71549	0.985186	3.00243		
0.829882	2.52414	0.661975	2.00118	0.83104	2.52303	0.899291	2.73576	0.988633	3.00603			0.767707	2.3353	0.893374	2.71362	0.986986	2.9994		
0.83167	2.52243	0.663887	2.00133	0.832828	2.52132	0.901672	2.73525	0.990438	3.00301			0.769597	2.33443	0.895284	2.71175	0.988792	2.99641		
0.833458	2.52073	0.665798	2.00147	0.834616	2.51963	0.904053	2.73475	0.992243	3.00001			0.771488	2.33357	0.897191	2.70988	0.990602	2.99344		
0.835245	2.51903	0.66771	2.00161	0.836403	2.51794	0.906436	2.73425	0.994048	2.99702			0.773381	2.33273	0.899097	2.70801	0.992418	2.99051		
0.837032	2.51735	0.66962	2.00174	0.838189	2.51626	0.90882	2.73376	0.995854	2.99405			0.775275	2.33188	0.901	2.70615	0.994238	2.98761		
0.838819	2.51567	0.67153	2.00188	0.839976	2.51459	0.911205	2.73327	0.997659	2.9911			0.77717	2.33105	0.902901	2.70429	0.996064	2.98474		
0.840605	2.51401	0.67344	2.00201	0.841762	2.51293	0.91359	2.73279	0.999465	2.98817			0.779066	2.33023	0.9048	2.70244	0.997895	2.9819		
0.842392	2.51235	0.675349	2.00214	0.843548	2.51128	0.915977	2.73231	1.00127	2.98525			0.780964	2.32941	0.906696	2.70059	0.99973	2.97909		
0.844178	2.5107	0.677258	2.00227	0.845334	2.50963	0.918364	2.73184					0.782862	2.3286	0.90859	2.69874	1.00157	2.97631		
0.845963	2.50906	0.679167	2.00239	0.84712	2.508	0.920751	2.73137					0.784762	2.3278	0.910482	2.69689				
0.847749	2.50742	0.681075	2.00252	0.848905	2.50637	0.92314	2.73091					0.786663	2.32701	0.912371	2.69505				
0.849535	2.5058	0.682982	2.00264	0.850691	2.50475	0.925529	2.73045					0.788565	2.32623	0.914259	2.69322				
0.85132	2.50418	0.684889	2.00276	0.852476	2.50314	0.927918	2.73					0.790468	2.32545	0.916144	2.69138				
0.853106	2.50258	0.686796	2.00288	0.854262	2.50154	0.930308	2.72954					0.792373	2.32468	0.918027	2.68955				
0.854891	2.50098	0.688702	2.003	0.856048	2.49995	0.932698	2.7291					0.794279	2.32392	0.919908	2.68773				
0.856677	2.49939	0.690608	2.00311	0.857834	2.49837	0.935088	2.72865					0.796185	2.32317	0.921786	2.6859				
0.858463	2.49781	0.692513	2.00323	0.85962	2.4968	0.937478	2.72821					0.798093	2.32242	0.923663	2.68409				
0.860249	2.49624	0.694418	2.00334	0.861406	2.49523	0.939869	2.72777					0.800003	2.32168	0.925537	2.68227				
0.862035	2.49468	0.696323	2.00345	0.863192	2.49367	0.94226	2.72734					0.801913	2.32095	0.927409	2.68046				
0.863821	2.49313	0.698227	2.00355	0.864978	2.49213	0.944651	2.7269					0.803824	2.32022	0.929279	2.67865				
0.865608	2.49158	0.700131	2.00366	0.866765	2.49059	0.947041	2.72647					0.805737	2.31951	0.931147	2.67684				
0.867395	2.49005	0.702034	2.00376	0.868552	2.48906	0.949432	2.72604					0.807651	2.3188	0.933013	2.67504				
0.869182	2.48852	0.703937	2.00387	0.870339	2.48754	0.951823	2.72561					0.809565	2.31809	0.934876	2.67325				
0.870969	2.48701	0.70584	2.00397	0.872127	2.48603	0.954213	2.72519					0.811481	2.3174	0.936738	2.67145				
0.872757	2.4855	0.707742	2.00407	0.873915	2.48453	0.956603	2.72476					0.813398	2.31671	0.938598	2.66966				
0.874545	2.484	0.709644	2.00417	0.875703	2.48304	0.958992	2.72434					0.815317	2.31603	0.940455	2.66788				
0.876334	2.48251	0.711545	2.00426	0.877492	2.48155	0.961382	2.72392					0.817236	2.31535	0.942311	2.66609				
0.878123	2.48103	0.713446	2.00436	0.879281	2.48008	0.963771	2.7235					0.819156	2.31468	0.944164	2.66431				
0.879912	2.47956	0.715347	2.00445	0.881071	2.47861	0.966159	2.72308					0.821078	2.31402	0.946016	2.66254				
0.881702	2.4781	0.717247	2.00454	0.882861	2.47715	0.968547	2.72266					0.823	2.31336	0.947866	2.66077				
0.883492	2.47664	0.719147	2.00463	0.884651	2.47571	0.970934	2.72224					0.824924	2.31271	0.949714	2.659				
0.885282	2.4752	0.721047	2.00472	0.886442	2.47427	0.97332	2.72182					0.826849	2.31207	0.95156	2.65724				
0.887074	2.47376	0.722946	2.00481	0.888234	2.47284	0.975706	2.7214					0.828775	2.31143	0.953404	2.65548				
0.888865	2.47233	0.724845	2.00489	0.890026	2.47142	0.978091	2.72098					0.830701	2.3108	0.955246	2.65372				
0.890657	2.47092	0.726744	2.00498	0.891818	2.47	0.980474	2.72056					0.832629	2.31018	0.957087	2.65197				
0.89245	2.46951	0.728642	2.00506	0.893611	2.4686	0.982857	2.72014					0.834558	2.30956	0.958925	2.65022				
0.894243	2.46811	0.73054	2.00514	0.895405	2.4672	0.985239	2.71972					0.836488	2.30895	0.960762	2.64848				
0.896037	2.46671	0.732437	2.00522	0.897199	2.46582	0.98762	2.7193					0.838419	2.30834	0.962598	2.64674				
0.897832	2.46533	0.734334	2.0053	0.898994	2.46444	0.99	2.71887					0.840351	2.30774	0.964431	2.64501				
0.899627	2.46396	0.736231	2.00538	0.90079	2.46307	0.992378	2.71845					0.842285	2.30715	0.966263	2.64328				
0.901423	2.46259	0.738128	2.00546	0.902586	2.46171	0.994756	2.71803					0.844219	2.30656	0.968093	2.64155				
0.903219	2.46123	0.740024	2.00553	0.904382	2.46036	0.997131	2.7176					0.846154	2.30597	0.969922	2.63983				
0.905016	2.45988	0.74192	2.00561	0.90618	2.45902	0.999506	2.71717					0.84809	2.3054	0.971749	2.63811				
0.906814	2.45854	0.743815	2.00568	0.907978	2.45768	1.00188	2.71674					0.850027	2.30483	0.973574	2.6364				
0.908612	2.45721	0.745711	2.00575	0.909777	2.45636							0.851965	2.30426	0.975398	2.63469				
0.910411	2.45589	0.747606	2.00582	0.911576	2.45504							0.853905	2.3037	0.977221	2.63299				
0.91221	2.45458	0.7495	2.00589	0.913376	2.45373							0.855845	2.30314	0.979042	2.63129				
0.914011	2.45327	0.751395	2.00596	0.915177	2.45243							0.857786	2.3026	0.980861	2.6296				
0.915812	2.45197	0.753289	2.00602	0.916978	2.45114							0.859728	2.30205	0.98268	2.62791				
0.917614	2.45068	0.755182	2.00609	0.918781	2.44985							0.861671	2.30151	0.984496	2.62622				
0.919416	2.4494	0.757076	2.00615	0.920584	2.44858							0.863615	2.30098	0.986312	2.62454				
0.921219	2.44813	0.758969	2.00622	0.922387	2.44731							0.86556	2.30045	0.988126	2.62287				
0.923023	2.44687	0.760862	2.00628	0.924192	2.44605							0.867506	2.29993	0.989939	2.6212				
0.924828	2.44561	0.762754	2.00634	0.925997	2.4448							0.869453	2.29941	0.99175	2.61953				
0.926634	2.44436	0.764647	2.0064	0.927803	2.44356							0.871401	2.2989	0.993561	2.61787				
0.92844	2.44312	0.766539	2.00646	0.92961	2.44232							0.87335	2.29839	0.99537	2.61621				
0.930247	2.44189	0.76843	2.00652	0.931417	2.4411							0.8753	2.29789	0.997177	2.61456				
0.932055	2.44067	0.770322	2.00658	0.933226	2.43988							0.87725	2.29739	0.998984	2.61292				
0.933863	2.43945	0.772213	2.00663	0.935035	2.43867							0.879202	2.29689	1.00079	2.61128				
0.935673	2.43824	0.774104	2.00669	0.936845	2.43746							0.881155	2.29641						
0.937483	2.43704	0.775995	2.00674	0.938655	2.43627							0.883108	2.29592						
0.939294	2.43585	0.777885	2.0068	0.940467	2.43508							0.885062	2.29544						
0.941105	2.43467	0.779775	2.00685	0.942279	2.4339							0.887018	2.29497						
0.942918	2.43349	0.781665	2.0069	0.944092	2.43273							0.888974	2.2945						
0.944731	2.43232	0.783555	2.00695	0.945906	2.43157							0.890931	2.29403						
0.946546	2.43116	0.785444	2.007	0.947721	2.43041							0.892889	2.29357						
0.948361	2.43001	0.787333	2.00705	0.949536	2.42927							0.894847	2.29311						
0.950177	2.42886	0.789222	2.0071	0.951353	2.42812							0.896807	2.29266						
0.951993	2.42772	0.791111	2.00715	0.95317	2.42699							0.898767	2.29221						
0.953811	2.42659	0.792999	2.00719	0.954988	2.42587							0.900729	2.29177						
0.955629	2.42547	0.794887	2.00724	0.956807	2.42475							0.902691	2.29133						
0.957449	2.42436	0.796775	2.00728	0.958627	2.42364							0.904654	2.2909						
0.959269	2.42325	0.798663	2.00733	0.960448	2.42253							0.906618	2.29047						
0.96109	2.42215	0.80055	2.00737	0.962269	2.42144							0.908582	2.29004						
0.962911	2.42105	0.802438	2.00741	0.964091	2.42035							0.910548	2.28962						
0.964734	2.41997	0.804325	2.00745	0.965915	2.41927							0.912514	2.2892						
0.966558	2.41889	0.806212	2.0075	0.967739	2.41819							0.914481	2.28878						
0.968382	2.41782	0.808098	2.00754	0.969564	2.41713							0.916449	2.28837						
0.970207	2.41675	0.809985	2.00758	0.97139	2.41607							0.918418	2.28797						
0.972033	2.41569	0.811871	2.00761	0.973216	2.41501							0.920388	2.28756						
0.97386	2.41464	0.813757	2.00765	0.975044	2.41397							0.922358	2.28716						
0.975688	2.4136	0.815643	2.00769	0.976872	2.41293							0.924329	2.28677						
0.977517	2.41256	0.817528	2.00773	0.978701	2.4119							0.926301	2.28638						
0.979346	2.41153	0.819414	2.00776	0.980532	2.41087							0.928274	2.28599						
0.981177	2.41051	0.821299	2.0078	0.982363	2.40985							0.930247	2.2856						
0.983008	2.40949	0.823184	2.00783	0.984194	2.40884							0.932222	2.28522						
0.98484	2.40848	0.825068	2.00787	0.986027	2.40783							0.934197	2.28485						
0.986673	2.40748	0.826953	2.0079	0.987861	2.40684							0.936172	2.28447						
0.988507	2.40649	0.828837	2.00793	0.989695	2.40585							0.938149	2.2841						
0.990342	2.4055	0.830722	2.00797	0.991531	2.40486							0.940126	2.28374						
0.992178	2.40451	0.832606	2.008	0.993367	2.40388							0.942104	2.28337						
0.994014	2.40354	0.83449	2.00803	0.995204	2.40291							0.944083	2.28301						
0.995852	2.40257	0.836373	2.00806	0.997042	2.40194							0.946062	2.28266						
0.99769	2.40161	0.838257	2.00809	0.998881	2.40099							0.948042	2.28231						
0.99953	2.40065	0.84014	2.00812	1.00072	2.40003							0.950023	2.28196						
1.00137	2.3997	0.842023	2.00815									0.952005	2.28161						
		0.843906	2.00818									0.953987	2.28127						
		0.845789	2.00821									0.95597	2.28093						
		0.847672	2.00823									0.957954	2.28059						
		0.849554	2.00826									0.959938	2.28026						
		0.851437	2.00829									0.961924	2.27993						
		0.853319	2.00831									0.963909	2.2796						
		0.855201	2.00834									0.965896	2.27927						
		0.857083	2.00837									0.967883	2.27895						
		0.858965	2.00839									0.969871	2.27864						
		0.860846	2.00841									0.971859	2.27832						
		0.862728	2.00844									0.973848	2.27801						
		0.864609	2.00846									0.975838	2.2777						
		0.86649	2.00848									0.977828	2.27739						
		0.868371	2.00851									0.979819	2.27709						
		0.870252	2.00853									0.981811	2.27679						
		0.872133	2.00855									0.983803	2.27649						
		0.874013	2.00857									0.985796	2.27619						
		0.875894	2.00859									0.98779	2.2759						
		0.877774	2.00861									0.989784	2.27561						
		0.879654	2.00863									0.991779	2.27532						
		0.881534	2.00865									0.993774	2.27504						
		0.883414	2.00867									0.99577	2.27475						
		0.885294	2.00869									0.997767	2.27447						
		0.887174	2.00871									0.999764	2.2742						
		0.889053	2.00873									1.00176	2.27392						
		0.890933	2.00875																
		0.892812	2.00876																
		0.894691	2.00878																
		0.89657	2.0088																
		0.898449	2.00881																
		0.900328	2.00883																
		0.902207	2.00885																
		0.904086	2.00886																
		0.905964	2.00888																
		0.907843	2.00889																
		0.909721	2.00891																
		0.911599	2.00892																
		0.913477	2.00893																
		0.915355	2.00895																
		0.917233	2.00896																
		0.919111	2.00898																
		0.920989	2.00899																
		0.922867	2.009																
		0.924744	2.00901																
		0.926622	2.00903																
		0.928499	2.00904																
		0.930377	2.00905																
		0.932254	2.00906																
		0.934131	2.00907																
		0.936008	2.00908																
		0.937885	2.0091																
		0.939762	2.00911																
		0.941639	2.00912																
		0.943515	2.00913																
		0.945392	2.00914																
		0.947269	2.00915																
		0.949145	2.00916																
		0.951021	2.00917																
		0.952898	2.00918																
		0.954774	2.00919																
		0.95665	2.00919																
		0.958526	2.0092																
		0.960402	2.00921																
		0.962278	2.00922																
		0.964154	2.00923																
		0.96603	2.00924																
		0.967906	2.00924																
		0.969782	2.00925																
		0.971658	2.00926																
		0.973533	2.00927																
		0.975409	2.00927																
		0.977284	2.00928																
		0.97916	2.00929																
		0.981035	2.0093																
		0.98291	2.0093																
		0.984786	2.00931																
		0.986661	2.00931																
		0.988536	2.00932																
		0.990411	2.00933																
		0.992286	2.00933																
		0.994161	2.00934																
		0.996036	2.00934																
		0.997911	2.00935																
		0.999786	2.00936																
		1.00166	2.00936																
