Sym0		Asym0		Sym1		Sym2		Sym3		Sym4		Asym1		Asym2		Asym3		Asym4	
457  Points		540  Points		457  Points		406  Points		369  Points		280  Points		480  Points		421  Points		370  Points		280  Points	
Freq (MHz)	Vph (m/ms)	Freq (MHz)	Vph (m/ms)	Freq (MHz)	Vph (m/ms)	Freq (MHz)	Vph (m/ms)	Freq (MHz)	Vph (m/ms)	Freq (MHz)	Vph (m/ms)	Freq (MHz)	Vph (m/ms)	Freq (MHz)	Vph (m/ms)	Freq (MHz)	Vph (m/ms)	Freq (MHz)	Vph (m/ms)
0.279506	318.203	0.000232308	0.0939379	0.279507	366.55	0.356509	4383.67	0.559017	1827.32	0.838526	2319.22	0.139755	1210.59	0.419264	711.955	0.69877	1615.66	0.713019	4861.63
0.279499	154.412	0.000439751	0.129161	0.2795	164.972	0.356526	351.943	0.559024	451.694	0.83853	648.39	0.139796	133.503	0.419274	275.732	0.698759	512.214	0.713036	661.224
0.279488	101.937	0.000711953	0.164181	0.279489	106.435	0.35657	183.353	0.55904	257.704	0.838538	376.88	0.139903	70.6999	0.419292	170.981	0.698737	304.343	0.713078	354.756
0.279471	76.0781	0.00104816	0.198965	0.279473	78.5563	0.356642	123.988	0.559064	180.285	0.83855	265.646	0.140077	48.1275	0.419319	123.913	0.698704	216.479	0.713146	242.423
0.27945	60.6818	0.00144756	0.233486	0.279453	62.2484	0.356741	93.6794	0.559096	138.641	0.838566	205.112	0.140315	36.5192	0.419355	97.1702	0.69866	167.976	0.713239	184.136
0.279424	50.4662	0.00190905	0.267695	0.279428	51.5453	0.356868	75.2918	0.559137	112.629	0.838587	167.048	0.140618	29.4555	0.419399	79.9256	0.698606	137.224	0.713356	148.457
0.279394	43.1927	0.00243141	0.301546	0.279398	43.981	0.357023	62.9503	0.559186	94.8401	0.838612	140.902	0.140985	24.7098	0.419452	67.8827	0.698543	115.986	0.713497	124.371
0.27936	37.7501	0.0030134	0.335014	0.279365	38.3511	0.357204	54.0957	0.559243	81.9069	0.838642	121.835	0.141414	21.306	0.419513	58.9969	0.698471	100.436	0.713662	107.019
0.279322	33.5242	0.0036535	0.368054	0.279327	33.9975	0.357413	47.4344	0.559309	72.0807	0.838675	107.315	0.141906	18.7483	0.419583	52.171	0.698391	88.5602	0.713849	93.9247
0.27928	30.148	0.0043502	0.400636	0.279286	30.5304	0.357649	42.2424	0.559383	64.3622	0.838713	95.8879	0.142457	16.7583	0.419661	46.7633	0.698304	79.193	0.714057	83.6925
0.279235	27.3885	0.00510195	0.432737	0.279241	27.7039	0.357911	38.0826	0.559466	58.1392	0.838755	86.6616	0.143068	15.1677	0.419748	42.3738	0.698211	71.6154	0.714287	75.4772
0.279187	25.0909	0.00590701	0.464328	0.279193	25.3554	0.358199	34.6757	0.559557	53.0157	0.838801	79.0561	0.143736	13.8687	0.419844	38.7398	0.698112	65.3593	0.714536	68.7364
0.279135	23.148	0.00676385	0.4954	0.279142	23.3731	0.358514	31.8349	0.559657	48.724	0.838852	72.6789	0.144461	12.7889	0.419948	35.6818	0.698008	60.1066	0.714805	63.1063
0.279082	21.4836	0.00767061	0.525924	0.279089	21.6775	0.358854	29.4303	0.559765	45.0771	0.838907	67.2546	0.145239	11.8781	0.42006	33.0732	0.697901	55.6338	0.715092	58.3334
0.279026	20.0419	0.0086256	0.555891	0.279033	20.2106	0.35922	27.369	0.559882	41.9398	0.838966	62.5847	0.146071	11.1003	0.420182	30.8218	0.69779	51.7793	0.715397	54.2362
0.278968	18.7809	0.00962699	0.585284	0.278975	18.929	0.359611	25.5828	0.560007	39.2124	0.839029	58.522	0.146953	10.429	0.420312	28.859	0.697677	48.4231	0.715718	50.6808
0.278908	17.6686	0.0106731	0.6141	0.278916	17.7997	0.360027	24.0203	0.56014	36.8197	0.839097	54.9555	0.147885	9.84418	0.42045	27.1328	0.697562	45.4745	0.716056	47.5665
0.278848	16.6803	0.0117622	0.642328	0.278855	16.7972	0.360467	22.6422	0.560282	34.7037	0.839169	51.7994	0.148864	9.33067	0.420597	25.6029	0.697446	42.8635	0.716409	44.8163
0.278787	15.7963	0.0128925	0.669968	0.278794	15.9011	0.360931	21.4179	0.560432	32.819	0.839245	48.9868	0.149889	8.87653	0.420753	24.2378	0.69733	40.5353	0.716777	42.3698
0.278725	15.0009	0.0140624	0.697014	0.278733	15.0954	0.361418	20.3232	0.56059	31.1298	0.839325	46.4646	0.150958	8.47236	0.420917	23.0121	0.697213	38.4464	0.71716	40.1796
0.278663	14.2814	0.0152703	0.723472	0.278671	14.3671	0.361929	19.3387	0.560757	29.6073	0.83941	44.19	0.151924	8.15497	0.42109	21.9058	0.697098	36.5616	0.717556	38.2074
0.278602	13.6276	0.0165144	0.749339	0.27861	13.7056	0.362463	18.4488	0.560933	28.228	0.839499	42.1284	0.152771	7.90674	0.421272	20.9021	0.696983	34.8525	0.717965	36.4223
0.278542	13.0308	0.0177932	0.774618	0.278549	13.1021	0.363018	17.6406	0.561116	26.9726	0.839592	40.2511	0.153489	7.71535	0.421462	19.9876	0.69687	33.2956	0.718387	34.7989
0.278482	12.4839	0.0191053	0.799317	0.27849	12.5494	0.363596	16.9034	0.561309	25.8252	0.83969	38.5346	0.154067	7.57214	0.42166	19.1508	0.696759	31.8715	0.718821	33.3163
0.278425	11.9809	0.020449	0.82344	0.278432	12.0412	0.364196	16.2283	0.561509	24.7725	0.839791	36.959	0.154497	7.47112	0.421867	18.3824	0.696651	30.564	0.719268	31.957
0.27837	11.5168	0.0218232	0.846997	0.278376	11.5725	0.364816	15.608	0.561718	23.8033	0.839897	35.5077	0.154775	7.40827	0.422083	17.6742	0.696545	29.3593	0.719725	30.7063
0.278317	11.0872	0.0232263	0.869995	0.278323	11.1389	0.365458	15.0361	0.561936	22.9081	0.840007	34.1666	0.155178	7.3203	0.422308	17.0196	0.696442	28.2457	0.720194	29.5516
0.278267	10.6885	0.024657	0.892441	0.278273	10.7365	0.366119	14.5072	0.562161	22.0787	0.840122	32.9236	0.155621	7.22772	0.422541	16.4128	0.696343	27.2134	0.720674	28.4824
0.27822	10.3175	0.0261142	0.914348	0.278226	10.3622	0.366801	14.0167	0.562396	21.3082	0.840241	31.7683	0.15623	7.10664	0.422782	15.8486	0.696247	26.2537	0.721164	27.4895
0.278177	9.97138	0.0275965	0.935723	0.278182	10.0131	0.367502	13.5607	0.562638	20.5905	0.840364	30.6918	0.157012	6.96099	0.423033	15.3228	0.696155	25.3593	0.721664	26.5651
0.278138	9.64778	0.0291029	0.956582	0.278143	9.68687	0.368222	13.1357	0.562889	19.9205	0.840491	29.6863	0.157975	6.79517	0.423291	14.8316	0.696067	24.5238	0.722174	25.7024
0.278104	9.34459	0.0306321	0.97693	0.278108	9.38125	0.36896	12.7386	0.563149	19.2935	0.840623	28.745	0.159127	6.61377	0.423559	14.3718	0.695984	23.7415	0.722694	24.8954
0.278074	9.05997	0.0321833	0.996781	0.278078	9.09441	0.369717	12.3669	0.563417	18.7056	0.840758	27.862	0.160479	6.42131	0.423835	13.9405	0.695905	23.0076	0.723224	24.1389
0.27805	8.79228	0.0337553	1.01615	0.278053	8.8247	0.370492	12.0183	0.563693	18.1533	0.840899	27.032	0.161862	6.24384	0.424119	13.5351	0.695831	22.3177	0.723763	23.4284
0.278031	8.54009	0.0353473	1.03504	0.278033	8.57065	0.371284	11.6907	0.563977	17.6334	0.841043	26.2504	0.163272	6.07976	0.424413	13.1533	0.695762	21.668	0.724311	22.7597
0.278019	8.30211	0.0369582	1.05347	0.27802	8.33097	0.372093	11.3822	0.56427	17.1431	0.841192	25.5132	0.164711	5.92767	0.424714	12.7933	0.695698	21.0551	0.724868	22.1293
0.278013	8.07721	0.0385872	1.07145	0.278014	8.13291	0.372919	11.0914	0.564572	16.6801	0.841344	24.8165	0.166176	5.78637	0.425025	12.4531	0.695639	20.4759	0.725434	21.5341
0.278013	7.86434	0.0402336	1.08899	0.278012	7.97147	0.373761	10.8167	0.564882	16.2422	0.841502	24.1573	0.167665	5.65479	0.425344	12.1313	0.695586	19.9279	0.726008	20.9711
0.278021	7.66261	0.0418965	1.10611	0.278014	7.84281	0.374619	10.5569	0.5652	15.8273	0.841663	23.5325	0.169179	5.53201	0.425671	11.8264	0.695538	19.4084	0.726591	20.4379
0.278036	7.47117	0.0435751	1.12281	0.278017	7.74404	0.375492	10.3108	0.565526	15.4338	0.841829	22.9396	0.170715	5.4172	0.426008	11.5371	0.695495	18.9155	0.727182	19.9322
0.278059	7.28929	0.0452688	1.1391	0.27802	7.67302	0.376381	10.0774	0.565861	15.06	0.841999	22.3761	0.172274	5.30967	0.426353	11.2623	0.695459	18.447	0.727782	19.4519
0.27809	7.11629	0.0469768	1.155	0.278023	7.62826	0.377285	9.85571	0.566205	14.7045	0.842173	21.84	0.173852	5.20875	0.426706	11.0009	0.695427	18.0013	0.72839	18.9951
0.278129	6.95156	0.0486986	1.17052	0.278028	7.56484	0.378203	9.64495	0.566556	14.3661	0.842352	21.3293	0.175451	5.1139	0.427068	10.7519	0.695402	17.5768	0.729005	18.5602
0.278177	6.79454	0.0504335	1.18567	0.278033	7.49713	0.379135	9.44433	0.566916	14.0434	0.842534	20.8422	0.177068	5.02459	0.427439	10.5146	0.695383	17.1719	0.729629	18.1457
0.278234	6.64472	0.0521808	1.20045	0.278043	7.407	0.380081	9.25315	0.567285	13.7355	0.842722	20.3772	0.178704	4.94038	0.427818	10.2882	0.69537	16.7854	0.73026	17.7501
0.278301	6.50165	0.0539402	1.21489	0.278058	7.29615	0.381041	9.07077	0.567662	13.4414	0.842913	19.9328	0.180356	4.86086	0.428206	10.0718	0.695362	16.416	0.730899	17.3722
0.278377	6.36488	0.055711	1.22898	0.27808	7.16658	0.382014	8.89661	0.568047	13.1602	0.843109	19.5076	0.182025	4.78567	0.428603	9.86498	0.695361	16.0627	0.731546	17.0109
0.278463	6.23405	0.0574928	1.24275	0.278111	7.02049	0.383	8.73014	0.56844	12.8911	0.843309	19.1005	0.183709	4.71447	0.429008	9.66701	0.695366	15.7244	0.732201	16.665
0.278559	6.10878	0.059285	1.25619	0.278156	6.86026	0.383998	8.57088	0.568842	12.6333	0.843513	18.7103	0.185409	4.64697	0.429422	9.47736	0.695378	15.4002	0.732862	16.3337
0.278666	5.98876	0.0610872	1.26932	0.278209	6.70745	0.385009	8.41838	0.569252	12.3861	0.843721	18.3359	0.187122	4.5829	0.429844	9.29554	0.695395	15.0892	0.733532	16.0161
0.278783	5.87367	0.062899	1.28214	0.278271	6.56157	0.386032	8.27222	0.569671	12.1489	0.843934	17.9766	0.188849	4.52202	0.430275	9.12109	0.695419	14.7907	0.734208	15.7112
0.278911	5.76325	0.06472	1.29467	0.278343	6.42217	0.386933	8.14974	0.570098	11.9212	0.844151	17.6313	0.190589	4.46409	0.430715	8.95357	0.695449	14.504	0.734892	15.4185
0.279051	5.65722	0.0665498	1.30692	0.278425	6.28887	0.387708	8.04873	0.570533	11.7023	0.844373	17.2993	0.192342	4.40892	0.431163	8.7926	0.695486	14.2283	0.735583	15.1371
0.279202	5.55535	0.0683879	1.31889	0.278517	6.16128	0.388354	7.96747	0.570977	11.4918	0.844598	16.9798	0.194106	4.35632	0.43162	8.6378	0.695529	13.963	0.736281	14.8664
0.279365	5.45742	0.0702342	1.33058	0.278619	6.03907	0.388867	7.90461	0.571429	11.2892	0.844828	16.6721	0.195881	4.30613	0.432086	8.48884	0.695579	13.7076	0.736986	14.6059
0.279539	5.36321	0.0720881	1.34202	0.278732	5.92193	0.389246	7.85916	0.571889	11.0941	0.845062	16.3757	0.197667	4.25818	0.43256	8.3454	0.695635	13.4615	0.737698	14.3549
0.279726	5.27255	0.0739495	1.3532	0.278856	5.80955	0.38949	7.83041	0.572358	10.906	0.845301	16.0898	0.199464	4.21233	0.43298	8.22468	0.695698	13.2243	0.738417	14.1131
0.279926	5.18525	0.0758179	1.36413	0.27899	5.70169	0.389841	7.78952	0.572835	10.7247	0.845544	15.814	0.20127	4.16846	0.433343	8.12476	0.695767	12.9955	0.739143	13.8798
0.280137	5.10113	0.0776931	1.37482	0.279136	5.59808	0.390224	7.74567	0.57332	10.5498	0.845791	15.5477	0.203086	4.12644	0.433648	8.04415	0.695843	12.7746	0.739876	13.6546
0.280362	5.02006	0.0795749	1.38528	0.279294	5.49851	0.390746	7.687	0.573814	10.3809	0.846042	15.2904	0.20491	4.08615	0.43389	7.98165	0.695926	12.5613	0.740616	13.4372
0.2806	4.94187	0.0814629	1.39552	0.279464	5.40274	0.391411	7.61435	0.574315	10.2178	0.846298	15.0418	0.206743	4.04751	0.43407	7.93638	0.696015	12.3551	0.741362	13.2272
0.280851	4.86644	0.0833568	1.40553	0.279645	5.3106	0.39222	7.52872	0.574826	10.0601	0.846558	14.8013	0.208584	4.0104	0.434186	7.9077	0.696111	12.1558	0.742115	13.0241
0.281116	4.79364	0.0852566	1.41533	0.279839	5.22189	0.393176	7.43126	0.575344	9.9076	0.846822	14.5686	0.210433	3.97475	0.434353	7.86689	0.696213	11.9629	0.742875	12.8277
0.281394	4.72334	0.0871618	1.42492	0.280046	5.13645	0.394283	7.32323	0.575871	9.76008	0.847091	14.3433	0.21229	3.94047	0.434536	7.82305	0.696322	11.7763	0.743641	12.6376
0.281686	4.65544	0.0890724	1.4343	0.280265	5.0541	0.3954	7.21905	0.576406	9.61729	0.847364	14.1251	0.214154	3.90749	0.434786	7.76429	0.696438	11.5955	0.744414	12.4536
0.281992	4.58983	0.090988	1.44349	0.280497	4.97471	0.396527	7.11852	0.57695	9.479	0.847641	13.9136	0.216024	3.87573	0.435105	7.69139	0.696561	11.4204	0.745193	12.2753
0.282313	4.5264	0.0929085	1.45249	0.280743	4.89812	0.397663	7.02147	0.577502	9.34502	0.847922	13.7086	0.217901	3.84513	0.435496	7.60524	0.69669	11.2507	0.745979	12.1025
0.282648	4.46507	0.0948338	1.46131	0.281002	4.82422	0.398808	6.92772	0.578062	9.21515	0.848208	13.5097	0.219784	3.81563	0.43596	7.50691	0.696826	11.0861	0.746771	11.9349
0.282998	4.40575	0.0967635	1.46994	0.281274	4.75287	0.399962	6.83711	0.57863	9.08921	0.848498	13.3167	0.221673	3.78716	0.436501	7.39755	0.696969	10.9264	0.74757	11.7724
0.283362	4.34836	0.0986975	1.47839	0.28156	4.68397	0.401124	6.74949	0.579207	8.96704	0.848793	13.1293	0.223568	3.75969	0.43705	7.29172	0.697119	10.7714	0.748375	11.6147
0.283742	4.29281	0.100636	1.48668	0.281861	4.61739	0.402296	6.66472	0.579792	8.84846	0.849092	12.9474	0.225468	3.73315	0.437609	7.18928	0.697275	10.6209	0.749186	11.4615
0.284137	4.23903	0.102578	1.4948	0.282175	4.55305	0.403476	6.58266	0.580385	8.73333	0.849395	12.7706	0.227373	3.7075	0.438175	7.09007	0.697438	10.4747	0.750004	11.3128
0.284547	4.18696	0.104524	1.50275	0.282504	4.49085	0.404664	6.5032	0.580986	8.62151	0.849702	12.5987	0.229283	3.6827	0.438751	6.99394	0.697608	10.3327	0.750827	11.1683
0.284974	4.13652	0.106474	1.51055	0.282847	4.43068	0.40586	6.4262	0.581596	8.51286	0.850014	12.4316	0.231198	3.65871	0.439335	6.90077	0.697785	10.1946	0.751657	11.0278
0.285416	4.08765	0.108427	1.51819	0.283206	4.37248	0.407064	6.35156	0.582134	8.42067	0.85033	12.269	0.233117	3.63548	0.439928	6.81041	0.697968	10.0604	0.752493	10.8912
0.285874	4.0403	0.110384	1.52569	0.283579	4.31616	0.408276	6.27919	0.582598	8.34384	0.85065	12.1108	0.235041	3.61298	0.440529	6.72276	0.698159	9.92977	0.753336	10.7583
0.286286	4.00023	0.112344	1.53304	0.283967	4.26164	0.409495	6.20897	0.582984	8.2815	0.850974	11.9569	0.236969	3.59118	0.441139	6.6377	0.698356	9.80268	0.754184	10.629
0.286648	3.96692	0.114307	1.54024	0.284371	4.20885	0.410721	6.14081	0.583292	8.23295	0.851303	11.8069	0.2389	3.57005	0.441758	6.55511	0.69856	9.67896	0.755038	10.5031
0.286954	3.93995	0.11602	1.54641	0.284791	4.15773	0.411955	6.07464	0.58352	8.19766	0.851637	11.6609	0.240836	3.54955	0.442386	6.47491	0.69877	9.55848	0.755898	10.3805
0.2872	3.91898	0.117482	1.55159	0.285226	4.1082	0.413196	6.01036	0.583666	8.17526	0.851974	11.5185	0.242775	3.52966	0.443022	6.39699	0.698988	9.44113	0.756765	10.2611
0.287384	3.90377	0.118693	1.55581	0.285677	4.06022	0.414443	5.9479	0.583878	8.1433	0.852316	11.3798	0.244717	3.51035	0.443667	6.32126	0.699212	9.32679	0.757637	10.1448
0.287503	3.89412	0.11965	1.55912	0.286145	4.01371	0.415697	5.88718	0.584108	8.10888	0.852662	11.2446	0.246662	3.49159	0.444321	6.24764	0.699443	9.21534	0.758515	10.0314
0.287675	3.88036	0.120355	1.56153	0.286629	3.96864	0.416958	5.82813	0.584423	8.0626	0.853013	11.1126	0.248611	3.47336	0.444983	6.17604	0.699681	9.10669	0.759399	9.92086
0.287865	3.86556	0.120806	1.56306	0.28713	3.92494	0.418226	5.7707	0.584824	8.00493	0.853367	10.9839	0.250562	3.45564	0.445654	6.10639	0.699925	9.00073	0.760289	9.81304
0.288126	3.8457	0.121455	1.56526	0.287647	3.88257	0.419499	5.7148	0.585314	7.93645	0.853727	10.8584	0.252516	3.43841	0.446334	6.03862	0.700176	8.89736	0.761184	9.70786
0.288462	3.82099	0.12216	1.56763	0.288182	3.84147	0.420779	5.66039	0.585894	7.8578	0.85409	10.7358	0.254473	3.42164	0.447023	5.97265	0.700434	8.79649	0.762086	9.60522
0.288877	3.79173	0.12312	1.57082	0.288734	3.80162	0.422064	5.6074	0.586567	7.76974	0.854458	10.6161	0.256432	3.40532	0.44772	5.90841	0.700699	8.69804	0.762993	9.50504
0.289376	3.75824	0.124335	1.57482	0.289304	3.76296	0.423356	5.55579	0.587248	7.68394	0.85483	10.4991	0.258393	3.38943	0.448426	5.84585	0.700936	8.61416	0.763905	9.40722
0.289966	3.72087	0.125806	1.5796	0.289892	3.72546	0.424653	5.5055	0.587938	7.60031	0.855207	10.3849	0.260357	3.37395	0.449141	5.78491	0.701141	8.54401	0.764824	9.3117
0.290574	3.68463	0.127533	1.58512	0.290498	3.68907	0.425956	5.45648	0.588635	7.51877	0.855587	10.2733	0.262322	3.35887	0.449864	5.72552	0.701314	8.48693	0.765748	9.21838
0.291201	3.64946	0.129516	1.59135	0.291122	3.65377	0.427264	5.40869	0.589341	7.43925	0.855973	10.1642	0.26429	3.34417	0.450596	5.66763	0.701452	8.44237	0.766678	9.1272
0.291846	3.61533	0.131502	1.59746	0.291765	3.61952	0.428578	5.36208	0.590055	7.36169	0.856362	10.0576	0.266259	3.32983	0.451337	5.61119	0.701555	8.40992	0.767613	9.03808
0.292511	3.58222	0.13349	1.60347	0.292427	3.58628	0.429897	5.3166	0.590778	7.28601	0.856756	9.95331	0.26823	3.31584	0.452087	5.55615	0.701621	8.3893	0.768553	8.95097
0.293194	3.55008	0.13548	1.60936	0.293108	3.55403	0.431221	5.27223	0.591508	7.21214	0.857154	9.8513	0.270203	3.3022	0.452845	5.50247	0.701717	8.35985	0.7695	8.86579
0.293898	3.5189	0.137472	1.61515	0.293809	3.52273	0.43255	5.22892	0.592247	7.14004	0.857556	9.75151	0.272177	3.28887	0.453612	5.45009	0.701822	8.32808	0.770451	8.78248
0.294621	3.48865	0.139466	1.62083	0.29453	3.49236	0.433884	5.18662	0.592994	7.06963	0.857963	9.65386	0.274152	3.27586	0.454388	5.39897	0.701966	8.2853	0.771285	8.71136
0.295365	3.45929	0.141462	1.62642	0.295272	3.4629	0.435222	5.14532	0.593748	7.00087	0.858374	9.55828	0.276129	3.26315	0.455173	5.34908	0.702151	8.23187	0.771999	8.65179
0.29613	3.43081	0.14346	1.63191	0.296034	3.43431	0.436566	5.10497	0.594511	6.9337	0.85879	9.46471	0.278107	3.25074	0.455966	5.30037	0.702377	8.16825	0.772592	8.60325
0.296916	3.40318	0.145459	1.6373	0.296817	3.40657	0.437914	5.06555	0.595283	6.86806	0.85921	9.37309	0.280085	3.2386	0.456769	5.25281	0.702648	8.09496	0.773062	8.56532
0.297723	3.37638	0.14746	1.64259	0.297621	3.37967	0.439266	5.02701	0.596062	6.80391	0.859634	9.28337	0.282065	3.22673	0.45758	5.20635	0.702965	8.01261	0.773408	8.53768
0.298552	3.35038	0.149463	1.6478	0.298448	3.35357	0.440623	4.98934	0.596849	6.74121	0.860062	9.19547	0.284046	3.21512	0.458399	5.16097	0.703288	7.93206	0.773631	8.5201
0.299404	3.32518	0.151467	1.65291	0.299297	3.32827	0.441984	4.9525	0.597645	6.6799	0.860495	9.10936	0.286028	3.20376	0.459228	5.11663	0.703618	7.85326	0.77395	8.49499
0.300279	3.30073	0.153472	1.65794	0.300169	3.30373	0.443349	4.91647	0.598448	6.61994	0.860932	9.02497	0.28801	3.19265	0.460065	5.07329	0.703955	7.77616	0.774298	8.46788
0.301176	3.27704	0.155479	1.66288	0.301064	3.27995	0.444718	4.88122	0.59926	6.5613	0.861374	8.94227	0.289993	3.18177	0.460912	5.03093	0.704299	7.7007	0.774773	8.43134
0.302098	3.25408	0.157487	1.66774	0.301982	3.2569	0.446091	4.84673	0.60008	6.50393	0.861762	8.87152	0.291976	3.17111	0.461767	4.98953	0.704649	7.62683	0.775375	8.38567
0.303044	3.23184	0.159496	1.67252	0.302925	3.23456	0.447468	4.81297	0.600908	6.44779	0.862096	8.81217	0.29396	3.16068	0.46263	4.94904	0.705006	7.55451	0.776106	8.33121
0.304015	3.21029	0.161507	1.67722	0.303893	3.21293	0.448849	4.77992	0.601743	6.39285	0.862374	8.76374	0.295944	3.15045	0.463503	4.90944	0.70537	7.4837	0.776967	8.26839
0.305011	3.18943	0.163519	1.68184	0.304886	3.19199	0.450234	4.74756	0.602587	6.33907	0.862594	8.72585	0.297929	3.14043	0.464384	4.87071	0.70574	7.41433	0.777959	8.19767
0.306033	3.16924	0.165532	1.68638	0.305904	3.17171	0.451622	4.71587	0.603439	6.28641	0.862757	8.69822	0.299913	3.1306	0.465275	4.83282	0.706117	7.34639	0.778957	8.12839
0.307081	3.14971	0.167546	1.69085	0.306949	3.1521	0.453014	4.68483	0.604299	6.23486	0.862862	8.68064	0.301898	3.12097	0.466174	4.79575	0.7065	7.27981	0.779961	8.06049
0.308156	3.13082	0.169561	1.69524	0.308021	3.13313	0.454409	4.65441	0.605167	6.18436	0.863013	8.6555	0.303883	3.11152	0.467082	4.75947	0.70689	7.21457	0.780969	7.99394
0.309259	3.11256	0.171576	1.69957	0.30912	3.11479	0.455808	4.6246	0.606043	6.1349	0.863177	8.62835	0.305868	3.10225	0.467999	4.72396	0.707287	7.15062	0.781982	7.9287
0.31039	3.09491	0.173593	1.70382	0.310248	3.09707	0.457209	4.59538	0.606927	6.08644	0.863401	8.59173	0.307853	3.09315	0.468924	4.68921	0.70769	7.08794	0.783001	7.86473
0.311549	3.07788	0.175611	1.708	0.311403	3.07997	0.458614	4.56674	0.607819	6.03896	0.863687	8.5459	0.309837	3.08422	0.469859	4.65518	0.7081	7.02647	0.784024	7.80199
0.312737	3.06144	0.17763	1.71212	0.312588	3.06345	0.460023	4.53866	0.608718	5.99243	0.864034	8.49118	0.311822	3.07545	0.470802	4.62186	0.708517	6.9662	0.785053	7.74046
0.313955	3.04559	0.179649	1.71618	0.313802	3.04753	0.461434	4.51111	0.609626	5.94683	0.864444	8.42797	0.313806	3.06684	0.471754	4.58923	0.70894	6.90709	0.786086	7.6801
0.315203	3.0303	0.181669	1.72016	0.315046	3.03217	0.462848	4.48409	0.610542	5.90212	0.864919	8.35669	0.31579	3.05838	0.472715	4.55728	0.70937	6.8491	0.787124	7.62088
0.316481	3.01558	0.18369	1.72409	0.316321	3.01738	0.464265	4.45759	0.611465	5.85828	0.865399	8.28673	0.317773	3.05006	0.473685	4.52598	0.709806	6.79222	0.788168	7.56276
0.317791	3.00141	0.185712	1.72795	0.317626	3.00314	0.465685	4.43158	0.612397	5.81529	0.865883	8.21804	0.319756	3.04189	0.474664	4.49531	0.710248	6.73639	0.789216	7.50571
0.319131	2.98778	0.187734	1.73176	0.318963	2.98945	0.467108	4.40605	0.613336	5.77314	0.866371	8.1506	0.321738	3.03386	0.475652	4.46527	0.710698	6.68161	0.790269	7.44972
0.320503	2.97468	0.189757	1.7355	0.320331	2.97628	0.468533	4.381	0.614283	5.73179	0.866863	8.08438	0.32372	3.02596	0.476648	4.43582	0.711153	6.62784	0.791327	7.39474
0.321907	2.9621	0.19178	1.73919	0.321731	2.96363	0.469962	4.3564	0.615238	5.69122	0.86736	8.01933	0.325701	3.01819	0.477654	4.40697	0.711615	6.57505	0.79239	7.34076
0.323343	2.95002	0.193804	1.74282	0.323163	2.95149	0.471392	4.33225	0.616201	5.65142	0.867861	7.95543	0.327681	3.01055	0.478668	4.37869	0.712084	6.52323	0.793457	7.28775
0.324811	2.93843	0.195829	1.74639	0.324627	2.93985	0.472826	4.30853	0.617172	5.61237	0.868367	7.89266	0.329661	3.00303	0.479691	4.35097	0.712559	6.47234	0.794529	7.23568
0.326311	2.92733	0.197854	1.74991	0.326123	2.92868	0.474261	4.28523	0.61815	5.57404	0.868877	7.83098	0.33164	2.99563	0.480723	4.32379	0.713041	6.42236	0.795606	7.18453
0.327843	2.9167	0.199879	1.75338	0.327651	2.91799	0.475699	4.26234	0.619137	5.53642	0.869391	7.77037	0.333617	2.98835	0.481765	4.29714	0.713529	6.37328	0.796688	7.13427
0.329407	2.90652	0.201905	1.75679	0.329211	2.90776	0.47714	4.23985	0.620131	5.49949	0.869909	7.71079	0.335594	2.98118	0.482815	4.27101	0.714023	6.32506	0.797774	7.08489
0.331003	2.89679	0.203932	1.76015	0.330803	2.89797	0.478583	4.21775	0.621132	5.46323	0.870432	7.65223	0.33757	2.97411	0.483873	4.24539	0.714524	6.27768	0.798865	7.03635
0.332631	2.88749	0.205958	1.76346	0.332427	2.88862	0.480028	4.19603	0.622142	5.42763	0.87096	7.59466	0.339545	2.96716	0.484941	4.22026	0.715032	6.23113	0.79996	6.98865
0.334289	2.8786	0.207985	1.76673	0.334081	2.87968	0.481475	4.17469	0.623159	5.39268	0.871492	7.53806	0.341518	2.9603	0.486018	4.19561	0.715545	6.18539	0.80106	6.94176
0.335978	2.87012	0.210013	1.76994	0.335767	2.87115	0.482924	4.1537	0.624184	5.35834	0.872028	7.4824	0.343491	2.95355	0.487103	4.17143	0.716065	6.14043	0.802165	6.89565
0.337698	2.86203	0.212041	1.77311	0.337482	2.86301	0.484375	4.13306	0.625217	5.32462	0.872568	7.42765	0.345462	2.94689	0.488198	4.14771	0.716592	6.09624	0.803274	6.85032
0.339446	2.85431	0.214068	1.77623	0.339227	2.85525	0.485829	4.11276	0.626257	5.29149	0.873113	7.37381	0.347432	2.94032	0.489301	4.12444	0.717125	6.0528	0.804387	6.80574
0.341224	2.84695	0.216097	1.7793	0.341001	2.84785	0.487284	4.0928	0.627305	5.25895	0.873662	7.32084	0.349401	2.93385	0.490414	4.1016	0.717664	6.01008	0.805505	6.7619
0.34303	2.83994	0.218125	1.78233	0.342804	2.8408	0.488742	4.07317	0.62836	5.22697	0.874216	7.26873	0.351368	2.92747	0.491535	4.0792	0.718209	5.96809	0.806627	6.71877
0.344863	2.83327	0.220154	1.78531	0.344634	2.83408	0.490201	4.05385	0.629423	5.19554	0.874774	7.21746	0.353334	2.92117	0.492665	4.05721	0.718761	5.92678	0.807754	6.67634
0.346723	2.82691	0.222183	1.78825	0.34649	2.82768	0.491662	4.03485	0.630494	5.16466	0.875336	7.16701	0.355298	2.91496	0.493804	4.03562	0.719319	5.88616	0.808885	6.6346
0.348608	2.82085	0.224212	1.79115	0.348372	2.82159	0.493125	4.01615	0.631572	5.13431	0.875903	7.11735	0.357261	2.90883	0.494952	4.01444	0.719883	5.84621	0.81002	6.59353
0.350518	2.81508	0.226241	1.79401	0.350279	2.81578	0.494589	3.99774	0.632658	5.10447	0.876474	7.06848	0.359223	2.90278	0.496109	3.99364	0.720454	5.80691	0.81116	6.5531
0.352452	2.80959	0.22827	1.79683	0.35221	2.81026	0.496056	3.97962	0.633751	5.07514	0.877049	7.02037	0.361183	2.89681	0.497275	3.97323	0.721031	5.76824	0.812304	6.51332
0.354409	2.80436	0.230299	1.7996	0.354164	2.805	0.497524	3.96179	0.634852	5.0463	0.877629	6.97301	0.363141	2.89091	0.49845	3.95319	0.721614	5.73019	0.813452	6.47416
0.356388	2.79939	0.232329	1.80234	0.356141	2.79999	0.498993	3.94423	0.63596	5.01795	0.878213	6.92637	0.365097	2.88508	0.499634	3.93351	0.722203	5.69276	0.814604	6.43561
0.358388	2.79465	0.234358	1.80504	0.358139	2.79522	0.500465	3.92694	0.637075	4.99007	0.878801	6.88046	0.367052	2.87933	0.500826	3.91419	0.722799	5.65591	0.815761	6.39765
0.360409	2.79013	0.236388	1.8077	0.360157	2.79068	0.501937	3.90991	0.638198	4.96265	0.879394	6.83524	0.369005	2.87365	0.502028	3.89521	0.7234	5.61965	0.816921	6.36028
0.362449	2.78583	0.238417	1.81032	0.362194	2.78635	0.503412	3.89314	0.639328	4.93568	0.879992	6.79071	0.370956	2.86804	0.503238	3.87658	0.724008	5.58396	0.818086	6.32348
0.364507	2.78173	0.240447	1.8129	0.36425	2.78223	0.504888	3.87662	0.640466	4.90915	0.880593	6.74684	0.372906	2.86249	0.504458	3.85828	0.724622	5.54882	0.819255	6.28724
0.366583	2.77782	0.242476	1.81545	0.366324	2.7783	0.506365	3.86035	0.641611	4.88305	0.881199	6.70363	0.374853	2.85701	0.505686	3.84031	0.725242	5.51423	0.820428	6.25154
0.368676	2.77409	0.244506	1.81797	0.368415	2.77455	0.507844	3.84432	0.642763	4.85738	0.88181	6.66106	0.376799	2.85159	0.506923	3.82266	0.725869	5.48017	0.821605	6.21637
0.370785	2.77054	0.246535	1.82045	0.370522	2.77097	0.509324	3.82852	0.643922	4.83212	0.882424	6.61912	0.378743	2.84623	0.508169	3.80532	0.726501	5.44663	0.822785	6.18173
0.372908	2.76714	0.248565	1.82289	0.372644	2.76756	0.510806	3.81295	0.645089	4.80726	0.883044	6.5778	0.380684	2.84093	0.509424	3.78828	0.72714	5.41361	0.82397	6.1476
0.375047	2.7639	0.250594	1.8253	0.37478	2.7643	0.512288	3.79761	0.646263	4.7828	0.883667	6.53707	0.382624	2.83569	0.510687	3.77155	0.727785	5.38108	0.825159	6.11397
0.377199	2.76081	0.252623	1.82768	0.376931	2.76118	0.513773	3.78249	0.647444	4.75873	0.884295	6.49694	0.384562	2.8305	0.51196	3.75511	0.728435	5.34904	0.826351	6.08083
0.379364	2.75785	0.254653	1.83002	0.379094	2.75821	0.515258	3.76758	0.648632	4.73504	0.884927	6.45738	0.386498	2.82538	0.513241	3.73896	0.729092	5.31749	0.827548	6.04816
0.381541	2.75501	0.256681	1.83234	0.38127	2.75536	0.516745	3.75289	0.649827	4.71172	0.885564	6.41839	0.388431	2.8203	0.514532	3.72309	0.729755	5.2864	0.828748	6.01597
0.38373	2.75231	0.25871	1.83462	0.383458	2.75264	0.518233	3.7384	0.65103	4.68876	0.886205	6.37995	0.390363	2.81528	0.515831	3.70749	0.730424	5.25577	0.829952	5.98424
0.385931	2.74971	0.260739	1.83687	0.385656	2.75003	0.519722	3.72411	0.652239	4.66616	0.88685	6.34206	0.392292	2.81031	0.517138	3.69217	0.731099	5.2256	0.83116	5.95296
0.388141	2.74722	0.262768	1.83909	0.387866	2.74753	0.521213	3.71002	0.653455	4.64391	0.8875	6.3047	0.394219	2.80539	0.518455	3.67711	0.73178	5.19586	0.832372	5.92212
0.390362	2.74484	0.264796	1.84128	0.390085	2.74513	0.522705	3.69613	0.654679	4.622	0.888154	6.26786	0.396144	2.80052	0.51978	3.66231	0.732467	5.16656	0.833587	5.89171
0.392592	2.74256	0.266824	1.84344	0.392314	2.74283	0.524198	3.68243	0.655909	4.60043	0.888813	6.23154	0.398067	2.7957	0.521115	3.64776	0.73316	5.13769	0.834807	5.86173
0.394831	2.74036	0.268852	1.84557	0.394552	2.74063	0.525692	3.66891	0.657146	4.57918	0.889476	6.19572	0.399987	2.79093	0.522457	3.63346	0.733859	5.10923	0.836029	5.83216
0.397078	2.73825	0.27088	1.84767	0.396798	2.73851	0.527187	3.65557	0.65839	4.55826	0.890143	6.16038	0.401905	2.7862	0.523809	3.61941	0.734563	5.08117	0.837256	5.803
0.399334	2.73623	0.272907	1.84974	0.399053	2.73647	0.528683	3.64242	0.659641	4.53765	0.890815	6.12554	0.403821	2.78151	0.525169	3.6056	0.735274	5.05352	0.838486	5.77423
0.401597	2.73428	0.274935	1.85179	0.401315	2.73452	0.530181	3.62944	0.660899	4.51735	0.891491	6.09116	0.405735	2.77687	0.526538	3.59202	0.735991	5.02626	0.839719	5.74586
0.403867	2.7324	0.276962	1.85381	0.403585	2.73263	0.531679	3.61663	0.662164	4.49735	0.892172	6.05725	0.407646	2.77228	0.527916	3.57867	0.736714	4.99939	0.840956	5.71788
0.406144	2.7306	0.278988	1.8558	0.405861	2.73082	0.533179	3.60399	0.663435	4.47765	0.892856	6.0238	0.409555	2.76772	0.529302	3.56555	0.737442	4.97289	0.842197	5.69026
0.408428	2.72885	0.281015	1.85777	0.408144	2.72907	0.53468	3.59152	0.664713	4.45824	0.893546	5.99079	0.411462	2.76321	0.530697	3.55265	0.738176	4.94676	0.843441	5.66302
0.410718	2.72718	0.283041	1.85971	0.410433	2.72738	0.536182	3.57921	0.665998	4.43912	0.894239	5.95822	0.413366	2.75874	0.5321	3.53997	0.738917	4.921	0.844689	5.63614
0.413013	2.72556	0.285067	1.86162	0.412727	2.72575	0.537685	3.56705	0.667289	4.42027	0.894937	5.92609	0.415268	2.7543	0.533512	3.5275	0.739663	4.89559	0.84594	5.60962
0.415314	2.72399	0.287092	1.86351	0.415028	2.72418	0.539189	3.55506	0.668587	4.4017	0.89564	5.89437	0.417167	2.74991	0.534933	3.51523	0.740415	4.87053	0.847194	5.58344
0.41762	2.72248	0.289117	1.86538	0.417333	2.72267	0.540694	3.54322	0.669891	4.3834	0.896347	5.86307	0.419064	2.74555	0.536362	3.50318	0.741173	4.84582	0.848452	5.5576
0.419931	2.72102	0.291142	1.86722	0.419643	2.7212	0.5422	3.53152	0.671202	4.36537	0.897058	5.83218	0.420959	2.74123	0.5378	3.49132	0.741936	4.82144	0.849713	5.5321
0.422247	2.71961	0.293167	1.86903	0.421959	2.71978	0.543707	3.51998	0.672519	4.34759	0.897773	5.80169	0.422851	2.73695	0.539246	3.47966	0.742706	4.79739	0.850978	5.50693
0.424567	2.71824	0.295191	1.87082	0.424278	2.71841	0.545216	3.50858	0.673843	4.33007	0.898493	5.77159	0.424741	2.7327	0.5407	3.46819	0.743481	4.77367	0.852246	5.48208
0.426891	2.71691	0.297215	1.87259	0.426602	2.71708	0.546725	3.49733	0.675173	4.3128	0.899218	5.74188	0.426629	2.72849	0.542163	3.45692	0.744262	4.75027	0.853517	5.45755
0.42922	2.71563	0.299238	1.87434	0.42893	2.71579	0.548235	3.48621	0.67651	4.29577	0.899946	5.71255	0.428514	2.72431	0.543634	3.44583	0.745048	4.72718	0.854791	5.43333
0.431552	2.71438	0.301261	1.87606	0.431261	2.71453	0.549747	3.47523	0.677853	4.27898	0.900679	5.68359	0.430396	2.72017	0.545113	3.43492	0.745841	4.7044	0.856068	5.40941
0.433887	2.71317	0.303284	1.87776	0.433596	2.71332	0.551259	3.46439	0.679202	4.26243	0.901417	5.655	0.432277	2.71606	0.546601	3.42419	0.746639	4.68192	0.857349	5.3858
0.436226	2.712	0.305306	1.87944	0.435935	2.71214	0.552773	3.45368	0.680557	4.2461	0.902159	5.62676	0.434154	2.71198	0.548097	3.41364	0.747443	4.65974	0.858633	5.36248
0.438568	2.71086	0.307328	1.8811	0.438277	2.711	0.554287	3.4431	0.681918	4.23001	0.902905	5.59888	0.43603	2.70794	0.549601	3.40326	0.748253	4.63785	0.85992	5.33945
0.440913	2.70975	0.309349	1.88274	0.440621	2.70988	0.555803	3.43265	0.683286	4.21414	0.903656	5.57135	0.437903	2.70392	0.551113	3.39304	0.749068	4.61624	0.86121	5.3167
0.443261	2.70866	0.31137	1.88435	0.442969	2.7088	0.55732	3.42232	0.68466	4.19848	0.904411	5.54416	0.439773	2.69994	0.552633	3.383	0.749889	4.59492	0.862503	5.29423
0.445611	2.70761	0.313391	1.88594	0.445319	2.70774	0.558837	3.41212	0.686039	4.18305	0.90517	5.5173	0.441641	2.69599	0.554162	3.37312	0.750715	4.57387	0.863799	5.27204
0.447964	2.70659	0.315411	1.88752	0.447672	2.70671	0.560356	3.40204	0.687425	4.16782	0.905934	5.49077	0.443507	2.69207	0.555698	3.36339	0.751548	4.5531	0.865098	5.25011
0.45032	2.70559	0.31743	1.88907	0.450027	2.70571	0.561876	3.39208	0.688817	4.1528	0.906702	5.46457	0.445371	2.68818	0.557242	3.35383	0.752386	4.53259	0.866401	5.22845
0.452678	2.70461	0.31945	1.8906	0.452384	2.70473	0.563397	3.38224	0.690214	4.13798	0.907475	5.43869	0.447232	2.68431	0.558795	3.34442	0.753229	4.51234	0.867706	5.20705
0.455037	2.70366	0.321468	1.89212	0.454744	2.70378	0.56492	3.37252	0.691618	4.12336	0.908252	5.41312	0.44909	2.68048	0.560355	3.33516	0.754078	4.49236	0.869014	5.1859
0.457399	2.70273	0.323486	1.89361	0.457105	2.70285	0.566443	3.3629	0.693027	4.10894	0.909033	5.38786	0.450947	2.67667	0.561923	3.32605	0.754933	4.47262	0.870325	5.16501
0.459763	2.70183	0.325504	1.89509	0.459469	2.70194	0.567967	3.35341	0.694442	4.09471	0.909819	5.3629	0.452801	2.6729	0.563498	3.31708	0.755793	4.45314	0.871638	5.14436
0.462128	2.70094	0.327521	1.89655	0.461834	2.70105	0.569493	3.34402	0.695863	4.08067	0.910609	5.33824	0.454652	2.66915	0.565082	3.30826	0.756659	4.4339	0.872955	5.12396
0.464495	2.70007	0.329538	1.89798	0.464201	2.70018	0.57102	3.33474	0.697289	4.06682	0.911404	5.31388	0.456502	2.66543	0.566673	3.29957	0.757531	4.41491	0.874274	5.10379
0.466863	2.69922	0.331554	1.8994	0.466569	2.69932	0.572548	3.32557	0.698721	4.05314	0.912203	5.2898	0.458349	2.66173	0.568272	3.29103	0.758408	4.39615	0.875597	5.08386
0.469233	2.69839	0.33357	1.90081	0.468939	2.69849	0.574077	3.3165	0.700159	4.03965	0.913006	5.26601	0.460194	2.65806	0.569878	3.28262	0.759291	4.37762	0.876922	5.06416
0.471605	2.69757	0.335585	1.90219	0.47131	2.69767	0.575608	3.30754	0.701602	4.02633	0.913814	5.24249	0.462036	2.65442	0.571491	3.27434	0.760179	4.35932	0.878249	5.04468
0.473977	2.69677	0.3376	1.90356	0.473682	2.69687	0.577139	3.29868	0.703051	4.01319	0.914626	5.21926	0.463877	2.65081	0.573113	3.26619	0.761072	4.34125	0.87958	5.02543
0.476351	2.69598	0.339614	1.90491	0.476056	2.69608	0.578672	3.28993	0.704505	4.00022	0.915443	5.19629	0.465715	2.64722	0.574741	3.25817	0.761972	4.32341	0.880913	5.0064
0.478725	2.69521	0.341628	1.90624	0.47843	2.6953	0.580206	3.28127	0.705965	3.98741	0.916264	5.17359	0.467551	2.64365	0.576377	3.25028	0.762876	4.30578	0.882249	4.98758
0.481101	2.69445	0.343641	1.90755	0.480806	2.69454	0.581742	3.27271	0.70743	3.97477	0.917089	5.15115	0.469385	2.64012	0.57802	3.24251	0.763786	4.28836	0.883587	4.96897
0.483478	2.6937	0.345653	1.90885	0.483182	2.6938	0.583279	3.26424	0.7089	3.96228	0.917919	5.12897	0.471217	2.6366	0.57967	3.23486	0.764702	4.27116	0.884928	4.95058
0.485855	2.69297	0.347665	1.91014	0.485559	2.69306	0.584817	3.25588	0.710375	3.94996	0.918753	5.10704	0.473047	2.63311	0.581327	3.22733	0.765623	4.25417	0.886272	4.93238
0.488233	2.69225	0.349676	1.9114	0.487937	2.69234	0.586357	3.2476	0.711856	3.93779	0.919591	5.08537	0.474875	2.62965	0.582991	3.21991	0.766549	4.23738	0.887618	4.91439
0.490611	2.69153	0.351687	1.91265	0.490316	2.69162	0.587898	3.23942	0.713342	3.92578	0.920434	5.06394	0.476701	2.62621	0.584663	3.21261	0.767481	4.22079	0.888966	4.8966
0.49299	2.69083	0.353697	1.91389	0.492695	2.69092	0.58944	3.23133	0.714833	3.91392	0.921281	5.04275	0.478525	2.6228	0.586341	3.20542	0.768419	4.2044	0.890317	4.879
0.49537	2.69014	0.355707	1.91511	0.495074	2.69023	0.590984	3.22333	0.716328	3.9022	0.922133	5.0218	0.480347	2.61941	0.588026	3.19834	0.769361	4.18821	0.891671	4.8616
0.49775	2.68946	0.357716	1.91631	0.497454	2.68954	0.592529	3.21542	0.717829	3.89063	0.922989	5.00109	0.482167	2.61604	0.589718	3.19137	0.77031	4.17221	0.893027	4.84438
0.500131	2.68878	0.359724	1.9175	0.499835	2.68887	0.594076	3.2076	0.719335	3.8792	0.92385	4.98061	0.483985	2.6127	0.591416	3.18451	0.771263	4.1564	0.894385	4.82735
0.502511	2.68812	0.361732	1.91867	0.502215	2.6882	0.595625	3.19986	0.720846	3.86792	0.924714	4.96035	0.485801	2.60938	0.593121	3.17775	0.772222	4.14078	0.895746	4.81051
0.504892	2.68746	0.363739	1.91983	0.504596	2.68754	0.597175	3.19221	0.722362	3.85677	0.925584	4.94033	0.487615	2.60608	0.594833	3.17109	0.773187	4.12534	0.897109	4.79384
0.507273	2.68681	0.365746	1.92098	0.506977	2.68689	0.598727	3.18464	0.723882	3.84576	0.926457	4.92052	0.489428	2.60281	0.596551	3.16453	0.774156	4.11008	0.898475	4.77735
0.509654	2.68616	0.367752	1.92211	0.509358	2.68624	0.60028	3.17716	0.725408	3.83488	0.927335	4.90093	0.491239	2.59956	0.598275	3.15807	0.775131	4.095	0.899843	4.76104
0.512035	2.68553	0.369757	1.92322	0.511739	2.68561	0.601835	3.16976	0.726938	3.82413	0.928218	4.88156	0.493048	2.59633	0.600006	3.1517	0.776112	4.0801	0.901213	4.7449
0.514416	2.68489	0.371762	1.92432	0.51412	2.68497	0.603392	3.16244	0.728472	3.81351	0.929105	4.8624	0.494856	2.59313	0.601743	3.14543	0.777098	4.06537	0.902585	4.72893
0.516797	2.68427	0.373766	1.92541	0.516501	2.68434	0.60495	3.1552	0.730011	3.80302	0.929996	4.84345	0.496662	2.58995	0.603487	3.13926	0.778089	4.05081	0.90396	4.71312
0.519177	2.68364	0.37577	1.92649	0.518881	2.68372	0.60651	3.14804	0.731555	3.79266	0.930892	4.8247	0.498467	2.58679	0.605236	3.13317	0.779085	4.03642	0.905336	4.69748
0.521557	2.68303	0.377772	1.92755	0.521261	2.6831	0.608073	3.14096	0.733103	3.78241	0.931792	4.80616	0.50027	2.58366	0.606991	3.12718	0.780087	4.02219	0.906715	4.682
0.523937	2.68241	0.379775	1.9286	0.523641	2.68249	0.609637	3.13396	0.734656	3.77229	0.932696	4.78781	0.502071	2.58054	0.608752	3.12127	0.781094	4.00813	0.908096	4.66668
0.526317	2.6818	0.381776	1.92963	0.526021	2.68188	0.611203	3.12703	0.736213	3.76229	0.933605	4.76967	0.503871	2.57745	0.61052	3.11545	0.782106	3.99423	0.90948	4.65152
0.528696	2.6812	0.383777	1.93065	0.5284	2.68127	0.612771	3.12018	0.737775	3.7524	0.934518	4.75172	0.50567	2.57438	0.612292	3.10971	0.783124	3.98049	0.910865	4.63651
0.531075	2.68059	0.385777	1.93166	0.530779	2.68067	0.61434	3.1134	0.739341	3.74263	0.935436	4.73396	0.507467	2.57134	0.614071	3.10405	0.784147	3.9669	0.912252	4.62166
0.533453	2.67999	0.387777	1.93266	0.533157	2.68007	0.615913	3.1067	0.740911	3.73297	0.936358	4.71638	0.509263	2.56831	0.615855	3.09848	0.785175	3.95347	0.913642	4.60695
0.53583	2.6794	0.389776	1.93364	0.535534	2.67947	0.617487	3.10007	0.742485	3.72342	0.937285	4.699	0.511058	2.56531	0.617645	3.09299	0.786208	3.94019	0.915033	4.59239
0.538206	2.6788	0.391774	1.93461	0.537911	2.67887	0.619063	3.09352	0.744063	3.71399	0.938216	4.6818	0.512851	2.56233	0.61944	3.08757	0.787247	3.92706	0.916427	4.57798
0.540582	2.6782	0.393772	1.93557	0.540287	2.67828	0.620641	3.08703	0.745646	3.70466	0.939151	4.66478	0.514643	2.55937	0.621241	3.08223	0.788291	3.91407	0.917822	4.56371
0.542957	2.67761	0.395769	1.93652	0.542662	2.67768	0.622222	3.08062	0.747232	3.69543	0.940091	4.64793	0.516435	2.55643	0.623047	3.07697	0.78934	3.90123	0.919219	4.54958
0.545331	2.67702	0.397765	1.93745	0.545036	2.67709	0.623805	3.07428	0.748823	3.68631	0.941035	4.63127	0.518225	2.55352	0.624858	3.07178	0.790394	3.88854	0.920619	4.53559
0.547704	2.67643	0.39976	1.93838	0.547409	2.6765	0.625391	3.068	0.750418	3.6773	0.941983	4.61478	0.520014	2.55062	0.626674	3.06666	0.791454	3.87599	0.92202	4.52174
0.550076	2.67584	0.401755	1.93929	0.549781	2.67591	0.626979	3.0618	0.752016	3.66838	0.942936	4.59846	0.521802	2.54775	0.628495	3.06161	0.792519	3.86357	0.923423	4.50802
0.552447	2.67524	0.403749	1.94019	0.552152	2.67532	0.628569	3.05566	0.753618	3.65957	0.943893	4.5823	0.523589	2.5449	0.630321	3.05664	0.793589	3.8513	0.924828	4.49444
0.554817	2.67465	0.405743	1.94108	0.554522	2.67472	0.630162	3.04959	0.755224	3.65085	0.944855	4.56632	0.525375	2.54207	0.632152	3.05173	0.794664	3.83916	0.926235	4.48098
0.557185	2.67406	0.407736	1.94195	0.556891	2.67413	0.631757	3.04359	0.756834	3.64223	0.945821	4.5505	0.52716	2.53926	0.633988	3.04689	0.795745	3.82715	0.927643	4.46766
0.559552	2.67346	0.409728	1.94282	0.559258	2.67354	0.633356	3.03766	0.758448	3.6337	0.946792	4.53484	0.528944	2.53647	0.635829	3.04211	0.79683	3.81527	0.929053	4.45446
0.561918	2.67287	0.411719	1.94368	0.561624	2.67294	0.634957	3.03179	0.760065	3.62526	0.947767	4.51934	0.530728	2.5337	0.637674	3.0374	0.797921	3.80353	0.930465	4.44139
0.564282	2.67227	0.41371	1.94452	0.563988	2.67235	0.63656	3.02598	0.761686	3.61692	0.948746	4.504	0.532511	2.53096	0.639524	3.03275	0.799017	3.79191	0.931879	4.42845
0.566644	2.67167	0.4157	1.94536	0.566351	2.67175	0.638167	3.02024	0.76331	3.60867	0.94973	4.48882	0.534293	2.52823	0.641378	3.02817	0.800119	3.78043	0.933295	4.41562
0.569005	2.67107	0.417689	1.94618	0.568712	2.67114	0.639777	3.01457	0.764938	3.60051	0.950718	4.47379	0.536075	2.52553	0.643237	3.02364	0.801225	3.76906	0.934712	4.40292
0.571365	2.67046	0.419678	1.94699	0.571071	2.67054	0.641389	3.00896	0.766569	3.59243	0.951711	4.45891	0.537856	2.52285	0.6451	3.01918	0.802337	3.75782	0.936131	4.39034
0.573722	2.66986	0.421665	1.9478	0.573429	2.66993	0.643005	3.00341	0.768204	3.58444	0.952708	4.44418	0.539636	2.52018	0.646967	3.01477	0.803453	3.7467	0.937551	4.37787
0.576078	2.66925	0.423652	1.94859	0.575785	2.66932	0.644624	2.99792	0.769842	3.57654	0.953709	4.4296	0.541416	2.51754	0.648839	3.01042	0.804575	3.7357	0.938973	4.36552
0.578431	2.66863	0.425639	1.94937	0.578139	2.66871	0.646246	2.9925	0.771484	3.56872	0.954715	4.41517	0.543195	2.51492	0.650714	3.00613	0.805702	3.72482	0.940397	4.35328
0.580783	2.66801	0.427625	1.95014	0.580491	2.66809	0.647871	2.98714	0.773129	3.56098	0.955726	4.40088	0.544974	2.51232	0.652594	3.00189	0.806835	3.71406	0.941822	4.34115
0.583132	2.66739	0.42961	1.95091	0.58284	2.66747	0.6495	2.98184	0.774777	3.55332	0.95674	4.38673	0.546753	2.50974	0.654477	2.99771	0.807972	3.70341	0.943249	4.32914
0.585479	2.66676	0.431594	1.95166	0.585188	2.66684	0.651132	2.9766	0.776428	3.54574	0.957759	4.37272	0.548531	2.50718	0.656364	2.99357	0.809114	3.69288	0.944677	4.31723
0.587824	2.66613	0.433577	1.9524	0.587533	2.6662	0.652768	2.97143	0.778082	3.53824	0.958783	4.35886	0.550309	2.50464	0.658255	2.9895	0.810262	3.68246	0.946107	4.30543
0.590167	2.66549	0.43556	1.95314	0.589876	2.66557	0.654408	2.96631	0.779739	3.53082	0.959811	4.34513	0.552087	2.50212	0.66015	2.98547	0.811415	3.67215	0.947538	4.29374
0.592507	2.66484	0.437542	1.95386	0.592216	2.66492	0.656051	2.96125	0.7814	3.52347	0.960843	4.33153	0.553864	2.49962	0.662048	2.98149	0.812573	3.66195	0.948971	4.28216
0.594844	2.66419	0.439523	1.95458	0.594554	2.66427	0.657699	2.95626	0.783063	3.5162	0.96188	4.31807	0.555641	2.49714	0.66395	2.97756	0.813736	3.65186	0.950405	4.27067
0.597179	2.66353	0.441504	1.95529	0.596889	2.66361	0.65935	2.95132	0.784729	3.509	0.962922	4.30474	0.557418	2.49468	0.665855	2.97368	0.814904	3.64187	0.951841	4.25929
0.599511	2.66287	0.443484	1.95598	0.599221	2.66295	0.661005	2.94644	0.786399	3.50188	0.963967	4.29154	0.559195	2.49224	0.667763	2.96984	0.816078	3.63199	0.953278	4.24801
0.60184	2.66219	0.445463	1.95667	0.60155	2.66228	0.662664	2.94162	0.788071	3.49482	0.965017	4.27846	0.560972	2.48982	0.669675	2.96606	0.817256	3.62222	0.954716	4.23683
0.604166	2.66151	0.447441	1.95735	0.603877	2.6616	0.664328	2.93686	0.789746	3.48784	0.966072	4.26552	0.562749	2.48742	0.67159	2.96231	0.81844	3.61255	0.956156	4.22575
0.606488	2.66083	0.449419	1.95802	0.6062	2.66091	0.665996	2.93216	0.791423	3.48093	0.967131	4.2527	0.564526	2.48504	0.673508	2.95861	0.819629	3.60298	0.957597	4.21476
0.608808	2.66013	0.451396	1.95868	0.60852	2.66022	0.667669	2.92751	0.793104	3.47408	0.968194	4.24001	0.566303	2.48268	0.675429	2.95496	0.820823	3.59351	0.959039	4.20387
0.611124	2.65942	0.453372	1.95934	0.610836	2.65951	0.669346	2.92292	0.794787	3.4673	0.969262	4.22743	0.56808	2.48034	0.677353	2.95135	0.822022	3.58414	0.960483	4.19307
0.613437	2.65871	0.455347	1.95998	0.61315	2.6588	0.671028	2.91839	0.796472	3.46059	0.970334	4.21498	0.569857	2.47802	0.67928	2.94778	0.823226	3.57486	0.961927	4.18237
0.615746	2.65798	0.457322	1.96062	0.615459	2.65807	0.672714	2.91392	0.79816	3.45394	0.971411	4.20265	0.571635	2.47572	0.681209	2.94425	0.824435	3.56569	0.963374	4.17176
0.618052	2.65725	0.459296	1.96125	0.617765	2.65734	0.674406	2.90951	0.799851	3.44736	0.972492	4.19044	0.573412	2.47344	0.683142	2.94076	0.825649	3.55661	0.964821	4.16124
0.620354	2.6565	0.461269	1.96187	0.620068	2.6566	0.676103	2.90515	0.801544	3.44084	0.973578	4.17834	0.57519	2.47117	0.685077	2.9373	0.826869	3.54763	0.966269	4.1508
0.622651	2.65575	0.463242	1.96248	0.622366	2.65584	0.677805	2.90085	0.80324	3.43438	0.974668	4.16636	0.576968	2.46893	0.687014	2.93389	0.828094	3.53873	0.967719	4.14046
0.624945	2.65498	0.465213	1.96309	0.62466	2.65507	0.679512	2.89661	0.804938	3.42799	0.975762	4.15449	0.578746	2.46671	0.688955	2.93052	0.829323	3.52994	0.96917	4.1302
0.627234	2.6542	0.467184	1.96368	0.62695	2.6543	0.681224	2.89242	0.806638	3.42165	0.976861	4.14274	0.580525	2.4645	0.690897	2.92718	0.830558	3.52123	0.970622	4.12003
0.629519	2.65341	0.469155	1.96427	0.629235	2.65351	0.682943	2.88829	0.808341	3.41538	0.977964	4.13109	0.582304	2.46231	0.692842	2.92388	0.831799	3.51261	0.972075	4.10995
0.6318	2.6526	0.471124	1.96485	0.631517	2.6527	0.684667	2.88422	0.810046	3.40916	0.979072	4.11956	0.584083	2.46015	0.694789	2.92061	0.833044	3.50408	0.973529	4.09994
0.634076	2.65179	0.473093	1.96543	0.633793	2.65189	0.686397	2.8802	0.811753	3.403	0.980184	4.10813	0.585863	2.458	0.696739	2.91738	0.834294	3.49564	0.974985	4.09003
0.636347	2.65095	0.475061	1.96599	0.636065	2.65106	0.688132	2.87624	0.813463	3.3969	0.981301	4.09682	0.587643	2.45587	0.69869	2.91418	0.83555	3.48729	0.976441	4.08019
0.638613	2.65011	0.477028	1.96655	0.638332	2.65022	0.689874	2.87233	0.815175	3.39086	0.982422	4.0856	0.589424	2.45375	0.700644	2.91102	0.83681	3.47902	0.977898	4.07043
0.640875	2.64925	0.478994	1.9671	0.640594	2.64936	0.691623	2.86848	0.816888	3.38487	0.983547	4.0745	0.591205	2.45166	0.702599	2.90789	0.838076	3.47084	0.979357	4.06075
0.643131	2.64838	0.48096	1.96765	0.64285	2.64849	0.693377	2.86469	0.818604	3.37893	0.984677	4.0635	0.592987	2.44958	0.704557	2.90479	0.839347	3.46274	0.980816	4.05115
0.645381	2.64749	0.482925	1.96818	0.645102	2.6476	0.695139	2.86096	0.820322	3.37305	0.985812	4.0526	0.59477	2.44753	0.706516	2.90172	0.840623	3.45473	0.982277	4.04163
0.647627	2.64658	0.484889	1.96871	0.647348	2.6467	0.696907	2.85728	0.822041	3.36722	0.986951	4.0418	0.596553	2.44549	0.708477	2.89868	0.841904	3.4468	0.983738	4.03219
0.649866	2.64566	0.486853	1.96924	0.649588	2.64578	0.698681	2.85365	0.823763	3.36145	0.988094	4.0311	0.598336	2.44347	0.71044	2.89568	0.843191	3.43894	0.985201	4.02282
0.6521	2.64472	0.488815	1.96975	0.651823	2.64484	0.700463	2.85008	0.825487	3.35572	0.989242	4.0205	0.60012	2.44147	0.712405	2.8927	0.844482	3.43117	0.986664	4.01353
0.654328	2.64377	0.490777	1.97026	0.654051	2.64389	0.702252	2.84657	0.827212	3.35005	0.990394	4.01	0.601905	2.43948	0.714371	2.88975	0.845779	3.42348	0.988128	4.00431
0.65655	2.6428	0.492739	1.97076	0.656274	2.64292	0.704049	2.84312	0.82894	3.34442	0.99155	3.99959	0.603691	2.43751	0.716339	2.88683	0.847081	3.41587	0.989593	3.99516
0.658766	2.64181	0.494699	1.97126	0.65849	2.64193	0.705853	2.83972	0.830669	3.33885	0.992712	3.98928	0.605478	2.43556	0.718307	2.88394	0.848388	3.40834	0.991059	3.98609
0.660975	2.6408	0.496659	1.97175	0.660701	2.64093	0.707664	2.83637	0.832399	3.33332	0.993877	3.97907	0.607265	2.43363	0.720278	2.88107	0.8497	3.40088	0.992526	3.97708
0.663178	2.63978	0.498618	1.97223	0.662904	2.63991	0.709483	2.83308	0.834132	3.32784	0.995047	3.96895	0.609053	2.43172	0.72225	2.87823	0.851017	3.3935	0.993994	3.96815
0.665374	2.63873	0.500576	1.97271	0.665101	2.63886	0.71131	2.82985	0.835866	3.32241	0.996222	3.95892	0.610841	2.42982	0.724222	2.87542	0.85234	3.38619	0.995463	3.95929
0.667563	2.63767	0.502534	1.97317	0.667291	2.6378	0.713145	2.82667	0.837602	3.31703	0.997401	3.94898	0.612631	2.42794	0.726197	2.87263	0.853668	3.37896	0.996932	3.95049
0.669746	2.63659	0.50449	1.97364	0.669475	2.63672	0.714988	2.82355	0.839339	3.31169	0.998584	3.93914	0.614421	2.42608	0.728172	2.86986	0.855001	3.3718	0.998403	3.94177
0.671921	2.63549	0.506446	1.97409	0.671651	2.63562	0.71684	2.82049	0.841078	3.3064	0.999772	3.92938	0.616213	2.42423	0.730148	2.86712	0.856339	3.36471	0.999874	3.93311
0.67409	2.63436	0.508402	1.97454	0.673821	2.6345	0.7187	2.81748	0.842819	3.30115	1.00096	3.91972	0.618005	2.42241	0.732125	2.86441	0.857682	3.3577	1.00135	3.92451
0.676251	2.63322	0.510356	1.97499	0.675983	2.63337	0.720568	2.81452	0.844561	3.29594			0.619798	2.42059	0.734103	2.86172	0.859031	3.35076		
0.678405	2.63206	0.51231	1.97543	0.678137	2.63221	0.722445	2.81162	0.846304	3.29078			0.621592	2.4188	0.736082	2.85905	0.860385	3.34389		
0.680551	2.63088	0.514263	1.97586	0.680285	2.63103	0.724331	2.80878	0.848049	3.28566			0.623387	2.41702	0.738062	2.8564	0.861744	3.33708		
0.68269	2.62967	0.516216	1.97629	0.682424	2.62982	0.726226	2.80599	0.849795	3.28059			0.625183	2.41526	0.740042	2.85377	0.863108	3.33035		
0.684821	2.62845	0.518167	1.97671	0.684556	2.6286	0.728129	2.80325	0.851543	3.27555			0.62698	2.41351	0.742023	2.85117	0.864477	3.32369		
0.686944	2.6272	0.520118	1.97712	0.68668	2.62736	0.730042	2.80057	0.853292	3.27056			0.628778	2.41179	0.744005	2.84859	0.865852	3.31709		
0.689059	2.62594	0.522068	1.97753	0.688797	2.6261	0.731964	2.79794	0.855042	3.2656			0.630577	2.41007	0.745987	2.84602	0.867232	3.31056		
0.691167	2.62465	0.524017	1.97794	0.690905	2.62481	0.733895	2.79537	0.856793	3.26069			0.632377	2.40838	0.74797	2.84348	0.868617	3.3041		
0.693267	2.62334	0.525966	1.97833	0.693006	2.6235	0.735835	2.79285	0.858546	3.25582			0.634178	2.4067	0.749953	2.84096	0.870008	3.2977		
0.695358	2.62201	0.527914	1.97873	0.695099	2.62218	0.737785	2.79038	0.8603	3.25098			0.63598	2.40503	0.751937	2.83845	0.871404	3.29137		
0.697442	2.62066	0.529861	1.97911	0.697183	2.62083	0.739744	2.78796	0.862055	3.24618			0.637783	2.40338	0.75392	2.83597	0.872805	3.2851		
0.699517	2.61929	0.531808	1.9795	0.69926	2.61946	0.741713	2.7856	0.863811	3.24142			0.639588	2.40175	0.755904	2.8335	0.874211	3.27889		
0.701585	2.6179	0.533754	1.97987	0.701328	2.61807	0.743691	2.78329	0.865568	3.2367			0.641393	2.40013	0.757889	2.83105	0.875623	3.27275		
0.703644	2.61649	0.535699	1.98024	0.703388	2.61666	0.745678	2.78103	0.867326	3.23201			0.6432	2.39853	0.759873	2.82862	0.87704	3.26667		
0.705695	2.61505	0.537643	1.98061	0.705441	2.61523	0.747675	2.77882	0.869085	3.22736			0.645008	2.39694	0.761857	2.8262	0.878462	3.26065		
0.707738	2.6136	0.539587	1.98097	0.707485	2.61378	0.749681	2.77667	0.870845	3.22275			0.646816	2.39537	0.763841	2.8238	0.87989	3.2547		
0.709774	2.61213	0.54153	1.98133	0.709521	2.61231	0.751697	2.77456	0.872606	3.21817			0.648626	2.39382	0.765826	2.82142	0.881323	3.2488		
0.711801	2.61064	0.543472	1.98168	0.711549	2.61083	0.753722	2.7725	0.874368	3.21363			0.650438	2.39227	0.76781	2.81905	0.882761	3.24297		
0.71382	2.60913	0.545413	1.98202	0.713569	2.60932	0.755756	2.77049	0.876131	3.20912			0.65225	2.39075	0.769794	2.8167	0.884205	3.23719		
0.715831	2.6076	0.547354	1.98236	0.715582	2.60779	0.7578	2.76852	0.877895	3.20464			0.654064	2.38924	0.771778	2.81437	0.885654	3.23147		
0.717835	2.60605	0.549294	1.9827	0.717586	2.60625	0.759853	2.76661	0.879659	3.2002			0.655879	2.38774	0.773761	2.81205	0.887108	3.22581		
0.719831	2.60449	0.551234	1.98303	0.719583	2.60469	0.761915	2.76474	0.881424	3.19579			0.657695	2.38626	0.775744	2.80974	0.888568	3.22021		
0.721819	2.60291	0.553172	1.98336	0.721572	2.60311	0.763987	2.76291	0.88319	3.19141			0.659512	2.38479	0.777727	2.80745	0.890033	3.21466		
0.723799	2.60131	0.55511	1.98368	0.723554	2.60151	0.766067	2.76113	0.884957	3.18707			0.66133	2.38334	0.77971	2.80517	0.891503	3.20918		
0.725773	2.5997	0.557048	1.984	0.725528	2.5999	0.768156	2.75939	0.886725	3.18275			0.66315	2.3819	0.781691	2.8029	0.892979	3.20374		
0.727738	2.59807	0.558984	1.98431	0.727494	2.59827	0.770254	2.7577	0.888493	3.17847			0.664971	2.38047	0.783673	2.80065	0.89446	3.19837		
0.729697	2.59643	0.56092	1.98462	0.729454	2.59663	0.772361	2.75605	0.890262	3.17422			0.666794	2.37906	0.785653	2.79841	0.895947	3.19305		
0.731648	2.59477	0.562855	1.98492	0.731406	2.59497	0.774476	2.75444	0.892032	3.17			0.668617	2.37766	0.787634	2.79619	0.897439	3.18778		
0.733593	2.59309	0.56479	1.98522	0.733351	2.5933	0.776599	2.75287	0.893802	3.16581			0.670442	2.37628	0.789613	2.79397	0.898936	3.18256		
0.735531	2.59141	0.566724	1.98552	0.73529	2.59162	0.778731	2.75134	0.895573	3.16164			0.672268	2.37491	0.791592	2.79177	0.900439	3.1774		
0.737462	2.58971	0.568657	1.98581	0.737222	2.58992	0.780871	2.74985	0.897344	3.15751			0.674096	2.37355	0.79357	2.78958	0.901948	3.1723		
0.739386	2.588	0.570589	1.98609	0.739147	2.58822	0.783019	2.7484	0.899116	3.15341			0.675924	2.37221	0.795546	2.7874	0.903461	3.16724		
0.741304	2.58628	0.572521	1.98638	0.741066	2.5865	0.785175	2.74698	0.900888	3.14933			0.677754	2.37088	0.797523	2.78523	0.90498	3.16224		
0.743216	2.58455	0.574453	1.98666	0.742979	2.58477	0.787338	2.7456	0.902661	3.14529			0.679586	2.36956	0.799498	2.78307	0.906505	3.15729		
0.745122	2.58281	0.576383	1.98693	0.744885	2.58303	0.789509	2.74425	0.904434	3.14127			0.681418	2.36826	0.801472	2.78093	0.908035	3.15239		
0.747022	2.58106	0.578313	1.9872	0.746786	2.58128	0.791687	2.74294	0.906208	3.13728			0.683252	2.36697	0.803445	2.77879	0.909571	3.14754		
0.748916	2.5793	0.580242	1.98747	0.748681	2.57952	0.793873	2.74166	0.907982	3.13331			0.685088	2.36569	0.805417	2.77666	0.911112	3.14274		
0.750805	2.57754	0.582171	1.98773	0.750571	2.57776	0.796065	2.74042	0.909757	3.12937			0.686924	2.36443	0.807388	2.77455	0.912658	3.13799		
0.752688	2.57576	0.584099	1.98799	0.752455	2.57599	0.798264	2.7392	0.911532	3.12546			0.688762	2.36317	0.809358	2.77244	0.91421	3.13329		
0.754567	2.57399	0.586026	1.98824	0.754333	2.57421	0.80047	2.73802	0.913307	3.12158			0.690601	2.36193	0.811327	2.77034	0.915768	3.12863		
0.75644	2.5722	0.587952	1.98849	0.756207	2.57242	0.802683	2.73686	0.915083	3.11772			0.692442	2.36071	0.813294	2.76825	0.917331	3.12403		
0.758308	2.57041	0.589878	1.98874	0.758076	2.57063	0.804901	2.73574	0.916859	3.11388			0.694284	2.35949	0.81526	2.76617	0.918899	3.11947		
0.760171	2.56861	0.591804	1.98898	0.75994	2.56884	0.807126	2.73464	0.918635	3.11008			0.696127	2.35829	0.817225	2.7641	0.920473	3.11496		
0.76203	2.56681	0.593728	1.98922	0.761799	2.56704	0.809357	2.73357	0.920411	3.10629			0.697972	2.3571	0.819188	2.76204	0.922053	3.1105		
0.763885	2.56501	0.595652	1.98946	0.763654	2.56523	0.811593	2.73252	0.922188	3.10253			0.699818	2.35592	0.82115	2.75998	0.923637	3.10609		
0.765735	2.5632	0.597576	1.98969	0.765505	2.56343	0.813836	2.7315	0.923965	3.0988			0.701665	2.35475	0.823111	2.75794	0.925228	3.10172		
0.767581	2.5614	0.599499	1.98992	0.767352	2.56162	0.816083	2.73051	0.925742	3.09509			0.703514	2.3536	0.82507	2.7559	0.926824	3.09739		
0.769423	2.55959	0.601421	1.99015	0.769194	2.55981	0.818336	2.72954	0.92752	3.0914			0.705364	2.35246	0.827028	2.75387	0.928425	3.09311		
0.771262	2.55777	0.603342	1.99037	0.771033	2.558	0.820594	2.72859	0.929297	3.08774			0.707216	2.35132	0.828984	2.75184	0.930032	3.08888		
0.773097	2.55596	0.605263	1.99059	0.772869	2.55619	0.822857	2.72767	0.931075	3.0841			0.709068	2.3502	0.830938	2.74982	0.931645	3.08469		
0.774928	2.55415	0.607184	1.9908	0.7747	2.55437	0.825125	2.72676	0.932853	3.08048			0.710923	2.3491	0.832891	2.74781	0.933262	3.08054		
0.776756	2.55234	0.609103	1.99102	0.776529	2.55256	0.827398	2.72588	0.934631	3.07688			0.712778	2.348	0.834842	2.74581	0.934886	3.07644		
0.778581	2.55052	0.611023	1.99122	0.778354	2.55075	0.829675	2.72502	0.93641	3.07331			0.714635	2.34691	0.836791	2.74382	0.936515	3.07238		
0.780403	2.54871	0.612941	1.99143	0.780176	2.54894	0.831956	2.72417	0.938188	3.06976			0.716493	2.34584	0.838739	2.74183	0.938149	3.06836		
0.782221	2.5469	0.614859	1.99163	0.781995	2.54713	0.834242	2.72335	0.939967	3.06623			0.718353	2.34477	0.840685	2.73984	0.939789	3.06439		
0.784037	2.5451	0.616776	1.99183	0.783812	2.54532	0.836532	2.72254	0.941745	3.06273			0.720214	2.34372	0.842629	2.73787	0.941434	3.06046		
0.785851	2.54329	0.618693	1.99203	0.785625	2.54351	0.838826	2.72176	0.943524	3.05924			0.722076	2.34268	0.844572	2.73589	0.943085	3.05657		
0.787662	2.54149	0.620609	1.99222	0.787437	2.54171	0.841123	2.72098	0.945303	3.05578			0.72394	2.34164	0.846512	2.73393	0.944742	3.05272		
0.78947	2.53969	0.622525	1.99241	0.789245	2.53991	0.843424	2.72023	0.947081	3.05234			0.725805	2.34062	0.848451	2.73197	0.946403	3.04891		
0.791276	2.53789	0.62444	1.9926	0.791052	2.53811	0.845729	2.71949	0.94886	3.04891			0.727671	2.33961	0.850388	2.73002	0.948071	3.04514		
0.79308	2.5361	0.626354	1.99278	0.792856	2.53632	0.848037	2.71877	0.950639	3.04551			0.729539	2.33861	0.852323	2.72807	0.949743	3.04141		
0.794882	2.53431	0.628268	1.99296	0.794658	2.53453	0.850348	2.71806	0.952418	3.04213			0.731408	2.33762	0.854256	2.72613	0.951421	3.03772		
0.796682	2.53252	0.630182	1.99314	0.796458	2.53275	0.852663	2.71736	0.954197	3.03877			0.733278	2.33664	0.856187	2.72419	0.953105	3.03407		
0.79848	2.53075	0.632094	1.99332	0.798256	2.53097	0.854981	2.71668	0.955976	3.03543			0.73515	2.33567	0.858116	2.72226	0.954794	3.03046		
0.800276	2.52897	0.634007	1.99349	0.800053	2.52919	0.857301	2.71602	0.957755	3.03211			0.737023	2.33471	0.860043	2.72033	0.956488	3.02689		
0.802071	2.5272	0.635918	1.99366	0.801848	2.52742	0.859624	2.71536	0.959534	3.02881			0.738897	2.33376	0.861968	2.71841	0.958188	3.02335		
0.803864	2.52544	0.637829	1.99383	0.803641	2.52566	0.861951	2.71472	0.961313	3.02552			0.740773	2.33282	0.863891	2.71649	0.959894	3.01985		
0.805655	2.52368	0.63974	1.994	0.805433	2.5239	0.864279	2.71409	0.963092	3.02226			0.74265	2.33189	0.865812	2.71458	0.961604	3.01639		
0.807445	2.52193	0.64165	1.99416	0.807223	2.52214	0.86661	2.71347	0.964871	3.01902			0.744528	2.33097	0.867731	2.71267	0.96332	3.01297		
0.809234	2.52018	0.643559	1.99432	0.809012	2.5204	0.868944	2.71286	0.96665	3.01579			0.746408	2.33006	0.869648	2.71077	0.965041	3.00958		
0.811022	2.51844	0.645468	1.99447	0.8108	2.51865	0.87128	2.71227	0.968429	3.01258			0.748289	2.32915	0.871563	2.70887	0.966768	3.00623		
0.812808	2.5167	0.647377	1.99463	0.812586	2.51692	0.873618	2.71168	0.970208	3.0094			0.750171	2.32826	0.873475	2.70697	0.9685	3.00292		
0.814594	2.51498	0.649285	1.99478	0.814372	2.51519	0.875958	2.71111	0.971987	3.00623			0.752055	2.32738	0.875386	2.70508	0.970237	2.99964		
0.816378	2.51326	0.651192	1.99493	0.816156	2.51347	0.8783	2.71054	0.973766	3.00307			0.75394	2.3265	0.877294	2.7032	0.971979	2.9964		
0.818162	2.51154	0.653099	1.99508	0.81794	2.51176	0.880644	2.70998	0.975545	2.99994			0.755826	2.32564	0.8792	2.70132	0.973727	2.99319		
0.819944	2.50984	0.655005	1.99522	0.819723	2.51005	0.88299	2.70943	0.977323	2.99682			0.757714	2.32478	0.881104	2.69944	0.97548	2.99001		
0.821726	2.50814	0.656911	1.99537	0.821505	2.50835	0.885338	2.70889	0.979102	2.99373			0.759602	2.32393	0.883006	2.69757	0.977238	2.98687		
0.823508	2.50645	0.658817	1.99551	0.823286	2.50666	0.887687	2.70836	0.980881	2.99065			0.761493	2.32309	0.884906	2.6957	0.979001	2.98376		
0.825288	2.50476	0.660721	1.99564	0.825067	2.50497	0.890038	2.70783	0.98266	2.98758			0.763384	2.32226	0.886804	2.69383	0.98077	2.98069		
0.827068	2.50309	0.662626	1.99578	0.826847	2.5033	0.892391	2.70732	0.984439	2.98454			0.765277	2.32144	0.888699	2.69197	0.982544	2.97765		
0.828847	2.50142	0.66453	1.99591	0.828626	2.50163	0.894745	2.70681	0.986218	2.98151			0.767171	2.32063	0.890593	2.69012	0.984322	2.97464		
0.830626	2.49976	0.666433	1.99604	0.830405	2.49997	0.8971	2.7063	0.987997	2.9785			0.769066	2.31982	0.892484	2.68826	0.986106	2.97166		
0.832405	2.49811	0.668336	1.99617	0.832184	2.49831	0.899456	2.70581	0.989775	2.9755			0.770963	2.31903	0.894373	2.68641	0.987895	2.96872		
0.834183	2.49647	0.670238	1.9963	0.833962	2.49667	0.901814	2.70532	0.991554	2.97252			0.77286	2.31824	0.89626	2.68457	0.989689	2.96581		
0.835961	2.49483	0.67214	1.99643	0.83574	2.49503	0.904173	2.70484	0.993333	2.96956			0.77476	2.31746	0.898144	2.68273	0.991488	2.96292		
0.837738	2.4932	0.674042	1.99655	0.837517	2.4934	0.906533	2.70436	0.995112	2.96662			0.77666	2.31669	0.900027	2.68089	0.993291	2.96007		
0.839516	2.49158	0.675943	1.99667	0.839295	2.49178	0.908894	2.70389	0.996891	2.96369			0.778561	2.31592	0.901907	2.67905	0.9951	2.95725		
0.841293	2.48997	0.677843	1.99679	0.841072	2.49017	0.911256	2.70342	0.99867	2.96078			0.780464	2.31517	0.903785	2.67722	0.996914	2.95446		
0.84307	2.48837	0.679744	1.9969	0.842849	2.48857	0.913619	2.70296	1.00045	2.95788			0.782368	2.31442	0.905661	2.6754	0.998732	2.9517		
0.844847	2.48678	0.681643	1.99702	0.844626	2.48697	0.915982	2.7025					0.784274	2.31368	0.907535	2.67357	1.00056	2.94897		
0.846624	2.48519	0.683542	1.99713	0.846403	2.48539	0.918346	2.70205					0.78618	2.31294	0.909407	2.67176				
0.848401	2.48361	0.685441	1.99724	0.84818	2.48381	0.920711	2.7016					0.788088	2.31222	0.911277	2.66994				
0.850178	2.48205	0.68734	1.99735	0.849957	2.48224	0.923077	2.70116					0.789997	2.3115	0.913144	2.66813				
0.851955	2.48049	0.689237	1.99746	0.851734	2.48068	0.925443	2.70072					0.791907	2.31079	0.91501	2.66632				
0.853732	2.47894	0.691135	1.99756	0.853511	2.47913	0.92781	2.70028					0.793819	2.31009	0.916873	2.66452				
0.855509	2.4774	0.693032	1.99767	0.855288	2.47759	0.930177	2.69985					0.795731	2.30939	0.918734	2.66272				
0.857287	2.47586	0.694929	1.99777	0.857066	2.47605	0.932544	2.69942					0.797645	2.3087	0.920593	2.66092				
0.859064	2.47434	0.696825	1.99787	0.858843	2.47453	0.934912	2.699					0.79956	2.30802	0.92245	2.65913				
0.860842	2.47282	0.698721	1.99797	0.860621	2.47301	0.93728	2.69857					0.801476	2.30735	0.924306	2.65734				
0.86262	2.47132	0.700616	1.99806	0.862399	2.4715	0.939648	2.69815					0.803394	2.30668	0.926159	2.65555				
0.864399	2.46982	0.702511	1.99816	0.864177	2.47001	0.942016	2.69774					0.805312	2.30602	0.92801	2.65377				
0.866177	2.46833	0.704405	1.99825	0.865956	2.46852	0.944384	2.69732					0.807232	2.30537	0.929859	2.65199				
0.867956	2.46685	0.7063	1.99834	0.867735	2.46704	0.946753	2.69691					0.809153	2.30472	0.931706	2.65022				
0.869736	2.46538	0.708193	1.99843	0.869515	2.46556	0.949121	2.6965					0.811075	2.30408	0.933551	2.64845				
0.871516	2.46392	0.710087	1.99852	0.871294	2.4641	0.951489	2.69609					0.812998	2.30345	0.935394	2.64668				
0.873296	2.46247	0.71198	1.99861	0.873075	2.46265	0.953857	2.69569					0.814922	2.30282	0.937236	2.64492				
0.875077	2.46102	0.713872	1.99869	0.874855	2.4612	0.956225	2.69528					0.816848	2.3022	0.939075	2.64316				
0.876858	2.45959	0.715765	1.99878	0.876636	2.45976	0.958593	2.69488					0.818774	2.30159	0.940913	2.6414				
0.87864	2.45816	0.717657	1.99886	0.878418	2.45834	0.96096	2.69447					0.820702	2.30098	0.942748	2.63965				
0.880422	2.45674	0.719548	1.99894	0.8802	2.45692	0.963327	2.69407					0.822631	2.30038	0.944582	2.63791				
0.882204	2.45533	0.721439	1.99902	0.881983	2.45551	0.965693	2.69367					0.824561	2.29978	0.946414	2.63616				
0.883988	2.45393	0.72333	1.9991	0.883766	2.45411	0.968059	2.69327					0.826492	2.29919	0.948245	2.63443				
0.885771	2.45254	0.72522	1.99918	0.88555	2.45271	0.970424	2.69287					0.828424	2.29861	0.950073	2.63269				
0.887556	2.45116	0.72711	1.99925	0.887334	2.45133	0.972789	2.69247					0.830357	2.29803	0.9519	2.63096				
0.889341	2.44978	0.729	1.99933	0.889119	2.44995	0.975153	2.69207					0.832292	2.29746	0.953725	2.62923				
0.891126	2.44842	0.730889	1.9994	0.890904	2.44859	0.977517	2.69168					0.834227	2.2969	0.955548	2.62751				
0.892913	2.44706	0.732778	1.99947	0.89269	2.44723	0.979879	2.69128					0.836163	2.29634	0.95737	2.62579				
0.894699	2.44571	0.734667	1.99954	0.894477	2.44588	0.982241	2.69088					0.838101	2.29579	0.95919	2.62408				
0.896487	2.44438	0.736555	1.99961	0.896265	2.44454	0.984601	2.69048					0.84004	2.29524	0.961009	2.62237				
0.898275	2.44304	0.738443	1.99968	0.898053	2.44321	0.986961	2.69008					0.841979	2.2947	0.962826	2.62067				
0.900064	2.44172	0.740331	1.99974	0.899841	2.44189	0.98932	2.68967					0.84392	2.29416	0.964641	2.61897				
0.901853	2.44041	0.742219	1.99981	0.901631	2.44057	0.991677	2.68927					0.845862	2.29363	0.966455	2.61727				
0.903644	2.4391	0.744106	1.99987	0.903421	2.43927	0.994034	2.68887					0.847804	2.29311	0.968268	2.61558				
0.905435	2.43781	0.745992	1.99994	0.905212	2.43797	0.996389	2.68846					0.849748	2.29259	0.970079	2.61389				
0.907226	2.43652	0.747879	2	0.907004	2.43668	0.998743	2.68806					0.851693	2.29207	0.971888	2.61221				
0.909019	2.43524	0.749765	2.00006	0.908796	2.4354	1.0011	2.68765					0.853639	2.29156	0.973696	2.61053				
0.910812	2.43397	0.751651	2.00012	0.910589	2.43413							0.855586	2.29106	0.975503	2.60886				
0.912606	2.43271	0.753536	2.00018	0.912383	2.43286							0.857534	2.29056	0.977308	2.60719				
0.914401	2.43145	0.755421	2.00023	0.914178	2.43161							0.859482	2.29007	0.979112	2.60553				
0.916196	2.43021	0.757306	2.00029	0.915973	2.43036							0.861432	2.28958	0.980915	2.60387				
0.917993	2.42897	0.759191	2.00034	0.917769	2.42912							0.863383	2.28909	0.982716	2.60222				
0.91979	2.42774	0.761075	2.0004	0.919566	2.42789							0.865335	2.28862	0.984516	2.60057				
0.921588	2.42652	0.762959	2.00045	0.921364	2.42667							0.867288	2.28814	0.986315	2.59892				
0.923386	2.4253	0.764843	2.0005	0.923163	2.42545							0.869241	2.28767	0.988113	2.59728				
0.925186	2.4241	0.766726	2.00056	0.924962	2.42425							0.871196	2.28721	0.98991	2.59565				
0.926986	2.4229	0.76861	2.00061	0.926762	2.42305							0.873152	2.28675	0.991705	2.59402				
0.928787	2.42171	0.770492	2.00065	0.928563	2.42186							0.875108	2.28629	0.9935	2.5924				
0.930589	2.42053	0.772375	2.0007	0.930365	2.42067							0.877066	2.28585	0.995293	2.59078				
0.932392	2.41935	0.774258	2.00075	0.932168	2.4195							0.879024	2.2854	0.997085	2.58916				
0.934196	2.41819	0.77614	2.0008	0.933972	2.41833							0.880983	2.28496	0.998877	2.58755				
0.936001	2.41703	0.778022	2.00084	0.935776	2.41717							0.882944	2.28452	1.00067	2.58595				
0.937806	2.41588	0.779903	2.00089	0.937582	2.41602							0.884905	2.28409						
0.939612	2.41474	0.781785	2.00093	0.939388	2.41488							0.886867	2.28366						
0.94142	2.4136	0.783666	2.00097	0.941195	2.41374							0.88883	2.28324						
0.943228	2.41248	0.785547	2.00102	0.943003	2.41262							0.890794	2.28282						
0.945037	2.41136	0.787427	2.00106	0.944812	2.4115							0.892759	2.28241						
0.946847	2.41025	0.789308	2.0011	0.946622	2.41038							0.894724	2.282						
0.948657	2.40914	0.791188	2.00114	0.948432	2.40928							0.896691	2.28159						
0.950469	2.40804	0.793068	2.00118	0.950244	2.40818							0.898658	2.28119						
0.952282	2.40695	0.794947	2.00122	0.952056	2.40709							0.900626	2.28079						
0.954095	2.40587	0.796827	2.00125	0.95387	2.40601							0.902596	2.2804						
0.955909	2.4048	0.798706	2.00129	0.955684	2.40493							0.904565	2.28001						
0.957725	2.40373	0.800585	2.00133	0.957499	2.40386							0.906536	2.27962						
0.959541	2.40267	0.802464	2.00136	0.959315	2.4028							0.908508	2.27924						
0.961358	2.40162	0.804343	2.0014	0.961132	2.40175							0.91048	2.27886						
0.963176	2.40057	0.806221	2.00143	0.96295	2.4007							0.912454	2.27849						
0.964995	2.39953	0.808099	2.00146	0.964769	2.39966							0.914428	2.27812						
0.966815	2.3985	0.809977	2.0015	0.966589	2.39863							0.916403	2.27775						
0.968636	2.39748	0.811855	2.00153	0.968409	2.3976							0.918378	2.27739						
0.970457	2.39646	0.813733	2.00156	0.970231	2.39659							0.920355	2.27703						
0.97228	2.39545	0.81561	2.00159	0.972053	2.39558							0.922332	2.27667						
0.974104	2.39445	0.817487	2.00162	0.973877	2.39457							0.92431	2.27632						
0.975928	2.39345	0.819364	2.00165	0.975701	2.39357							0.926289	2.27597						
0.977753	2.39246	0.821241	2.00168	0.977526	2.39258							0.928269	2.27562						
0.97958	2.39148	0.823118	2.00171	0.979353	2.3916							0.930249	2.27528						
0.981407	2.3905	0.824994	2.00174	0.98118	2.39062							0.93223	2.27494						
0.983235	2.38953	0.82687	2.00176	0.983008	2.38965							0.934212	2.27461						
0.985065	2.38857	0.828746	2.00179	0.984837	2.38869							0.936195	2.27428						
0.986895	2.38761	0.830622	2.00182	0.986667	2.38773							0.938179	2.27395						
0.988726	2.38666	0.832498	2.00184	0.988498	2.38678							0.940163	2.27362						
0.990558	2.38572	0.834374	2.00187	0.99033	2.38583							0.942148	2.2733						
0.99239	2.38478	0.836249	2.00189	0.992163	2.3849							0.944133	2.27298						
0.994224	2.38385	0.838124	2.00192	0.993996	2.38397							0.94612	2.27267						
0.996059	2.38293	0.839999	2.00194	0.995831	2.38304							0.948107	2.27236						
0.997895	2.38201	0.841874	2.00196	0.997667	2.38212							0.950095	2.27205						
0.999731	2.3811	0.843749	2.00198	0.999503	2.38121							0.952083	2.27174						
1.00157	2.38019	0.845624	2.00201	1.00134	2.3803							0.954072	2.27144						
		0.847498	2.00203									0.956062	2.27114						
		0.849372	2.00205									0.958053	2.27084						
		0.851246	2.00207									0.960044	2.27055						
		0.85312	2.00209									0.962036	2.27025						
		0.854994	2.00211									0.964029	2.26997						
		0.856868	2.00213									0.966022	2.26968						
		0.858741	2.00215									0.968016	2.2694						
		0.860615	2.00217									0.970011	2.26912						
		0.862488	2.00219									0.972006	2.26884						
		0.864361	2.0022									0.974002	2.26857						
		0.866234	2.00222									0.975999	2.26829						
		0.868107	2.00224									0.977996	2.26802						
		0.86998	2.00226									0.979994	2.26776						
		0.871853	2.00227									0.981993	2.26749						
		0.873725	2.00229									0.983992	2.26723						
		0.875597	2.0023									0.985992	2.26697						
		0.87747	2.00232									0.987992	2.26672						
		0.879342	2.00233									0.989993	2.26646						
		0.881214	2.00235									0.991995	2.26621						
		0.883086	2.00236									0.993997	2.26596						
		0.884958	2.00238									0.996	2.26572						
		0.886829	2.00239									0.998003	2.26547						
		0.888701	2.0024									1.00001	2.26523						
		0.890572	2.00242																
		0.892444	2.00243																
		0.894315	2.00244																
		0.896186	2.00245																
		0.898057	2.00247																
		0.899928	2.00248																
		0.901799	2.00249																
		0.90367	2.0025																
		0.90554	2.00251																
		0.907411	2.00252																
		0.909281	2.00253																
		0.911152	2.00254																
		0.913022	2.00255																
		0.914892	2.00256																
		0.916762	2.00257																
		0.918632	2.00258																
		0.920502	2.00259																
		0.922372	2.0026																
		0.924242	2.00261																
		0.926112	2.00262																
		0.927981	2.00262																
		0.929851	2.00263																
		0.93172	2.00264																
		0.93359	2.00265																
		0.935459	2.00266																
		0.937328	2.00266																
		0.939197	2.00267																
		0.941067	2.00268																
		0.942936	2.00268																
		0.944805	2.00269																
		0.946673	2.0027																
		0.948542	2.0027																
		0.950411	2.00271																
		0.95228	2.00271																
		0.954149	2.00272																
		0.956017	2.00273																
		0.957886	2.00273																
		0.959754	2.00274																
		0.961623	2.00274																
		0.963491	2.00275																
		0.965359	2.00275																
		0.967228	2.00276																
		0.969096	2.00276																
		0.970964	2.00277																
		0.972832	2.00277																
		0.9747	2.00278																
		0.976568	2.00278																
		0.978436	2.00278																
		0.980304	2.00279																
		0.982172	2.00279																
		0.98404	2.0028																
		0.985908	2.0028																
		0.987776	2.0028																
		0.989643	2.00281																
		0.991511	2.00281																
		0.993379	2.00281																
		0.995246	2.00282																
		0.997114	2.00282																
		0.998981	2.00282																
		1.00085	2.00282																
