Sym0		Asym0		Sym1		Sym2		Sym3		Sym4		Asym1		Asym2		Asym3		Asym4	
457  Points		542  Points		457  Points		407  Points		370  Points		280  Points		481  Points		422  Points		371  Points		280  Points	
Freq (MHz)	Vph (m/ms)	Freq (MHz)	Vph (m/ms)	Freq (MHz)	Vph (m/ms)	Freq (MHz)	Vph (m/ms)	Freq (MHz)	Vph (m/ms)	Freq (MHz)	Vph (m/ms)	Freq (MHz)	Vph (m/ms)	Freq (MHz)	Vph (m/ms)	Freq (MHz)	Vph (m/ms)	Freq (MHz)	Vph (m/ms)
0.279506	328.629	2.23142e-005	0.0291006	0.279507	367.254	0.356484	4574.04	0.559017	1848.7	0.838526	2339.39	0.139755	1233.29	0.419264	715.436	0.69877	1625.76	0.712969	5027.85
0.2795	156.827	0.000109532	0.0644879	0.2795	165.114	0.356501	353.1	0.559024	452.989	0.83853	649.956	0.139796	133.774	0.419274	276.252	0.698759	513.225	0.712986	664.17
0.279488	102.983	0.000262423	0.0997734	0.279489	106.494	0.356545	183.66	0.55904	258.125	0.838538	377.409	0.139903	70.7756	0.419292	171.18	0.698737	304.699	0.713028	355.591
0.279471	76.6597	0.000480466	0.134891	0.279473	78.5885	0.356616	124.126	0.559063	180.49	0.83855	265.909	0.140076	48.1624	0.419319	124.018	0.698703	216.659	0.713096	242.807
0.27945	61.0513	0.00076317	0.169836	0.279452	62.2686	0.356716	93.7562	0.559096	138.762	0.838566	205.268	0.140313	36.539	0.419354	97.2347	0.698659	168.085	0.713189	184.354
0.279424	50.7214	0.00110968	0.20454	0.279427	51.5591	0.356843	75.3403	0.559136	112.71	0.838587	167.152	0.140616	29.4681	0.419398	79.9691	0.698605	137.297	0.713306	148.597
0.279394	43.3795	0.00151913	0.23897	0.279397	43.991	0.356997	62.9834	0.559185	94.8969	0.838612	140.976	0.140982	24.7185	0.419451	67.9141	0.698542	116.037	0.713447	124.468
0.27936	37.8927	0.00199042	0.273084	0.279363	38.3586	0.357178	54.1196	0.559242	81.9493	0.838641	121.89	0.141411	21.3122	0.419512	59.0206	0.698469	100.475	0.713612	107.09
0.279322	33.6367	0.00252222	0.306826	0.279325	34.0034	0.357387	47.4523	0.559308	72.1135	0.838675	107.357	0.141901	18.7529	0.419581	52.1894	0.698389	88.5902	0.713799	93.9783
0.27928	30.2389	0.00311335	0.34018	0.279284	30.5351	0.357622	42.2562	0.559382	64.3883	0.838712	95.922	0.142452	16.7618	0.419659	46.7781	0.698302	79.2168	0.714008	83.7344
0.279234	27.4635	0.00376227	0.373102	0.279239	27.7077	0.357884	38.0935	0.559465	58.1604	0.838754	86.6895	0.143061	15.1704	0.419746	42.3858	0.698208	71.6349	0.714237	75.5107
0.279185	25.1537	0.00446754	0.40557	0.27919	25.3585	0.358173	34.6845	0.559556	53.0333	0.8388	79.0793	0.143728	13.8708	0.419841	38.7498	0.698108	65.3754	0.714487	68.7638
0.279134	23.2015	0.0052275	0.437552	0.279139	23.3757	0.358487	31.8421	0.559655	48.7389	0.838851	72.6984	0.144451	12.7905	0.419945	35.6903	0.698004	60.1202	0.714756	63.129
0.279079	21.5297	0.00604048	0.469024	0.279085	21.6797	0.358827	29.4363	0.559763	45.0897	0.838905	67.2713	0.145229	11.8793	0.420057	33.0804	0.697896	55.6454	0.715043	58.3526
0.279023	20.0819	0.00690477	0.499964	0.279028	20.2124	0.359193	27.374	0.559879	41.9507	0.838964	62.5991	0.146059	11.1012	0.420178	30.828	0.697785	51.7893	0.715348	54.2525
0.278964	18.816	0.00781873	0.530363	0.27897	18.9306	0.359583	25.587	0.560003	39.2219	0.839027	58.5346	0.14694	10.4296	0.420308	28.8644	0.697671	48.4318	0.71567	50.6948
0.278904	17.6996	0.00878057	0.560203	0.27891	17.801	0.359999	24.0238	0.560136	36.828	0.839095	54.9665	0.14787	9.84457	0.420446	27.1375	0.697556	45.4821	0.716008	47.5787
0.278843	16.7079	0.00978851	0.58947	0.278849	16.7982	0.360438	22.6452	0.560278	34.711	0.839166	51.8092	0.148847	9.33087	0.420592	25.6071	0.697439	42.8702	0.716361	44.8269
0.278781	15.8209	0.0108409	0.618159	0.278787	15.902	0.360902	21.4205	0.560427	32.8256	0.839242	48.9955	0.149871	8.87658	0.420747	24.2414	0.697322	40.5412	0.716729	42.3791
0.278719	15.0231	0.0119358	0.646259	0.278725	15.0962	0.361389	20.3254	0.560585	31.1357	0.839322	46.4724	0.150938	8.47226	0.420911	23.0154	0.697205	38.4516	0.717112	40.1878
0.278656	14.3015	0.0130717	0.673774	0.278662	14.3678	0.3619	19.3407	0.560752	29.6126	0.839407	44.1971	0.151902	8.15476	0.421083	21.9087	0.697089	36.5663	0.717508	38.2147
0.278594	13.6458	0.0142468	0.700696	0.2786	13.7061	0.362433	18.4505	0.560927	28.2327	0.839495	42.1348	0.152749	7.90644	0.421264	20.9047	0.696974	34.8567	0.717917	36.4288
0.278533	13.0474	0.0154596	0.727028	0.278539	13.1025	0.362988	17.642	0.56111	26.9769	0.839588	40.257	0.153465	7.71498	0.421453	19.9899	0.69686	33.2994	0.718339	34.8048
0.278473	12.4991	0.0167084	0.752774	0.278478	12.5497	0.363566	16.9046	0.561302	25.8291	0.839685	38.5399	0.154042	7.57172	0.421651	19.1529	0.696748	31.875	0.718774	33.3216
0.278414	11.9948	0.0179916	0.777934	0.27842	12.0415	0.364165	16.2294	0.561502	24.7761	0.839787	36.9639	0.154472	7.47066	0.421858	18.3842	0.696639	30.5671	0.71922	31.9618
0.278358	11.5296	0.0193079	0.802516	0.278363	11.5727	0.364785	15.6089	0.56171	23.8066	0.839892	35.5122	0.15475	7.40779	0.422073	17.6759	0.696533	29.3621	0.719677	30.7106
0.278304	11.099	0.0206556	0.826524	0.278309	11.139	0.365426	15.0369	0.561927	22.911	0.840002	34.1707	0.155152	7.31979	0.422297	17.0212	0.696429	28.2483	0.720146	29.5555
0.278253	10.6994	0.0220334	0.849968	0.278258	10.7366	0.366087	14.5079	0.562152	22.0814	0.840116	32.9274	0.155594	7.22718	0.422529	16.4141	0.696329	27.2157	0.720626	28.486
0.278205	10.3276	0.0234399	0.872855	0.278209	10.3622	0.366768	14.0173	0.562386	21.3107	0.840234	31.7718	0.156202	7.10606	0.42277	15.8498	0.696233	26.2558	0.721116	27.4928
0.278161	9.98077	0.0248738	0.895194	0.278165	10.013	0.367468	13.5612	0.562627	20.5928	0.840357	30.6951	0.156983	6.96036	0.423019	15.3239	0.696141	25.3613	0.721616	26.5681
0.278121	9.6565	0.026334	0.916996	0.278124	9.68672	0.368188	13.1361	0.562878	19.9226	0.840484	29.6893	0.157944	6.79448	0.423277	14.8326	0.696052	24.5256	0.722126	25.7052
0.278085	9.35271	0.0278191	0.938269	0.278088	9.38104	0.368926	12.7389	0.563136	19.2955	0.840615	28.7478	0.159095	6.61302	0.423543	14.3727	0.695969	23.7432	0.722646	24.8979
0.278054	9.06754	0.029328	0.959026	0.278057	9.09416	0.369682	12.3672	0.563404	18.7074	0.84075	27.8646	0.160445	6.42049	0.423818	13.9413	0.695889	23.0091	0.723175	24.1412
0.278028	8.79936	0.0308598	0.979279	0.278031	8.82441	0.370456	12.0185	0.563679	18.1549	0.84089	27.0345	0.161825	6.24296	0.424102	13.5358	0.695814	22.3191	0.723714	23.4305
0.278008	8.5467	0.0324131	0.999036	0.27801	8.57032	0.371248	11.6908	0.563963	17.6349	0.841034	26.2527	0.163235	6.07883	0.424394	13.1539	0.695745	21.6693	0.724262	22.7616
0.277994	8.3083	0.0339873	1.01831	0.277996	8.3306	0.372056	11.3823	0.564255	17.1445	0.841182	25.5153	0.164671	5.92668	0.424695	12.7938	0.69568	21.0562	0.724819	22.1311
0.277987	8.083	0.0355811	1.03711	0.277988	8.13251	0.372881	11.0914	0.564555	16.6814	0.841334	24.8185	0.166134	5.78533	0.425004	12.4536	0.695621	20.477	0.725384	21.5357
0.277986	7.86977	0.0371939	1.05546	0.277985	7.97104	0.373723	10.8167	0.564864	16.2434	0.841491	24.1591	0.167621	5.6537	0.425322	12.1317	0.695566	19.9288	0.725958	20.9727
0.277992	7.6677	0.0388246	1.07336	0.277986	7.84236	0.37458	10.5568	0.565182	15.8284	0.841652	23.5342	0.169133	5.53088	0.425649	11.8267	0.695518	19.4093	0.726541	20.4393
0.278005	7.47595	0.0404725	1.09082	0.277989	7.74357	0.375453	10.3107	0.565507	15.4348	0.841817	22.9412	0.170667	5.41603	0.425984	11.5374	0.695475	18.9163	0.727132	19.9335
0.278027	7.29378	0.0421367	1.10785	0.277992	7.67254	0.376341	10.0772	0.565841	15.0609	0.841986	22.3776	0.172223	5.30846	0.426328	11.2625	0.695437	18.4478	0.727731	19.4531
0.278056	7.1205	0.0438167	1.12448	0.277994	7.62777	0.377244	9.85552	0.566184	14.7054	0.84216	21.8414	0.1738	5.20751	0.42668	11.001	0.695405	18.002	0.728338	18.9962
0.278093	6.95552	0.0455115	1.1407	0.277998	7.56434	0.378161	9.64473	0.566534	14.3668	0.842338	21.3306	0.175396	5.11262	0.427041	10.752	0.695379	17.5774	0.728954	18.5612
0.27814	6.79825	0.0472206	1.15653	0.278003	7.49661	0.379093	9.44407	0.566893	14.0441	0.84252	20.8435	0.177011	5.02328	0.42741	10.5147	0.695359	17.1725	0.729577	18.1466
0.278195	6.64821	0.0489434	1.17198	0.278012	7.40647	0.380038	9.25286	0.567261	13.7361	0.842706	20.3784	0.178645	4.93904	0.427788	10.2882	0.695345	16.7859	0.730208	17.7509
0.27826	6.50492	0.0506792	1.18706	0.278026	7.2956	0.380997	9.07045	0.567637	13.442	0.842897	19.9338	0.180295	4.85949	0.428175	10.0718	0.695337	16.4165	0.730847	17.373
0.278334	6.36796	0.0524274	1.20178	0.278047	7.16601	0.381969	8.89627	0.568021	13.1607	0.843092	19.5086	0.181962	4.78427	0.42857	9.86489	0.695335	16.0631	0.731493	17.0116
0.278418	6.23694	0.0541875	1.21615	0.278077	7.0199	0.382954	8.72978	0.568413	12.8915	0.843291	19.1014	0.183644	4.71305	0.428974	9.66687	0.69534	15.7247	0.732147	16.6657
0.278512	6.11149	0.0559589	1.23019	0.27812	6.85964	0.383952	8.57049	0.568814	12.6336	0.843495	18.7111	0.185341	4.64552	0.429386	9.47718	0.69535	15.4005	0.732808	16.3343
0.278617	5.9913	0.0577412	1.24389	0.278172	6.7068	0.384962	8.41796	0.569223	12.3864	0.843703	18.3368	0.187052	4.58143	0.429807	9.29533	0.695367	15.0895	0.733477	16.0166
0.278732	5.87605	0.059534	1.25728	0.278233	6.56089	0.385984	8.27179	0.569641	12.1492	0.843915	17.9774	0.188777	4.52052	0.430237	9.12084	0.69539	14.791	0.734153	15.7117
0.278858	5.76547	0.0613367	1.27035	0.278303	6.42147	0.386884	8.14928	0.570066	11.9214	0.844131	17.632	0.190515	4.46257	0.430675	8.95329	0.69542	14.5042	0.734836	15.4189
0.278996	5.6593	0.0631489	1.28313	0.278384	6.28814	0.387658	8.04826	0.5705	11.7024	0.844352	17.3	0.192265	4.40738	0.431122	8.79228	0.695456	14.2284	0.735527	15.1374
0.279145	5.55729	0.0649702	1.2956	0.278474	6.16052	0.388303	7.96699	0.570943	11.4919	0.844576	16.9804	0.194027	4.35476	0.431578	8.63745	0.695498	13.9631	0.736224	14.8667
0.279305	5.45923	0.0668003	1.3078	0.278574	6.03829	0.388816	7.90412	0.571394	11.2893	0.844806	16.6727	0.1958	4.30454	0.432042	8.48846	0.695547	13.7077	0.736929	14.6062
0.279478	5.3649	0.0686387	1.31972	0.278685	5.92112	0.389195	7.85867	0.571853	11.0941	0.845039	16.3762	0.197584	4.25657	0.432514	8.34499	0.695602	13.4616	0.737641	14.3552
0.279663	5.27412	0.0704851	1.33137	0.278807	5.80872	0.389438	7.82991	0.57232	10.9061	0.845277	16.0903	0.199378	4.21071	0.432933	8.22424	0.695664	13.2244	0.738359	14.1133
0.27986	5.1867	0.0723392	1.34276	0.27894	5.70083	0.389789	7.78902	0.572796	10.7247	0.845519	15.8144	0.201182	4.16682	0.433296	8.1243	0.695733	12.9955	0.739085	13.8799
0.280069	5.10248	0.0742007	1.3539	0.279085	5.59721	0.390171	7.74516	0.57328	10.5497	0.845765	15.5481	0.202995	4.12478	0.433599	8.04367	0.695808	12.7746	0.739817	13.6548
0.280292	5.0213	0.0760691	1.36479	0.27924	5.49761	0.390693	7.68648	0.573772	10.3808	0.846016	15.2908	0.204818	4.08448	0.433841	7.98116	0.69589	12.5612	0.740556	13.4373
0.280527	4.94301	0.0779444	1.37544	0.279408	5.40182	0.391358	7.61381	0.574273	10.2176	0.84627	15.0421	0.206648	4.04582	0.43402	7.93588	0.695978	12.355	0.741302	13.2273
0.280776	4.86749	0.0798261	1.38587	0.279588	5.30966	0.392166	7.52817	0.574782	10.0599	0.846529	14.8016	0.208487	4.0087	0.434135	7.9072	0.696073	12.1557	0.742054	13.0242
0.281038	4.79459	0.0817141	1.39606	0.27978	5.22093	0.393121	7.4307	0.575299	9.90742	0.846793	14.5688	0.210334	3.97303	0.434302	7.86637	0.696174	11.9628	0.742813	12.8277
0.281314	4.7242	0.083608	1.40604	0.279985	5.13546	0.394227	7.32264	0.575824	9.75987	0.84706	14.3435	0.212188	3.93874	0.434484	7.82252	0.696283	11.7761	0.743579	12.6376
0.281603	4.65622	0.0855076	1.4158	0.280202	5.05309	0.395343	7.21844	0.576358	9.61705	0.847332	14.1253	0.214049	3.90574	0.434734	7.76376	0.696398	11.5954	0.744351	12.4535
0.281907	4.59052	0.0874128	1.42536	0.280432	4.97368	0.396468	7.1179	0.5769	9.47874	0.847609	13.9138	0.215917	3.87396	0.435052	7.69083	0.69652	11.4202	0.74513	12.2752
0.282225	4.52702	0.0893231	1.43471	0.280676	4.89708	0.397603	7.02084	0.577451	9.34473	0.847889	13.7087	0.217792	3.84335	0.435441	7.60467	0.696648	11.2505	0.745915	12.1024
0.282557	4.46561	0.0912386	1.44387	0.280933	4.82315	0.398747	6.92707	0.578009	9.21484	0.848174	13.5098	0.219673	3.81384	0.435904	7.50632	0.696783	11.0858	0.746706	11.9348
0.282904	4.40621	0.0931589	1.45284	0.281203	4.75179	0.3999	6.83645	0.578576	9.08887	0.848463	13.3168	0.221559	3.78536	0.436443	7.39693	0.696925	10.9261	0.747504	11.7723
0.283266	4.34875	0.0950839	1.46162	0.281487	4.68286	0.401061	6.74882	0.579151	8.96667	0.848757	13.1294	0.223452	3.75787	0.436991	7.29108	0.697074	10.7711	0.748308	11.6145
0.283643	4.29312	0.0970134	1.47022	0.281785	4.61627	0.402231	6.66403	0.579735	8.84807	0.849054	12.9474	0.225349	3.73132	0.437547	7.18862	0.697229	10.6206	0.749119	11.4613
0.284035	4.23928	0.0989472	1.47865	0.282097	4.55191	0.40341	6.58196	0.580326	8.73292	0.849356	12.7706	0.227252	3.70566	0.438112	7.08938	0.697391	10.4745	0.749936	11.3126
0.284443	4.18714	0.100885	1.48691	0.282424	4.48968	0.404597	6.50247	0.580926	8.62108	0.849663	12.5987	0.22916	3.68085	0.438686	6.99323	0.69756	10.3324	0.750759	11.168
0.284866	4.13664	0.102827	1.495	0.282765	4.4295	0.405792	6.42546	0.581535	8.51241	0.849973	12.4316	0.231073	3.65684	0.439268	6.90003	0.697736	10.1943	0.751588	11.0275
0.285306	4.08771	0.104773	1.50293	0.283121	4.37128	0.406994	6.35081	0.582071	8.42019	0.850288	12.269	0.23299	3.63361	0.43986	6.80966	0.697918	10.06	0.752423	10.8909
0.285761	4.0403	0.106722	1.51071	0.283492	4.31493	0.408205	6.27842	0.582534	8.34335	0.850607	12.1108	0.234911	3.6111	0.440459	6.72198	0.698107	9.92942	0.753264	10.758
0.286171	4.00017	0.108675	1.51833	0.283878	4.2604	0.409422	6.20819	0.58292	8.28099	0.850931	11.9568	0.236836	3.58929	0.441068	6.6369	0.698303	9.80231	0.754112	10.6287
0.28653	3.96682	0.110631	1.5258	0.28428	4.20759	0.410648	6.14002	0.583227	8.23243	0.851259	11.8068	0.238765	3.56814	0.441685	6.5543	0.698506	9.67858	0.754965	10.5028
0.286834	3.93981	0.112591	1.53312	0.284697	4.15644	0.41188	6.07384	0.583454	8.19714	0.851591	11.6607	0.240698	3.54763	0.44231	6.47407	0.698716	9.55809	0.755825	10.3802
0.287079	3.91882	0.114554	1.54031	0.28513	4.1069	0.413119	6.00954	0.5836	8.17473	0.851927	11.5184	0.242635	3.52773	0.442945	6.39613	0.698932	9.44073	0.75669	10.2608
0.287262	3.90358	0.116267	1.54646	0.285579	4.0589	0.414365	5.94707	0.583811	8.14277	0.852268	11.3796	0.244574	3.50841	0.443588	6.32039	0.699155	9.32637	0.757562	10.1445
0.28738	3.89392	0.117729	1.55162	0.286044	4.01237	0.415618	5.88634	0.58404	8.10834	0.852613	11.2444	0.246517	3.48964	0.444239	6.24675	0.699385	9.21491	0.758439	10.0311
0.287551	3.88014	0.118939	1.55583	0.286525	3.96728	0.416877	5.82728	0.584355	8.06205	0.852962	11.1124	0.248463	3.4714	0.4449	6.17513	0.699622	9.10624	0.759322	9.92049
0.287739	3.86532	0.119896	1.55913	0.287023	3.92356	0.418143	5.76983	0.584755	8.00437	0.853316	10.9837	0.250412	3.45368	0.445569	6.10546	0.699865	9.00026	0.760211	9.81266
0.287999	3.84543	0.120601	1.56153	0.287538	3.88117	0.419415	5.71392	0.585243	7.93587	0.853674	10.8581	0.252364	3.43643	0.446247	6.03767	0.700115	8.89688	0.761106	9.70746
0.288333	3.8207	0.121052	1.56306	0.28807	3.84006	0.420693	5.6595	0.585822	7.85721	0.854036	10.7355	0.254318	3.41966	0.446933	5.97168	0.700372	8.796	0.762006	9.60481
0.288745	3.79139	0.1217	1.56525	0.288619	3.80018	0.421977	5.6065	0.586493	7.76913	0.854403	10.6158	0.256275	3.40333	0.447629	5.90743	0.700636	8.69754	0.762912	9.50461
0.289242	3.75785	0.122406	1.56761	0.289186	3.7615	0.423267	5.55488	0.587173	7.68331	0.854774	10.4989	0.258233	3.38743	0.448333	5.84486	0.700871	8.61365	0.763824	9.40679
0.289828	3.72044	0.123366	1.5708	0.289771	3.72398	0.424563	5.50458	0.587861	7.59966	0.855149	10.3846	0.260194	3.37195	0.449045	5.78389	0.701076	8.54349	0.764742	9.31125
0.290433	3.68414	0.12458	1.57479	0.290374	3.68757	0.425864	5.45555	0.588557	7.5181	0.855528	10.273	0.262157	3.35685	0.449767	5.72449	0.701248	8.4864	0.765665	9.21792
0.291056	3.64891	0.126051	1.57956	0.290995	3.65225	0.427171	5.40774	0.589261	7.43857	0.855912	10.1639	0.264123	3.34214	0.450497	5.66658	0.701385	8.44183	0.766593	9.12673
0.291698	3.61474	0.127777	1.58506	0.291635	3.61797	0.428483	5.36112	0.589973	7.36099	0.8563	10.0572	0.266089	3.3278	0.451236	5.61013	0.701488	8.40939	0.767528	9.0376
0.292358	3.58157	0.12976	1.59127	0.292294	3.58471	0.4298	5.31563	0.590694	7.28529	0.856693	9.95294	0.268058	3.3138	0.451983	5.55508	0.701554	8.38876	0.768468	8.95047
0.293038	3.54939	0.131746	1.59737	0.292972	3.55244	0.431123	5.27125	0.591423	7.21141	0.85709	9.85092	0.270028	3.30015	0.452739	5.50137	0.701649	8.3593	0.769413	8.86528
0.293738	3.51816	0.133733	1.60336	0.29367	3.52112	0.43245	5.22792	0.592159	7.13929	0.857491	9.75111	0.271999	3.28682	0.453504	5.44898	0.701754	8.32754	0.770364	8.78196
0.294457	3.48786	0.135723	1.60924	0.294387	3.49073	0.433782	5.18562	0.592904	7.06887	0.857896	9.65344	0.273972	3.2738	0.454278	5.39785	0.701897	8.28475	0.771196	8.71083
0.295197	3.45845	0.137714	1.61501	0.295125	3.46124	0.435119	5.1443	0.593658	7.00009	0.858306	9.55785	0.275947	3.26108	0.455061	5.34795	0.702081	8.23131	0.77191	8.65126
0.295958	3.42993	0.139708	1.62068	0.295884	3.43263	0.436461	5.10394	0.594419	6.9329	0.85872	9.46427	0.277922	3.24866	0.455852	5.29922	0.702307	8.16768	0.772502	8.60271
0.296739	3.40225	0.141703	1.62625	0.296663	3.40487	0.437807	5.06451	0.595188	6.86725	0.859139	9.37264	0.279898	3.23651	0.456652	5.25164	0.702576	8.09439	0.772971	8.56478
0.297542	3.3754	0.143701	1.63173	0.297464	3.37794	0.439157	5.02596	0.595966	6.80309	0.859562	9.2829	0.281876	3.22464	0.457461	5.20517	0.702892	8.01202	0.773318	8.53714
0.298367	3.34935	0.145699	1.6371	0.298287	3.35182	0.440512	4.98828	0.596751	6.74037	0.859989	9.19499	0.283854	3.21302	0.458279	5.15978	0.703214	7.93146	0.773539	8.51956
0.299214	3.3241	0.1477	1.64239	0.299132	3.32649	0.441871	4.95143	0.597545	6.67905	0.86042	9.10887	0.285833	3.20166	0.459105	5.11542	0.703543	7.85265	0.773859	8.49444
0.300084	3.29961	0.149702	1.64758	0.3	3.30192	0.443235	4.91539	0.598347	6.61908	0.860856	9.02447	0.287812	3.19053	0.45994	5.07207	0.703878	7.77553	0.774207	8.46733
0.300977	3.27587	0.151705	1.65268	0.30089	3.27811	0.444602	4.88013	0.599156	6.56042	0.861296	8.94175	0.289793	3.17965	0.460784	5.0297	0.70422	7.70007	0.774681	8.43078
0.301894	3.25286	0.15371	1.6577	0.301805	3.25503	0.445973	4.84563	0.599974	6.50303	0.861683	8.87099	0.291774	3.16899	0.461637	4.98828	0.704569	7.62619	0.775282	8.3851
0.302835	3.23056	0.155717	1.66263	0.302743	3.23267	0.447349	4.81186	0.6008	6.44688	0.862016	8.81163	0.293755	3.15854	0.462498	4.94778	0.704925	7.55386	0.776012	8.33064
0.3038	3.20897	0.157724	1.66748	0.303706	3.21101	0.448727	4.7788	0.601634	6.39192	0.862293	8.76319	0.295737	3.14831	0.463369	4.90817	0.705287	7.48303	0.776872	8.26781
0.304791	3.18806	0.159733	1.67225	0.304695	3.19004	0.45011	4.74643	0.602476	6.33813	0.862513	8.7253	0.297718	3.13828	0.464248	4.86942	0.705656	7.41366	0.777864	8.19708
0.305807	3.16782	0.161743	1.67693	0.305708	3.16973	0.451496	4.71473	0.603326	6.28547	0.862675	8.69767	0.299701	3.12845	0.465136	4.83152	0.706031	7.3457	0.778861	8.12779
0.30685	3.14823	0.163755	1.68154	0.306749	3.15009	0.452886	4.68367	0.604184	6.2339	0.862779	8.68008	0.301683	3.11881	0.466033	4.79444	0.706413	7.27912	0.779863	8.05988
0.307919	3.12929	0.165767	1.68608	0.307815	3.13108	0.454279	4.65324	0.60505	6.18339	0.862929	8.65494	0.303665	3.10935	0.466938	4.75815	0.706802	7.21386	0.78087	7.99332
0.309016	3.11098	0.167781	1.69054	0.308909	3.11271	0.455676	4.62342	0.605924	6.13392	0.863093	8.62779	0.305647	3.10008	0.467853	4.72263	0.707197	7.14991	0.781882	7.92807
0.31014	3.09329	0.169795	1.69492	0.310031	3.09496	0.457076	4.5942	0.606806	6.08545	0.863317	8.59116	0.30763	3.09097	0.468776	4.68786	0.707599	7.08721	0.7829	7.8641
0.311293	3.0762	0.171811	1.69924	0.311181	3.07782	0.458479	4.56554	0.607696	6.03795	0.863602	8.54532	0.309612	3.08203	0.469708	4.65382	0.708008	7.02574	0.783922	7.80136
0.312475	3.05971	0.173827	1.70348	0.31236	3.06127	0.459885	4.53745	0.608593	5.99141	0.863948	8.4906	0.311593	3.07326	0.470649	4.62049	0.708422	6.96546	0.784949	7.73982
0.313686	3.0438	0.175844	1.70766	0.313569	3.0453	0.461294	4.50989	0.609499	5.94579	0.864357	8.42737	0.313575	3.06464	0.471599	4.58785	0.708844	6.90634	0.785982	7.67945
0.314928	3.02847	0.177862	1.71177	0.314807	3.02991	0.462706	4.48287	0.610413	5.90107	0.86483	8.35608	0.315556	3.05618	0.472558	4.55589	0.709272	6.84834	0.787019	7.62021
0.316199	3.01369	0.179881	1.71582	0.316076	3.01509	0.464121	4.45635	0.611334	5.85722	0.865308	8.28611	0.317537	3.04786	0.473525	4.52457	0.709707	6.79144	0.788061	7.56209
0.317501	2.99947	0.181901	1.7198	0.317375	3.00081	0.465539	4.43033	0.612264	5.81423	0.86579	8.21741	0.319517	3.03968	0.474502	4.4939	0.710148	6.73561	0.789108	7.50504
0.318835	2.98578	0.183921	1.72372	0.318705	2.98707	0.46696	4.40479	0.613201	5.77206	0.866277	8.14996	0.321497	3.03164	0.475487	4.46384	0.710596	6.68082	0.79016	7.44903
0.320199	2.97263	0.185942	1.72757	0.320067	2.97387	0.468383	4.37973	0.614146	5.7307	0.866768	8.08372	0.323476	3.02374	0.476481	4.43439	0.71105	6.62704	0.791217	7.39405
0.321596	2.95999	0.187964	1.73137	0.32146	2.96118	0.469809	4.35512	0.615099	5.69012	0.867263	8.01867	0.325454	3.01597	0.477484	4.40552	0.71151	6.57424	0.792279	7.34006
0.323024	2.94786	0.189987	1.73511	0.322886	2.949	0.471237	4.33096	0.61606	5.65031	0.867763	7.95476	0.327432	3.00832	0.478496	4.37723	0.711977	6.52241	0.793345	7.28704
0.324484	2.93622	0.19201	1.73879	0.324343	2.93731	0.472668	4.30723	0.617029	5.61125	0.868267	7.89198	0.329409	3.0008	0.479517	4.3495	0.712451	6.47151	0.794416	7.23497
0.325977	2.92506	0.194033	1.74241	0.325832	2.92611	0.474102	4.28392	0.618005	5.57291	0.868775	7.83028	0.331385	2.99339	0.480547	4.32231	0.712931	6.42153	0.795492	7.18381
0.327501	2.91438	0.196057	1.74598	0.327354	2.91538	0.475538	4.26102	0.618989	5.53528	0.869288	7.76966	0.33336	2.9861	0.481585	4.29565	0.713417	6.37243	0.796572	7.13354
0.329058	2.90415	0.198082	1.74949	0.328907	2.90511	0.476976	4.23852	0.619981	5.49834	0.869805	7.71008	0.335334	2.97892	0.482633	4.26952	0.71391	6.3242	0.797657	7.08415
0.330646	2.89436	0.200107	1.75295	0.330492	2.89528	0.478416	4.21642	0.620981	5.46207	0.870326	7.65151	0.337307	2.97186	0.483689	4.24388	0.714409	6.27682	0.798747	7.03561
0.332265	2.88501	0.202132	1.75636	0.332108	2.88589	0.479859	4.19469	0.621988	5.42646	0.870852	7.59393	0.33928	2.96489	0.484755	4.21874	0.714915	6.23026	0.799841	6.9879
0.333916	2.87608	0.204158	1.75972	0.333756	2.87692	0.481304	4.17333	0.623004	5.39149	0.871382	7.53731	0.341251	2.95803	0.485829	4.19408	0.715427	6.18451	0.80094	6.941
0.335597	2.86755	0.206184	1.76303	0.335435	2.86835	0.482751	4.15233	0.624026	5.35715	0.871916	7.48164	0.34322	2.95127	0.486912	4.1699	0.715945	6.13954	0.802043	6.89489
0.337309	2.85941	0.208211	1.76628	0.337143	2.86017	0.4842	4.13168	0.625057	5.32342	0.872455	7.42689	0.345189	2.94461	0.488004	4.14617	0.71647	6.09534	0.803151	6.84956
0.33905	2.85164	0.210238	1.76949	0.338881	2.85237	0.485651	4.11138	0.626095	5.29028	0.872998	7.37303	0.347156	2.93804	0.489105	4.12288	0.717001	6.05189	0.804263	6.80497
0.34082	2.84424	0.212265	1.77265	0.340649	2.84494	0.487104	4.09141	0.627141	5.25773	0.873546	7.32006	0.349122	2.93157	0.490215	4.10004	0.717538	6.00917	0.805379	6.76112
0.342618	2.83719	0.214293	1.77577	0.342444	2.83785	0.488559	4.07176	0.628194	5.22574	0.874098	7.26794	0.351087	2.92518	0.491334	4.07762	0.718082	5.96716	0.8065	6.71798
0.344444	2.83047	0.216321	1.77884	0.344267	2.8311	0.490016	4.05244	0.629255	5.19431	0.874654	7.21666	0.35305	2.91888	0.492461	4.05562	0.718632	5.92585	0.807626	6.67555
0.346296	2.82407	0.218349	1.78186	0.346117	2.82467	0.491474	4.03342	0.630323	5.16341	0.875214	7.16619	0.355012	2.91266	0.493598	4.03403	0.719188	5.88522	0.808756	6.6338
0.348174	2.81797	0.220377	1.78485	0.347993	2.81855	0.492935	4.01471	0.631399	5.13305	0.875779	7.11653	0.356972	2.90653	0.494743	4.01283	0.719751	5.84526	0.80989	6.59272
0.350077	2.81217	0.222405	1.78778	0.349893	2.81272	0.494397	3.99629	0.632483	5.10321	0.876349	7.06765	0.358931	2.90047	0.495898	3.99203	0.720319	5.80595	0.811028	6.55229
0.352004	2.80664	0.224434	1.79068	0.351818	2.80716	0.495861	3.97817	0.633574	5.07387	0.876922	7.01953	0.360888	2.8945	0.497061	3.97161	0.720894	5.76727	0.81217	6.5125
0.353954	2.80138	0.226462	1.79353	0.353766	2.80188	0.497326	3.96032	0.634672	5.04502	0.8775	6.97216	0.362844	2.88859	0.498233	3.95156	0.721476	5.72922	0.813317	6.47334
0.355927	2.79637	0.228491	1.79635	0.355736	2.79684	0.498794	3.94275	0.635778	5.01666	0.878083	6.92552	0.364798	2.88277	0.499414	3.93187	0.722063	5.69177	0.814468	6.43478
0.35792	2.7916	0.23052	1.79912	0.357728	2.79205	0.500262	3.92545	0.636892	4.98877	0.878669	6.87959	0.36675	2.87701	0.500605	3.91254	0.722657	5.65492	0.815623	6.39682
0.359934	2.78706	0.232549	1.80185	0.35974	2.78748	0.501733	3.90842	0.638012	4.96134	0.879261	6.83437	0.3687	2.87133	0.501804	3.89356	0.723257	5.61865	0.816783	6.35944
0.361968	2.78273	0.234578	1.80455	0.361772	2.78314	0.503204	3.89164	0.63914	4.93436	0.879856	6.78982	0.370649	2.86571	0.503011	3.87492	0.723863	5.58295	0.817946	6.32263
0.36402	2.7786	0.236607	1.8072	0.363822	2.77899	0.504678	3.87511	0.640276	4.90783	0.880456	6.74595	0.372596	2.86016	0.504228	3.85661	0.724475	5.54781	0.819113	6.28638
0.36609	2.77467	0.238636	1.80982	0.365891	2.77504	0.506152	3.85883	0.641418	4.88172	0.88106	6.70273	0.374541	2.85467	0.505454	3.83863	0.725093	5.51321	0.820285	6.25068
0.368177	2.77092	0.240666	1.8124	0.367976	2.77127	0.507629	3.84279	0.642568	4.85604	0.881669	6.66015	0.376484	2.84925	0.506688	3.82097	0.725717	5.47914	0.82146	6.21551
0.37028	2.76734	0.242695	1.81495	0.370077	2.76768	0.509106	3.82698	0.643726	4.83077	0.882282	6.61821	0.378425	2.84389	0.507931	3.80362	0.726348	5.44559	0.82264	6.18086
0.372398	2.76393	0.244724	1.81746	0.372194	2.76425	0.510585	3.8114	0.64489	4.80591	0.882899	6.57687	0.380364	2.83858	0.509184	3.78658	0.726985	5.41256	0.823823	6.14672
0.374531	2.76067	0.246753	1.81994	0.374325	2.76097	0.512065	3.79605	0.646062	4.78144	0.883521	6.53614	0.382301	2.83334	0.510445	3.76984	0.727627	5.38002	0.82501	6.11309
0.376677	2.75755	0.248782	1.82238	0.376471	2.75784	0.513547	3.78092	0.647241	4.75736	0.884147	6.496	0.384237	2.82815	0.511715	3.75339	0.728276	5.34798	0.826201	6.07994
0.378837	2.75457	0.250811	1.82479	0.378629	2.75485	0.51503	3.76601	0.648426	4.73366	0.884777	6.45643	0.38617	2.82302	0.512993	3.73723	0.728931	5.31641	0.827397	6.04727
0.381009	2.75173	0.252839	1.82716	0.3808	2.75199	0.516514	3.7513	0.649619	4.71033	0.885412	6.41743	0.388101	2.81795	0.514281	3.72135	0.729592	5.28532	0.828595	6.01507
0.383193	2.749	0.254868	1.82951	0.382983	2.74926	0.517999	3.7368	0.65082	4.68737	0.886051	6.37899	0.39003	2.81292	0.515577	3.70575	0.730259	5.25468	0.829798	5.98334
0.385388	2.74639	0.256897	1.83182	0.385177	2.74664	0.519486	3.72251	0.652027	4.66476	0.886695	6.34109	0.391956	2.80795	0.516882	3.69042	0.730931	5.2245	0.831005	5.95205
0.387594	2.74389	0.258925	1.8341	0.387382	2.74413	0.520974	3.70841	0.653241	4.6425	0.887343	6.30372	0.393881	2.80303	0.518196	3.67535	0.73161	5.19476	0.832215	5.9212
0.38981	2.7415	0.260954	1.83634	0.389597	2.74172	0.522463	3.69451	0.654462	4.62059	0.887995	6.26688	0.395803	2.79816	0.519519	3.66054	0.732295	5.16545	0.833429	5.89079
0.392035	2.7392	0.262982	1.83856	0.391821	2.73942	0.523953	3.6808	0.65569	4.599	0.888651	6.23054	0.397723	2.79333	0.52085	3.64599	0.732986	5.13657	0.834646	5.8608
0.39427	2.73699	0.26501	1.84075	0.394055	2.7372	0.525444	3.66727	0.656925	4.57775	0.889313	6.19471	0.399641	2.78856	0.522191	3.63168	0.733683	5.1081	0.835868	5.83123
0.396513	2.73488	0.267037	1.84291	0.396297	2.73508	0.526937	3.65393	0.658167	4.55682	0.889978	6.15937	0.401557	2.78382	0.523539	3.61762	0.734386	5.08004	0.837093	5.80206
0.398764	2.73284	0.269065	1.84504	0.398547	2.73303	0.528431	3.64076	0.659416	4.5362	0.890648	6.12452	0.40347	2.77914	0.524897	3.6038	0.735094	5.05238	0.838321	5.77329
0.401022	2.73088	0.271092	1.84714	0.400805	2.73107	0.529925	3.62777	0.660671	4.5159	0.891322	6.09013	0.405382	2.7745	0.526263	3.59022	0.735809	5.02511	0.839553	5.74492
0.403288	2.729	0.273119	1.84921	0.40307	2.72918	0.531421	3.61496	0.661933	4.49589	0.892	6.05622	0.40729	2.7699	0.527638	3.57686	0.736529	4.99823	0.840789	5.71692
0.405561	2.72718	0.275146	1.85126	0.405342	2.72735	0.532918	3.60231	0.663202	4.47619	0.892683	6.02275	0.409197	2.76534	0.529022	3.56373	0.737256	4.97172	0.842028	5.68931
0.40784	2.72544	0.277173	1.85327	0.407621	2.7256	0.534416	3.58982	0.664478	4.45677	0.893371	5.98974	0.411101	2.76083	0.530414	3.55082	0.737988	4.94559	0.84327	5.66206
0.410126	2.72375	0.279199	1.85526	0.409906	2.72391	0.535915	3.5775	0.66576	4.43764	0.894062	5.95717	0.413003	2.75635	0.531815	3.53813	0.738726	4.91982	0.844517	5.63517
0.412417	2.72212	0.281225	1.85723	0.412197	2.72228	0.537415	3.56534	0.667049	4.41879	0.894758	5.92502	0.414902	2.75192	0.533224	3.52565	0.73947	4.8944	0.845766	5.60864
0.414714	2.72055	0.283251	1.85917	0.414493	2.7207	0.538916	3.55334	0.668345	4.40022	0.895459	5.8933	0.416799	2.74752	0.534642	3.51338	0.74022	4.86934	0.847019	5.58246
0.417016	2.71904	0.285276	1.86108	0.416795	2.71918	0.540418	3.54149	0.669647	4.38191	0.896163	5.86199	0.418694	2.74316	0.536068	3.50132	0.740975	4.84461	0.848275	5.55662
0.419323	2.71757	0.287301	1.86297	0.419101	2.71771	0.541922	3.52979	0.670956	4.36387	0.896873	5.8311	0.420586	2.73884	0.537503	3.48946	0.741737	4.82023	0.849535	5.53111
0.421635	2.71615	0.289326	1.86483	0.421413	2.71629	0.543426	3.51823	0.672271	4.34608	0.897586	5.8006	0.422476	2.73456	0.538946	3.47779	0.742504	4.79618	0.850798	5.50594
0.423951	2.71478	0.291351	1.86667	0.423729	2.71491	0.544931	3.50683	0.673592	4.32855	0.898304	5.77049	0.424364	2.73031	0.540397	3.46632	0.743277	4.77245	0.852064	5.48108
0.426272	2.71345	0.293375	1.86849	0.426049	2.71358	0.546437	3.49556	0.67492	4.31128	0.899026	5.74077	0.426249	2.7261	0.541857	3.45503	0.744056	4.74904	0.853333	5.45655
0.428596	2.71216	0.295399	1.87028	0.428373	2.71228	0.547945	3.48444	0.676254	4.29424	0.899753	5.71143	0.428131	2.72192	0.543326	3.44394	0.74484	4.72594	0.854606	5.43232
0.430924	2.71091	0.297422	1.87205	0.430701	2.71103	0.549453	3.47345	0.677595	4.27745	0.900484	5.68247	0.430012	2.71777	0.544802	3.43302	0.74563	4.70315	0.855882	5.4084
0.433256	2.7097	0.299445	1.87379	0.433032	2.70981	0.550963	3.4626	0.678941	4.26089	0.90122	5.65387	0.431889	2.71366	0.546287	3.42229	0.746426	4.68066	0.857161	5.38478
0.435591	2.70852	0.301468	1.87551	0.435367	2.70863	0.552473	3.45188	0.680294	4.24456	0.901959	5.62563	0.433765	2.70959	0.54778	3.41173	0.747228	4.65847	0.858443	5.36146
0.43793	2.70738	0.30349	1.87721	0.437705	2.70748	0.553985	3.44129	0.681653	4.22846	0.902704	5.59774	0.435638	2.70554	0.549281	3.40134	0.748035	4.63658	0.859728	5.33842
0.440271	2.70626	0.305512	1.87889	0.440046	2.70637	0.555498	3.43083	0.683019	4.21258	0.903452	5.5702	0.437509	2.70152	0.550791	3.39112	0.748848	4.61496	0.861017	5.31567
0.442615	2.70518	0.307533	1.88055	0.44239	2.70528	0.557011	3.4205	0.68439	4.19692	0.904205	5.543	0.439377	2.69754	0.552308	3.38107	0.749667	4.59363	0.862308	5.29319
0.444962	2.70413	0.309554	1.88218	0.444737	2.70423	0.558526	3.41029	0.685767	4.18148	0.904963	5.51614	0.441243	2.69359	0.553834	3.37118	0.750491	4.57258	0.863603	5.27099
0.447312	2.7031	0.311575	1.8838	0.447086	2.7032	0.560042	3.4002	0.687151	4.16625	0.905724	5.48961	0.443106	2.68967	0.555367	3.36145	0.751321	4.5518	0.8649	5.24906
0.449664	2.7021	0.313595	1.88539	0.449438	2.70219	0.561559	3.39023	0.68854	4.15122	0.90649	5.4634	0.444967	2.68578	0.556909	3.35188	0.752157	4.53128	0.866201	5.2274
0.452018	2.70112	0.315615	1.88696	0.451792	2.70122	0.563077	3.38038	0.689935	4.1364	0.907261	5.43751	0.446826	2.68191	0.558458	3.34246	0.752998	4.51103	0.867504	5.20599
0.454374	2.70017	0.317634	1.88851	0.454148	2.70026	0.564596	3.37065	0.691337	4.12177	0.908036	5.41193	0.448683	2.67808	0.560015	3.33319	0.753845	4.49104	0.86881	5.18484
0.456733	2.69924	0.319653	1.89005	0.456506	2.69933	0.566116	3.36103	0.692743	4.10734	0.908815	5.38667	0.450537	2.67427	0.56158	3.32408	0.754697	4.4713	0.87012	5.16394
0.459093	2.69833	0.321671	1.89156	0.458866	2.69842	0.567637	3.35152	0.694156	4.09311	0.909599	5.3617	0.452388	2.6705	0.563153	3.3151	0.755555	4.45181	0.871432	5.14329
0.461455	2.69744	0.323689	1.89305	0.461228	2.69753	0.56916	3.34213	0.695574	4.07906	0.910387	5.33704	0.454238	2.66675	0.564734	3.30627	0.756419	4.43256	0.872747	5.12288
0.463818	2.69657	0.325706	1.89453	0.463591	2.69666	0.570684	3.33284	0.696999	4.0652	0.911179	5.31266	0.456085	2.66303	0.566322	3.29758	0.757288	4.41356	0.874064	5.10271
0.466184	2.69572	0.327723	1.89599	0.465956	2.6958	0.572208	3.32366	0.698428	4.05153	0.911976	5.28858	0.45793	2.65933	0.567917	3.28903	0.758162	4.39479	0.875385	5.08277
0.46855	2.69489	0.329739	1.89742	0.468323	2.69497	0.573734	3.31459	0.699864	4.03803	0.912777	5.26478	0.459773	2.65567	0.569521	3.28062	0.759043	4.37626	0.876708	5.06307
0.470918	2.69407	0.331755	1.89884	0.470691	2.69415	0.575262	3.30562	0.701304	4.02471	0.913583	5.24126	0.461614	2.65203	0.571131	3.27233	0.759928	4.35796	0.878034	5.04359
0.473287	2.69327	0.33377	1.90024	0.47306	2.69335	0.57679	3.29675	0.702751	4.01156	0.914393	5.21802	0.463452	2.64841	0.57275	3.26418	0.760819	4.33988	0.879363	5.02433
0.475658	2.69248	0.335785	1.90163	0.47543	2.69256	0.57832	3.28799	0.704203	3.99858	0.915207	5.19504	0.465288	2.64482	0.574375	3.25615	0.761716	4.32202	0.880694	5.00529
0.478029	2.69171	0.337799	1.90299	0.477802	2.69179	0.579851	3.27932	0.70566	3.98577	0.916026	5.17234	0.467122	2.64126	0.576008	3.24825	0.762618	4.30439	0.882028	4.98647
0.480402	2.69095	0.339813	1.90434	0.480174	2.69103	0.581383	3.27075	0.707122	3.97312	0.916849	5.14989	0.468954	2.63772	0.577648	3.24047	0.763526	4.28697	0.883365	4.96786
0.482775	2.69021	0.341826	1.90568	0.482547	2.69028	0.582917	3.26228	0.70859	3.96063	0.917676	5.1277	0.470784	2.63421	0.579295	3.23282	0.764439	4.26976	0.884704	4.94945
0.485149	2.68947	0.343839	1.90699	0.484921	2.68954	0.584452	3.2539	0.710063	3.9483	0.918508	5.10577	0.472612	2.63072	0.580949	3.22528	0.765358	4.25276	0.886046	4.93126
0.487524	2.68875	0.345851	1.90829	0.487296	2.68882	0.585988	3.24562	0.711541	3.93613	0.919345	5.08409	0.474438	2.62726	0.582611	3.21786	0.766282	4.23596	0.88739	4.91326
0.4899	2.68804	0.347862	1.90957	0.489671	2.68811	0.587526	3.23743	0.713025	3.92411	0.920185	5.06265	0.476261	2.62382	0.584279	3.21055	0.767211	4.21937	0.888737	4.89547
0.492276	2.68734	0.349873	1.91084	0.492047	2.68741	0.589065	3.22933	0.714513	3.91224	0.92103	5.04146	0.478083	2.62041	0.585954	3.20336	0.768146	4.20297	0.890086	4.87786
0.494652	2.68665	0.351884	1.91209	0.494424	2.68671	0.590606	3.22133	0.716007	3.90052	0.92188	5.02051	0.479903	2.61702	0.587636	3.19627	0.769086	4.18677	0.891438	4.86045
0.497029	2.68597	0.353894	1.91332	0.496801	2.68603	0.592148	3.21341	0.717505	3.88895	0.922734	4.99979	0.481721	2.61366	0.589325	3.1893	0.770032	4.17077	0.892792	4.84323
0.499407	2.68529	0.355903	1.91454	0.499178	2.68536	0.593691	3.20558	0.719009	3.87752	0.923592	4.9793	0.483538	2.61031	0.59102	3.18242	0.770983	4.15495	0.894148	4.8262
0.501784	2.68463	0.357911	1.91574	0.501556	2.68469	0.595236	3.19783	0.720517	3.86623	0.924455	4.95904	0.485352	2.607	0.592722	3.17566	0.771939	4.13932	0.895507	4.80935
0.504162	2.68397	0.359919	1.91693	0.503934	2.68404	0.596783	3.19017	0.72203	3.85507	0.925322	4.93901	0.487165	2.6037	0.594431	3.16899	0.772901	4.12388	0.896868	4.79268
0.50654	2.68332	0.361927	1.91811	0.506312	2.68339	0.598331	3.1826	0.723548	3.84406	0.926193	4.9192	0.488975	2.60043	0.596146	3.16243	0.773868	4.10861	0.898232	4.77619
0.508918	2.68268	0.363934	1.91926	0.50869	2.68274	0.599881	3.17511	0.725071	3.83317	0.927069	4.8996	0.490784	2.59718	0.597867	3.15596	0.774841	4.09353	0.899598	4.75987
0.511296	2.68204	0.36594	1.92041	0.511068	2.6821	0.601433	3.1677	0.726599	3.82242	0.927949	4.88023	0.492592	2.59396	0.599595	3.14959	0.775819	4.07862	0.900966	4.74372
0.513674	2.68141	0.367945	1.92154	0.513446	2.68147	0.602986	3.16037	0.728131	3.8118	0.928834	4.86106	0.494398	2.59076	0.601329	3.14332	0.776802	4.06388	0.902336	4.72775
0.516052	2.68079	0.36995	1.92265	0.515824	2.68085	0.604541	3.15312	0.729668	3.8013	0.929723	4.8421	0.496202	2.58758	0.603069	3.13713	0.77779	4.04931	0.903709	4.71194
0.51843	2.68017	0.371955	1.92376	0.518202	2.68023	0.606098	3.14596	0.731209	3.79093	0.930616	4.82335	0.498005	2.58442	0.604815	3.13104	0.778784	4.03492	0.905084	4.69629
0.520807	2.67955	0.373958	1.92484	0.520579	2.67961	0.607657	3.13887	0.732755	3.78068	0.931514	4.8048	0.499806	2.58129	0.606568	3.12504	0.779783	4.02068	0.906461	4.68081
0.523185	2.67894	0.375961	1.92592	0.522956	2.679	0.609217	3.13186	0.734305	3.77056	0.932416	4.78645	0.501606	2.57818	0.608326	3.11913	0.780788	4.00662	0.90784	4.66548
0.525561	2.67833	0.377964	1.92698	0.525333	2.67839	0.610779	3.12492	0.73586	3.76055	0.933323	4.7683	0.503404	2.57509	0.61009	3.1133	0.781797	3.99271	0.909221	4.65031
0.527938	2.67773	0.379965	1.92803	0.52771	2.67779	0.612344	3.11806	0.737419	3.75066	0.934234	4.75034	0.505201	2.57203	0.61186	3.10756	0.782812	3.97896	0.910605	4.6353
0.530314	2.67713	0.381967	1.92906	0.530085	2.67719	0.61391	3.11128	0.738982	3.74088	0.935149	4.73258	0.506996	2.56898	0.613635	3.1019	0.783832	3.96537	0.91199	4.62044
0.532689	2.67653	0.383967	1.93008	0.532461	2.67659	0.615479	3.10457	0.74055	3.73122	0.936069	4.715	0.508791	2.56596	0.615416	3.09632	0.784858	3.95193	0.913377	4.60573
0.535063	2.67594	0.385967	1.93109	0.534836	2.67599	0.617049	3.09793	0.742121	3.72167	0.936993	4.69761	0.510584	2.56296	0.617203	3.09082	0.785889	3.93864	0.914767	4.59117
0.537437	2.67534	0.387966	1.93208	0.537209	2.6754	0.618622	3.09137	0.743697	3.71223	0.937921	4.6804	0.512376	2.55998	0.618995	3.08539	0.786925	3.9255	0.916158	4.57675
0.539811	2.67475	0.389964	1.93307	0.539583	2.67481	0.620197	3.08487	0.745277	3.70289	0.938854	4.66338	0.514166	2.55702	0.620792	3.08005	0.787966	3.91251	0.917552	4.56247
0.542183	2.67416	0.391962	1.93404	0.541955	2.67422	0.621774	3.07845	0.746861	3.69366	0.939792	4.64653	0.515956	2.55409	0.622595	3.07478	0.789012	3.89967	0.918947	4.54834
0.544554	2.67357	0.393959	1.935	0.544327	2.67363	0.623353	3.0721	0.748449	3.68454	0.940734	4.62986	0.517744	2.55118	0.624403	3.06959	0.790064	3.88697	0.920344	4.53435
0.546925	2.67298	0.395956	1.93594	0.546697	2.67304	0.624935	3.06582	0.750041	3.67552	0.94168	4.61336	0.519532	2.54829	0.626216	3.06446	0.791121	3.87441	0.921743	4.52049
0.549294	2.67239	0.397952	1.93688	0.549067	2.67245	0.626519	3.0596	0.751637	3.6666	0.94263	4.59703	0.521318	2.54542	0.628034	3.05941	0.792183	3.86199	0.923144	4.50677
0.551663	2.67181	0.399947	1.9378	0.551435	2.67186	0.628106	3.05346	0.753237	3.65778	0.943585	4.58088	0.523104	2.54257	0.629857	3.05443	0.793251	3.8497	0.924547	4.49318
0.55403	2.67122	0.401941	1.93871	0.553803	2.67127	0.629695	3.04738	0.754841	3.64906	0.944545	4.56489	0.524888	2.53974	0.631685	3.04952	0.794323	3.83756	0.925952	4.47972
0.556396	2.67063	0.403935	1.93961	0.556169	2.67068	0.631287	3.04137	0.756448	3.64043	0.945508	4.54906	0.526672	2.53693	0.633518	3.04467	0.795401	3.82555	0.927358	4.46639
0.558761	2.67004	0.405928	1.9405	0.558534	2.67009	0.632881	3.03543	0.758059	3.6319	0.946477	4.5334	0.528455	2.53415	0.635355	3.03989	0.796484	3.81366	0.928767	4.45319
0.561124	2.66945	0.40792	1.94138	0.560897	2.6695	0.634478	3.02955	0.759674	3.62346	0.947449	4.5179	0.530237	2.53139	0.637198	3.03517	0.797572	3.80191	0.930176	4.44012
0.563486	2.66885	0.409912	1.94225	0.563259	2.66891	0.636078	3.02374	0.761292	3.61511	0.948426	4.50255	0.532019	2.52864	0.639044	3.03052	0.798665	3.79029	0.931588	4.42717
0.565846	2.66826	0.411903	1.9431	0.56562	2.66831	0.637681	3.01799	0.762914	3.60686	0.949408	4.48736	0.533799	2.52592	0.640895	3.02593	0.799764	3.7788	0.933002	4.41434
0.568205	2.66766	0.413893	1.94395	0.567978	2.66772	0.639287	3.01231	0.764539	3.59869	0.950393	4.47233	0.535579	2.52322	0.642751	3.0214	0.800867	3.76743	0.934417	4.40163
0.570562	2.66706	0.415882	1.94478	0.570336	2.66712	0.640895	3.00669	0.766168	3.59061	0.951384	4.45744	0.537359	2.52054	0.644611	3.01693	0.801976	3.75618	0.935833	4.38904
0.572917	2.66646	0.417871	1.9456	0.572691	2.66651	0.642507	3.00113	0.7678	3.58262	0.952378	4.44271	0.539138	2.51788	0.646475	3.01252	0.80309	3.74505	0.937252	4.37657
0.575271	2.66585	0.419859	1.94642	0.575045	2.66591	0.644122	2.99564	0.769436	3.57471	0.953377	4.42813	0.540917	2.51524	0.648343	3.00816	0.804209	3.73405	0.938672	4.36421
0.577622	2.66524	0.421846	1.94722	0.577397	2.6653	0.64574	2.99021	0.771075	3.56688	0.954381	4.41369	0.542695	2.51263	0.650215	3.00386	0.805333	3.72316	0.940093	4.35197
0.579972	2.66463	0.423833	1.94801	0.579746	2.66469	0.647361	2.98484	0.772717	3.55914	0.955389	4.39939	0.544472	2.51003	0.652092	2.99962	0.806463	3.71239	0.941516	4.33984
0.582319	2.66401	0.425819	1.94879	0.582094	2.66407	0.648986	2.97953	0.774362	3.55148	0.956401	4.38524	0.546249	2.50745	0.653972	2.99543	0.807597	3.70174	0.942941	4.32782
0.584664	2.66338	0.427804	1.94957	0.584439	2.66344	0.650614	2.97428	0.776011	3.54389	0.957418	4.37123	0.548026	2.5049	0.655856	2.9913	0.808737	3.6912	0.944367	4.31591
0.587007	2.66276	0.429789	1.95033	0.586783	2.66282	0.652246	2.96909	0.777662	3.53639	0.958439	4.35735	0.549803	2.50236	0.657744	2.98721	0.809882	3.68077	0.945794	4.30411
0.589348	2.66212	0.431772	1.95108	0.589123	2.66218	0.653881	2.96397	0.779317	3.52896	0.959465	4.34362	0.551579	2.49984	0.659635	2.98318	0.811032	3.67046	0.947224	4.29241
0.591686	2.66148	0.433755	1.95182	0.591462	2.66155	0.65552	2.9589	0.780975	3.52161	0.960494	4.33002	0.553356	2.49735	0.66153	2.9792	0.812187	3.66025	0.948654	4.28082
0.594022	2.66084	0.435738	1.95256	0.593798	2.6609	0.657163	2.95389	0.782636	3.51434	0.961529	4.31655	0.555132	2.49487	0.663429	2.97526	0.813347	3.65015	0.950086	4.26933
0.596355	2.66019	0.437719	1.95328	0.596131	2.66025	0.65881	2.94895	0.784299	3.50713	0.962568	4.30321	0.556908	2.49242	0.665331	2.97138	0.814513	3.64016	0.951519	4.25795
0.598685	2.65953	0.4397	1.954	0.598461	2.65959	0.660461	2.94406	0.785966	3.5	0.963611	4.29001	0.558683	2.48998	0.667236	2.96754	0.815683	3.63028	0.952954	4.24666
0.601012	2.65886	0.44168	1.9547	0.600789	2.65893	0.662116	2.93923	0.787635	3.49295	0.964659	4.27693	0.560459	2.48757	0.669144	2.96374	0.816859	3.6205	0.95439	4.23548
0.603337	2.65819	0.443659	1.9554	0.603114	2.65825	0.663775	2.93446	0.789307	3.48596	0.965711	4.26398	0.562235	2.48517	0.671056	2.96	0.818039	3.61082	0.955828	4.22439
0.605658	2.65751	0.445638	1.95609	0.605435	2.65757	0.665439	2.92974	0.790982	3.47904	0.966767	4.25116	0.564011	2.4828	0.672971	2.95629	0.819225	3.60125	0.957266	4.2134
0.607976	2.65682	0.447616	1.95677	0.607754	2.65688	0.667107	2.92509	0.79266	3.47219	0.967828	4.23846	0.565786	2.48044	0.674889	2.95263	0.820416	3.59177	0.958706	4.2025
0.610291	2.65612	0.449593	1.95744	0.610069	2.65619	0.668779	2.92049	0.79434	3.46541	0.968893	4.22588	0.567562	2.4781	0.67681	2.94902	0.821612	3.58239	0.960148	4.1917
0.612603	2.65541	0.451569	1.9581	0.612381	2.65548	0.670456	2.91595	0.796023	3.45869	0.969963	4.21343	0.569338	2.47579	0.678733	2.94544	0.822814	3.57312	0.96159	4.18099
0.614911	2.6547	0.453545	1.95875	0.614689	2.65476	0.672138	2.91147	0.797709	3.45204	0.971037	4.20109	0.571115	2.47349	0.68066	2.94191	0.82402	3.56394	0.963034	4.17037
0.617215	2.65397	0.455519	1.9594	0.616994	2.65404	0.673825	2.90704	0.799397	3.44546	0.972116	4.18887	0.572891	2.47121	0.682589	2.93841	0.825231	3.55485	0.964479	4.15985
0.619516	2.65323	0.457494	1.96003	0.619295	2.6533	0.675517	2.90268	0.801088	3.43893	0.973199	4.17677	0.574668	2.46895	0.684521	2.93496	0.826448	3.54586	0.965925	4.14941
0.621812	2.65248	0.459467	1.96066	0.621592	2.65256	0.677214	2.89836	0.80278	3.43247	0.974287	4.16479	0.576445	2.46671	0.686456	2.93154	0.82767	3.53696	0.967373	4.13906
0.624105	2.65172	0.46144	1.96128	0.623885	2.6518	0.678916	2.89411	0.804476	3.42607	0.975379	4.15291	0.578222	2.46449	0.688393	2.92816	0.828897	3.52816	0.968821	4.1288
0.626394	2.65095	0.463411	1.96189	0.626174	2.65103	0.680624	2.88991	0.806174	3.41973	0.976475	4.14115	0.58	2.46229	0.690332	2.92482	0.830129	3.51945	0.970271	4.11863
0.628678	2.65017	0.465382	1.9625	0.628459	2.65025	0.682337	2.88577	0.807874	3.41345	0.977576	4.12951	0.581778	2.46011	0.692274	2.92152	0.831366	3.51082	0.971722	4.10854
0.630958	2.64938	0.467353	1.96309	0.630739	2.64945	0.684056	2.88168	0.809576	3.40723	0.978681	4.11797	0.583556	2.45795	0.694218	2.91825	0.832608	3.50229	0.973173	4.09853
0.633233	2.64857	0.469322	1.96368	0.633015	2.64865	0.685781	2.87766	0.811281	3.40107	0.979791	4.10654	0.585335	2.4558	0.696164	2.91501	0.833855	3.49384	0.974626	4.08861
0.635504	2.64775	0.471291	1.96426	0.635286	2.64783	0.687511	2.87368	0.812987	3.39497	0.980905	4.09522	0.587114	2.45368	0.698113	2.91181	0.835108	3.48548	0.97608	4.07876
0.637769	2.64691	0.473259	1.96484	0.637552	2.64699	0.689248	2.86977	0.814696	3.38892	0.982023	4.084	0.588894	2.45157	0.700063	2.90864	0.836365	3.47721	0.977535	4.069
0.64003	2.64606	0.475227	1.9654	0.639813	2.64615	0.690991	2.86591	0.816407	3.38292	0.983147	4.07289	0.590674	2.44948	0.702016	2.90551	0.837628	3.46902	0.978991	4.05932
0.642286	2.6452	0.477193	1.96596	0.64207	2.64528	0.69274	2.8621	0.81812	3.37698	0.984274	4.06188	0.592455	2.44741	0.70397	2.9024	0.838896	3.46092	0.980449	4.04972
0.644536	2.64432	0.479159	1.96651	0.64432	2.64441	0.694496	2.85835	0.819835	3.3711	0.985406	4.05098	0.594237	2.44536	0.705926	2.89933	0.840169	3.4529	0.981907	4.04019
0.646781	2.64343	0.481124	1.96705	0.646566	2.64352	0.696259	2.85466	0.821552	3.36527	0.986542	4.04018	0.596019	2.44332	0.707884	2.89629	0.841447	3.44496	0.983366	4.03074
0.649021	2.64252	0.483088	1.96759	0.648806	2.64261	0.698028	2.85102	0.823271	3.35949	0.987683	4.02947	0.597802	2.44131	0.709844	2.89328	0.84273	3.43711	0.984826	4.02137
0.651255	2.64159	0.485052	1.96812	0.65104	2.64168	0.699804	2.84744	0.824992	3.35376	0.988828	4.01887	0.599585	2.43931	0.711806	2.8903	0.844019	3.42933	0.986286	4.01207
0.653483	2.64065	0.487015	1.96864	0.653269	2.64074	0.701587	2.84392	0.826715	3.34808	0.989978	4.00836	0.60137	2.43733	0.713769	2.88735	0.845313	3.42163	0.987748	4.00285
0.655705	2.63969	0.488977	1.96916	0.655492	2.63979	0.703378	2.84045	0.828439	3.34245	0.991132	3.99795	0.603154	2.43537	0.715733	2.88442	0.846611	3.41401	0.989211	3.9937
0.657921	2.63872	0.490938	1.96966	0.657708	2.63881	0.705176	2.83703	0.830166	3.33687	0.992291	3.98764	0.60494	2.43342	0.717699	2.88153	0.847915	3.40647	0.990675	3.98462
0.66013	2.63772	0.492899	1.97016	0.659918	2.63782	0.706981	2.83367	0.831894	3.33134	0.993454	3.97742	0.606726	2.4315	0.719666	2.87866	0.849224	3.39901	0.992139	3.97561
0.662333	2.63671	0.494859	1.97066	0.662122	2.63681	0.708794	2.83037	0.833623	3.32586	0.994621	3.9673	0.608514	2.42959	0.721635	2.87581	0.850539	3.39162	0.993604	3.96667
0.66453	2.63568	0.496818	1.97115	0.664319	2.63578	0.710615	2.82713	0.835355	3.32043	0.995793	3.95727	0.610302	2.42769	0.723605	2.873	0.851858	3.38431	0.995071	3.9578
0.66672	2.63463	0.498776	1.97163	0.66651	2.63473	0.712444	2.82393	0.837088	3.31504	0.996969	3.94733	0.612091	2.42582	0.725576	2.8702	0.853183	3.37707	0.996538	3.949
0.668903	2.63356	0.500734	1.9721	0.668694	2.63366	0.714281	2.8208	0.838822	3.3097	0.99815	3.93748	0.61388	2.42396	0.727548	2.86744	0.854513	3.36991	0.998005	3.94027
0.671079	2.63247	0.50269	1.97257	0.670871	2.63258	0.716126	2.81772	0.840559	3.3044	0.999335	3.92772	0.615671	2.42212	0.729521	2.8647	0.855848	3.36282	0.999474	3.93161
0.673248	2.63136	0.504646	1.97303	0.673041	2.63147	0.71798	2.81469	0.842296	3.29915	1.00053	3.91804	0.617462	2.4203	0.731495	2.86198	0.857188	3.3558	1.00094	3.92301
0.67541	2.63023	0.506602	1.97349	0.675203	2.63034	0.719842	2.81172	0.844035	3.29394			0.619255	2.41849	0.733471	2.85928	0.858533	3.34885		
0.677565	2.62909	0.508556	1.97394	0.677359	2.6292	0.721712	2.80881	0.845776	3.28877			0.621048	2.4167	0.735447	2.85661	0.859884	3.34198		
0.679712	2.62792	0.51051	1.97438	0.679506	2.62803	0.723592	2.80595	0.847518	3.28365			0.622843	2.41493	0.737423	2.85396	0.86124	3.33517		
0.681852	2.62673	0.512463	1.97482	0.681647	2.62684	0.72548	2.80314	0.849261	3.27857			0.624638	2.41317	0.739401	2.85133	0.862601	3.32843		
0.683984	2.62552	0.514416	1.97525	0.68378	2.62564	0.727377	2.80039	0.851006	3.27353			0.626434	2.41143	0.741379	2.84872	0.863967	3.32176		
0.686109	2.62429	0.516367	1.97568	0.685905	2.62441	0.729283	2.79769	0.852752	3.26853			0.628232	2.40971	0.743358	2.84614	0.865339	3.31516		
0.688225	2.62304	0.518318	1.9761	0.688022	2.62316	0.731198	2.79505	0.8545	3.26358			0.63003	2.408	0.745337	2.84357	0.866716	3.30862		
0.690334	2.62176	0.520268	1.97651	0.690132	2.62189	0.733122	2.79246	0.856248	3.25866			0.63183	2.40631	0.747317	2.84103	0.868098	3.30215		
0.692435	2.62047	0.522218	1.97692	0.692234	2.6206	0.735056	2.78992	0.857998	3.25378			0.63363	2.40464	0.749297	2.8385	0.869485	3.29575		
0.694528	2.61916	0.524166	1.97732	0.694327	2.61928	0.736999	2.78744	0.859749	3.24894			0.635432	2.40298	0.751277	2.836	0.870877	3.28941		
0.696613	2.61782	0.526114	1.97772	0.696413	2.61795	0.738951	2.78501	0.861501	3.24414			0.637235	2.40133	0.753258	2.83351	0.872275	3.28314		
0.69869	2.61646	0.528061	1.97811	0.698491	2.6166	0.740913	2.78263	0.863254	3.23938			0.639039	2.39971	0.755239	2.83104	0.873678	3.27693		
0.700759	2.61509	0.530008	1.9785	0.70056	2.61522	0.742884	2.78031	0.865008	3.23465			0.640843	2.39809	0.757221	2.82859	0.875087	3.27078		
0.702819	2.61369	0.531954	1.97888	0.702622	2.61383	0.744864	2.77803	0.866763	3.22996			0.64265	2.3965	0.759202	2.82615	0.8765	3.2647		
0.704872	2.61227	0.533899	1.97926	0.704675	2.61241	0.746854	2.77581	0.868519	3.22531			0.644457	2.39492	0.761184	2.82373	0.877919	3.25867		
0.706917	2.61084	0.535843	1.97963	0.706721	2.61098	0.748853	2.77363	0.870277	3.22069			0.646265	2.39335	0.763165	2.82133	0.879344	3.25271		
0.708954	2.60938	0.537786	1.97999	0.708758	2.60952	0.750862	2.77151	0.872035	3.21611			0.648075	2.3918	0.765147	2.81895	0.880773	3.24681		
0.710982	2.6079	0.539729	1.98035	0.710788	2.60805	0.75288	2.76944	0.873794	3.21156			0.649886	2.39026	0.767128	2.81658	0.882208	3.24097		
0.713003	2.60641	0.541671	1.98071	0.712809	2.60655	0.754908	2.76741	0.875554	3.20705			0.651698	2.38874	0.769109	2.81423	0.883649	3.23519		
0.715016	2.60489	0.543613	1.98106	0.714823	2.60504	0.756945	2.76543	0.877315	3.20257			0.653511	2.38724	0.77109	2.81189	0.885094	3.22946		
0.717021	2.60336	0.545553	1.9814	0.716829	2.60351	0.758991	2.7635	0.879076	3.19812			0.655326	2.38575	0.773071	2.80957	0.886545	3.2238		
0.719018	2.60181	0.547493	1.98174	0.718827	2.60196	0.761046	2.76161	0.880839	3.19371			0.657141	2.38427	0.775051	2.80726	0.888001	3.21819		
0.721007	2.60025	0.549433	1.98208	0.720817	2.6004	0.763111	2.75978	0.882602	3.18932			0.658958	2.38281	0.777031	2.80496	0.889463	3.21264		
0.722989	2.59866	0.551371	1.98241	0.722799	2.59881	0.765184	2.75798	0.884366	3.18498			0.660776	2.38136	0.779011	2.80268	0.89093	3.20715		
0.724964	2.59706	0.553309	1.98273	0.724775	2.59722	0.767267	2.75623	0.88613	3.18066			0.662596	2.37992	0.78099	2.80042	0.892403	3.20171		
0.726931	2.59545	0.555246	1.98305	0.726742	2.5956	0.769358	2.75452	0.887896	3.17637			0.664417	2.3785	0.782968	2.79816	0.89388	3.19633		
0.728891	2.59381	0.557183	1.98337	0.728703	2.59397	0.771458	2.75286	0.889662	3.17212			0.666239	2.3771	0.784947	2.79592	0.895364	3.191		
0.730844	2.59217	0.559118	1.98368	0.730656	2.59233	0.773566	2.75124	0.891428	3.16789			0.668062	2.37571	0.786924	2.7937	0.896852	3.18572		
0.732789	2.59051	0.561054	1.98399	0.732603	2.59067	0.775683	2.74966	0.893195	3.1637			0.669887	2.37433	0.788901	2.79148	0.898346	3.18051		
0.734728	2.58884	0.562988	1.98429	0.734542	2.589	0.777809	2.74811	0.894963	3.15953			0.671712	2.37296	0.790877	2.78928	0.899846	3.17534		
0.73666	2.58715	0.564922	1.98459	0.736475	2.58731	0.779942	2.74661	0.896732	3.1554			0.67354	2.37161	0.792852	2.78709	0.901351	3.17023		
0.738586	2.58545	0.566855	1.98488	0.738401	2.58562	0.782084	2.74514	0.898501	3.15129			0.675368	2.37027	0.794826	2.7849	0.902861	3.16517		
0.740505	2.58375	0.568787	1.98517	0.740321	2.58391	0.784233	2.74372	0.90027	3.14721			0.677198	2.36895	0.7968	2.78274	0.904376	3.16016		
0.742418	2.58203	0.570719	1.98546	0.742235	2.58219	0.78639	2.74232	0.90204	3.14316			0.679029	2.36764	0.798772	2.78058	0.905898	3.1552		
0.744325	2.5803	0.57265	1.98574	0.744142	2.58046	0.788555	2.74097	0.90381	3.13914			0.680862	2.36634	0.800744	2.77843	0.907424	3.1503		
0.746226	2.57856	0.57458	1.98602	0.746043	2.57873	0.790727	2.73964	0.905581	3.13514			0.682695	2.36506	0.802714	2.77629	0.908956	3.14544		
0.748121	2.57681	0.57651	1.98629	0.747939	2.57698	0.792906	2.73836	0.907352	3.13118			0.684531	2.36378	0.804684	2.77416	0.910494	3.14064		
0.75001	2.57506	0.578438	1.98656	0.749829	2.57522	0.795093	2.7371	0.909124	3.12723			0.686367	2.36253	0.806652	2.77205	0.912037	3.13588		
0.751894	2.57329	0.580367	1.98682	0.751714	2.57346	0.797286	2.73588	0.910896	3.12332			0.688205	2.36128	0.80862	2.76994	0.913585	3.13117		
0.753773	2.57152	0.582294	1.98708	0.753593	2.57169	0.799486	2.73468	0.912668	3.11943			0.690044	2.36004	0.810586	2.76784	0.915139	3.12652		
0.755647	2.56975	0.584221	1.98734	0.755467	2.56992	0.801693	2.73352	0.91444	3.11557			0.691885	2.35882	0.812551	2.76575	0.916698	3.12191		
0.757515	2.56796	0.586148	1.9876	0.757336	2.56814	0.803905	2.73238	0.916213	3.11173			0.693727	2.35761	0.814514	2.76367	0.918263	3.11734		
0.759379	2.56618	0.588073	1.98785	0.7592	2.56635	0.806125	2.73128	0.917987	3.10792			0.69557	2.35642	0.816477	2.7616	0.919834	3.11283		
0.761238	2.56439	0.589998	1.98809	0.76106	2.56456	0.80835	2.7302	0.91976	3.10413			0.697414	2.35523	0.818438	2.75953	0.921409	3.10836		
0.763093	2.56259	0.591923	1.98833	0.762915	2.56276	0.810581	2.72914	0.921534	3.10037			0.69926	2.35406	0.820397	2.75748	0.922991	3.10394		
0.764944	2.56079	0.593847	1.98857	0.764766	2.56097	0.812818	2.72812	0.923308	3.09663			0.701108	2.3529	0.822355	2.75543	0.924577	3.09956		
0.76679	2.55899	0.59577	1.98881	0.766613	2.55917	0.81506	2.72712	0.925082	3.09292			0.702956	2.35175	0.824312	2.75339	0.92617	3.09523		
0.768632	2.55719	0.597692	1.98904	0.768456	2.55736	0.817308	2.72614	0.926856	3.08923			0.704806	2.35061	0.826267	2.75136	0.927767	3.09095		
0.770471	2.55539	0.599614	1.98927	0.770295	2.55556	0.819561	2.72518	0.928631	3.08556			0.706658	2.34949	0.828221	2.74934	0.929371	3.08671		
0.772306	2.55358	0.601535	1.98949	0.77213	2.55376	0.821818	2.72425	0.930406	3.08192			0.708511	2.34837	0.830173	2.74732	0.930979	3.08251		
0.774137	2.55178	0.603456	1.98971	0.773961	2.55195	0.824081	2.72334	0.932181	3.07829			0.710365	2.34727	0.832123	2.74531	0.932594	3.07836		
0.775965	2.54997	0.605376	1.98993	0.77579	2.55014	0.826349	2.72245	0.933956	3.0747			0.71222	2.34618	0.834072	2.74331	0.934213	3.07425		
0.77779	2.54816	0.607295	1.99014	0.777615	2.54834	0.828621	2.72158	0.935731	3.07112			0.714077	2.3451	0.836019	2.74131	0.935839	3.07019		
0.779611	2.54636	0.609214	1.99035	0.779436	2.54653	0.830897	2.72074	0.937506	3.06757			0.715935	2.34403	0.837965	2.73932	0.937469	3.06617		
0.78143	2.54456	0.611132	1.99056	0.781255	2.54473	0.833178	2.71991	0.939282	3.06404			0.717795	2.34297	0.839908	2.73734	0.939105	3.06219		
0.783246	2.54275	0.61305	1.99077	0.783071	2.54293	0.835463	2.7191	0.941057	3.06053			0.719656	2.34192	0.84185	2.73536	0.940747	3.05825		
0.785059	2.54096	0.614967	1.99097	0.784885	2.54113	0.837752	2.7183	0.942833	3.05704			0.721518	2.34088	0.84379	2.73339	0.942394	3.05435		
0.786869	2.53916	0.616883	1.99117	0.786695	2.53933	0.840045	2.71753	0.944608	3.05357			0.723382	2.33986	0.845729	2.73142	0.944047	3.0505		
0.788677	2.53736	0.618799	1.99136	0.788504	2.53754	0.842342	2.71677	0.946384	3.05012			0.725247	2.33884	0.847665	2.72947	0.945705	3.04668		
0.790483	2.53557	0.620714	1.99155	0.79031	2.53574	0.844642	2.71602	0.94816	3.0467			0.727114	2.33784	0.8496	2.72751	0.947368	3.04291		
0.792286	2.53379	0.622629	1.99174	0.792113	2.53396	0.846945	2.7153	0.949936	3.04329			0.728981	2.33684	0.851533	2.72556	0.949037	3.03917		
0.794088	2.532	0.624543	1.99193	0.793915	2.53217	0.849252	2.71458	0.951711	3.03991			0.730851	2.33586	0.853464	2.72362	0.950711	3.03548		
0.795887	2.53022	0.626456	1.99211	0.795714	2.53039	0.851562	2.71389	0.953487	3.03654			0.732721	2.33488	0.855392	2.72169	0.952391	3.03182		
0.797684	2.52845	0.628369	1.99229	0.797512	2.52862	0.853876	2.7132	0.955263	3.0332			0.734593	2.33392	0.857319	2.71975	0.954076	3.02821		
0.79948	2.52668	0.630281	1.99247	0.799308	2.52685	0.856192	2.71253	0.957039	3.02987			0.736466	2.33296	0.859244	2.71783	0.955767	3.02463		
0.801274	2.52491	0.632193	1.99264	0.801102	2.52508	0.858511	2.71187	0.958815	3.02657			0.738341	2.33202	0.861167	2.71591	0.957463	3.02109		
0.803066	2.52315	0.634104	1.99281	0.802894	2.52332	0.860833	2.71123	0.960591	3.02328			0.740217	2.33108	0.863088	2.71399	0.959164	3.01758		
0.804857	2.5214	0.636015	1.99298	0.804685	2.52157	0.863157	2.7106	0.962366	3.02002			0.742094	2.33016	0.865007	2.71208	0.960871	3.01412		
0.806646	2.51965	0.637925	1.99315	0.806475	2.51982	0.865485	2.70998	0.964142	3.01677			0.743972	2.32924	0.866924	2.71017	0.962583	3.01069		
0.808435	2.51791	0.639835	1.99331	0.808263	2.51807	0.867814	2.70937	0.965918	3.01354			0.745852	2.32834	0.868839	2.70827	0.9643	3.0073		
0.810221	2.51617	0.641744	1.99347	0.81005	2.51634	0.870146	2.70877	0.967694	3.01033			0.747733	2.32744	0.870751	2.70637	0.966023	3.00394		
0.812007	2.51444	0.643652	1.99363	0.811836	2.51461	0.87248	2.70818	0.969469	3.00714			0.749616	2.32655	0.872662	2.70448	0.967751	3.00062		
0.813792	2.51272	0.64556	1.99379	0.81362	2.51288	0.874816	2.7076	0.971245	3.00397			0.7515	2.32567	0.874571	2.70259	0.969484	2.99734		
0.815575	2.511	0.647467	1.99394	0.815404	2.51116	0.877155	2.70703	0.973021	3.00081			0.753385	2.32481	0.876477	2.70071	0.971223	2.99409		
0.817358	2.50929	0.649374	1.99409	0.817187	2.50945	0.879495	2.70647	0.974797	2.99767			0.755272	2.32395	0.878381	2.69882	0.972967	2.99087		
0.81914	2.50759	0.65128	1.99424	0.818968	2.50775	0.881837	2.70592	0.976572	2.99455			0.757159	2.32309	0.880283	2.69695	0.974716	2.98769		
0.820921	2.50589	0.653186	1.99439	0.82075	2.50606	0.884181	2.70538	0.978348	2.99145			0.759049	2.32225	0.882183	2.69508	0.97647	2.98455		
0.822701	2.50421	0.655092	1.99453	0.82253	2.50437	0.886527	2.70484	0.980123	2.98837			0.760939	2.32142	0.884081	2.69321	0.978229	2.98143		
0.82448	2.50252	0.656996	1.99467	0.824309	2.50269	0.888874	2.70432	0.981899	2.9853			0.762831	2.32059	0.885977	2.69135	0.979994	2.97835		
0.826259	2.50085	0.658901	1.99481	0.826088	2.50101	0.891223	2.7038	0.983675	2.98225			0.764724	2.31978	0.887871	2.68949	0.981763	2.97531		
0.828038	2.49919	0.660805	1.99495	0.827867	2.49935	0.893573	2.70329	0.98545	2.97922			0.766618	2.31897	0.889762	2.68763	0.983538	2.97229		
0.829816	2.49753	0.662708	1.99508	0.829645	2.49769	0.895925	2.70279	0.987226	2.9762			0.768514	2.31817	0.891651	2.68578	0.985318	2.96931		
0.831593	2.49588	0.664611	1.99521	0.831422	2.49604	0.898278	2.70229	0.989001	2.97321			0.770411	2.31738	0.893539	2.68393	0.987103	2.96636		
0.83337	2.49424	0.666513	1.99534	0.8332	2.4944	0.900632	2.7018	0.990777	2.97022			0.772309	2.3166	0.895424	2.68209	0.988893	2.96344		
0.835147	2.49261	0.668415	1.99547	0.834976	2.49276	0.902987	2.70132	0.992553	2.96726			0.774208	2.31582	0.897306	2.68025	0.990688	2.96056		
0.836923	2.49098	0.670316	1.9956	0.836753	2.49114	0.905344	2.70084	0.994328	2.96431			0.776109	2.31506	0.899187	2.67841	0.992487	2.9577		
0.8387	2.48937	0.672217	1.99572	0.838529	2.48952	0.907702	2.70036	0.996104	2.96138			0.778011	2.3143	0.901066	2.67658	0.994292	2.95487		
0.840476	2.48776	0.674118	1.99584	0.840305	2.48791	0.91006	2.6999	0.99788	2.95846			0.779914	2.31355	0.902942	2.67475	0.996102	2.95208		
0.842252	2.48616	0.676018	1.99596	0.842081	2.48631	0.91242	2.69944	0.999655	2.95557			0.781818	2.3128	0.904816	2.67292	0.997916	2.94931		
0.844028	2.48457	0.677917	1.99608	0.843857	2.48472	0.91478	2.69898	1.00143	2.95268			0.783724	2.31207	0.906688	2.6711	0.999736	2.94658		
0.845803	2.48299	0.679816	1.9962	0.845633	2.48314	0.917141	2.69853					0.785631	2.31134	0.908558	2.66928	1.00156	2.94387		
0.847579	2.48141	0.681715	1.99631	0.847409	2.48156	0.919503	2.69808					0.787539	2.31062	0.910426	2.66747				
0.849355	2.47985	0.683613	1.99642	0.849185	2.48	0.921865	2.69764					0.789449	2.30991	0.912292	2.66566				
0.851131	2.47829	0.685511	1.99653	0.85096	2.47844	0.924228	2.6972					0.791359	2.30921	0.914156	2.66385				
0.852907	2.47674	0.687408	1.99664	0.852736	2.47689	0.926591	2.69676					0.793271	2.30851	0.916017	2.66205				
0.854683	2.4752	0.689305	1.99674	0.854513	2.47535	0.928955	2.69633					0.795184	2.30782	0.917877	2.66025				
0.856459	2.47367	0.691201	1.99685	0.856289	2.47382	0.93132	2.6959					0.797098	2.30714	0.919734	2.65846				
0.858236	2.47215	0.693097	1.99695	0.858065	2.4723	0.933684	2.69548					0.799014	2.30646	0.92159	2.65667				
0.860013	2.47064	0.694992	1.99705	0.859842	2.47078	0.936049	2.69506					0.80093	2.30579	0.923443	2.65488				
0.86179	2.46913	0.696888	1.99715	0.861619	2.46928	0.938414	2.69464					0.802848	2.30513	0.925295	2.6531				
0.863567	2.46764	0.698782	1.99725	0.863396	2.46778	0.94078	2.69422					0.804767	2.30447	0.927144	2.65132				
0.865344	2.46615	0.700677	1.99734	0.865174	2.4663	0.943145	2.69381					0.806687	2.30383	0.928991	2.64954				
0.867122	2.46468	0.70257	1.99744	0.866952	2.46482	0.945511	2.6934					0.808609	2.30318	0.930837	2.64777				
0.868901	2.46321	0.704464	1.99753	0.86873	2.46335	0.947876	2.69299					0.810531	2.30255	0.93268	2.646				
0.870679	2.46175	0.706357	1.99762	0.870508	2.46189	0.950242	2.69258					0.812455	2.30192	0.934522	2.64423				
0.872458	2.4603	0.70825	1.99771	0.872288	2.46044	0.952607	2.69218					0.81438	2.3013	0.936362	2.64247				
0.874238	2.45885	0.710142	1.99779	0.874067	2.45899	0.954972	2.69177					0.816305	2.30069	0.9382	2.64072				
0.876018	2.45742	0.712034	1.99788	0.875847	2.45756	0.957337	2.69137					0.818233	2.30008	0.940036	2.63896				
0.877798	2.456	0.713925	1.99796	0.877627	2.45613	0.959702	2.69097					0.820161	2.29948	0.94187	2.63721				
0.879579	2.45458	0.715817	1.99805	0.879408	2.45472	0.962066	2.69057					0.82209	2.29888	0.943702	2.63547				
0.881361	2.45317	0.717707	1.99813	0.88119	2.45331	0.96443	2.69017					0.82402	2.29829	0.945533	2.63373				
0.883143	2.45178	0.719598	1.99821	0.882972	2.45191	0.966793	2.68978					0.825952	2.29771	0.947361	2.63199				
0.884926	2.45039	0.721488	1.99829	0.884754	2.45052	0.969156	2.68938					0.827885	2.29713	0.949188	2.63026				
0.886709	2.44901	0.723377	1.99836	0.886538	2.44914	0.971518	2.68898					0.829818	2.29656	0.951013	2.62853				
0.888493	2.44764	0.725267	1.99844	0.888321	2.44777	0.97388	2.68858					0.831753	2.29599	0.952837	2.62681				
0.890277	2.44627	0.727156	1.99851	0.890106	2.4464	0.976241	2.68819					0.833689	2.29543	0.954659	2.62509				
0.892062	2.44492	0.729044	1.99859	0.891891	2.44505	0.978601	2.68779					0.835626	2.29488	0.956479	2.62337				
0.893848	2.44357	0.730932	1.99866	0.893676	2.4437	0.980961	2.68739					0.837564	2.29433	0.958298	2.62166				
0.895634	2.44224	0.73282	1.99873	0.895462	2.44236	0.983319	2.687					0.839503	2.29379	0.960115	2.61995				
0.897421	2.44091	0.734708	1.9988	0.897249	2.44103	0.985677	2.6866					0.841444	2.29325	0.96193	2.61825				
0.899209	2.43959	0.736595	1.99886	0.899037	2.43971	0.988033	2.6862					0.843385	2.29272	0.963744	2.61655				
0.900997	2.43828	0.738482	1.99893	0.900825	2.4384	0.990389	2.6858					0.845327	2.29219	0.965556	2.61486				
0.902786	2.43697	0.740369	1.999	0.902614	2.4371	0.992743	2.6854					0.84727	2.29167	0.967367	2.61317				
0.904576	2.43568	0.742255	1.99906	0.904404	2.4358	0.995096	2.685					0.849215	2.29116	0.969177	2.61148				
0.906367	2.43439	0.744141	1.99912	0.906195	2.43452	0.997448	2.6846					0.85116	2.29065	0.970985	2.6098				
0.908158	2.43312	0.746026	1.99919	0.907986	2.43324	0.999799	2.68419					0.853107	2.29015	0.972791	2.60813				
0.90995	2.43185	0.747912	1.99925	0.909778	2.43197	1.00215	2.68379					0.855054	2.28965	0.974597	2.60646				
0.911743	2.43059	0.749797	1.99931	0.911571	2.43071							0.857002	2.28915	0.9764	2.60479				
0.913536	2.42933	0.751681	1.99936	0.913364	2.42945							0.858952	2.28867	0.978203	2.60313				
0.915331	2.42809	0.753566	1.99942	0.915159	2.42821							0.860902	2.28818	0.980004	2.60147				
0.917126	2.42685	0.75545	1.99948	0.916954	2.42697							0.862854	2.2877	0.981804	2.59982				
0.918922	2.42563	0.757334	1.99953	0.91875	2.42574							0.864806	2.28723	0.983603	2.59817				
0.920719	2.42441	0.759217	1.99959	0.920546	2.42452							0.866759	2.28676	0.9854	2.59653				
0.922516	2.42319	0.7611	1.99964	0.922344	2.42331							0.868714	2.2863	0.987197	2.59489				
0.924315	2.42199	0.762983	1.99969	0.924142	2.42211							0.870669	2.28584	0.988992	2.59326				
0.926114	2.4208	0.764866	1.99974	0.925941	2.42091							0.872625	2.28538	0.990786	2.59163				
0.927914	2.41961	0.766748	1.99979	0.927741	2.41972							0.874582	2.28493	0.992579	2.59001				
0.929715	2.41843	0.76863	1.99984	0.929542	2.41854							0.87654	2.28449	0.994371	2.5884				
0.931517	2.41726	0.770512	1.99989	0.931344	2.41737							0.8785	2.28405	0.996161	2.58678				
0.93332	2.41609	0.772394	1.99994	0.933147	2.41621							0.88046	2.28361	0.997951	2.58518				
0.935123	2.41494	0.774275	1.99998	0.93495	2.41505							0.88242	2.28318	0.99974	2.58357				
0.936928	2.41379	0.776156	2.00003	0.936754	2.4139							0.884382	2.28275	1.00153	2.58198				
0.938733	2.41265	0.778037	2.00007	0.93856	2.41276							0.886345	2.28233						
0.940539	2.41152	0.779918	2.00012	0.940366	2.41163							0.888309	2.28191						
0.942346	2.41039	0.781798	2.00016	0.942173	2.4105							0.890273	2.2815						
0.944154	2.40928	0.783678	2.0002	0.943981	2.40938							0.892239	2.28109						
0.945963	2.40817	0.785558	2.00024	0.945789	2.40827							0.894205	2.28068						
0.947773	2.40706	0.787437	2.00028	0.947599	2.40717							0.896172	2.28028						
0.949584	2.40597	0.789317	2.00032	0.94941	2.40608							0.89814	2.27989						
0.951395	2.40488	0.791196	2.00036	0.951221	2.40499							0.900109	2.27949						
0.953208	2.4038	0.793074	2.0004	0.953033	2.40391							0.902079	2.2791						
0.955021	2.40273	0.794953	2.00044	0.954847	2.40283							0.904049	2.27872						
0.956835	2.40167	0.796831	2.00048	0.956661	2.40177							0.906021	2.27834						
0.95865	2.40061	0.79871	2.00051	0.958476	2.40071							0.907993	2.27796						
0.960467	2.39956	0.800588	2.00055	0.960292	2.39966							0.909966	2.27759						
0.962284	2.39851	0.802465	2.00058	0.962109	2.39861							0.91194	2.27722						
0.964102	2.39748	0.804343	2.00061	0.963927	2.39758							0.913915	2.27685						
0.96592	2.39645	0.80622	2.00065	0.965746	2.39655							0.91589	2.27649						
0.96774	2.39543	0.808097	2.00068	0.967566	2.39552							0.917867	2.27613						
0.969561	2.39441	0.809974	2.00071	0.969386	2.39451							0.919844	2.27577						
0.971383	2.3934	0.811851	2.00074	0.971208	2.3935							0.921822	2.27542						
0.973205	2.3924	0.813727	2.00077	0.97303	2.3925							0.923801	2.27507						
0.975029	2.39141	0.815604	2.0008	0.974854	2.3915							0.92578	2.27473						
0.976854	2.39042	0.81748	2.00083	0.976678	2.39052							0.92776	2.27439						
0.978679	2.38944	0.819356	2.00086	0.978504	2.38953							0.929742	2.27405						
0.980505	2.38847	0.821231	2.00089	0.98033	2.38856							0.931723	2.27372						
0.982333	2.3875	0.823107	2.00092	0.982157	2.38759							0.933706	2.27339						
0.984161	2.38654	0.824982	2.00094	0.983985	2.38663							0.935689	2.27306						
0.98599	2.38558	0.826858	2.00097	0.985815	2.38568							0.937674	2.27274						
0.98782	2.38464	0.828733	2.001	0.987645	2.38473							0.939658	2.27242						
0.989652	2.3837	0.830607	2.00102	0.989476	2.38379							0.941644	2.2721						
0.991484	2.38276	0.832482	2.00105	0.991308	2.38285							0.94363	2.27178						
0.993317	2.38183	0.834357	2.00107	0.993141	2.38192							0.945617	2.27147						
0.99515	2.38091	0.836231	2.0011	0.994974	2.381							0.947605	2.27116						
0.996985	2.38	0.838105	2.00112	0.996809	2.38008							0.949594	2.27086						
0.998821	2.37909	0.839979	2.00114	0.998645	2.37917							0.951583	2.27056						
1.00066	2.37818	0.841853	2.00116	1.00048	2.37827							0.953573	2.27026						
		0.843727	2.00119									0.955564	2.26996						
		0.8456	2.00121									0.957555	2.26967						
		0.847473	2.00123									0.959547	2.26938						
		0.849347	2.00125									0.961539	2.26909						
		0.85122	2.00127									0.963533	2.26881						
		0.853093	2.00129									0.965527	2.26853						
		0.854965	2.00131									0.967522	2.26825						
		0.856838	2.00133									0.969517	2.26797						
		0.858711	2.00134									0.971513	2.2677						
		0.860583	2.00136									0.97351	2.26743						
		0.862455	2.00138									0.975507	2.26716						
		0.864327	2.0014									0.977505	2.2669						
		0.866199	2.00141									0.979503	2.26663						
		0.868071	2.00143									0.981503	2.26637						
		0.869943	2.00145									0.983503	2.26612						
		0.871814	2.00146									0.985503	2.26586						
		0.873686	2.00148									0.987504	2.26561						
		0.875557	2.00149									0.989506	2.26536						
		0.877428	2.00151									0.991508	2.26511						
		0.879299	2.00152									0.993511	2.26487						
		0.88117	2.00153									0.995514	2.26462						
		0.883041	2.00155									0.997519	2.26438						
		0.884912	2.00156									0.999523	2.26415						
		0.886783	2.00158									1.00153	2.26391						
		0.888653	2.00159																
		0.890524	2.0016																
		0.892394	2.00161																
		0.894264	2.00162																
		0.896134	2.00164																
		0.898004	2.00165																
		0.899874	2.00166																
		0.901744	2.00167																
		0.903614	2.00168																
		0.905483	2.00169																
		0.907353	2.0017																
		0.909222	2.00171																
		0.911092	2.00172																
		0.912961	2.00173																
		0.91483	2.00174																
		0.916699	2.00175																
		0.918568	2.00176																
		0.920437	2.00176																
		0.922306	2.00177																
		0.924175	2.00178																
		0.926044	2.00179																
		0.927912	2.0018																
		0.929781	2.0018																
		0.931649	2.00181																
		0.933518	2.00182																
		0.935386	2.00183																
		0.937254	2.00183																
		0.939123	2.00184																
		0.940991	2.00185																
		0.942859	2.00185																
		0.944727	2.00186																
		0.946595	2.00186																
		0.948463	2.00187																
		0.950331	2.00188																
		0.952198	2.00188																
		0.954066	2.00189																
		0.955934	2.00189																
		0.957801	2.0019																
		0.959669	2.0019																
		0.961536	2.00191																
		0.963404	2.00191																
		0.965271	2.00192																
		0.967138	2.00192																
		0.969006	2.00192																
		0.970873	2.00193																
		0.97274	2.00193																
		0.974607	2.00194																
		0.976474	2.00194																
		0.978341	2.00194																
		0.980208	2.00195																
		0.982075	2.00195																
		0.983942	2.00196																
		0.985809	2.00196																
		0.987676	2.00196																
		0.989542	2.00196																
		0.991409	2.00197																
		0.993276	2.00197																
		0.995142	2.00197																
		0.997009	2.00198																
		0.998876	2.00198																
		1.00074	2.00198																
