Sym0		Asym0		Sym1		Sym2		Sym3		Sym4		Asym1		Asym2		Asym3		Asym4	
451  Points		537  Points		451  Points		399  Points		364  Points		275  Points		477  Points		415  Points		364  Points		276  Points	
Freq (MHz)	Vph (m/ms)	Freq (MHz)	Vph (m/ms)	Freq (MHz)	Vph (m/ms)	Freq (MHz)	Vph (m/ms)	Freq (MHz)	Vph (m/ms)	Freq (MHz)	Vph (m/ms)	Freq (MHz)	Vph (m/ms)	Freq (MHz)	Vph (m/ms)	Freq (MHz)	Vph (m/ms)	Freq (MHz)	Vph (m/ms)
0.279508	879.74	0.00021225	0.090575	0.279507	358.439	0.356867	2844.77	0.559017	1923.55	0.838526	2119.74	0.139755	985.917	0.419264	725.09	0.69877	1506.1	0.713734	3422.61
0.279505	223.709	0.000413991	0.126407	0.279501	163.309	0.356885	337.594	0.559025	457.35	0.83853	631.768	0.139799	130.234	0.419275	277.68	0.69876	500.668	0.713752	625.972
0.279497	128.144	0.00068168	0.162044	0.279491	105.741	0.35693	179.467	0.55904	259.535	0.838539	371.204	0.139911	69.776	0.419294	171.728	0.698739	300.23	0.713795	344.508
0.279485	89.7856	0.00101466	0.197464	0.279477	78.1782	0.357004	122.239	0.559065	181.179	0.838552	262.814	0.140089	47.7008	0.419322	124.306	0.698708	214.391	0.713863	237.668
0.279469	69.0985	0.0014119	0.232597	0.279459	62.0115	0.357105	92.701	0.559098	139.169	0.838569	203.42	0.140335	36.276	0.419359	97.4119	0.698668	166.717	0.713955	181.423
0.279448	56.1571	0.00187241	0.267417	0.279437	51.3834	0.357234	74.6739	0.55914	112.978	0.838591	165.924	0.140646	29.2999	0.419405	80.0895	0.698618	136.384	0.714072	146.717
0.279424	47.2968	0.00239492	0.301874	0.279411	43.8638	0.357391	62.5288	0.559191	95.0878	0.838617	140.102	0.141023	24.603	0.41946	68.0014	0.698559	115.386	0.714211	123.167
0.279396	40.8499	0.00297811	0.335931	0.279381	38.2627	0.357575	53.7924	0.55925	82.092	0.838648	121.237	0.141463	21.2292	0.419523	59.0871	0.698493	99.9872	0.714374	106.141
0.279365	35.9484	0.00362053	0.369558	0.279348	33.9289	0.357786	47.2075	0.559319	72.2244	0.838683	106.85	0.141967	18.6914	0.419596	52.242	0.698419	88.2119	0.714558	93.2589
0.27933	32.096	0.00432057	0.402714	0.279312	30.4758	0.358024	42.0675	0.559396	64.4772	0.838723	95.5175	0.142532	16.7153	0.419678	46.8209	0.698339	78.9153	0.714764	83.1722
0.279293	28.9883	0.0050766	0.435375	0.279273	27.6597	0.358289	37.9447	0.559481	58.2334	0.838767	86.3593	0.143157	15.1349	0.419769	42.4216	0.698252	71.3893	0.714991	75.0609
0.279252	26.4284	0.00588691	0.467511	0.279231	25.3192	0.35858	34.565	0.559576	53.0944	0.838816	78.8048	0.143841	13.8436	0.419869	38.7803	0.698161	65.1719	0.715238	68.3968
0.279209	24.2831	0.00674978	0.499107	0.279187	23.3431	0.358898	31.7446	0.559679	48.7909	0.838869	72.4667	0.144582	12.7699	0.419978	35.7168	0.698065	59.9491	0.715504	62.8248
0.279164	22.4593	0.00766348	0.530146	0.27914	21.6525	0.359242	29.3558	0.559791	45.1348	0.838927	67.0733	0.145378	11.8639	0.420096	33.1038	0.697965	55.4998	0.715788	58.097
0.279116	20.8897	0.00862615	0.56061	0.279092	20.1897	0.359611	27.307	0.559911	41.9902	0.838989	62.428	0.146228	11.09	0.420222	30.8489	0.697862	51.6641	0.71609	54.0353
0.279068	19.5246	0.009636	0.590485	0.279043	18.9115	0.360005	25.5307	0.560041	39.2569	0.839055	58.3853	0.147129	10.422	0.420358	28.8833	0.697758	48.3232	0.716409	50.5084
0.279018	18.3265	0.0106912	0.619763	0.278992	17.7851	0.360424	23.9762	0.560179	36.8593	0.839126	54.8352	0.148081	9.84001	0.420503	27.1549	0.697651	45.3873	0.716745	47.4174
0.278967	17.2665	0.01179	0.648439	0.278941	16.7849	0.360868	22.6048	0.560325	34.7393	0.839202	51.6928	0.149081	9.32889	0.420657	25.6232	0.697543	42.7868	0.717096	44.6862
0.278915	16.3221	0.0129307	0.676507	0.27889	15.8909	0.361336	21.386	0.560481	32.8513	0.839281	48.8918	0.150127	8.87683	0.420819	24.2565	0.697436	40.4675	0.717462	42.2557
0.278864	15.4753	0.0141114	0.703966	0.278838	15.087	0.361828	20.2959	0.560645	31.1594	0.839366	46.3795	0.151218	8.47448	0.420991	23.0296	0.697328	38.3861	0.717842	40.0789
0.278813	14.7118	0.0153305	0.730815	0.278787	14.3603	0.362343	19.3153	0.560818	29.6345	0.839454	44.1134	0.152204	8.15851	0.421171	21.9222	0.697221	36.5078	0.718237	38.1181
0.278762	14.0199	0.0165864	0.75706	0.278737	13.7003	0.362882	18.4288	0.560999	28.2531	0.839548	42.059	0.153069	7.91138	0.421361	20.9176	0.697115	34.8043	0.718645	36.3427
0.278712	13.39	0.0178774	0.7827	0.278688	13.0981	0.363442	17.6234	0.56119	26.996	0.839645	40.1881	0.153801	7.72083	0.42156	20.0023	0.69701	33.2523	0.719066	34.7277
0.278664	12.8141	0.019202	0.807744	0.278641	12.5464	0.364025	16.8887	0.561389	25.8471	0.839747	38.4772	0.154391	7.57825	0.421767	19.1649	0.696908	31.8325	0.7195	33.2524
0.278618	12.2856	0.0205586	0.832194	0.278596	12.0393	0.36463	16.2158	0.561597	24.7931	0.839854	36.9065	0.15483	7.47767	0.421984	18.396	0.696808	30.5288	0.719946	31.8995
0.278574	11.7989	0.0219459	0.856065	0.278553	11.5716	0.365256	15.5974	0.561813	23.8228	0.839965	35.4596	0.155113	7.4151	0.422209	17.6874	0.696711	29.3274	0.720404	30.6543
0.278533	11.3493	0.0233624	0.879361	0.278513	11.1388	0.365903	15.0271	0.562038	22.9266	0.840081	34.1224	0.155524	7.32751	0.422443	17.0324	0.696617	28.2168	0.720873	29.5045
0.278494	10.9327	0.0248067	0.90209	0.278477	10.7373	0.366571	14.4997	0.562272	22.0963	0.840201	32.8828	0.155975	7.23534	0.422687	16.4252	0.696526	27.1871	0.721353	28.4397
0.27846	10.5456	0.0262776	0.924265	0.278444	10.3637	0.367259	14.0106	0.562515	21.3251	0.840325	31.7307	0.156596	7.11479	0.422939	15.8608	0.696439	26.2298	0.721844	27.4507
0.278429	10.1851	0.0277739	0.945896	0.278415	10.0153	0.367966	13.5558	0.562766	20.6068	0.840454	30.657	0.157394	6.96978	0.4232	15.3348	0.696356	25.3376	0.722345	26.5298
0.278402	9.84847	0.0292944	0.966996	0.278391	9.68968	0.368693	13.1318	0.563026	19.9361	0.840587	29.6541	0.158375	6.80469	0.423471	14.8435	0.696277	24.504	0.722857	25.6702
0.27838	9.53348	0.0308379	0.987575	0.278371	9.38466	0.369438	12.7357	0.563294	19.3086	0.840725	28.7151	0.15955	6.62408	0.42375	14.3835	0.696202	23.7235	0.723379	24.866
0.278363	9.23814	0.0324034	1.00764	0.278357	9.0984	0.370203	12.3649	0.563572	18.7203	0.840867	27.8342	0.160928	6.43247	0.424038	13.9521	0.696132	22.9912	0.723911	24.1121
0.278352	8.96069	0.0339899	1.02722	0.278348	8.82924	0.370985	12.0171	0.563858	18.1675	0.841014	27.0062	0.162336	6.25579	0.424335	13.5466	0.696067	22.3028	0.724452	23.4038
0.278346	8.69958	0.0355963	1.0463	0.278346	8.57571	0.371785	11.6902	0.564152	17.6473	0.841165	26.2264	0.163773	6.09244	0.424641	13.1648	0.696006	21.6544	0.725003	22.7372
0.278347	8.45343	0.0372217	1.06492	0.278349	8.33653	0.372602	11.3824	0.564456	17.1567	0.841321	25.4908	0.165238	5.94103	0.424956	12.8047	0.695951	21.0427	0.725562	22.1088
0.278354	8.22103	0.0388653	1.08307	0.278358	8.13888	0.373436	11.0922	0.564768	16.6935	0.841481	24.7957	0.16673	5.80035	0.42528	12.4645	0.695901	20.4647	0.726131	21.5153
0.278368	8.00127	0.0405262	1.10077	0.27837	7.97777	0.374287	10.8181	0.565088	16.2553	0.841645	24.1378	0.168247	5.66937	0.425613	12.1427	0.695857	19.9177	0.726709	20.9539
0.278389	7.79317	0.0422037	1.11804	0.278382	7.84939	0.375153	10.5588	0.565418	15.8402	0.841814	23.5144	0.169788	5.54714	0.425955	11.8378	0.695818	19.3992	0.727296	20.4222
0.278418	7.59587	0.0438968	1.13489	0.278394	7.75083	0.376036	10.3132	0.565756	15.4465	0.841988	22.9227	0.171352	5.43287	0.426306	11.5485	0.695784	18.9071	0.727891	19.9179
0.278454	7.40855	0.045605	1.15132	0.278404	7.67996	0.376934	10.0803	0.566102	15.0726	0.842166	22.3603	0.172938	5.32582	0.426666	11.2737	0.695756	18.4395	0.728495	19.4388
0.278499	7.23052	0.0473276	1.16735	0.278411	7.63529	0.377848	9.85905	0.566457	14.717	0.842348	21.8253	0.174545	5.22538	0.427034	11.0124	0.695735	17.9946	0.729106	18.9832
0.278553	7.06111	0.0490638	1.18299	0.278422	7.57201	0.378776	9.64871	0.566821	14.3784	0.842535	21.3156	0.176171	5.13096	0.427412	10.7635	0.695719	17.5708	0.729727	18.5494
0.278615	6.89974	0.0508131	1.19825	0.278434	7.50444	0.379718	9.44847	0.567194	14.0556	0.842726	20.8294	0.177817	5.04208	0.427799	10.5263	0.695709	17.1666	0.730355	18.1358
0.278687	6.74587	0.0525748	1.21314	0.278453	7.41451	0.380675	9.25766	0.567575	13.7477	0.842922	20.3653	0.179481	4.95827	0.428194	10.2999	0.695705	16.7807	0.730992	17.7412
0.278768	6.59901	0.0543485	1.22767	0.27848	7.30391	0.381646	9.07562	0.567965	13.4535	0.843123	19.9217	0.181162	4.87913	0.428599	10.0836	0.695707	16.412	0.731636	17.3642
0.278859	6.45871	0.0561336	1.24186	0.278516	7.17462	0.38263	8.9018	0.568364	13.1722	0.843327	19.4973	0.18286	4.8043	0.429012	9.87684	0.695716	16.0592	0.732288	17.0037
0.278961	6.32458	0.0579295	1.25571	0.278565	7.02887	0.383627	8.73565	0.568771	12.9031	0.843536	19.0909	0.184573	4.73345	0.429435	9.67895	0.695731	15.7214	0.732948	16.6586
0.279072	6.19622	0.0597358	1.26923	0.278629	6.86901	0.384637	8.57669	0.569187	12.6452	0.84375	18.7014	0.186302	4.66628	0.429866	9.4894	0.695752	15.3977	0.733616	16.328
0.279194	6.0733	0.061552	1.28243	0.278702	6.71655	0.38566	8.42447	0.569611	12.398	0.843968	18.3278	0.188045	4.60253	0.430306	9.30769	0.695779	15.0873	0.734291	16.011
0.279327	5.95549	0.0633778	1.29532	0.278785	6.57101	0.386695	8.2786	0.570044	12.1608	0.844191	17.969	0.189801	4.54194	0.430755	9.13334	0.695813	14.7892	0.734974	15.7068
0.279472	5.84251	0.0652126	1.30792	0.278878	6.43196	0.387607	8.15635	0.570485	11.9331	0.844418	17.6243	0.191571	4.48431	0.431214	8.96593	0.695854	14.5029	0.735664	15.4147
0.279627	5.73408	0.0670561	1.32022	0.278982	6.29898	0.388391	8.05553	0.570936	11.7142	0.84465	17.2929	0.193353	4.42942	0.431681	8.80507	0.695901	14.2276	0.736361	15.1338
0.279795	5.62995	0.0689079	1.33224	0.279095	6.17172	0.389045	7.97442	0.571394	11.5037	0.844886	16.974	0.195146	4.37709	0.432157	8.65039	0.695955	13.9627	0.737066	14.8637
0.279974	5.52989	0.0707676	1.34399	0.279219	6.04982	0.389564	7.91169	0.571862	11.3011	0.845126	16.6668	0.196952	4.32715	0.432642	8.50155	0.696015	13.7077	0.737778	14.6037
0.280166	5.43368	0.072635	1.35547	0.279355	5.93298	0.389948	7.86633	0.572338	11.1061	0.845371	16.3709	0.198768	4.27945	0.433135	8.35823	0.696082	13.462	0.738498	14.3532
0.280369	5.34112	0.0745097	1.36669	0.279501	5.82091	0.390195	7.83763	0.572822	10.9181	0.845621	16.0855	0.200594	4.23385	0.433573	8.23761	0.696156	13.2251	0.739224	14.1118
0.280586	5.25203	0.0763913	1.37766	0.279659	5.71334	0.39055	7.79682	0.573315	10.7368	0.845875	15.8101	0.202431	4.19021	0.433952	8.13779	0.696236	12.9966	0.739958	13.8789
0.280815	5.16622	0.0782797	1.38839	0.279829	5.61003	0.390938	7.75306	0.573817	10.5619	0.846133	15.5442	0.204276	4.14841	0.434268	8.05725	0.696323	12.776	0.740698	13.6542
0.281058	5.08355	0.0801743	1.39888	0.280011	5.51074	0.391467	7.6945	0.574327	10.3931	0.846396	15.2874	0.206131	4.10835	0.434521	7.99482	0.696417	12.563	0.741446	13.4372
0.281314	5.00386	0.0820752	1.40914	0.280204	5.41526	0.39214	7.62199	0.574846	10.23	0.846663	15.0392	0.207995	4.06991	0.434708	7.94959	0.696518	12.3571	0.7422	13.2275
0.281583	4.92699	0.083982	1.41917	0.280411	5.32339	0.392959	7.53653	0.575374	10.0724	0.846935	14.7991	0.209867	4.03301	0.434829	7.92095	0.696625	12.1581	0.742961	13.0248
0.281866	4.85284	0.0858944	1.42899	0.28063	5.23496	0.393928	7.43927	0.57591	9.91995	0.847211	14.5667	0.211746	3.99756	0.435002	7.88017	0.696739	11.9655	0.743729	12.8288
0.282164	4.78126	0.0878122	1.4386	0.280862	5.14978	0.395049	7.33145	0.576454	9.77249	0.847492	14.3418	0.213634	3.96348	0.435193	7.83638	0.696861	11.7791	0.744504	12.639
0.282475	4.71214	0.0897351	1.448	0.281107	5.06771	0.396181	7.22748	0.577007	9.62977	0.847777	14.124	0.215528	3.93068	0.435453	7.77769	0.696989	11.5986	0.745285	12.4553
0.282801	4.64537	0.0916631	1.4572	0.281366	4.98858	0.397322	7.12716	0.577568	9.49155	0.848067	13.9128	0.217429	3.8991	0.435785	7.70486	0.697123	11.4237	0.746074	12.2773
0.283141	4.58086	0.0935957	1.46621	0.281638	4.91226	0.398473	7.03031	0.578139	9.35764	0.848361	13.7081	0.219337	3.86868	0.436192	7.61882	0.697265	11.2542	0.746868	12.1048
0.283496	4.51849	0.0955331	1.47503	0.281924	4.83861	0.399634	6.93676	0.578717	9.22785	0.84866	13.5096	0.221251	3.83935	0.436675	7.5206	0.697414	11.0899	0.74767	11.9375
0.283866	4.45819	0.0974747	1.48366	0.282223	4.76752	0.400804	6.84634	0.579304	9.10199	0.848963	13.3169	0.223172	3.81106	0.437237	7.41137	0.697569	10.9304	0.748478	11.7752
0.284251	4.39986	0.0994206	1.49212	0.282538	4.69888	0.401983	6.75892	0.5799	8.97989	0.849271	13.1298	0.225098	3.78375	0.437809	7.30568	0.697732	10.7756	0.749292	11.6177
0.284652	4.34343	0.101371	1.50041	0.282866	4.63256	0.40317	6.67433	0.580504	8.8614	0.849583	12.9482	0.227029	3.75737	0.438389	7.20337	0.697901	10.6254	0.750113	11.4648
0.285069	4.28881	0.103324	1.50852	0.283209	4.56847	0.404367	6.59245	0.581116	8.74636	0.8499	12.7716	0.228966	3.73188	0.438979	7.1043	0.698078	10.4794	0.75094	11.3163
0.285501	4.23594	0.105282	1.51648	0.283567	4.50652	0.405572	6.51317	0.581737	8.63462	0.850221	12.6	0.230908	3.70723	0.439577	7.0083	0.698261	10.3376	0.751774	11.172
0.28595	4.18474	0.107243	1.52427	0.28394	4.44661	0.406785	6.43635	0.582367	8.52606	0.850546	12.4332	0.232854	3.68338	0.440184	6.91526	0.698451	10.1997	0.752613	11.0318
0.286414	4.13516	0.109208	1.5319	0.284329	4.38865	0.408006	6.36189	0.582922	8.43394	0.850877	12.2709	0.234805	3.6603	0.4408	6.82505	0.698648	10.0656	0.75346	10.8954
0.286896	4.08714	0.111175	1.53939	0.284733	4.33258	0.409236	6.28968	0.583401	8.35717	0.851211	12.113	0.236761	3.63795	0.441425	6.73753	0.698852	9.9352	0.754312	10.7627
0.287394	4.0406	0.112893	1.54579	0.285152	4.27831	0.410473	6.21963	0.5838	8.29489	0.85155	11.9592	0.238721	3.61629	0.442059	6.6526	0.699064	9.80828	0.755171	10.6336
0.287842	4.00123	0.114359	1.55116	0.285588	4.22578	0.411717	6.15165	0.584118	8.24638	0.851894	11.8095	0.240684	3.59529	0.442702	6.57016	0.699282	9.68474	0.756036	10.5079
0.288234	3.9685	0.115572	1.55554	0.286039	4.1749	0.41297	6.08564	0.584353	8.21113	0.852242	11.6637	0.242652	3.57493	0.443354	6.49009	0.699507	9.56444	0.756907	10.3856
0.288566	3.942	0.116532	1.55897	0.286507	4.12563	0.414229	6.02153	0.584504	8.18875	0.852594	11.5216	0.244623	3.55517	0.444015	6.41231	0.699739	9.44726	0.757784	10.2663
0.288833	3.9214	0.117239	1.56147	0.286992	4.0779	0.415496	5.95923	0.584722	8.15681	0.852951	11.3831	0.246597	3.53598	0.444684	6.33672	0.699978	9.33309	0.758667	10.1502
0.289031	3.90645	0.117691	1.56306	0.287494	4.03165	0.416769	5.89867	0.58496	8.12243	0.853313	11.2481	0.248575	3.51735	0.445363	6.26323	0.700223	9.22181	0.759556	10.037
0.28916	3.89698	0.118341	1.56534	0.288012	3.98683	0.418049	5.83978	0.585285	8.0762	0.853679	11.1164	0.250556	3.49925	0.446051	6.19177	0.700476	9.11331	0.760451	9.92659
0.289346	3.88346	0.119049	1.56779	0.288548	3.94339	0.419336	5.7825	0.585699	8.01858	0.854049	10.9879	0.25254	3.48165	0.446747	6.12226	0.700736	9.00751	0.761353	9.81894
0.289551	3.86893	0.120011	1.5711	0.289101	3.90128	0.42063	5.72677	0.586204	7.95017	0.854424	10.8625	0.254526	3.46454	0.447452	6.05462	0.701003	8.9043	0.76226	9.71391
0.289833	3.84943	0.121229	1.57525	0.289673	3.86045	0.42193	5.67251	0.586802	7.8716	0.854804	10.7401	0.256516	3.44789	0.448167	5.98879	0.701276	8.80359	0.763173	9.61143
0.290196	3.82517	0.122704	1.5802	0.290262	3.82087	0.423236	5.61968	0.587497	7.78364	0.855187	10.6206	0.258507	3.43169	0.44889	5.92469	0.701557	8.70529	0.764091	9.5114
0.290644	3.79644	0.124435	1.58591	0.29087	3.78248	0.424548	5.56822	0.588199	7.69793	0.855576	10.5039	0.260502	3.41591	0.449622	5.86226	0.701807	8.62154	0.765016	9.41373
0.291183	3.76357	0.126424	1.59236	0.291496	3.74525	0.425867	5.51808	0.588911	7.61439	0.855969	10.3899	0.262498	3.40055	0.450363	5.80145	0.702025	8.5515	0.765947	9.31835
0.291819	3.72691	0.128416	1.59868	0.292142	3.70914	0.427191	5.46921	0.58963	7.53295	0.856366	10.2785	0.264497	3.38557	0.451113	5.7422	0.702207	8.4945	0.766883	9.22517
0.292474	3.69135	0.13041	1.60488	0.292806	3.67411	0.428521	5.42157	0.590358	7.45353	0.856768	10.1696	0.266497	3.37098	0.451872	5.68444	0.702354	8.45002	0.767825	9.13413
0.293149	3.65686	0.132405	1.61097	0.293491	3.64015	0.429856	5.3751	0.591095	7.37606	0.857175	10.0631	0.2685	3.35675	0.45264	5.62814	0.702462	8.41763	0.768772	9.04515
0.293843	3.62341	0.134403	1.61695	0.294195	3.6072	0.431197	5.32978	0.591839	7.30048	0.857585	9.95901	0.270504	3.34287	0.453417	5.57323	0.702532	8.39704	0.769726	8.95817
0.294558	3.59097	0.136403	1.62282	0.294919	3.57524	0.432544	5.28555	0.592592	7.22671	0.858001	9.85718	0.27251	3.32932	0.454203	5.51968	0.702633	8.36763	0.770685	8.87311
0.295293	3.5595	0.138405	1.62858	0.295665	3.54424	0.433895	5.24238	0.593354	7.1547	0.858421	9.75756	0.274517	3.3161	0.454997	5.46743	0.702744	8.33592	0.771649	8.78993
0.296048	3.52898	0.140408	1.63424	0.296431	3.51418	0.435252	5.20024	0.594123	7.08439	0.858845	9.66008	0.276526	3.30319	0.455801	5.41645	0.702897	8.2932	0.772494	8.71892
0.296826	3.49937	0.142413	1.6398	0.297219	3.48503	0.436614	5.15908	0.594901	7.01573	0.859274	9.56467	0.278536	3.29058	0.456613	5.36669	0.703092	8.23986	0.773218	8.65944
0.297624	3.47067	0.14442	1.64526	0.298029	3.45676	0.43798	5.11887	0.595687	6.94865	0.859707	9.47127	0.280548	3.27826	0.457435	5.3181	0.703331	8.17634	0.773819	8.61098
0.298445	3.44284	0.146429	1.65062	0.298861	3.42935	0.439352	5.07959	0.596482	6.88311	0.860145	9.37982	0.28256	3.26622	0.458265	5.27067	0.703616	8.10318	0.774295	8.57311
0.299289	3.41586	0.148439	1.65588	0.299716	3.40278	0.440728	5.0412	0.597285	6.81906	0.860587	9.29025	0.284574	3.25444	0.459105	5.22434	0.70395	8.02096	0.774646	8.54551
0.300155	3.3897	0.15045	1.66106	0.300594	3.37703	0.442109	5.00367	0.598096	6.75646	0.861034	9.20252	0.286588	3.24293	0.459953	5.17908	0.704291	7.94055	0.774871	8.52796
0.301046	3.36435	0.152463	1.66614	0.301496	3.35208	0.443494	4.96697	0.598915	6.69524	0.861486	9.11656	0.288604	3.23166	0.46081	5.13487	0.704638	7.86188	0.775196	8.50288
0.30196	3.33979	0.154477	1.67114	0.302422	3.3279	0.444884	4.93108	0.599743	6.63539	0.861942	9.03233	0.29062	3.22064	0.461677	5.09166	0.704993	7.78491	0.775548	8.47582
0.302898	3.316	0.156492	1.67605	0.303373	3.30449	0.446278	4.89597	0.600579	6.57684	0.862402	8.94978	0.292636	3.20985	0.462552	5.04943	0.705354	7.70959	0.77603	8.43934
0.303862	3.29297	0.158509	1.68087	0.304349	3.28181	0.447676	4.86162	0.601423	6.51956	0.862807	8.87916	0.294654	3.19928	0.463436	5.00814	0.705723	7.63585	0.77664	8.39373
0.304851	3.27066	0.160527	1.68561	0.305351	3.25987	0.449078	4.828	0.602275	6.46352	0.863154	8.81992	0.296672	3.18893	0.464329	4.96778	0.706098	7.56366	0.777381	8.33936
0.305866	3.24908	0.162546	1.69028	0.30638	3.23864	0.450485	4.79509	0.603135	6.40868	0.863444	8.77158	0.29869	3.17879	0.465231	4.9283	0.70648	7.49297	0.778253	8.27663
0.306908	3.2282	0.164566	1.69486	0.307435	3.2181	0.451895	4.76287	0.604004	6.35499	0.863674	8.73377	0.300709	3.16885	0.466142	4.88969	0.706869	7.42374	0.77926	8.20602
0.307978	3.20801	0.166587	1.69937	0.308518	3.19825	0.453309	4.73131	0.604881	6.30244	0.863844	8.70619	0.302727	3.15911	0.467062	4.85192	0.707264	7.35592	0.780272	8.13685
0.309075	3.18849	0.168608	1.7038	0.309629	3.17906	0.454727	4.7004	0.605766	6.25097	0.863953	8.68864	0.304746	3.14956	0.467991	4.81497	0.707667	7.28947	0.781289	8.06906
0.3102	3.16964	0.170631	1.70816	0.310769	3.16053	0.456149	4.67012	0.606659	6.20058	0.86411	8.66355	0.306766	3.14019	0.468929	4.77881	0.708076	7.22435	0.782311	8.00261
0.311355	3.15143	0.172655	1.71245	0.311939	3.14264	0.457574	4.64045	0.60756	6.15121	0.864281	8.63645	0.308785	3.13099	0.469876	4.74343	0.708492	7.16053	0.783339	7.93747
0.312539	3.13387	0.17468	1.71667	0.313137	3.12539	0.459003	4.61136	0.608469	6.10285	0.864515	8.5999	0.310804	3.12197	0.470832	4.70879	0.708915	7.09796	0.784372	7.8736
0.313753	3.11692	0.176705	1.72081	0.314367	3.10875	0.460435	4.58286	0.609386	6.05546	0.864813	8.55416	0.312823	3.11312	0.471797	4.67488	0.709344	7.03662	0.78541	7.81097
0.314998	3.10059	0.178731	1.7249	0.315627	3.09271	0.461871	4.55491	0.610312	6.00902	0.865174	8.49955	0.314842	3.10443	0.472771	4.64168	0.709781	6.97647	0.786453	7.74954
0.316274	3.08486	0.180758	1.72891	0.316918	3.07727	0.463309	4.52749	0.611245	5.96351	0.865602	8.43646	0.31686	3.09589	0.473754	4.60916	0.710224	6.91748	0.787501	7.68928
0.317581	3.06971	0.182786	1.73286	0.318242	3.06242	0.464751	4.50061	0.612187	5.91889	0.866097	8.36532	0.318878	3.0875	0.474746	4.57732	0.710674	6.85961	0.788554	7.63015
0.318921	3.05514	0.184814	1.73675	0.319597	3.04813	0.466197	4.47424	0.613136	5.87515	0.866596	8.2955	0.320896	3.07926	0.475746	4.54614	0.71113	6.80284	0.789612	7.57212
0.320292	3.04114	0.186843	1.74057	0.320985	3.0344	0.467645	4.44836	0.614094	5.83226	0.8671	8.22695	0.322914	3.07116	0.476756	4.51558	0.711593	6.74714	0.790676	7.51517
0.321696	3.02769	0.188872	1.74434	0.322405	3.02122	0.469096	4.42297	0.61506	5.79019	0.867609	8.15964	0.32493	3.0632	0.477775	4.48565	0.712063	6.69247	0.791744	7.45927
0.323133	3.01478	0.190902	1.74804	0.323858	3.00857	0.47055	4.39804	0.616033	5.74893	0.868122	8.09355	0.326947	3.05537	0.478803	4.45632	0.71254	6.63882	0.792817	7.40439
0.324604	3.0024	0.192932	1.75169	0.325345	2.99645	0.472007	4.37358	0.617014	5.70846	0.868639	8.02863	0.328962	3.04767	0.47984	4.42757	0.713023	6.58615	0.793895	7.3505
0.326107	2.99053	0.194963	1.75528	0.326864	2.98483	0.473467	4.34955	0.618004	5.66875	0.869161	7.96487	0.330977	3.0401	0.480886	4.3994	0.713513	6.53444	0.794978	7.29757
0.327643	2.97916	0.196994	1.75882	0.328417	2.97371	0.47493	4.32596	0.619001	5.62979	0.869688	7.90222	0.332991	3.03265	0.481941	4.37179	0.71401	6.48366	0.796066	7.24559
0.329212	2.96828	0.199026	1.7623	0.330002	2.96307	0.476395	4.30279	0.620007	5.59155	0.870219	7.84067	0.335005	3.02531	0.483004	4.34472	0.714513	6.4338	0.797159	7.19452
0.330814	2.95788	0.201058	1.76572	0.331621	2.95289	0.477863	4.28004	0.62102	5.55402	0.870754	7.78018	0.337017	3.01809	0.484077	4.31818	0.715023	6.38483	0.798256	7.14435
0.332449	2.94794	0.20309	1.7691	0.333271	2.94317	0.479334	4.25768	0.622041	5.51718	0.871294	7.72074	0.339028	3.01098	0.485159	4.29216	0.715539	6.33672	0.799358	7.09506
0.334115	2.93844	0.205123	1.77242	0.334954	2.93389	0.480807	4.23571	0.623069	5.48101	0.871839	7.6623	0.341039	3.00398	0.48625	4.26664	0.716062	6.28946	0.800465	7.04661
0.335814	2.92938	0.207156	1.77569	0.336668	2.92504	0.482282	4.21412	0.624106	5.4455	0.872387	7.60485	0.343048	2.99708	0.48735	4.24162	0.716592	6.24302	0.801577	6.99899
0.337544	2.92073	0.20919	1.77891	0.338413	2.91659	0.48376	4.1929	0.625151	5.41062	0.872941	7.54837	0.345056	2.99029	0.488459	4.21707	0.717128	6.19739	0.802693	6.95218
0.339305	2.91248	0.211223	1.78209	0.340189	2.90854	0.48524	4.17203	0.626203	5.37638	0.873499	7.49283	0.347063	2.98359	0.489577	4.193	0.717671	6.15254	0.803814	6.90616
0.341095	2.90462	0.213257	1.78521	0.341994	2.90087	0.486723	4.15152	0.627263	5.34274	0.874061	7.43821	0.349069	2.97699	0.490704	4.16938	0.71822	6.10846	0.80494	6.86091
0.342915	2.89714	0.215291	1.78829	0.343828	2.89356	0.488207	4.13136	0.628331	5.3097	0.874628	7.38448	0.351074	2.97048	0.49184	4.14621	0.718776	6.06512	0.80607	6.81641
0.344764	2.89001	0.217325	1.79133	0.345691	2.8866	0.489694	4.11152	0.629406	5.27724	0.8752	7.33164	0.353077	2.96406	0.492985	4.12348	0.719338	6.02252	0.807204	6.77265
0.34664	2.88321	0.21936	1.79432	0.34758	2.87997	0.491183	4.09201	0.630489	5.24534	0.875776	7.27964	0.355079	2.95774	0.494139	4.10117	0.719907	5.98063	0.808344	6.7296
0.348543	2.87675	0.221394	1.79726	0.349496	2.87366	0.492675	4.07282	0.63158	5.214	0.876356	7.22849	0.357079	2.95149	0.495302	4.07928	0.720482	5.93944	0.809487	6.68725
0.350472	2.8706	0.223429	1.80016	0.351438	2.86765	0.494168	4.05394	0.632678	5.18321	0.876941	7.17815	0.359078	2.94533	0.496474	4.0578	0.721064	5.89893	0.810635	6.64558
0.352426	2.86474	0.225463	1.80302	0.353404	2.86194	0.495663	4.03537	0.633784	5.15294	0.87753	7.12861	0.361075	2.93925	0.497656	4.03671	0.721652	5.85908	0.811788	6.60459
0.354404	2.85916	0.227498	1.80584	0.355393	2.8565	0.49716	4.01709	0.634898	5.12318	0.878124	7.07985	0.363071	2.93325	0.498846	4.01601	0.722247	5.81989	0.812945	6.56424
0.356405	2.85386	0.229533	1.80861	0.357406	2.85132	0.498659	3.99909	0.636019	5.09393	0.878723	7.03185	0.365065	2.92733	0.500045	3.9957	0.722848	5.78132	0.814106	6.52453
0.358428	2.84881	0.231568	1.81135	0.35944	2.84639	0.50016	3.98138	0.637148	5.06518	0.879326	6.9846	0.367058	2.92148	0.501253	3.97575	0.723456	5.74339	0.815272	6.48545
0.360473	2.844	0.233603	1.81405	0.361494	2.8417	0.501663	3.96395	0.638285	5.0369	0.879933	6.93808	0.369049	2.9157	0.50247	3.95617	0.724069	5.70605	0.816442	6.44698
0.362538	2.83941	0.235638	1.81671	0.363569	2.83722	0.503167	3.94678	0.639428	5.0091	0.880545	6.89227	0.371038	2.91	0.503696	3.93694	0.72469	5.66932	0.817616	6.4091
0.364622	2.83505	0.237673	1.81933	0.365662	2.83296	0.504674	3.92987	0.640579	4.98176	0.881161	6.84716	0.373025	2.90436	0.504932	3.91807	0.725316	5.63316	0.818795	6.3718
0.366724	2.83089	0.239707	1.82191	0.367774	2.8289	0.506182	3.91323	0.641738	4.95487	0.881782	6.80274	0.37501	2.89879	0.506176	3.89953	0.725949	5.59757	0.819978	6.33507
0.368845	2.82693	0.241742	1.82445	0.369903	2.82503	0.507692	3.89683	0.642904	4.92842	0.882408	6.75898	0.376994	2.89328	0.507429	3.88132	0.726589	5.56254	0.821165	6.2989
0.370982	2.82315	0.243777	1.82696	0.372047	2.82134	0.509203	3.88068	0.644078	4.9024	0.883038	6.71588	0.378975	2.88784	0.508691	3.86345	0.727234	5.52805	0.822356	6.26328
0.373135	2.81954	0.245811	1.82944	0.374208	2.81781	0.510716	3.86477	0.645259	4.8768	0.883672	6.67342	0.380955	2.88246	0.509962	3.84589	0.727886	5.4941	0.823551	6.22818
0.375303	2.81609	0.247846	1.83188	0.376383	2.81444	0.512231	3.8491	0.646447	4.85162	0.884311	6.63158	0.382932	2.87714	0.511242	3.82864	0.728544	5.46066	0.82475	6.19361
0.377485	2.81281	0.24988	1.83428	0.378572	2.81123	0.513747	3.83365	0.647642	4.82684	0.884954	6.59036	0.384908	2.87188	0.512532	3.8117	0.729209	5.42774	0.825954	6.15955
0.379681	2.80966	0.251915	1.83665	0.380775	2.80816	0.515265	3.81843	0.648845	4.80246	0.885602	6.54974	0.386881	2.86668	0.51383	3.79506	0.729879	5.39531	0.827161	6.12599
0.38189	2.80666	0.253949	1.83899	0.38299	2.80522	0.516785	3.80343	0.650055	4.77846	0.886255	6.50971	0.388852	2.86153	0.515137	3.77871	0.730556	5.36338	0.828372	6.09292
0.384111	2.80378	0.255983	1.8413	0.385217	2.8024	0.518305	3.78864	0.651272	4.75484	0.886912	6.47025	0.390821	2.85643	0.516452	3.76264	0.731239	5.33192	0.829588	6.06033
0.386344	2.80103	0.258016	1.84357	0.387455	2.79971	0.519828	3.77407	0.652496	4.7316	0.887573	6.43136	0.392788	2.85139	0.517777	3.74686	0.731929	5.30094	0.830807	6.02821
0.388588	2.7984	0.26005	1.84581	0.389704	2.79713	0.521351	3.7597	0.653728	4.70871	0.888239	6.39303	0.394753	2.8464	0.519111	3.73136	0.732624	5.27041	0.832031	5.99655
0.390842	2.79587	0.262084	1.84803	0.391963	2.79466	0.522877	3.74553	0.654966	4.68619	0.888909	6.35524	0.396715	2.84147	0.520454	3.71612	0.733326	5.24034	0.833258	5.96534
0.393106	2.79345	0.264117	1.85021	0.394232	2.79228	0.524403	3.73156	0.656212	4.66401	0.889584	6.31798	0.398676	2.83658	0.521805	3.70115	0.734034	5.21071	0.834489	5.93457
0.395379	2.79112	0.26615	1.85236	0.39651	2.79001	0.525931	3.71779	0.657465	4.64217	0.890263	6.28124	0.400634	2.83173	0.523166	3.68644	0.734748	5.1815	0.835724	5.90423
0.397661	2.78889	0.268182	1.85448	0.398796	2.78782	0.527461	3.7042	0.658724	4.62067	0.890947	6.24501	0.402589	2.82694	0.524535	3.67198	0.735468	5.15273	0.836962	5.87431
0.399952	2.78675	0.270215	1.85657	0.401091	2.78572	0.528991	3.6908	0.659991	4.59949	0.891635	6.20929	0.404542	2.82219	0.525913	3.65777	0.736195	5.12437	0.838205	5.84481
0.40225	2.78469	0.272247	1.85864	0.403393	2.78369	0.530523	3.67758	0.661265	4.57864	0.892328	6.17405	0.406493	2.81749	0.5273	3.64381	0.736927	5.09642	0.839451	5.81572
0.404556	2.7827	0.274279	1.86068	0.405703	2.78175	0.532057	3.66454	0.662545	4.5581	0.893026	6.1393	0.408442	2.81283	0.528696	3.63008	0.737666	5.06886	0.840701	5.78703
0.40687	2.78079	0.276311	1.86269	0.408019	2.77987	0.533591	3.65168	0.663832	4.53787	0.893727	6.10502	0.410387	2.80821	0.530101	3.61659	0.73841	5.0417	0.841955	5.75872
0.409189	2.77895	0.278342	1.86467	0.410342	2.77806	0.535127	3.63899	0.665127	4.51794	0.894434	6.07121	0.412331	2.80364	0.531514	3.60332	0.739161	5.01492	0.843212	5.7308
0.411516	2.77718	0.280373	1.86662	0.412671	2.77632	0.536664	3.62647	0.666428	4.49831	0.895144	6.03785	0.414272	2.7991	0.532936	3.59029	0.739918	4.98853	0.844473	5.70326
0.413848	2.77546	0.282404	1.86855	0.415007	2.77464	0.538203	3.61411	0.667735	4.47897	0.89586	6.00493	0.416211	2.79461	0.534367	3.57747	0.740681	4.9625	0.845738	5.67608
0.416186	2.77381	0.284434	1.87046	0.417347	2.77301	0.539742	3.60191	0.66905	4.45992	0.896579	5.97246	0.418147	2.79015	0.535806	3.56487	0.741449	4.93683	0.847006	5.64927
0.418529	2.77221	0.286464	1.87234	0.419693	2.77144	0.541283	3.58988	0.670371	4.44114	0.897304	5.94042	0.42008	2.78574	0.537254	3.55249	0.742224	4.91152	0.848277	5.62281
0.420877	2.77067	0.288494	1.87419	0.422044	2.76992	0.542826	3.57799	0.671699	4.42264	0.898032	5.90879	0.422011	2.78136	0.538711	3.54031	0.743005	4.88656	0.849553	5.5967
0.423231	2.76918	0.290524	1.87602	0.424399	2.76846	0.544369	3.56627	0.673033	4.4044	0.898766	5.87759	0.42394	2.77701	0.540177	3.52834	0.743792	4.86194	0.850831	5.57093
0.425588	2.76773	0.292553	1.87782	0.426759	2.76703	0.545914	3.55469	0.674374	4.38643	0.899503	5.84679	0.425865	2.77271	0.541651	3.51656	0.744584	4.83766	0.852114	5.54549
0.42795	2.76633	0.294581	1.8796	0.429123	2.76565	0.547459	3.54326	0.675721	4.36872	0.900246	5.81639	0.427789	2.76844	0.543133	3.50499	0.745383	4.81371	0.853399	5.52039
0.430317	2.76498	0.29661	1.88136	0.431492	2.76432	0.549007	3.53197	0.677075	4.35127	0.900992	5.78638	0.429709	2.7642	0.544624	3.4936	0.746187	4.79008	0.854688	5.49561
0.432687	2.76366	0.298637	1.88309	0.433864	2.76302	0.550555	3.52083	0.678435	4.33406	0.901743	5.75676	0.431628	2.76	0.546124	3.48241	0.746998	4.76678	0.85598	5.47114
0.43506	2.76238	0.300665	1.88481	0.436239	2.76176	0.552104	3.50983	0.679802	4.31709	0.902499	5.72751	0.433543	2.75583	0.547632	3.4714	0.747814	4.74378	0.857276	5.44698
0.437438	2.76114	0.302692	1.8865	0.438618	2.76054	0.553655	3.49896	0.681175	4.30037	0.903259	5.69864	0.435456	2.75169	0.549148	3.46058	0.748637	4.7211	0.858575	5.42313
0.439818	2.75994	0.304719	1.88816	0.441	2.75935	0.555207	3.48823	0.682555	4.28388	0.904024	5.67014	0.437366	2.74759	0.550673	3.44993	0.749465	4.69871	0.859878	5.39958
0.442201	2.75876	0.306745	1.88981	0.443385	2.75819	0.55676	3.47763	0.68394	4.26762	0.904793	5.64199	0.439274	2.74351	0.552206	3.43946	0.750299	4.67662	0.861183	5.37633
0.444588	2.75762	0.308771	1.89143	0.445772	2.75707	0.558315	3.46717	0.685332	4.25159	0.905566	5.6142	0.441179	2.73947	0.553747	3.42916	0.751139	4.65483	0.862492	5.35336
0.446977	2.75651	0.310796	1.89303	0.448163	2.75597	0.559871	3.45683	0.68673	4.23578	0.906344	5.58675	0.443082	2.73546	0.555297	3.41903	0.751984	4.63332	0.863804	5.33068
0.449369	2.75543	0.312821	1.89462	0.450556	2.7549	0.561427	3.44661	0.688135	4.22019	0.907127	5.55965	0.444982	2.73148	0.556855	3.40907	0.752836	4.61209	0.865119	5.30827
0.451763	2.75437	0.314845	1.89618	0.452951	2.75386	0.562986	3.43652	0.689545	4.20481	0.907914	5.53288	0.446879	2.72752	0.558421	3.39926	0.753693	4.59113	0.866438	5.28614
0.454159	2.75334	0.316869	1.89772	0.455349	2.75284	0.564545	3.42655	0.690961	4.18965	0.908706	5.50644	0.448774	2.7236	0.559995	3.38962	0.754556	4.57045	0.867759	5.26428
0.456558	2.75234	0.318893	1.89924	0.457748	2.75185	0.566106	3.4167	0.692384	4.17469	0.909501	5.48032	0.450666	2.71971	0.561577	3.38014	0.755425	4.55004	0.869084	5.24268
0.458958	2.75136	0.320916	1.90074	0.46015	2.75088	0.567668	3.40697	0.693812	4.15993	0.910302	5.45452	0.452556	2.71584	0.563168	3.37081	0.756299	4.52988	0.870411	5.22135
0.461361	2.7504	0.322939	1.90222	0.462553	2.74993	0.569231	3.39736	0.695246	4.14537	0.911107	5.42903	0.454443	2.712	0.564766	3.36163	0.75718	4.50999	0.871742	5.20027
0.463765	2.74946	0.324961	1.90369	0.464958	2.749	0.570795	3.38786	0.696687	4.13101	0.911916	5.40386	0.456327	2.70819	0.566372	3.35259	0.758066	4.49035	0.873076	5.17944
0.466171	2.74854	0.326982	1.90513	0.467365	2.74809	0.572361	3.37847	0.698132	4.11684	0.91273	5.37898	0.458209	2.7044	0.567986	3.34371	0.758958	4.47096	0.874412	5.15885
0.468578	2.74764	0.329003	1.90656	0.469773	2.7472	0.573928	3.36919	0.699584	4.10286	0.913549	5.35441	0.460089	2.70065	0.569608	3.33496	0.759855	4.45181	0.875752	5.13851
0.470987	2.74676	0.331024	1.90797	0.472182	2.74633	0.575497	3.36002	0.701042	4.08907	0.914372	5.33012	0.461966	2.69692	0.571238	3.32636	0.760758	4.4329	0.877095	5.11841
0.473397	2.74589	0.333044	1.90936	0.474593	2.74547	0.577067	3.35096	0.702505	4.07545	0.915199	5.30613	0.46384	2.69321	0.572875	3.31789	0.761667	4.41423	0.87844	5.09854
0.475808	2.74505	0.335064	1.91073	0.477005	2.74463	0.578638	3.342	0.703974	4.06202	0.916031	5.28242	0.465712	2.68953	0.57452	3.30956	0.762582	4.3958	0.879789	5.0789
0.478221	2.74421	0.337083	1.91208	0.479418	2.74381	0.580211	3.33315	0.705448	4.04876	0.916867	5.25898	0.467582	2.68587	0.576173	3.30136	0.763502	4.37759	0.88114	5.05949
0.480634	2.7434	0.339101	1.91342	0.481832	2.743	0.581785	3.3244	0.706928	4.03567	0.917708	5.23582	0.469449	2.68224	0.577833	3.29329	0.764428	4.35961	0.882494	5.0403
0.483049	2.74259	0.341119	1.91474	0.484247	2.7422	0.58336	3.31575	0.708414	4.02276	0.918553	5.21294	0.471314	2.67864	0.5795	3.28535	0.765359	4.34185	0.883851	5.02133
0.485464	2.7418	0.343137	1.91604	0.486662	2.74141	0.584937	3.3072	0.709905	4.01001	0.919403	5.19032	0.473176	2.67506	0.581175	3.27754	0.766297	4.32431	0.88521	5.00257
0.48788	2.74102	0.345153	1.91733	0.489078	2.74064	0.586516	3.29874	0.711401	3.99742	0.920257	5.16796	0.475036	2.6715	0.582858	3.26984	0.767239	4.30699	0.886573	4.98403
0.490297	2.74026	0.34717	1.9186	0.491495	2.73988	0.588096	3.29039	0.712903	3.985	0.921116	5.14585	0.476894	2.66797	0.584547	3.26227	0.768188	4.28988	0.887938	4.96569
0.492714	2.7395	0.349186	1.91986	0.493913	2.73913	0.589677	3.28213	0.71441	3.97273	0.921979	5.12401	0.478749	2.66446	0.586244	3.25482	0.769141	4.27297	0.889305	4.94756
0.495132	2.73876	0.351201	1.9211	0.496331	2.73839	0.59126	3.27396	0.715922	3.96062	0.922846	5.10241	0.480602	2.66098	0.587948	3.24748	0.770101	4.25627	0.890676	4.92963
0.49755	2.73802	0.353216	1.92232	0.498749	2.73766	0.592845	3.26589	0.717439	3.94867	0.923718	5.08105	0.482453	2.65752	0.589659	3.24025	0.771066	4.23977	0.892049	4.9119
0.499968	2.7373	0.35523	1.92353	0.501168	2.73694	0.594431	3.2579	0.718962	3.93686	0.924595	5.05994	0.484302	2.65408	0.591377	3.23314	0.772037	4.22347	0.893424	4.89437
0.502387	2.73658	0.357243	1.92472	0.503587	2.73623	0.596019	3.25001	0.72049	3.9252	0.925476	5.03907	0.486148	2.65066	0.593102	3.22614	0.773013	4.20737	0.894802	4.87703
0.504806	2.73587	0.359256	1.9259	0.506006	2.73552	0.597608	3.24221	0.722023	3.91368	0.926362	5.01844	0.487992	2.64727	0.594834	3.21924	0.773994	4.19146	0.896183	4.85987
0.507225	2.73517	0.361268	1.92706	0.508425	2.73482	0.5992	3.23449	0.723561	3.90231	0.927252	4.99803	0.489835	2.6439	0.596572	3.21245	0.774981	4.17573	0.897566	4.84291
0.509644	2.73448	0.36328	1.92821	0.510844	2.73413	0.600793	3.22686	0.725103	3.89108	0.928146	4.97785	0.491675	2.64056	0.598317	3.20577	0.775974	4.1602	0.898952	4.82612
0.512063	2.73379	0.365291	1.92934	0.513263	2.73345	0.602388	3.21932	0.726651	3.87999	0.929045	4.9579	0.493513	2.63723	0.600069	3.19919	0.776972	4.14484	0.90034	4.80952
0.514482	2.73311	0.367302	1.93046	0.515682	2.73277	0.603984	3.21186	0.728204	3.86903	0.929948	4.93817	0.495349	2.63393	0.601828	3.1927	0.777976	4.12967	0.901731	4.79309
0.516901	2.73243	0.369312	1.93157	0.5181	2.7321	0.605583	3.20448	0.729761	3.85821	0.930856	4.91866	0.497183	2.63065	0.603593	3.18632	0.778985	4.11468	0.903124	4.77684
0.519319	2.73176	0.371321	1.93266	0.520518	2.73143	0.607183	3.19719	0.731323	3.84751	0.931769	4.89936	0.499015	2.62739	0.605364	3.18003	0.78	4.09986	0.90452	4.76076
0.521737	2.7311	0.37333	1.93374	0.522936	2.73077	0.608786	3.18997	0.73289	3.83695	0.932685	4.88027	0.500846	2.62416	0.607142	3.17383	0.78102	4.08522	0.905918	4.74485
0.524155	2.73044	0.375338	1.9348	0.525354	2.73011	0.61039	3.18284	0.734462	3.82651	0.933607	4.86139	0.502674	2.62094	0.608926	3.16773	0.782045	4.07074	0.907318	4.72911
0.526572	2.72978	0.377346	1.93585	0.527771	2.72946	0.611996	3.17579	0.736038	3.8162	0.934532	4.84272	0.504501	2.61775	0.610716	3.16172	0.783076	4.05644	0.90872	4.71353
0.528989	2.72913	0.379353	1.93689	0.530188	2.72881	0.613605	3.16882	0.737619	3.80601	0.935463	4.82424	0.506326	2.61458	0.612512	3.15579	0.784112	4.0423	0.910125	4.69811
0.531405	2.72848	0.381359	1.93792	0.532603	2.72816	0.615215	3.16192	0.739204	3.79594	0.936397	4.80597	0.508149	2.61143	0.614314	3.14996	0.785154	4.02832	0.911532	4.68285
0.533821	2.72783	0.383365	1.93893	0.535019	2.72751	0.616828	3.1551	0.740794	3.78599	0.937337	4.7879	0.50997	2.6083	0.616122	3.14421	0.786201	4.0145	0.912941	4.66775
0.536236	2.72719	0.38537	1.93993	0.537433	2.72687	0.618443	3.14836	0.742388	3.77616	0.93828	4.77002	0.51179	2.6052	0.617936	3.13854	0.787254	4.00084	0.914353	4.6528
0.53865	2.72655	0.387374	1.94092	0.539847	2.72623	0.62006	3.14169	0.743987	3.76644	0.939228	4.75233	0.513609	2.60211	0.619756	3.13296	0.788312	3.98734	0.915767	4.63801
0.541063	2.7259	0.389378	1.94189	0.542259	2.72559	0.62168	3.1351	0.745589	3.75683	0.940181	4.73483	0.515425	2.59905	0.621581	3.12746	0.789375	3.97399	0.917183	4.62336
0.543475	2.72527	0.391381	1.94285	0.544671	2.72495	0.623302	3.12857	0.747197	3.74734	0.941138	4.71751	0.517241	2.596	0.623412	3.12203	0.790444	3.96079	0.918601	4.60886
0.545886	2.72463	0.393384	1.94381	0.547081	2.72431	0.624926	3.12213	0.748808	3.73796	0.9421	4.70038	0.519054	2.59298	0.625249	3.11669	0.791518	3.94774	0.920021	4.59451
0.548296	2.72399	0.395386	1.94474	0.549491	2.72367	0.626553	3.11575	0.750424	3.72868	0.943066	4.68343	0.520867	2.58998	0.62709	3.11142	0.792597	3.93484	0.921443	4.5803
0.550705	2.72335	0.397387	1.94567	0.551899	2.72303	0.628182	3.10945	0.752043	3.71951	0.944036	4.66666	0.522678	2.587	0.628938	3.10623	0.793682	3.92209	0.922867	4.56623
0.553112	2.72271	0.399388	1.94659	0.554306	2.72239	0.629814	3.10322	0.753667	3.71044	0.945011	4.65006	0.524487	2.58404	0.63079	3.1011	0.794772	3.90947	0.924294	4.55231
0.555519	2.72207	0.401388	1.94749	0.556712	2.72175	0.631449	3.09705	0.755295	3.70148	0.94599	4.63364	0.526295	2.5811	0.632648	3.09606	0.795868	3.897	0.925722	4.53851
0.557924	2.72143	0.403387	1.94838	0.559116	2.72111	0.633087	3.09096	0.756926	3.69261	0.946974	4.61738	0.528103	2.57818	0.634511	3.09108	0.796968	3.88467	0.927152	4.52486
0.560327	2.72079	0.405386	1.94927	0.561518	2.72047	0.634727	3.08493	0.758562	3.68385	0.947963	4.6013	0.529908	2.57529	0.636378	3.08617	0.798075	3.87247	0.928585	4.51134
0.562729	2.72015	0.407384	1.95014	0.563919	2.71982	0.63637	3.07898	0.760202	3.67518	0.948956	4.58538	0.531713	2.57241	0.638251	3.08133	0.799186	3.86041	0.930019	4.49794
0.565129	2.7195	0.409381	1.951	0.566318	2.71918	0.638016	3.07309	0.761845	3.66661	0.949953	4.56963	0.533517	2.56955	0.640129	3.07656	0.800303	3.84849	0.931455	4.48468
0.567527	2.71885	0.411378	1.95185	0.568716	2.71853	0.639665	3.06727	0.763492	3.65813	0.950955	4.55404	0.535319	2.56672	0.642011	3.07185	0.801425	3.8367	0.932893	4.47155
0.569924	2.7182	0.413374	1.95268	0.571112	2.71788	0.641318	3.06151	0.765143	3.64975	0.951961	4.53861	0.537121	2.5639	0.643898	3.0672	0.802552	3.82503	0.934333	4.45854
0.572318	2.71755	0.415369	1.95351	0.573505	2.71722	0.642973	3.05582	0.766798	3.64146	0.952972	4.52333	0.538921	2.5611	0.64579	3.06262	0.803685	3.8135	0.935775	4.44565
0.574711	2.71689	0.417364	1.95433	0.575897	2.71656	0.644632	3.0502	0.768456	3.63326	0.953987	4.50821	0.540721	2.55833	0.647686	3.0581	0.804823	3.80209	0.937218	4.43289
0.577102	2.71622	0.419358	1.95514	0.578287	2.71589	0.646294	3.04464	0.770118	3.62515	0.955007	4.49325	0.54252	2.55558	0.649586	3.05364	0.805966	3.7908	0.938664	4.42025
0.57949	2.71556	0.421352	1.95594	0.580674	2.71523	0.647959	3.03915	0.771783	3.61712	0.956031	4.47844	0.544318	2.55284	0.651491	3.04924	0.807114	3.77964	0.940111	4.40772
0.581876	2.71489	0.423344	1.95672	0.583059	2.71455	0.649628	3.03372	0.773452	3.60918	0.957059	4.46377	0.546115	2.55013	0.6534	3.0449	0.808268	3.7686	0.94156	4.39532
0.58426	2.71421	0.425336	1.9575	0.585442	2.71387	0.651301	3.02835	0.775124	3.60133	0.958092	4.44926	0.547911	2.54743	0.655313	3.04061	0.809427	3.75768	0.94301	4.38302
0.586642	2.71353	0.427328	1.95827	0.587822	2.71319	0.652977	3.02305	0.7768	3.59356	0.95913	4.43489	0.549707	2.54476	0.65723	3.03638	0.810591	3.74688	0.944463	4.37085
0.589021	2.71284	0.429318	1.95903	0.590199	2.7125	0.654657	3.01781	0.778479	3.58587	0.960172	4.42066	0.551502	2.5421	0.659152	3.0322	0.811761	3.7362	0.945917	4.35878
0.591397	2.71215	0.431308	1.95978	0.592574	2.7118	0.656341	3.01264	0.780161	3.57826	0.961219	4.40658	0.553296	2.53947	0.661077	3.02808	0.812936	3.72563	0.947372	4.34683
0.59377	2.71145	0.433298	1.96052	0.594946	2.7111	0.658029	3.00752	0.781846	3.57074	0.96227	4.39263	0.55509	2.53685	0.663006	3.02401	0.814116	3.71517	0.94883	4.33498
0.596141	2.71074	0.435286	1.96125	0.597315	2.71038	0.659721	3.00247	0.783535	3.56329	0.963325	4.37883	0.556883	2.53426	0.664938	3.01999	0.815301	3.70483	0.950288	4.32325
0.598508	2.71002	0.437274	1.96197	0.599681	2.70966	0.661417	2.99748	0.785227	3.55591	0.964385	4.36516	0.558676	2.53168	0.666875	3.01603	0.816492	3.6946	0.951749	4.31161
0.600873	2.7093	0.439262	1.96268	0.602044	2.70894	0.663118	2.99255	0.786922	3.54862	0.965449	4.35163	0.560468	2.52912	0.668815	3.01211	0.817688	3.68448	0.953211	4.30009
0.603234	2.70857	0.441248	1.96338	0.604404	2.7082	0.664823	2.98769	0.78862	3.54139	0.966518	4.33823	0.56226	2.52659	0.670758	3.00824	0.818889	3.67446	0.954675	4.28867
0.605592	2.70783	0.443234	1.96408	0.60676	2.70746	0.666533	2.98288	0.790321	3.53425	0.967592	4.32496	0.564052	2.52407	0.672705	3.00441	0.820095	3.66455	0.95614	4.27735
0.607946	2.70708	0.44522	1.96476	0.609113	2.7067	0.668247	2.97813	0.792025	3.52717	0.96867	4.31182	0.565843	2.52157	0.674655	3.00064	0.821307	3.65475	0.957607	4.26613
0.610297	2.70632	0.447204	1.96544	0.611462	2.70594	0.669966	2.97345	0.793732	3.52017	0.969752	4.29881	0.567634	2.5191	0.676609	2.99691	0.822523	3.64505	0.959075	4.255
0.612645	2.70555	0.449188	1.96611	0.613807	2.70516	0.67169	2.96882	0.795442	3.51323	0.970839	4.28592	0.569425	2.51664	0.678565	2.99322	0.823746	3.63546	0.960544	4.24398
0.614988	2.70477	0.451171	1.96677	0.616149	2.70438	0.673419	2.96426	0.797154	3.50637	0.97193	4.27317	0.571215	2.5142	0.680525	2.98958	0.824973	3.62597	0.962015	4.23306
0.617328	2.70398	0.453154	1.96742	0.618486	2.70358	0.675153	2.95975	0.79887	3.49957	0.973026	4.26053	0.573006	2.51178	0.682487	2.98598	0.826205	3.61657	0.963488	4.22223
0.619663	2.70318	0.455136	1.96806	0.62082	2.70277	0.676892	2.95531	0.800588	3.49284	0.974126	4.24802	0.574796	2.50938	0.684453	2.98242	0.827443	3.60728	0.964962	4.21149
0.621994	2.70236	0.457117	1.9687	0.623149	2.70195	0.678637	2.95092	0.802309	3.48618	0.975231	4.23563	0.576586	2.50699	0.686421	2.97891	0.828686	3.59808	0.966437	4.20085
0.624321	2.70154	0.459097	1.96933	0.625474	2.70112	0.680387	2.94659	0.804032	3.47958	0.97634	4.22336	0.578376	2.50463	0.688393	2.97543	0.829934	3.58899	0.967913	4.19029
0.626644	2.7007	0.461077	1.96995	0.627794	2.70028	0.682143	2.94233	0.805758	3.47305	0.977454	4.2112	0.580166	2.50229	0.690366	2.97199	0.831188	3.57998	0.969391	4.17983
0.628962	2.69985	0.463056	1.97056	0.630109	2.69942	0.683905	2.93812	0.807487	3.46658	0.978572	4.19916	0.581956	2.49996	0.692343	2.96859	0.832446	3.57107	0.970871	4.16946
0.631275	2.69898	0.465035	1.97116	0.63242	2.69855	0.685672	2.93397	0.809218	3.46017	0.979695	4.18724	0.583746	2.49765	0.694322	2.96523	0.83371	3.56226	0.972351	4.15918
0.633583	2.6981	0.467013	1.97176	0.634726	2.69766	0.687446	2.92988	0.810952	3.45382	0.980822	4.17543	0.585536	2.49537	0.696303	2.96191	0.83498	3.55353	0.973833	4.14898
0.635886	2.69721	0.46899	1.97235	0.637026	2.69676	0.689226	2.92585	0.812688	3.44754	0.981954	4.16373	0.587327	2.4931	0.698287	2.95862	0.836254	3.5449	0.975316	4.13887
0.638184	2.6963	0.470966	1.97293	0.639321	2.69584	0.691013	2.92187	0.814426	3.44131	0.98309	4.15215	0.589117	2.49085	0.700273	2.95537	0.837534	3.53636	0.9768	4.12885
0.640476	2.69538	0.472942	1.9735	0.641611	2.69491	0.692806	2.91796	0.816167	3.43514	0.984231	4.14067	0.590908	2.48861	0.702262	2.95216	0.838819	3.52791	0.978286	4.1189
0.642763	2.69444	0.474917	1.97407	0.643896	2.69396	0.694606	2.91411	0.81791	3.42903	0.985376	4.1293	0.592698	2.4864	0.704252	2.94897	0.840109	3.51954	0.979773	4.10904
0.645045	2.69348	0.476891	1.97463	0.646174	2.693	0.696412	2.91031	0.819656	3.42298	0.986525	4.11804	0.59449	2.4842	0.706245	2.94582	0.841404	3.51126	0.981261	4.09927
0.64732	2.69251	0.478865	1.97518	0.648447	2.69202	0.698226	2.90657	0.821403	3.41698	0.98768	4.10689	0.596281	2.48203	0.708239	2.94271	0.842705	3.50307	0.98275	4.08957
0.64959	2.69152	0.480838	1.97572	0.650713	2.69102	0.700047	2.90289	0.823153	3.41104	0.988838	4.09584	0.598073	2.47987	0.710235	2.93962	0.844011	3.49496	0.98424	4.07995
0.651854	2.69051	0.48281	1.97626	0.652974	2.69	0.701875	2.89927	0.824905	3.40515	0.990001	4.08489	0.599865	2.47773	0.712234	2.93657	0.845322	3.48694	0.985731	4.07041
0.654111	2.68948	0.484782	1.97679	0.655228	2.68897	0.703711	2.89571	0.826659	3.39932	0.991169	4.07405	0.601657	2.4756	0.714234	2.93355	0.846638	3.479	0.987224	4.06095
0.656362	2.68844	0.486753	1.97732	0.657476	2.68791	0.705554	2.89221	0.828415	3.39354	0.992341	4.06331	0.60345	2.4735	0.716235	2.93055	0.84796	3.47114	0.988717	4.05157
0.658606	2.68738	0.488723	1.97784	0.659717	2.68684	0.707405	2.88876	0.830173	3.38781	0.993518	4.05266	0.605243	2.47141	0.718239	2.92759	0.849287	3.46337	0.990212	4.04226
0.660844	2.68629	0.490692	1.97835	0.661951	2.68575	0.709264	2.88537	0.831933	3.38214	0.994699	4.04212	0.607037	2.46934	0.720244	2.92466	0.850619	3.45567	0.991707	4.03303
0.663074	2.68519	0.492661	1.97885	0.664178	2.68464	0.71113	2.88204	0.833695	3.37651	0.995885	4.03167	0.608831	2.46729	0.72225	2.92175	0.851957	3.44805	0.993204	4.02387
0.665298	2.68407	0.494629	1.97935	0.666398	2.68351	0.713005	2.87877	0.835459	3.37093	0.997075	4.02132	0.610626	2.46525	0.724258	2.91887	0.8533	3.44051	0.994702	4.01478
0.667515	2.68293	0.496597	1.97984	0.668612	2.68236	0.714889	2.87556	0.837225	3.36541	0.998269	4.01107	0.612421	2.46323	0.726267	2.91602	0.854648	3.43305	0.996201	4.00577
0.669724	2.68177	0.498564	1.98033	0.670817	2.68118	0.716781	2.87241	0.838992	3.35993	0.999468	4.00091	0.614217	2.46123	0.728277	2.91319	0.856001	3.42567	0.9977	3.99682
0.671926	2.68058	0.50053	1.98081	0.673016	2.67999	0.718681	2.86931	0.840762	3.3545	1.00067	3.99084	0.616013	2.45925	0.730289	2.91039	0.85736	3.41836	0.999201	3.98795
0.674121	2.67938	0.502495	1.98128	0.675207	2.67878	0.72059	2.86627	0.842533	3.34911			0.61781	2.45728	0.732302	2.90762	0.858724	3.41113	1.0007	3.97915
0.676308	2.67816	0.50446	1.98175	0.67739	2.67754	0.722508	2.86329	0.844305	3.34378			0.619608	2.45534	0.734315	2.90487	0.860094	3.40397		
0.678487	2.67691	0.506424	1.98221	0.679565	2.67628	0.724435	2.86036	0.84608	3.33849			0.621406	2.4534	0.73633	2.90214	0.861468	3.39688		
0.680659	2.67564	0.508388	1.98266	0.681733	2.675	0.726371	2.85749	0.847856	3.33324			0.623205	2.45149	0.738346	2.89944	0.862848	3.38987		
0.682822	2.67435	0.510351	1.98311	0.683892	2.6737	0.728316	2.85468	0.849634	3.32804			0.625005	2.44959	0.740362	2.89676	0.864234	3.38293		
0.684978	2.67304	0.512313	1.98356	0.686044	2.67238	0.73027	2.85193	0.851413	3.32288			0.626805	2.44771	0.742379	2.8941	0.865624	3.37606		
0.687125	2.6717	0.514274	1.98399	0.688187	2.67103	0.732234	2.84923	0.853193	3.31777			0.628606	2.44584	0.744397	2.89146	0.86702	3.36926		
0.689264	2.67035	0.516235	1.98442	0.690322	2.66967	0.734207	2.84658	0.854976	3.3127			0.630408	2.44399	0.746416	2.88885	0.868422	3.36254		
0.691395	2.66897	0.518195	1.98485	0.692449	2.66828	0.736189	2.844	0.856759	3.30767			0.632211	2.44216	0.748435	2.88626	0.869829	3.35588		
0.693518	2.66757	0.520155	1.98527	0.694568	2.66687	0.738181	2.84146	0.858544	3.30268			0.634014	2.44034	0.750455	2.88369	0.871241	3.34928		
0.695633	2.66615	0.522113	1.98569	0.696678	2.66544	0.740182	2.83899	0.860331	3.29773			0.635818	2.43854	0.752475	2.88113	0.872658	3.34276		
0.697739	2.66471	0.524071	1.9861	0.69878	2.66398	0.742193	2.83656	0.862119	3.29282			0.637624	2.43676	0.754496	2.8786	0.874081	3.3363		
0.699837	2.66324	0.526029	1.9865	0.700874	2.66251	0.744213	2.83419	0.863908	3.28796			0.63943	2.43499	0.756517	2.87609	0.875509	3.32991		
0.701926	2.66176	0.527986	1.9869	0.702959	2.66101	0.746243	2.83187	0.865698	3.28313			0.641236	2.43324	0.758538	2.87359	0.876943	3.32359		
0.704007	2.66025	0.529942	1.98729	0.705036	2.65949	0.748283	2.82961	0.86749	3.27834			0.643044	2.4315	0.760559	2.87112	0.878382	3.31733		
0.70608	2.65872	0.531897	1.98768	0.707105	2.65796	0.750332	2.8274	0.869282	3.27359			0.644853	2.42978	0.762581	2.86866	0.879827	3.31113		
0.708145	2.65717	0.533852	1.98806	0.709165	2.6564	0.75239	2.82524	0.871076	3.26888			0.646662	2.42808	0.764603	2.86622	0.881276	3.305		
0.710201	2.65561	0.535806	1.98844	0.711218	2.65482	0.754459	2.82312	0.872872	3.2642			0.648473	2.42639	0.766624	2.8638	0.882732	3.29893		
0.712249	2.65402	0.53776	1.98882	0.713262	2.65322	0.756536	2.82106	0.874668	3.25956			0.650284	2.42471	0.768646	2.86139	0.884193	3.29293		
0.714289	2.65241	0.539713	1.98918	0.715297	2.65161	0.758623	2.81905	0.876465	3.25496			0.652097	2.42305	0.770667	2.859	0.885659	3.28698		
0.716321	2.65078	0.541665	1.98955	0.717325	2.64997	0.760719	2.81709	0.878263	3.25039			0.65391	2.42141	0.772688	2.85662	0.887131	3.2811		
0.718344	2.64914	0.543617	1.98991	0.719345	2.64832	0.762825	2.81517	0.880063	3.24585			0.655725	2.41978	0.77471	2.85426	0.888608	3.27528		
0.72036	2.64748	0.545568	1.99026	0.721357	2.64665	0.764939	2.8133	0.881863	3.24136			0.65754	2.41816	0.77673	2.85192	0.890091	3.26951		
0.722368	2.6458	0.547518	1.99061	0.723361	2.64496	0.767063	2.81148	0.883664	3.23689			0.659356	2.41656	0.778751	2.84959	0.891579	3.26381		
0.724369	2.6441	0.549468	1.99095	0.725358	2.64325	0.769195	2.8097	0.885467	3.23246			0.661174	2.41498	0.780771	2.84727	0.893072	3.25817		
0.726361	2.64239	0.551417	1.99129	0.727347	2.64153	0.771337	2.80796	0.88727	3.22807			0.662992	2.41341	0.78279	2.84497	0.894572	3.25258		
0.728347	2.64066	0.553365	1.99163	0.729328	2.6398	0.773487	2.80627	0.889074	3.2237			0.664812	2.41185	0.784809	2.84268	0.896076	3.24705		
0.730324	2.63892	0.555313	1.99196	0.731303	2.63805	0.775645	2.80462	0.890878	3.21937			0.666633	2.41031	0.786828	2.84041	0.897586	3.24158		
0.732295	2.63716	0.55726	1.99229	0.73327	2.63628	0.777812	2.80302	0.892684	3.21507			0.668454	2.40878	0.788846	2.83815	0.899102	3.23616		
0.734259	2.63539	0.559207	1.99261	0.73523	2.63451	0.779987	2.80145	0.89449	3.2108			0.670277	2.40727	0.790863	2.8359	0.900623	3.23081		
0.736216	2.63361	0.561153	1.99292	0.737184	2.63272	0.782171	2.79992	0.896298	3.20656			0.672101	2.40577	0.792879	2.83366	0.90215	3.2255		
0.738166	2.63181	0.563098	1.99324	0.73913	2.63091	0.784362	2.79843	0.898106	3.20236			0.673926	2.40428	0.794895	2.83144	0.903683	3.22025		
0.740109	2.63	0.565043	1.99355	0.74107	2.6291	0.786561	2.79698	0.899914	3.19818			0.675752	2.40281	0.79691	2.82923	0.905221	3.21506		
0.742046	2.62818	0.566987	1.99385	0.743004	2.62728	0.788768	2.79557	0.901723	3.19404			0.677579	2.40135	0.798924	2.82703	0.906764	3.20992		
0.743977	2.62635	0.56893	1.99415	0.744932	2.62544	0.790982	2.79419	0.903533	3.18992			0.679407	2.39991	0.800937	2.82484	0.908313	3.20483		
0.745901	2.62452	0.570873	1.99445	0.746853	2.6236	0.793203	2.79284	0.905344	3.18583			0.681237	2.39847	0.802949	2.82266	0.909868	3.1998		
0.74782	2.62267	0.572815	1.99474	0.748769	2.62175	0.795432	2.79153	0.907155	3.18177			0.683067	2.39706	0.80496	2.82049	0.911428	3.19482		
0.749732	2.62081	0.574757	1.99503	0.750679	2.61989	0.797667	2.79025	0.908967	3.17774			0.684899	2.39565	0.80697	2.81833	0.912994	3.18989		
0.75164	2.61895	0.576698	1.99531	0.752583	2.61802	0.79991	2.78901	0.910779	3.17374			0.686732	2.39426	0.808978	2.81618	0.914565	3.18501		
0.753541	2.61708	0.578638	1.9956	0.754483	2.61615	0.802159	2.78779	0.912592	3.16977			0.688566	2.39288	0.810986	2.81404	0.916142	3.18019		
0.755438	2.61521	0.580578	1.99587	0.756376	2.61427	0.804414	2.78661	0.914405	3.16582			0.690401	2.39152	0.812992	2.81191	0.917725	3.17541		
0.757329	2.61332	0.582517	1.99615	0.758265	2.61239	0.806676	2.78545	0.916219	3.1619			0.692238	2.39016	0.814997	2.80979	0.919313	3.17069		
0.759216	2.61144	0.584456	1.99641	0.760149	2.6105	0.808943	2.78433	0.918033	3.15801			0.694075	2.38882	0.817001	2.80768	0.920907	3.16601		
0.761097	2.60955	0.586394	1.99668	0.762029	2.60861	0.811217	2.78323	0.919848	3.15414			0.695914	2.3875	0.819003	2.80558	0.922507	3.16138		
0.762974	2.60765	0.588331	1.99694	0.763903	2.60671	0.813496	2.78215	0.921663	3.1503			0.697754	2.38618	0.821004	2.80349	0.924112	3.1568		
0.764847	2.60575	0.590268	1.9972	0.765774	2.60481	0.815781	2.7811	0.923479	3.14649			0.699595	2.38488	0.823003	2.8014	0.925723	3.15227		
0.766715	2.60385	0.592204	1.99745	0.76764	2.60291	0.818071	2.78008	0.925294	3.1427			0.701437	2.38359	0.825001	2.79932	0.92734	3.14779		
0.768579	2.60195	0.59414	1.99771	0.769502	2.60101	0.820367	2.77908	0.927111	3.13893			0.703281	2.38231	0.826997	2.79726	0.928962	3.14336		
0.770439	2.60005	0.596075	1.99795	0.77136	2.5991	0.822667	2.77811	0.928927	3.1352			0.705125	2.38104	0.828992	2.79519	0.93059	3.13897		
0.772295	2.59814	0.59801	1.9982	0.773215	2.5972	0.824973	2.77716	0.930744	3.13148			0.706971	2.37979	0.830985	2.79314	0.932223	3.13463		
0.774148	2.59624	0.599944	1.99844	0.775066	2.59529	0.827283	2.77623	0.932562	3.12779			0.708818	2.37855	0.832977	2.79109	0.933862	3.13033		
0.775997	2.59433	0.601877	1.99868	0.776913	2.59339	0.829598	2.77532	0.934379	3.12412			0.710667	2.37732	0.834967	2.78905	0.935507	3.12608		
0.777843	2.59243	0.60381	1.99891	0.778757	2.59148	0.831917	2.77443	0.936197	3.12048			0.712516	2.3761	0.836954	2.78702	0.937157	3.12188		
0.779685	2.59053	0.605742	1.99914	0.780598	2.58958	0.834241	2.77356	0.938015	3.11686			0.714367	2.37489	0.838941	2.78499	0.938813	3.11772		
0.781525	2.58862	0.607674	1.99937	0.782436	2.58768	0.836569	2.77271	0.939834	3.11327			0.716219	2.3737	0.840925	2.78297	0.940475	3.1136		
0.783361	2.58672	0.609605	1.99959	0.784271	2.58578	0.8389	2.77188	0.941652	3.10969			0.718072	2.37251	0.842908	2.78096	0.942142	3.10953		
0.785194	2.58483	0.611536	1.99981	0.786103	2.58389	0.841236	2.77106	0.943471	3.10614			0.719927	2.37134	0.844888	2.77895	0.943815	3.1055		
0.787025	2.58293	0.613466	2.00003	0.787932	2.58199	0.843575	2.77027	0.94529	3.10261			0.721782	2.37018	0.846867	2.77695	0.945494	3.10152		
0.788853	2.58104	0.615396	2.00025	0.789759	2.5801	0.845918	2.76949	0.947109	3.09911			0.723639	2.36903	0.848844	2.77495	0.947178	3.09758		
0.790679	2.57915	0.617325	2.00046	0.791583	2.57821	0.848264	2.76873	0.948929	3.09562			0.725497	2.36789	0.850819	2.77296	0.948868	3.09368		
0.792502	2.57726	0.619253	2.00067	0.793406	2.57633	0.850614	2.76798	0.950748	3.09216			0.727356	2.36676	0.852792	2.77098	0.950564	3.08982		
0.794323	2.57538	0.621181	2.00087	0.795226	2.57445	0.852967	2.76724	0.952568	3.08872			0.729217	2.36564	0.854762	2.769	0.952265	3.086		
0.796142	2.57351	0.623109	2.00108	0.797043	2.57258	0.855323	2.76652	0.954388	3.0853			0.731079	2.36453	0.856731	2.76703	0.953972	3.08223		
0.797959	2.57163	0.625036	2.00128	0.798859	2.57071	0.857682	2.76582	0.956208	3.0819			0.732942	2.36344	0.858698	2.76506	0.955684	3.07849		
0.799774	2.56977	0.626962	2.00147	0.800673	2.56884	0.860043	2.76513	0.958028	3.07852			0.734806	2.36235	0.860662	2.76309	0.957402	3.0748		
0.801587	2.5679	0.628888	2.00167	0.802485	2.56698	0.862408	2.76445	0.959849	3.07517			0.736671	2.36128	0.862625	2.76114	0.959125	3.07114		
0.803398	2.56605	0.630813	2.00186	0.804296	2.56513	0.864775	2.76378	0.961669	3.07183			0.738538	2.36021	0.864585	2.75918	0.960854	3.06753		
0.805208	2.5642	0.632738	2.00205	0.806105	2.56328	0.867145	2.76313	0.96349	3.06851			0.740406	2.35916	0.866543	2.75723	0.962589	3.06395		
0.807016	2.56235	0.634662	2.00224	0.807912	2.56144	0.869517	2.76249	0.96531	3.06522			0.742275	2.35811	0.868499	2.75529	0.964329	3.06042		
0.808823	2.56051	0.636586	2.00242	0.809718	2.55961	0.871891	2.76185	0.967131	3.06194			0.744145	2.35708	0.870452	2.75335	0.966075	3.05692		
0.810628	2.55868	0.638509	2.0026	0.811523	2.55778	0.874268	2.76123	0.968952	3.05868			0.746016	2.35605	0.872404	2.75141	0.967826	3.05346		
0.812432	2.55686	0.640432	2.00278	0.813326	2.55595	0.876646	2.76062	0.970773	3.05544			0.747889	2.35504	0.874353	2.74948	0.969583	3.05003		
0.814234	2.55504	0.642354	2.00295	0.815128	2.55414	0.879027	2.76002	0.972594	3.05223			0.749763	2.35403	0.8763	2.74755	0.971345	3.04665		
0.816036	2.55323	0.644276	2.00313	0.816929	2.55233	0.88141	2.75943	0.974415	3.04903			0.751638	2.35303	0.878245	2.74563	0.973113	3.0433		
0.817836	2.55142	0.646198	2.0033	0.818729	2.55053	0.883794	2.75885	0.976237	3.04585			0.753514	2.35205	0.880187	2.74371	0.974886	3.03999		
0.819636	2.54963	0.648118	2.00347	0.820528	2.54874	0.88618	2.75827	0.978058	3.04268			0.755392	2.35107	0.882127	2.74179	0.976665	3.03671		
0.821434	2.54784	0.650039	2.00363	0.822326	2.54695	0.888568	2.75771	0.979879	3.03954			0.757271	2.3501	0.884065	2.73988	0.978449	3.03347		
0.823232	2.54605	0.651959	2.00379	0.824123	2.54517	0.890958	2.75715	0.981701	3.03641			0.759151	2.34915	0.886	2.73798	0.980238	3.03026		
0.825029	2.54428	0.653878	2.00395	0.82592	2.5434	0.893348	2.7566	0.983523	3.03331			0.761032	2.3482	0.887933	2.73607	0.982033	3.02709		
0.826825	2.54251	0.655797	2.00411	0.827715	2.54164	0.895741	2.75606	0.985344	3.03022			0.762914	2.34726	0.889864	2.73417	0.983833	3.02396		
0.82862	2.54076	0.657715	2.00427	0.829511	2.53989	0.898134	2.75553	0.987166	3.02715			0.764798	2.34633	0.891793	2.73228	0.985638	3.02086		
0.830415	2.53901	0.659633	2.00442	0.831305	2.53814	0.900529	2.755	0.988988	3.0241			0.766682	2.3454	0.893719	2.73038	0.987449	3.01779		
0.832209	2.53726	0.661551	2.00457	0.833099	2.5364	0.902925	2.75448	0.990811	3.02106			0.768568	2.34449	0.895642	2.72849	0.989264	3.01475		
0.834003	2.53553	0.663468	2.00472	0.834892	2.53467	0.905322	2.75396	0.992633	3.01804			0.770456	2.34359	0.897564	2.72661	0.991085	3.01175		
0.835796	2.5338	0.665384	2.00487	0.836685	2.53295	0.907721	2.75346	0.994455	3.01504			0.772344	2.34269	0.899483	2.72473	0.992912	3.00878		
0.837589	2.53209	0.667301	2.00502	0.838478	2.53124	0.91012	2.75295	0.996278	3.01206			0.774233	2.3418	0.9014	2.72285	0.994743	3.00585		
0.839382	2.53038	0.669216	2.00516	0.84027	2.52954	0.91252	2.75246	0.9981	3.0091			0.776124	2.34093	0.903314	2.72097	0.99658	3.00294		
0.841174	2.52868	0.671132	2.0053	0.842062	2.52784	0.914921	2.75196	0.999923	3.00615			0.778016	2.34006	0.905226	2.7191	0.998422	3.00007		
0.842966	2.52699	0.673046	2.00544	0.843854	2.52615	0.917322	2.75148	1.00175	3.00322			0.779909	2.3392	0.907136	2.71723	1.00027	2.99723		
0.844757	2.52531	0.674961	2.00557	0.845646	2.52448	0.919724	2.75099					0.781803	2.33834	0.909043	2.71537				
0.846549	2.52363	0.676875	2.00571	0.847437	2.52281	0.922127	2.75052					0.783698	2.3375	0.910948	2.71351				
0.84834	2.52197	0.678788	2.00584	0.849228	2.52115	0.92453	2.75004					0.785595	2.33666	0.912851	2.71165				
0.850131	2.52031	0.680701	2.00597	0.851019	2.51949	0.926934	2.74957					0.787493	2.33583	0.914751	2.70979				
0.851922	2.51867	0.682614	2.0061	0.85281	2.51785	0.929339	2.74911					0.789391	2.33501	0.916649	2.70794				
0.853713	2.51703	0.684526	2.00623	0.854601	2.51622	0.931743	2.74864					0.791291	2.3342	0.918545	2.70609				
0.855504	2.5154	0.686438	2.00635	0.856392	2.51459	0.934148	2.74818					0.793192	2.33339	0.920439	2.70425				
0.857295	2.51378	0.688349	2.00647	0.858184	2.51298	0.936553	2.74773					0.795095	2.3326	0.92233	2.70241				
0.859086	2.51217	0.690261	2.0066	0.859975	2.51137	0.938958	2.74728					0.796998	2.33181	0.924219	2.70057				
0.860878	2.51056	0.692171	2.00671	0.861766	2.50977	0.941364	2.74682					0.798902	2.33102	0.926105	2.69874				
0.862669	2.50897	0.694081	2.00683	0.863558	2.50819	0.943769	2.74638					0.800808	2.33025	0.92799	2.69691				
0.864461	2.50739	0.695991	2.00695	0.865349	2.50661	0.946174	2.74593					0.802715	2.32948	0.929872	2.69508				
0.866252	2.50581	0.6979	2.00706	0.867141	2.50504	0.948579	2.74549					0.804623	2.32872	0.931752	2.69326				
0.868044	2.50425	0.699809	2.00717	0.868933	2.50347	0.950984	2.74505					0.806532	2.32797	0.93363	2.69144				
0.869836	2.50269	0.701718	2.00728	0.870725	2.50192	0.953389	2.74461					0.808442	2.32722	0.935506	2.68962				
0.871629	2.50114	0.703626	2.00739	0.872518	2.50038	0.955794	2.74417					0.810353	2.32649	0.93738	2.68781				
0.873421	2.4996	0.705534	2.0075	0.874311	2.49884	0.958198	2.74373					0.812265	2.32576	0.939251	2.686				
0.875214	2.49808	0.707442	2.0076	0.876104	2.49732	0.960602	2.7433					0.814178	2.32503	0.941121	2.68419				
0.877008	2.49655	0.709349	2.00771	0.877897	2.4958	0.963005	2.74286					0.816093	2.32431	0.942988	2.68239				
0.878801	2.49504	0.711255	2.00781	0.879691	2.4943	0.965408	2.74243					0.818008	2.3236	0.944853	2.68059				
0.880595	2.49354	0.713162	2.00791	0.881485	2.4928	0.96781	2.74199					0.819925	2.3229	0.946717	2.6788				
0.88239	2.49205	0.715068	2.00801	0.88328	2.49131	0.970211	2.74156					0.821843	2.3222	0.948578	2.67701				
0.884185	2.49056	0.716973	2.00811	0.885075	2.48983	0.972612	2.74113					0.823761	2.32151	0.950437	2.67522				
0.88598	2.48909	0.718879	2.0082	0.886871	2.48836	0.975012	2.7407					0.825681	2.32083	0.952294	2.67344				
0.887776	2.48762	0.720784	2.0083	0.888667	2.4869	0.977411	2.74026					0.827602	2.32015	0.95415	2.67166				
0.889572	2.48616	0.722688	2.00839	0.890463	2.48544	0.979809	2.73983					0.829524	2.31948	0.956003	2.66988				
0.891369	2.48472	0.724592	2.00848	0.89226	2.484	0.982206	2.7394					0.831447	2.31882	0.957855	2.66811				
0.893166	2.48328	0.726496	2.00857	0.894057	2.48257	0.984602	2.73896					0.833371	2.31816	0.959704	2.66634				
0.894964	2.48185	0.7284	2.00866	0.895855	2.48114	0.986997	2.73853					0.835296	2.31751	0.961552	2.66458				
0.896762	2.48042	0.730303	2.00875	0.897654	2.47972	0.989391	2.73809					0.837222	2.31686	0.963398	2.66282				
0.898561	2.47901	0.732206	2.00883	0.899453	2.47831	0.991784	2.73765					0.839149	2.31623	0.965243	2.66106				
0.90036	2.47761	0.734108	2.00892	0.901253	2.47691	0.994175	2.73721					0.841077	2.31559	0.967085	2.65931				
0.90216	2.47621	0.73601	2.009	0.903053	2.47552	0.996565	2.73677					0.843006	2.31497	0.968926	2.65757				
0.903961	2.47482	0.737912	2.00908	0.904854	2.47414	0.998953	2.73633					0.844936	2.31434	0.970765	2.65582				
0.905762	2.47345	0.739814	2.00916	0.906655	2.47277	1.00134	2.73589					0.846868	2.31373	0.972603	2.65409				
0.907563	2.47208	0.741715	2.00924	0.908457	2.4714							0.8488	2.31312	0.974439	2.65235				
0.909366	2.47071	0.743616	2.00932	0.91026	2.47004							0.850733	2.31252	0.976273	2.65062				
0.911169	2.46936	0.745516	2.0094	0.912063	2.4687							0.852667	2.31192	0.978106	2.6489				
0.912972	2.46802	0.747417	2.00947	0.913867	2.46736							0.854602	2.31133	0.979937	2.64718				
0.914777	2.46668	0.749317	2.00955	0.915672	2.46602							0.856538	2.31074	0.981766	2.64546				
0.916582	2.46536	0.751216	2.00962	0.917477	2.4647							0.858475	2.31016	0.983595	2.64375				
0.918387	2.46404	0.753116	2.00969	0.919283	2.46339							0.860413	2.30958	0.985421	2.64204				
0.920193	2.46273	0.755015	2.00976	0.92109	2.46208							0.862352	2.30901	0.987246	2.64034				
0.922	2.46143	0.756913	2.00983	0.922897	2.46078							0.864292	2.30845	0.98907	2.63865				
0.923808	2.46013	0.758812	2.0099	0.924705	2.4595							0.866233	2.30789	0.990893	2.63695				
0.925617	2.45885	0.76071	2.00997	0.926514	2.45821							0.868175	2.30734	0.992714	2.63527				
0.927426	2.45757	0.762608	2.01004	0.928323	2.45694							0.870117	2.30679	0.994534	2.63358				
0.929235	2.4563	0.764506	2.0101	0.930133	2.45568							0.872061	2.30624	0.996352	2.63191				
0.931046	2.45504	0.766403	2.01017	0.931944	2.45442							0.874006	2.30571	0.99817	2.63023				
0.932857	2.45379	0.7683	2.01023	0.933756	2.45317							0.875951	2.30517	0.999986	2.62857				
0.934669	2.45255	0.770197	2.01029	0.935568	2.45193							0.877898	2.30464	1.0018	2.6269				
0.936482	2.45131	0.772093	2.01035	0.937381	2.4507							0.879845	2.30412						
0.938296	2.45008	0.77399	2.01041	0.939195	2.44948							0.881793	2.3036						
0.94011	2.44886	0.775886	2.01047	0.94101	2.44826							0.883742	2.30309						
0.941925	2.44765	0.777781	2.01053	0.942826	2.44705							0.885693	2.30258						
0.943741	2.44645	0.779677	2.01059	0.944642	2.44585							0.887644	2.30208						
0.945558	2.44525	0.781572	2.01064	0.946459	2.44466							0.889595	2.30158						
0.947375	2.44406	0.783467	2.0107	0.948276	2.44347							0.891548	2.30108						
0.949193	2.44288	0.785362	2.01075	0.950095	2.4423							0.893502	2.30059						
0.951012	2.44171	0.787256	2.01081	0.951914	2.44113							0.895456	2.30011						
0.952832	2.44054	0.78915	2.01086	0.953735	2.43996							0.897411	2.29963						
0.954652	2.43938	0.791044	2.01091	0.955556	2.43881							0.899368	2.29915						
0.956474	2.43823	0.792938	2.01096	0.957377	2.43766							0.901325	2.29868						
0.958296	2.43709	0.794831	2.01101	0.9592	2.43652							0.903282	2.29821						
0.960119	2.43595	0.796725	2.01106	0.961023	2.43539							0.905241	2.29775						
0.961943	2.43482	0.798618	2.01111	0.962847	2.43427							0.907201	2.29729						
0.963767	2.4337	0.800511	2.01116	0.964672	2.43315							0.909161	2.29683						
0.965593	2.43259	0.802403	2.01121	0.966498	2.43204							0.911122	2.29638						
0.967419	2.43148	0.804295	2.01125	0.968325	2.43094							0.913084	2.29593						
0.969246	2.43038	0.806188	2.0113	0.970152	2.42984							0.915047	2.29549						
0.971074	2.42929	0.808079	2.01134	0.971981	2.42875							0.91701	2.29505						
0.972902	2.42821	0.809971	2.01139	0.97381	2.42767							0.918975	2.29462						
0.974732	2.42713	0.811863	2.01143	0.97564	2.4266							0.92094	2.29419						
0.976562	2.42606	0.813754	2.01147	0.97747	2.42553							0.922906	2.29376						
0.978394	2.42499	0.815645	2.01152	0.979302	2.42447							0.924873	2.29334						
0.980226	2.42394	0.817536	2.01156	0.981134	2.42342							0.92684	2.29292						
0.982058	2.42289	0.819426	2.0116	0.982968	2.42237							0.928809	2.29251						
0.983892	2.42185	0.821317	2.01164	0.984802	2.42133							0.930778	2.2921						
0.985727	2.42081	0.823207	2.01168	0.986637	2.4203							0.932748	2.29169						
0.987562	2.41978	0.825097	2.01171	0.988473	2.41927							0.934718	2.29129						
0.989398	2.41876	0.826987	2.01175	0.990309	2.41825							0.93669	2.29089						
0.991235	2.41774	0.828877	2.01179	0.992147	2.41724							0.938662	2.29049						
0.993073	2.41673	0.830766	2.01183	0.993985	2.41623							0.940635	2.2901						
0.994912	2.41573	0.832655	2.01186	0.995824	2.41523							0.942608	2.28971						
0.996751	2.41473	0.834544	2.0119	0.997664	2.41424							0.944583	2.28933						
0.998592	2.41374	0.836433	2.01193	0.999505	2.41326							0.946558	2.28894						
1.00043	2.41276	0.838322	2.01197	1.00135	2.41228							0.948534	2.28857						
		0.840211	2.012									0.95051	2.28819						
		0.842099	2.01203									0.952487	2.28782						
		0.843987	2.01206									0.954465	2.28745						
		0.845875	2.0121									0.956444	2.28709						
		0.847763	2.01213									0.958423	2.28672						
		0.849651	2.01216									0.960403	2.28637						
		0.851538	2.01219									0.962384	2.28601						
		0.853426	2.01222									0.964365	2.28566						
		0.855313	2.01225									0.966347	2.28531						
		0.8572	2.01228									0.96833	2.28496						
		0.859087	2.01231									0.970314	2.28462						
		0.860974	2.01233									0.972298	2.28428						
		0.86286	2.01236									0.974283	2.28395						
		0.864747	2.01239									0.976268	2.28361						
		0.866633	2.01241									0.978254	2.28328						
		0.868519	2.01244									0.980241	2.28296						
		0.870405	2.01246									0.982228	2.28263						
		0.872291	2.01249									0.984216	2.28231						
		0.874177	2.01251									0.986205	2.28199						
		0.876062	2.01254									0.988194	2.28167						
		0.877948	2.01256									0.990184	2.28136						
		0.879833	2.01259									0.992174	2.28105						
		0.881718	2.01261									0.994165	2.28074						
		0.883603	2.01263									0.996157	2.28044						
		0.885488	2.01265									0.998149	2.28014						
		0.887373	2.01267									1.00014	2.27984						
		0.889257	2.0127																
		0.891142	2.01272																
		0.893026	2.01274																
		0.89491	2.01276																
		0.896794	2.01278																
		0.898679	2.0128																
		0.900562	2.01282																
		0.902446	2.01284																
		0.90433	2.01285																
		0.906213	2.01287																
		0.908097	2.01289																
		0.90998	2.01291																
		0.911863	2.01292																
		0.913746	2.01294																
		0.91563	2.01296																
		0.917512	2.01297																
		0.919395	2.01299																
		0.921278	2.01301																
		0.923161	2.01302																
		0.925043	2.01304																
		0.926925	2.01305																
		0.928808	2.01307																
		0.93069	2.01308																
		0.932572	2.0131																
		0.934454	2.01311																
		0.936336	2.01312																
		0.938218	2.01314																
		0.9401	2.01315																
		0.941981	2.01316																
		0.943863	2.01317																
		0.945744	2.01319																
		0.947626	2.0132																
		0.949507	2.01321																
		0.951388	2.01322																
		0.95327	2.01323																
		0.955151	2.01325																
		0.957032	2.01326																
		0.958913	2.01327																
		0.960794	2.01328																
		0.962674	2.01329																
		0.964555	2.0133																
		0.966436	2.01331																
		0.968316	2.01332																
		0.970197	2.01333																
		0.972077	2.01334																
		0.973958	2.01335																
		0.975838	2.01336																
		0.977718	2.01337																
		0.979598	2.01338																
		0.981479	2.01338																
		0.983359	2.01339																
		0.985239	2.0134																
		0.987118	2.01341																
		0.988998	2.01342																
		0.990878	2.01343																
		0.992758	2.01343																
		0.994638	2.01344																
		0.996517	2.01345																
		0.998397	2.01346																
		1.00028	2.01346																
