Sym0		Asym0		Sym1		Sym2		Sym3		Sym4		Asym1		Asym2		Asym3		Asym4	
458  Points		540  Points		458  Points		408  Points		370  Points		281  Points		481  Points		423  Points		371  Points		280  Points	
Freq (MHz)	Vph (m/ms)	Freq (MHz)	Vph (m/ms)	Freq (MHz)	Vph (m/ms)	Freq (MHz)	Vph (m/ms)	Freq (MHz)	Vph (m/ms)	Freq (MHz)	Vph (m/ms)	Freq (MHz)	Vph (m/ms)	Freq (MHz)	Vph (m/ms)	Freq (MHz)	Vph (m/ms)	Freq (MHz)	Vph (m/ms)
0.279507	348.983	0.000320769	0.110156	0.279507	368.576	0.356442	4962.31	0.559017	1890.48	0.838526	2379.59	0.139755	1277.15	0.419264	722.047	0.69877	1645.08	0.712884	5360.78
0.2795	161.317	0.000557907	0.14515	0.2795	165.381	0.356458	355.206	0.559024	455.455	0.83853	653.021	0.139795	134.274	0.419274	277.232	0.698759	515.135	0.712901	669.594
0.279488	104.901	0.000859305	0.179946	0.279489	106.605	0.356502	184.218	0.559039	258.923	0.838537	378.44	0.139902	70.9148	0.419292	171.556	0.698736	305.371	0.712943	357.119
0.279472	77.7173	0.00122412	0.214494	0.279473	78.6488	0.356573	124.375	0.559063	180.881	0.83855	266.42	0.140074	48.2263	0.419319	124.215	0.698703	216.999	0.713011	243.509
0.27945	61.7202	0.00165137	0.248747	0.279452	62.3063	0.356672	93.8955	0.559095	138.993	0.838566	205.573	0.140311	36.5754	0.419354	97.3556	0.698658	168.289	0.713104	184.753
0.279425	51.1824	0.00213999	0.282678	0.279426	51.5849	0.356799	75.4283	0.559135	112.861	0.838586	167.354	0.140612	29.4914	0.419397	80.0508	0.698604	137.433	0.713221	148.853
0.279394	43.7162	0.00268861	0.316228	0.279396	44.0096	0.356953	63.0436	0.559184	95.0044	0.838611	141.12	0.140977	24.7345	0.419449	67.9729	0.69854	116.134	0.713363	124.645
0.27936	38.1494	0.00329605	0.349387	0.279361	38.3727	0.357134	54.163	0.559241	82.0294	0.83864	121.997	0.141404	21.3237	0.41951	59.0649	0.698467	100.548	0.713527	107.219
0.279321	33.8387	0.00396071	0.382104	0.279323	34.0144	0.357342	47.4849	0.559306	72.1754	0.838673	107.44	0.141893	18.7615	0.419579	52.224	0.698386	88.6465	0.713715	94.0764
0.279278	30.402	0.00468108	0.414357	0.27928	30.5438	0.357578	42.2814	0.55938	64.4376	0.838711	95.9883	0.142441	16.7683	0.419656	46.8057	0.698298	79.2618	0.713924	83.8112
0.279232	27.5979	0.00545559	0.446122	0.279234	27.7148	0.357839	38.1135	0.559462	58.2006	0.838752	86.7436	0.143049	15.1754	0.419743	42.4085	0.698203	71.6715	0.714153	75.5723
0.279183	25.2664	0.00628252	0.477374	0.279185	25.3644	0.358127	34.7006	0.559552	53.0666	0.838798	79.1242	0.143714	13.8746	0.419837	38.7686	0.698102	65.4058	0.714403	68.8142
0.27913	23.2973	0.00716015	0.50809	0.279133	23.3805	0.358441	31.8553	0.559651	48.7669	0.838848	72.7364	0.144435	12.7934	0.41994	35.7062	0.697997	60.1457	0.714673	63.1709
0.279075	21.6121	0.00808689	0.538265	0.279078	21.6837	0.358781	29.4472	0.559758	45.1136	0.838903	67.3038	0.14521	11.8816	0.420052	33.094	0.697888	55.6672	0.71496	58.3878
0.279018	20.1535	0.0090608	0.567873	0.279021	20.2158	0.359146	27.3832	0.559874	41.9713	0.838961	62.6272	0.146037	11.1028	0.420172	30.8397	0.697776	51.808	0.715265	54.2825
0.278958	18.8787	0.0100803	0.596915	0.278961	18.9335	0.359536	25.5947	0.559998	39.2399	0.839024	58.5591	0.146916	10.4308	0.4203	28.8745	0.697661	48.4481	0.715587	50.7206
0.278897	17.7551	0.0111436	0.625376	0.2789	17.8035	0.359951	24.0304	0.56013	36.8438	0.839091	54.9881	0.147843	9.84535	0.420438	27.1464	0.697545	45.4963	0.715925	47.6011
0.278835	16.7572	0.0122489	0.65325	0.278838	16.8003	0.36039	22.6509	0.56027	34.725	0.839162	51.8283	0.148818	9.3313	0.420583	25.6149	0.697427	42.8828	0.716279	44.8465
0.278772	15.8651	0.0133947	0.68054	0.278775	15.9038	0.360853	21.4253	0.560419	32.8379	0.839237	49.0126	0.149838	8.8767	0.420737	24.2483	0.697309	40.5524	0.716647	42.3964
0.278708	15.0627	0.0145791	0.707239	0.278711	15.0976	0.361339	20.3296	0.560576	31.1468	0.839317	46.4877	0.150902	8.47212	0.4209	23.0216	0.697191	38.4615	0.71703	40.2031
0.278644	14.3374	0.0158007	0.733351	0.278647	14.369	0.361849	19.3443	0.560742	29.6225	0.839401	44.2109	0.151864	8.15442	0.421071	21.9142	0.697074	36.5752	0.717426	38.2283
0.27858	13.6784	0.0170578	0.758882	0.278583	13.7072	0.362382	18.4536	0.560916	28.2417	0.839489	42.1473	0.152708	7.90594	0.421251	20.9096	0.696957	34.8647	0.717836	36.441
0.278518	13.077	0.0183488	0.783829	0.27852	13.1034	0.362937	17.6447	0.561098	26.985	0.839581	40.2683	0.153423	7.71436	0.421439	19.9943	0.696843	33.3066	0.718258	34.8157
0.278456	12.5262	0.0196723	0.8082	0.278459	12.5503	0.363513	16.907	0.561289	25.8365	0.839677	38.5503	0.153998	7.57101	0.421636	19.1569	0.69673	31.8815	0.718692	33.3315
0.278396	12.0197	0.0210269	0.832004	0.278398	12.042	0.364112	16.2314	0.561488	24.7828	0.839778	36.9734	0.154427	7.46989	0.421841	18.3878	0.69662	30.573	0.719138	31.9707
0.278337	11.5525	0.0224112	0.855248	0.27834	11.573	0.364731	15.6107	0.561695	23.8127	0.839883	35.5209	0.154704	7.40698	0.422054	17.6791	0.696512	29.3675	0.719596	30.7187
0.278281	11.1201	0.0238237	0.877938	0.278284	11.1392	0.365371	15.0384	0.561911	22.9166	0.839992	34.1787	0.155105	7.31892	0.422277	17.024	0.696408	28.2532	0.720064	29.5629
0.278228	10.719	0.0252633	0.900086	0.278231	10.7367	0.366031	14.5092	0.562135	22.0865	0.840105	32.9348	0.155546	7.22626	0.422507	16.4167	0.696307	27.2202	0.720544	28.4927
0.278178	10.3457	0.0267288	0.921702	0.278181	10.3622	0.366711	14.0184	0.562367	21.3154	0.840223	31.7787	0.156152	7.10506	0.422747	15.8521	0.696209	26.2599	0.721033	27.4989
0.278132	9.99753	0.0282188	0.942792	0.278134	10.0129	0.367411	13.5621	0.562608	20.5971	0.840345	30.7014	0.156931	6.95927	0.422994	15.326	0.696116	25.365	0.721533	26.5737
0.27809	9.67209	0.0297324	0.963374	0.278092	9.6865	0.368129	13.1368	0.562857	19.9266	0.840471	29.6952	0.15789	6.79329	0.423251	14.8345	0.696026	24.529	0.722043	25.7103
0.278052	9.36723	0.0312684	0.983452	0.278053	9.38074	0.368867	12.7396	0.563114	19.2991	0.840601	28.7533	0.159038	6.61171	0.423516	14.3744	0.695941	23.7463	0.722563	24.9026
0.278019	9.08108	0.0328258	1.00304	0.27802	9.09377	0.369622	12.3677	0.56338	18.7108	0.840735	27.8697	0.160385	6.41906	0.423789	13.9428	0.695861	23.012	0.723092	24.1455
0.277991	8.81199	0.0344036	1.02216	0.277992	8.82394	0.370395	12.0189	0.563654	18.158	0.840874	27.0392	0.161761	6.24142	0.424071	13.5371	0.695785	22.3218	0.72363	23.4344
0.277968	8.55851	0.0360009	1.0408	0.277969	8.56977	0.371185	11.6911	0.563937	17.6377	0.841017	26.2572	0.163167	6.07718	0.424361	13.1551	0.695714	21.6717	0.724178	22.7653
0.277951	8.31935	0.0376168	1.05899	0.277952	8.32998	0.371993	11.3825	0.564227	17.1471	0.841164	25.5194	0.1646	5.92495	0.42466	12.7948	0.695649	21.0585	0.724734	22.1345
0.277941	8.09334	0.0392505	1.07674	0.277942	8.13183	0.372817	11.0915	0.564526	16.6838	0.841316	24.8224	0.166059	5.7835	0.424968	12.4545	0.695588	20.4791	0.725299	21.5388
0.277937	7.87947	0.0409011	1.09406	0.277938	7.97031	0.373657	10.8167	0.564834	16.2456	0.841471	24.1628	0.167543	5.65179	0.425284	12.1325	0.695533	19.9307	0.725873	20.9755
0.277941	7.67679	0.0425678	1.11096	0.277938	7.84159	0.374513	10.5567	0.56515	15.8305	0.841631	23.5377	0.16905	5.52889	0.425608	11.8274	0.695483	19.4111	0.726455	20.442
0.277951	7.48448	0.0442501	1.12745	0.277939	7.74277	0.375385	10.3105	0.565474	15.4367	0.841795	22.9444	0.170581	5.41397	0.425941	11.5379	0.695438	18.9179	0.727045	19.9359
0.27797	7.30179	0.045947	1.14354	0.277941	7.67172	0.376271	10.077	0.565806	15.0627	0.841964	22.3806	0.172133	5.30633	0.426283	11.2629	0.6954	18.4493	0.727644	19.4553
0.277996	7.12803	0.047658	1.15924	0.277943	7.62694	0.377173	9.85524	0.566147	14.7069	0.842136	21.8442	0.173706	5.20531	0.426633	11.0013	0.695367	18.0034	0.72825	18.9983
0.278031	6.96258	0.0493825	1.17457	0.277946	7.56349	0.378089	9.64438	0.566496	14.3683	0.842313	21.3332	0.175299	5.11036	0.426992	10.7523	0.695339	17.5786	0.728865	18.5631
0.278074	6.80489	0.0511199	1.18953	0.277951	7.49574	0.379019	9.44367	0.566853	14.0454	0.842494	20.8459	0.17691	5.02096	0.427359	10.5148	0.695318	17.1736	0.729488	18.1483
0.278126	6.65445	0.0528695	1.20414	0.277958	7.40557	0.379963	9.25241	0.567218	13.7373	0.842679	20.3807	0.17854	4.93667	0.427735	10.2882	0.695303	16.7869	0.730118	17.7525
0.278187	6.51078	0.0546309	1.2184	0.277971	7.29467	0.38092	9.06994	0.567592	13.4431	0.842869	19.936	0.180186	4.85706	0.428119	10.0718	0.695294	16.4174	0.730756	17.3744
0.278258	6.37346	0.0564035	1.23233	0.27799	7.16503	0.381891	8.89571	0.567975	13.1617	0.843063	19.5107	0.181849	4.78179	0.428512	9.86477	0.695291	16.0639	0.731402	17.0129
0.278339	6.2421	0.0581869	1.24593	0.278018	7.01887	0.382875	8.72917	0.568365	12.8924	0.843261	19.1033	0.183527	4.71052	0.428914	9.66668	0.695294	15.7255	0.732055	16.6669
0.27843	6.11634	0.0599806	1.25921	0.278058	6.85856	0.383871	8.56984	0.568764	12.6344	0.843463	18.713	0.18522	4.64295	0.429324	9.47692	0.695303	15.4012	0.732715	16.3354
0.278531	5.99584	0.061784	1.27219	0.278107	6.70567	0.384879	8.41728	0.569171	12.3871	0.843669	18.3385	0.186928	4.57881	0.429742	9.295	0.695318	15.0901	0.733383	16.0176
0.278643	5.88031	0.0635969	1.28487	0.278165	6.5597	0.385899	8.27106	0.569587	12.1498	0.84388	17.9789	0.188649	4.51786	0.430169	9.12044	0.69534	14.7915	0.734058	15.7126
0.278765	5.76946	0.0654188	1.29726	0.278233	6.42024	0.386798	8.14852	0.57001	11.9219	0.844095	17.6335	0.190382	4.45987	0.430605	8.95283	0.695368	14.5046	0.734741	15.4197
0.278899	5.66303	0.0672494	1.30937	0.27831	6.28686	0.387571	8.04747	0.570442	11.7029	0.844314	17.3013	0.192129	4.40464	0.431049	8.79176	0.695403	14.2288	0.73543	15.1382
0.279044	5.56078	0.0690882	1.32121	0.278397	6.1592	0.388215	7.96617	0.570883	11.4922	0.844538	16.9817	0.193887	4.35199	0.431502	8.63687	0.695444	13.9635	0.736127	14.8674
0.279201	5.46248	0.0709349	1.33278	0.278495	6.03692	0.388727	7.90329	0.571331	11.2895	0.844765	16.6739	0.195656	4.30173	0.431964	8.48782	0.695492	13.708	0.73683	14.6068
0.279369	5.36793	0.0727893	1.34409	0.278603	5.91971	0.389105	7.85782	0.571788	11.0943	0.844997	16.3773	0.197436	4.25373	0.432434	8.34429	0.695545	13.4618	0.737541	14.3557
0.27955	5.27694	0.0746509	1.35515	0.278722	5.80727	0.389348	7.82905	0.572253	10.9062	0.845234	16.0913	0.199226	4.20783	0.43285	8.2235	0.695606	13.2245	0.738259	14.1137
0.279743	5.18932	0.0765195	1.36597	0.278851	5.69934	0.389698	7.78815	0.572727	10.7248	0.845474	15.8154	0.201025	4.16391	0.433211	8.12352	0.695673	12.9956	0.738983	13.8803
0.279949	5.1049	0.0783948	1.37655	0.278993	5.59567	0.39008	7.74428	0.573209	10.5497	0.845719	15.549	0.202835	4.12184	0.433512	8.04286	0.695747	12.7746	0.739714	13.6551
0.280167	5.02353	0.0802765	1.3869	0.279145	5.49603	0.390601	7.68558	0.573699	10.3807	0.845968	15.2916	0.204653	4.08151	0.433753	7.98032	0.695827	12.5612	0.740452	13.4376
0.280398	4.94507	0.0821644	1.39703	0.27931	5.40021	0.391264	7.61289	0.574197	10.2175	0.846221	15.0428	0.20648	4.04282	0.433931	7.93502	0.695913	12.355	0.741197	13.2275
0.280643	4.86937	0.0840581	1.40694	0.279486	5.308	0.392071	7.52723	0.574703	10.0597	0.846479	14.8023	0.208314	4.00567	0.434046	7.90633	0.696007	12.1556	0.741948	13.0243
0.280901	4.79631	0.0859576	1.41664	0.279675	5.21924	0.393025	7.42973	0.575218	9.90717	0.84674	14.5695	0.210157	3.96998	0.434211	7.86549	0.696107	11.9627	0.742706	12.8278
0.281172	4.72576	0.0878625	1.42614	0.279876	5.13373	0.394129	7.32164	0.575741	9.75957	0.847006	14.3441	0.212007	3.93566	0.434392	7.82162	0.696214	11.776	0.74347	12.6377
0.281457	4.65762	0.0897726	1.43543	0.28009	5.05133	0.395242	7.21741	0.576273	9.6167	0.847277	14.1258	0.213864	3.90263	0.43464	7.76283	0.696327	11.5952	0.744241	12.4535
0.281756	4.59177	0.0916877	1.44454	0.280317	4.97187	0.396366	7.11684	0.576812	9.47833	0.847551	13.9142	0.215728	3.87084	0.434957	7.68988	0.696447	11.42	0.745019	12.2752
0.28207	4.52813	0.0936077	1.45345	0.280557	4.89523	0.397498	7.01975	0.57736	9.34427	0.84783	13.7091	0.217598	3.8402	0.435344	7.60369	0.696574	11.2502	0.745803	12.1023
0.282397	4.46658	0.0955323	1.46218	0.28081	4.82127	0.39864	6.92596	0.577916	9.21433	0.848113	13.5102	0.219475	3.81066	0.435804	7.50529	0.696707	11.0855	0.746593	11.9347
0.28274	4.40705	0.0974613	1.47073	0.281077	4.74987	0.399791	6.8353	0.57848	9.08832	0.848401	13.3171	0.221357	3.78216	0.43634	7.39586	0.696848	10.9258	0.74739	11.7721
0.283097	4.34946	0.0993947	1.47911	0.281357	4.68091	0.40095	6.74764	0.579053	8.96608	0.848692	13.1297	0.223245	3.75465	0.436885	7.28997	0.696995	10.7708	0.748192	11.6143
0.283469	4.29371	0.101332	1.48732	0.281651	4.61428	0.402118	6.66283	0.579634	8.84743	0.848988	12.9476	0.225139	3.72808	0.437438	7.18746	0.697148	10.6202	0.749002	11.4611
0.283856	4.23974	0.103273	1.49537	0.28196	4.54989	0.403295	6.58073	0.580223	8.73224	0.849288	12.7707	0.227038	3.7024	0.438	7.08819	0.697309	10.474	0.749817	11.3123
0.284259	4.18748	0.105219	1.50325	0.282282	4.48763	0.404479	6.50122	0.58082	8.62035	0.849593	12.5988	0.228941	3.67756	0.438571	6.992	0.697476	10.3319	0.750639	11.1677
0.284677	4.13686	0.107167	1.51098	0.28262	4.42741	0.405672	6.42418	0.581425	8.51164	0.849901	12.4316	0.230849	3.65354	0.43915	6.89876	0.69765	10.1938	0.751467	11.0272
0.285111	4.08782	0.10912	1.51856	0.282972	4.36915	0.406872	6.34951	0.58196	8.41939	0.850214	12.269	0.232762	3.63028	0.439738	6.80834	0.69783	10.0595	0.7523	10.8905
0.285561	4.0403	0.111076	1.52599	0.283339	4.31278	0.40808	6.27709	0.58242	8.34252	0.850532	12.1107	0.234679	3.60775	0.440335	6.72063	0.698018	9.92886	0.75314	10.7576
0.285966	4.00009	0.113035	1.53328	0.28372	4.2582	0.409295	6.20684	0.582804	8.28014	0.850853	11.9567	0.2366	3.58592	0.44094	6.63551	0.698212	9.80172	0.753986	10.6282
0.286321	3.96665	0.114997	1.54043	0.284118	4.20536	0.410518	6.13865	0.58311	8.23156	0.851179	11.8067	0.238525	3.56476	0.441553	6.55287	0.698413	9.67796	0.754839	10.5023
0.286622	3.93958	0.116709	1.54654	0.284531	4.15418	0.411748	6.07243	0.583336	8.19626	0.851509	11.6606	0.240454	3.54423	0.442176	6.47261	0.69862	9.55744	0.755697	10.3797
0.286864	3.91854	0.11817	1.55168	0.284959	4.1046	0.412985	6.00812	0.583482	8.17384	0.851844	11.5182	0.242386	3.52431	0.442807	6.39464	0.698834	9.44005	0.756561	10.2603
0.287045	3.90327	0.11938	1.55587	0.285403	4.05656	0.414228	5.94562	0.583691	8.14186	0.852182	11.3794	0.244321	3.50497	0.443447	6.31886	0.699056	9.32567	0.75743	10.1439
0.287162	3.89358	0.120337	1.55915	0.285864	4.01001	0.415478	5.88487	0.58392	8.10742	0.852525	11.2441	0.24626	3.48619	0.444095	6.24518	0.699283	9.21419	0.758306	10.0305
0.287331	3.87977	0.121041	1.56154	0.286341	3.96488	0.416735	5.82579	0.584233	8.06112	0.852873	11.1121	0.248201	3.46793	0.444752	6.17354	0.699518	9.10549	0.759188	9.91988
0.287517	3.86492	0.121492	1.56306	0.286834	3.92112	0.417998	5.76831	0.584632	8.00341	0.853224	10.9834	0.250146	3.45019	0.445417	6.10384	0.699759	8.99949	0.760075	9.81202
0.287774	3.84498	0.122141	1.56524	0.287344	3.87869	0.419267	5.71238	0.585118	7.93489	0.85358	10.8578	0.252093	3.43293	0.446092	6.03601	0.700007	8.89608	0.760968	9.7068
0.288104	3.82018	0.122846	1.56759	0.287871	3.83755	0.420543	5.65794	0.585693	7.8562	0.85394	10.7351	0.254043	3.41614	0.446775	5.96999	0.700262	8.79518	0.761867	9.60413
0.288512	3.79081	0.123805	1.57076	0.288416	3.79764	0.421824	5.60492	0.586362	7.76808	0.854305	10.6154	0.255995	3.39979	0.447466	5.90571	0.700524	8.6967	0.762772	9.50391
0.289004	3.75718	0.125019	1.57473	0.288978	3.75892	0.423111	5.55328	0.587039	7.68223	0.854673	10.4984	0.25795	3.38388	0.448167	5.8431	0.700757	8.61279	0.763682	9.40606
0.289584	3.71967	0.126489	1.57948	0.289557	3.72136	0.424404	5.50295	0.587724	7.59854	0.855046	10.3841	0.259906	3.36838	0.448876	5.78211	0.70096	8.54261	0.764598	9.3105
0.290183	3.68328	0.128215	1.58496	0.290155	3.68492	0.425703	5.4539	0.588417	7.51696	0.855424	10.2725	0.261865	3.35327	0.449594	5.72267	0.701131	8.48551	0.765519	9.21715
0.290799	3.64797	0.130197	1.59114	0.290771	3.64956	0.427006	5.40607	0.589118	7.43739	0.855805	10.1634	0.263825	3.33855	0.45032	5.66474	0.701268	8.44093	0.766446	9.12593
0.291435	3.6137	0.132182	1.59721	0.291405	3.61524	0.428315	5.35943	0.589827	7.35978	0.856191	10.0567	0.265788	3.32419	0.451055	5.60826	0.701369	8.40848	0.767379	9.03679
0.292089	3.58045	0.134169	1.60316	0.292058	3.58194	0.42963	5.31392	0.590545	7.28405	0.856581	9.95234	0.267752	3.31018	0.451799	5.55318	0.701435	8.38785	0.768317	8.94964
0.292762	3.54818	0.136158	1.60902	0.292731	3.54963	0.430949	5.26952	0.59127	7.21014	0.856976	9.85029	0.269717	3.29651	0.452552	5.49945	0.701529	8.35838	0.769261	8.86443
0.293455	3.51686	0.138148	1.61476	0.293423	3.51827	0.432273	5.22617	0.592004	7.13799	0.857375	9.75046	0.271684	3.28316	0.453313	5.44703	0.701633	8.3266	0.77021	8.78109
0.294167	3.48647	0.140141	1.62041	0.294134	3.48784	0.433602	5.18385	0.592746	7.06754	0.857778	9.65277	0.273653	3.27013	0.454083	5.39587	0.701775	8.28381	0.771041	8.70995
0.2949	3.45698	0.142136	1.62596	0.294866	3.45831	0.434936	5.14251	0.593496	6.99873	0.858185	9.55715	0.275622	3.2574	0.454862	5.34594	0.701958	8.23036	0.771753	8.65036
0.295653	3.42836	0.144132	1.6314	0.295618	3.42965	0.436275	5.10214	0.594254	6.93152	0.858597	9.46354	0.277593	3.24496	0.455649	5.29719	0.702182	8.16671	0.772344	8.6018
0.296427	3.4006	0.14613	1.63676	0.296391	3.40185	0.437618	5.06268	0.59502	6.86584	0.859013	9.37189	0.279565	3.23281	0.456445	5.24959	0.702449	8.0934	0.772813	8.56386
0.297222	3.37366	0.14813	1.64202	0.297185	3.37488	0.438965	5.02411	0.595794	6.80165	0.859433	9.28212	0.281538	3.22092	0.45725	5.20309	0.702762	8.01101	0.773158	8.53621
0.298039	3.34754	0.150131	1.64719	0.298001	3.34871	0.440317	4.98641	0.596576	6.7389	0.859858	9.19419	0.283512	3.20929	0.458064	5.15767	0.703082	7.93043	0.77338	8.51863
0.298878	3.32219	0.152133	1.65227	0.298839	3.32333	0.441673	4.94954	0.597367	6.67756	0.860287	9.10804	0.285486	3.19791	0.458886	5.11329	0.703409	7.8516	0.773698	8.4935
0.29974	3.29762	0.154138	1.65727	0.2997	3.29872	0.443033	4.91348	0.598165	6.61756	0.86072	9.02362	0.287461	3.18678	0.459718	5.06992	0.703742	7.77447	0.774046	8.46638
0.300624	3.27379	0.156143	1.66218	0.300583	3.27486	0.444397	4.8782	0.598972	6.55888	0.861158	8.94087	0.289437	3.17588	0.460558	5.02752	0.704082	7.69898	0.774519	8.42983
0.301532	3.2507	0.15815	1.66701	0.30149	3.25174	0.445765	4.84368	0.599786	6.50147	0.861543	8.8701	0.291413	3.16521	0.461406	4.98608	0.704428	7.62508	0.775119	8.38414
0.302464	3.22832	0.160158	1.67176	0.302421	3.22932	0.447137	4.80989	0.600609	6.44529	0.861873	8.81072	0.29339	3.15475	0.462264	4.94555	0.704781	7.55273	0.775848	8.32966
0.30342	3.20663	0.162167	1.67643	0.303376	3.20761	0.448512	4.77682	0.601439	6.39031	0.862149	8.76227	0.295367	3.14451	0.46313	4.90592	0.705141	7.48188	0.776706	8.26682
0.304401	3.18564	0.164178	1.68102	0.304356	3.18658	0.449891	4.74443	0.602278	6.33649	0.862367	8.72436	0.297344	3.13447	0.464005	4.86715	0.705507	7.41249	0.777696	8.19608
0.305408	3.16531	0.166189	1.68554	0.305361	3.16622	0.451274	4.7127	0.603124	6.2838	0.862529	8.69672	0.299322	3.12462	0.464889	4.82923	0.70588	7.34452	0.778691	8.12677
0.30644	3.14563	0.168202	1.68998	0.306393	3.14652	0.45266	4.68163	0.603979	6.23221	0.862632	8.67913	0.301299	3.11497	0.465782	4.79212	0.70626	7.27791	0.779691	8.05885
0.307499	3.1266	0.170215	1.69435	0.30745	3.12746	0.45405	4.65118	0.604841	6.18168	0.862782	8.65398	0.303277	3.10551	0.466683	4.75581	0.706646	7.21264	0.780697	7.99227
0.308585	3.1082	0.17223	1.69865	0.308535	3.10903	0.455443	4.62135	0.605712	6.13219	0.862945	8.62682	0.305255	3.09622	0.467594	4.72027	0.707039	7.14867	0.781707	7.92701
0.309699	3.09042	0.174246	1.70288	0.309648	3.09122	0.456839	4.5921	0.60659	6.0837	0.863167	8.59018	0.307232	3.0871	0.468513	4.68548	0.707438	7.08596	0.782722	7.86301
0.310841	3.07324	0.176262	1.70705	0.310788	3.07401	0.458238	4.56343	0.607477	6.03618	0.86345	8.54433	0.30921	3.07815	0.469441	4.65142	0.707844	7.02447	0.783743	7.80026
0.312011	3.05665	0.178279	1.71114	0.311957	3.0574	0.459641	4.53531	0.608371	5.98962	0.863794	8.48959	0.311187	3.06937	0.470378	4.61807	0.708256	6.96417	0.784768	7.7387
0.313211	3.04065	0.180297	1.71518	0.313155	3.04137	0.461046	4.50774	0.609273	5.94398	0.864201	8.42635	0.313164	3.06074	0.471323	4.58541	0.708675	6.90503	0.785799	7.67832
0.31444	3.02522	0.182316	1.71914	0.314383	3.02591	0.462455	4.4807	0.610183	5.89923	0.864672	8.35504	0.31514	3.05226	0.472278	4.55342	0.7091	6.84701	0.786834	7.61907
0.315699	3.01035	0.184336	1.72305	0.315641	3.01102	0.463866	4.45416	0.611101	5.85537	0.865147	8.28505	0.317116	3.04394	0.473241	4.52209	0.709532	6.7901	0.787874	7.56093
0.316989	2.99603	0.186356	1.72689	0.316929	2.99667	0.46528	4.42812	0.612027	5.81235	0.865627	8.21633	0.319092	3.03575	0.474213	4.49139	0.70997	6.73425	0.788919	7.50387
0.318309	2.98225	0.188377	1.73068	0.318248	2.98287	0.466697	4.40257	0.612961	5.77016	0.86611	8.14886	0.321067	3.0277	0.475195	4.46132	0.710415	6.67944	0.789969	7.44785
0.319661	2.969	0.190399	1.73441	0.319599	2.96959	0.468116	4.37749	0.613902	5.72878	0.866598	8.0826	0.323041	3.01979	0.476184	4.43185	0.710867	6.62564	0.791024	7.39286
0.321045	2.95626	0.192421	1.73808	0.320981	2.95684	0.469538	4.35286	0.614852	5.68818	0.867091	8.01752	0.325015	3.01201	0.477183	4.40296	0.711324	6.57283	0.792083	7.33885
0.322459	2.94404	0.194443	1.74169	0.322394	2.94458	0.470963	4.32868	0.615809	5.64835	0.867588	7.9536	0.326988	3.00435	0.478191	4.37465	0.711788	6.52098	0.793148	7.28582
0.323906	2.9323	0.196467	1.74525	0.323839	2.93283	0.47239	4.30493	0.616774	5.60927	0.868089	7.89079	0.328961	2.99682	0.479207	4.3469	0.712259	6.47007	0.794216	7.23373
0.325385	2.92105	0.19849	1.74875	0.325317	2.92156	0.47382	4.28161	0.617747	5.57091	0.868594	7.82908	0.330932	2.9894	0.480233	4.31969	0.712736	6.42007	0.79529	7.18256
0.326896	2.91027	0.200515	1.7522	0.326826	2.91075	0.475252	4.25869	0.618727	5.53326	0.869104	7.76844	0.332902	2.98211	0.481267	4.29302	0.71322	6.37095	0.796368	7.13228
0.328438	2.89995	0.202539	1.7556	0.328367	2.90041	0.476686	4.23617	0.619716	5.49631	0.869618	7.70884	0.334872	2.97492	0.48231	4.26686	0.713709	6.32271	0.797451	7.08288
0.330012	2.89007	0.204564	1.75895	0.32994	2.89052	0.478122	4.21405	0.620712	5.46002	0.870137	7.65025	0.33684	2.96784	0.483362	4.24121	0.714206	6.27531	0.798539	7.03433
0.331618	2.88063	0.20659	1.76225	0.331544	2.88105	0.479561	4.1923	0.621715	5.4244	0.87066	7.59265	0.338808	2.96087	0.484423	4.21605	0.714708	6.22873	0.799631	6.98661
0.333255	2.87161	0.208615	1.76549	0.333179	2.87201	0.481001	4.17092	0.622727	5.38941	0.871187	7.53602	0.340774	2.954	0.485493	4.19138	0.715217	6.18297	0.800727	6.93969
0.334922	2.86299	0.210642	1.7687	0.334845	2.86338	0.482444	4.14991	0.623746	5.35505	0.871718	7.48033	0.342739	2.94724	0.486572	4.16717	0.715733	6.13798	0.801828	6.89357
0.33662	2.85477	0.212668	1.77185	0.336542	2.85513	0.483889	4.12924	0.624772	5.3213	0.872254	7.42556	0.344703	2.94056	0.487659	4.14342	0.716254	6.09377	0.802934	6.84822
0.338347	2.84692	0.214695	1.77496	0.338268	2.84727	0.485336	4.10892	0.625807	5.28815	0.872794	7.37169	0.346666	2.93399	0.488756	4.12012	0.716782	6.0503	0.804044	6.80362
0.340103	2.83944	0.216722	1.77802	0.340023	2.83977	0.486785	4.08894	0.626849	5.25557	0.873339	7.3187	0.348627	2.9275	0.489861	4.09726	0.717316	6.00756	0.805158	6.75976
0.341888	2.83231	0.218749	1.78104	0.341806	2.83263	0.488236	4.06927	0.627898	5.22357	0.873888	7.26656	0.350587	2.92111	0.490975	4.07483	0.717857	5.96554	0.806277	6.71662
0.3437	2.82551	0.220776	1.78401	0.343617	2.82582	0.489688	4.04993	0.628955	5.19212	0.874441	7.21526	0.352546	2.9148	0.492098	4.05281	0.718404	5.92422	0.8074	6.67417
0.34554	2.81904	0.222804	1.78694	0.345455	2.81933	0.491142	4.0309	0.63002	5.16121	0.874998	7.16478	0.354503	2.90858	0.493231	4.0312	0.718957	5.88357	0.808527	6.63241
0.347405	2.81288	0.224832	1.78983	0.347319	2.81315	0.492598	4.01217	0.631092	5.13083	0.87556	7.1151	0.356459	2.90244	0.494372	4.00999	0.719516	5.84359	0.809659	6.59132
0.349295	2.80701	0.22686	1.79268	0.349208	2.80727	0.494056	3.99374	0.632172	5.10097	0.876126	7.0662	0.358413	2.89637	0.495521	3.98917	0.720081	5.80427	0.810795	6.55088
0.35121	2.80142	0.228888	1.79548	0.351122	2.80167	0.495516	3.97559	0.633259	5.07162	0.876697	7.01807	0.360365	2.89039	0.49668	3.96873	0.720653	5.76558	0.811935	6.51108
0.353147	2.79609	0.230916	1.79825	0.353058	2.79633	0.496977	3.95773	0.634354	5.04276	0.877272	6.97068	0.362316	2.88448	0.497848	3.94867	0.721231	5.72751	0.81308	6.4719
0.355108	2.79103	0.232944	1.80098	0.355018	2.79125	0.49844	3.94015	0.635456	5.01438	0.877851	6.92402	0.364265	2.87865	0.499025	3.92897	0.721815	5.69005	0.814228	6.43333
0.35709	2.7862	0.234972	1.80367	0.356999	2.78642	0.499904	3.92283	0.636565	4.98647	0.878435	6.87808	0.366213	2.87289	0.50021	3.90962	0.722406	5.65318	0.815381	6.39536
0.359092	2.7816	0.237001	1.80632	0.359	2.78181	0.50137	3.90577	0.637682	4.95903	0.879023	6.83284	0.368159	2.86719	0.501404	3.89062	0.723002	5.61689	0.816538	6.35797
0.361114	2.77722	0.239029	1.80893	0.361021	2.77742	0.502837	3.88898	0.638806	4.93204	0.879615	6.78828	0.370103	2.86157	0.502608	3.87197	0.723605	5.58118	0.817699	6.32116
0.363155	2.77305	0.241057	1.81151	0.363062	2.77324	0.504306	3.87243	0.639938	4.90549	0.880212	6.74439	0.372045	2.85601	0.50382	3.85365	0.724213	5.54602	0.818864	6.28489
0.365214	2.76907	0.243086	1.81405	0.36512	2.76925	0.505776	3.85614	0.641076	4.87937	0.880813	6.70116	0.373985	2.85052	0.505041	3.83565	0.724828	5.5114	0.820033	6.24918
0.367291	2.76528	0.245114	1.81656	0.367195	2.76545	0.507247	3.84008	0.642223	4.85367	0.881418	6.65857	0.375924	2.84509	0.50627	3.81797	0.725449	5.47732	0.821206	6.214
0.369383	2.76166	0.247142	1.81903	0.369287	2.76183	0.50872	3.82425	0.643376	4.82839	0.882028	6.6166	0.37786	2.83972	0.507509	3.80061	0.726076	5.44376	0.822383	6.17934
0.371491	2.75821	0.24917	1.82147	0.371395	2.75837	0.510195	3.80866	0.644536	4.80351	0.882642	6.57525	0.379795	2.83442	0.508757	3.78356	0.726709	5.41071	0.823564	6.14519
0.373614	2.75492	0.251199	1.82387	0.373517	2.75506	0.51167	3.79329	0.645704	4.77903	0.88326	6.53451	0.381727	2.82917	0.510013	3.7668	0.727349	5.37816	0.824748	6.11155
0.375751	2.75177	0.253227	1.82624	0.375653	2.75191	0.513147	3.77815	0.646879	4.75494	0.883883	6.49435	0.383658	2.82398	0.511278	3.75034	0.727994	5.34611	0.825937	6.07839
0.377901	2.74876	0.255255	1.82858	0.377802	2.74889	0.514625	3.76322	0.648061	4.73122	0.88451	6.45477	0.385586	2.81884	0.512552	3.73416	0.728645	5.31453	0.82713	6.04571
0.380064	2.74588	0.257283	1.83089	0.379965	2.74601	0.516105	3.74849	0.64925	4.70788	0.885142	6.41576	0.387513	2.81376	0.513835	3.71827	0.729302	5.28342	0.828326	6.0135
0.382239	2.74313	0.25931	1.83316	0.382139	2.74325	0.517585	3.73398	0.650446	4.6849	0.885777	6.3773	0.389437	2.80873	0.515127	3.70265	0.729966	5.25277	0.829526	5.98176
0.384425	2.7405	0.261338	1.83541	0.384325	2.74061	0.519067	3.71967	0.651649	4.66228	0.886418	6.33938	0.391359	2.80375	0.516427	3.68731	0.730635	5.22257	0.83073	5.95046
0.386622	2.73797	0.263365	1.83762	0.386521	2.73808	0.52055	3.70556	0.65286	4.64001	0.887062	6.302	0.393279	2.79883	0.517736	3.67222	0.73131	5.19281	0.831938	5.9196
0.388829	2.73555	0.265392	1.83981	0.388728	2.73566	0.522034	3.69164	0.654077	4.61808	0.887711	6.26514	0.395197	2.79395	0.519054	3.6574	0.731991	5.16349	0.833149	5.88918
0.391046	2.73323	0.267419	1.84196	0.390944	2.73334	0.52352	3.67791	0.655301	4.59649	0.888364	6.22879	0.397113	2.78912	0.520381	3.64284	0.732679	5.13459	0.834364	5.85918
0.393272	2.73101	0.269446	1.84409	0.39317	2.73111	0.525006	3.66437	0.656532	4.57522	0.889022	6.19295	0.399026	2.78434	0.521716	3.62852	0.733372	5.10611	0.835583	5.8296
0.395506	2.72887	0.271473	1.84619	0.395404	2.72897	0.526493	3.65101	0.65777	4.55428	0.889684	6.1576	0.400938	2.77961	0.52306	3.61445	0.734071	5.07804	0.836805	5.80042
0.397749	2.72682	0.273499	1.84826	0.397647	2.72691	0.527982	3.63783	0.659014	4.53365	0.89035	6.12273	0.402847	2.77492	0.524413	3.60061	0.734776	5.05036	0.838031	5.77164
0.4	2.72484	0.275525	1.8503	0.399897	2.72493	0.529472	3.62482	0.660266	4.51333	0.891021	6.08833	0.404753	2.77027	0.525775	3.58701	0.735487	5.02308	0.83926	5.74326
0.402258	2.72294	0.277551	1.85231	0.402155	2.72303	0.530963	3.61199	0.661524	4.49332	0.891696	6.0544	0.406658	2.76567	0.527145	3.57364	0.736203	4.99619	0.840493	5.71526
0.404523	2.72111	0.279577	1.8543	0.40442	2.7212	0.532454	3.59932	0.662789	4.4736	0.892375	6.02092	0.40856	2.76111	0.528523	3.5605	0.736926	4.96967	0.841729	5.68763
0.406795	2.71935	0.281602	1.85626	0.406691	2.71943	0.533947	3.58682	0.66406	4.45417	0.893059	5.9879	0.410459	2.75659	0.52991	3.54758	0.737654	4.94352	0.842969	5.66037
0.409073	2.71765	0.283627	1.8582	0.408969	2.71773	0.535441	3.57449	0.665339	4.43503	0.893747	5.95531	0.412357	2.75211	0.531306	3.53488	0.738388	4.91773	0.844213	5.63348
0.411357	2.71602	0.285652	1.86011	0.411252	2.71609	0.536936	3.56231	0.666624	4.41617	0.89444	5.92315	0.414252	2.74767	0.532711	3.52239	0.739129	4.8923	0.845459	5.60694
0.413647	2.71444	0.287676	1.862	0.413542	2.71451	0.538432	3.55029	0.667915	4.39758	0.895137	5.89141	0.416145	2.74328	0.534123	3.5101	0.739874	4.86723	0.846709	5.58075
0.415941	2.71291	0.2897	1.86386	0.415836	2.71298	0.539929	3.53843	0.669213	4.37926	0.895838	5.8601	0.418035	2.73892	0.535545	3.49803	0.740626	4.84249	0.847963	5.5549
0.418241	2.71143	0.291724	1.8657	0.418136	2.7115	0.541427	3.52671	0.670518	4.36121	0.896543	5.82918	0.419923	2.73459	0.536975	3.48615	0.741384	4.81809	0.84922	5.52938
0.420546	2.71001	0.293748	1.86751	0.420441	2.71007	0.542927	3.51514	0.671829	4.34341	0.897253	5.79867	0.421808	2.73031	0.538413	3.47447	0.742147	4.79402	0.85048	5.50419
0.422855	2.70862	0.295771	1.8693	0.42275	2.70869	0.544427	3.50372	0.673146	4.32587	0.897968	5.76856	0.423692	2.72605	0.53986	3.46299	0.742916	4.77028	0.851743	5.47933
0.425169	2.70729	0.297793	1.87106	0.425063	2.70735	0.545928	3.49244	0.67447	4.30858	0.898686	5.73883	0.425572	2.72184	0.541314	3.45169	0.743691	4.74686	0.85301	5.45479
0.427487	2.70599	0.299816	1.87281	0.427381	2.70605	0.54743	3.4813	0.6758	4.29154	0.89941	5.70947	0.427451	2.71766	0.542778	3.44058	0.744471	4.72375	0.85428	5.43055
0.429808	2.70473	0.301838	1.87453	0.429702	2.70479	0.548933	3.4703	0.677136	4.27473	0.900137	5.68049	0.429327	2.71351	0.544249	3.42965	0.745257	4.70095	0.855553	5.40662
0.432133	2.70352	0.303859	1.87623	0.432027	2.70357	0.550437	3.45943	0.678479	4.25816	0.900869	5.65188	0.4312	2.7094	0.545729	3.41891	0.746049	4.67845	0.856829	5.38299
0.434462	2.70233	0.30588	1.8779	0.434356	2.70239	0.551942	3.44869	0.679828	4.24182	0.901605	5.62363	0.433072	2.70532	0.547217	3.40833	0.746847	4.65624	0.858108	5.35966
0.436794	2.70118	0.307901	1.87956	0.436687	2.70124	0.553449	3.43809	0.681183	4.22571	0.902345	5.59573	0.434941	2.70127	0.548713	3.39793	0.74765	4.63433	0.85939	5.33661
0.439129	2.70007	0.309921	1.88119	0.439022	2.70012	0.554956	3.42762	0.682544	4.20983	0.90309	5.56818	0.436807	2.69726	0.550218	3.3877	0.748459	4.61271	0.860676	5.31385
0.441467	2.69898	0.311941	1.8828	0.44136	2.69903	0.556464	3.41727	0.683911	4.19416	0.90384	5.54097	0.438671	2.69328	0.55173	3.37764	0.749273	4.59136	0.861964	5.29137
0.443807	2.69792	0.313961	1.8844	0.4437	2.69797	0.557973	3.40704	0.685284	4.1787	0.904593	5.51409	0.440533	2.68932	0.55325	3.36774	0.750093	4.5703	0.863256	5.26916
0.446151	2.69689	0.31598	1.88597	0.446043	2.69694	0.559484	3.39694	0.686663	4.16346	0.905351	5.48755	0.442393	2.6854	0.554779	3.358	0.750919	4.5495	0.86455	5.24722
0.448496	2.69589	0.317998	1.88752	0.448389	2.69593	0.560995	3.38696	0.688049	4.14842	0.906114	5.46133	0.44425	2.68151	0.556315	3.34841	0.751751	4.52897	0.865848	5.22555
0.450844	2.69491	0.320016	1.88905	0.450737	2.69495	0.562508	3.37709	0.68944	4.13359	0.90688	5.43542	0.446104	2.67764	0.557859	3.33899	0.752588	4.50871	0.867148	5.20413
0.453194	2.69395	0.322034	1.89056	0.453087	2.694	0.564021	3.36734	0.690836	4.11896	0.907651	5.40984	0.447957	2.67381	0.559412	3.32971	0.75343	4.4887	0.868451	5.18297
0.455547	2.69302	0.324051	1.89206	0.455439	2.69306	0.565536	3.35771	0.692239	4.10452	0.908427	5.38456	0.449807	2.67001	0.560971	3.32058	0.754278	4.46895	0.869758	5.16206
0.457901	2.69211	0.326067	1.89353	0.457793	2.69215	0.567052	3.34819	0.693648	4.09027	0.909207	5.35958	0.451655	2.66623	0.562539	3.31159	0.755132	4.44945	0.871067	5.1414
0.460257	2.69122	0.328084	1.89498	0.460149	2.69126	0.568569	3.33878	0.695062	4.07622	0.909991	5.3349	0.453501	2.66248	0.564114	3.30275	0.755992	4.43019	0.872378	5.12098
0.462614	2.69035	0.330099	1.89642	0.462507	2.69039	0.570087	3.32948	0.696482	4.06235	0.91078	5.31052	0.455344	2.65876	0.565697	3.29405	0.756856	4.41117	0.873693	5.1008
0.464974	2.6895	0.332114	1.89784	0.464866	2.68954	0.571606	3.32028	0.697907	4.04866	0.911573	5.28643	0.457185	2.65507	0.567288	3.28549	0.757727	4.39239	0.87501	5.08086
0.467334	2.68866	0.334129	1.89924	0.467226	2.6887	0.573126	3.31119	0.699338	4.03515	0.91237	5.26262	0.459024	2.6514	0.568886	3.27706	0.758603	4.37385	0.876331	5.06114
0.469697	2.68785	0.336143	1.90062	0.469589	2.68788	0.574648	3.30221	0.700775	4.02182	0.913172	5.23909	0.460861	2.64776	0.570491	3.26877	0.759484	4.35553	0.877653	5.04165
0.47206	2.68704	0.338157	1.90199	0.471952	2.68708	0.576171	3.29333	0.702217	4.00866	0.913978	5.21583	0.462695	2.64415	0.572104	3.2606	0.760371	4.33744	0.878979	5.02239
0.474425	2.68626	0.34017	1.90334	0.474316	2.68629	0.577695	3.28455	0.703665	3.99568	0.914788	5.19284	0.464528	2.64056	0.573724	3.25256	0.761263	4.31958	0.880307	5.00334
0.47679	2.68548	0.342182	1.90467	0.476682	2.68552	0.57922	3.27587	0.705117	3.98285	0.915603	5.17013	0.466358	2.637	0.575352	3.24465	0.762161	4.30193	0.881638	4.98451
0.479157	2.68473	0.344194	1.90598	0.479049	2.68476	0.580747	3.26728	0.706576	3.9702	0.916422	5.14767	0.468186	2.63346	0.576987	3.23686	0.763064	4.28449	0.882971	4.96589
0.481525	2.68398	0.346205	1.90728	0.481416	2.68402	0.582274	3.2588	0.708039	3.9577	0.917246	5.12547	0.470013	2.62995	0.578629	3.2292	0.763973	4.26727	0.884307	4.94748
0.483893	2.68325	0.348216	1.90856	0.483785	2.68328	0.583804	3.25041	0.709508	3.94536	0.918074	5.10353	0.471837	2.62647	0.580278	3.22165	0.764887	4.25026	0.885646	4.92927
0.486263	2.68253	0.350226	1.90983	0.486154	2.68256	0.585334	3.24211	0.710982	3.93318	0.918906	5.08184	0.473659	2.62301	0.581934	3.21421	0.765807	4.23345	0.886987	4.91127
0.488632	2.68182	0.352236	1.91108	0.488524	2.68185	0.586866	3.2339	0.712461	3.92116	0.919743	5.06039	0.475479	2.61957	0.583596	3.2069	0.766731	4.21685	0.88833	4.89347
0.491003	2.68112	0.354245	1.91231	0.490895	2.68115	0.588399	3.22579	0.713945	3.90928	0.920584	5.03919	0.477298	2.61616	0.585266	3.19969	0.767662	4.20044	0.889676	4.87585
0.493374	2.68043	0.356253	1.91353	0.493266	2.68046	0.589934	3.21777	0.715435	3.89755	0.92143	5.01822	0.479114	2.61277	0.586943	3.1926	0.768598	4.18423	0.891025	4.85844
0.495746	2.67975	0.358261	1.91473	0.495637	2.67978	0.59147	3.20984	0.716929	3.88597	0.92228	4.99749	0.480929	2.60941	0.588626	3.18561	0.769539	4.16821	0.892376	4.84121
0.498118	2.67908	0.360269	1.91592	0.498009	2.67911	0.593008	3.20199	0.718428	3.87452	0.923134	4.97699	0.482741	2.60607	0.590316	3.17873	0.770485	4.15238	0.893729	4.82417
0.50049	2.67842	0.362275	1.91709	0.500382	2.67845	0.594547	3.19423	0.719932	3.86322	0.923992	4.95673	0.484552	2.60276	0.592013	3.17195	0.771437	4.13674	0.895084	4.80731
0.502863	2.67776	0.364281	1.91825	0.502754	2.67779	0.596087	3.18656	0.721441	3.85206	0.924855	4.93668	0.486361	2.59946	0.593716	3.16527	0.772394	4.12128	0.896442	4.79063
0.505235	2.67711	0.366287	1.91939	0.505127	2.67714	0.59763	3.17897	0.722955	3.84104	0.925723	4.91686	0.488169	2.5962	0.595426	3.1587	0.773357	4.10601	0.897802	4.77413
0.507608	2.67647	0.368292	1.92052	0.5075	2.6765	0.599173	3.17146	0.724473	3.83015	0.926595	4.89725	0.489975	2.59295	0.597142	3.15222	0.774325	4.09091	0.899165	4.7578
0.509981	2.67584	0.370296	1.92164	0.509873	2.67587	0.600719	3.16404	0.725996	3.81939	0.927471	4.87787	0.491779	2.58973	0.598864	3.14584	0.775298	4.07599	0.90053	4.74165
0.512354	2.67521	0.372299	1.92274	0.512245	2.67524	0.602266	3.1567	0.727524	3.80875	0.928351	4.85869	0.493581	2.58653	0.600592	3.13955	0.776277	4.06124	0.901897	4.72566
0.514727	2.67459	0.374302	1.92382	0.514618	2.67462	0.603815	3.14944	0.729056	3.79825	0.929236	4.83972	0.495382	2.58336	0.602327	3.13336	0.777261	4.04666	0.903266	4.70984
0.517099	2.67397	0.376305	1.9249	0.516991	2.674	0.605366	3.14226	0.730593	3.78787	0.930126	4.82096	0.497182	2.58021	0.604068	3.12726	0.77825	4.03225	0.904637	4.69419
0.519472	2.67336	0.378306	1.92596	0.519363	2.67339	0.606918	3.13515	0.732135	3.77761	0.931019	4.8024	0.49898	2.57708	0.605815	3.12125	0.779244	4.01801	0.906011	4.6787
0.521844	2.67276	0.380307	1.927	0.521736	2.67278	0.608472	3.12813	0.733681	3.76748	0.931917	4.78404	0.500776	2.57397	0.607567	3.11532	0.780244	4.00393	0.907386	4.66336
0.524216	2.67215	0.382308	1.92804	0.524107	2.67218	0.610029	3.12118	0.735231	3.75746	0.93282	4.76588	0.502572	2.57088	0.609326	3.10949	0.781249	3.99001	0.908764	4.64819
0.526587	2.67155	0.384307	1.92906	0.526479	2.67158	0.611587	3.1143	0.736786	3.74756	0.933727	4.74791	0.504365	2.56782	0.61109	3.10373	0.782259	3.97625	0.910144	4.63316
0.528958	2.67096	0.386306	1.93007	0.52885	2.67098	0.613147	3.1075	0.738344	3.73778	0.934638	4.73014	0.506158	2.56478	0.61286	3.09806	0.783275	3.96265	0.911526	4.6183
0.531329	2.67036	0.388305	1.93106	0.53122	2.67039	0.614709	3.10078	0.739908	3.72811	0.935554	4.71255	0.507949	2.56177	0.614636	3.09247	0.784295	3.94919	0.91291	4.60358
0.533699	2.66977	0.390302	1.93204	0.53359	2.6698	0.616273	3.09413	0.741475	3.71855	0.936474	4.69515	0.509739	2.55877	0.616417	3.08696	0.785321	3.9359	0.914296	4.589
0.536068	2.66918	0.392299	1.93301	0.53596	2.66921	0.617839	3.08755	0.743046	3.7091	0.937398	4.67793	0.511528	2.5558	0.618203	3.08153	0.786353	3.92275	0.915684	4.57458
0.538436	2.6686	0.394295	1.93397	0.538328	2.66862	0.619408	3.08104	0.744622	3.69976	0.938327	4.6609	0.513316	2.55284	0.619995	3.07618	0.787389	3.90975	0.917073	4.56029
0.540804	2.66801	0.396291	1.93492	0.540696	2.66804	0.620978	3.0746	0.746201	3.69052	0.93926	4.64404	0.515103	2.54991	0.621792	3.0709	0.788431	3.89689	0.918465	4.54615
0.543171	2.66743	0.398286	1.93585	0.543063	2.66746	0.622551	3.06824	0.747785	3.68139	0.940198	4.62736	0.516888	2.54701	0.623595	3.06569	0.789478	3.88418	0.919859	4.53215
0.545537	2.66685	0.40028	1.93678	0.545429	2.66687	0.624126	3.06194	0.749373	3.67236	0.94114	4.61085	0.518673	2.54412	0.625402	3.06056	0.79053	3.87161	0.921254	4.51828
0.547902	2.66626	0.402274	1.93769	0.547794	2.66629	0.625704	3.05571	0.750964	3.66343	0.942086	4.59452	0.520456	2.54126	0.627215	3.0555	0.791587	3.85918	0.922652	4.50455
0.550266	2.66568	0.404267	1.93858	0.550158	2.66571	0.627284	3.04955	0.752559	3.65461	0.943037	4.57835	0.522239	2.53841	0.629032	3.05051	0.79265	3.84688	0.924051	4.49096
0.552629	2.6651	0.406259	1.93947	0.552521	2.66513	0.628866	3.04346	0.754158	3.64588	0.943992	4.56235	0.524021	2.53559	0.630855	3.04559	0.793717	3.83472	0.925452	4.47749
0.55499	2.66452	0.40825	1.94035	0.554883	2.66454	0.630451	3.03744	0.755761	3.63724	0.944952	4.54652	0.525802	2.53279	0.632682	3.04073	0.79479	3.8227	0.926854	4.46416
0.557351	2.66393	0.410241	1.94122	0.557243	2.66396	0.632039	3.03148	0.757368	3.6287	0.945916	4.53084	0.527582	2.53001	0.634514	3.03594	0.795868	3.81081	0.928259	4.45095
0.55971	2.66335	0.412231	1.94207	0.559602	2.66337	0.633629	3.02559	0.758978	3.62026	0.946884	4.51533	0.529362	2.52725	0.63635	3.03121	0.796951	3.79905	0.929665	4.43786
0.562068	2.66276	0.41422	1.94291	0.56196	2.66279	0.635222	3.01976	0.760592	3.6119	0.947857	4.49998	0.53114	2.52452	0.638191	3.02655	0.79804	3.78741	0.931073	4.4249
0.564424	2.66217	0.416209	1.94375	0.564316	2.6622	0.636818	3.01399	0.762209	3.60364	0.948834	4.48478	0.532919	2.5218	0.640037	3.02195	0.799133	3.77591	0.932483	4.41207
0.566779	2.66158	0.418197	1.94457	0.566671	2.66161	0.638417	3.0083	0.76383	3.59546	0.949816	4.46974	0.534696	2.51911	0.641887	3.01741	0.800232	3.76453	0.933894	4.39935
0.569132	2.66099	0.420184	1.94538	0.569024	2.66102	0.640018	3.00266	0.765454	3.58738	0.950802	4.45484	0.536473	2.51643	0.643741	3.01293	0.801336	3.75327	0.935307	4.38675
0.571483	2.6604	0.422171	1.94618	0.571376	2.66042	0.641623	2.99709	0.767082	3.57937	0.951792	4.4401	0.53825	2.51378	0.6456	3.00851	0.802445	3.74213	0.936722	4.37427
0.573833	2.6598	0.424156	1.94698	0.573726	2.65983	0.643231	2.99158	0.768713	3.57146	0.952787	4.42551	0.540026	2.51115	0.647462	3.00415	0.803559	3.73112	0.938138	4.36191
0.576181	2.6592	0.426141	1.94776	0.576073	2.65923	0.644842	2.98613	0.770347	3.56363	0.953786	4.41106	0.541801	2.50854	0.649329	2.99984	0.804678	3.72022	0.939555	4.34966
0.578527	2.65859	0.428126	1.94853	0.578419	2.65862	0.646456	2.98074	0.771984	3.55587	0.95479	4.39676	0.543577	2.50595	0.6512	2.99559	0.805803	3.70944	0.940975	4.33752
0.58087	2.65798	0.430109	1.94929	0.580763	2.65801	0.648073	2.97542	0.773625	3.54821	0.955798	4.38259	0.545352	2.50337	0.653074	2.99139	0.806932	3.69878	0.942395	4.32549
0.583212	2.65737	0.432092	1.95004	0.583105	2.6574	0.649694	2.97016	0.775269	3.54062	0.95681	4.36857	0.547126	2.50083	0.654953	2.98725	0.808067	3.68823	0.943818	4.31357
0.585552	2.65675	0.434074	1.95078	0.585445	2.65678	0.651318	2.96495	0.776916	3.5331	0.957827	4.35469	0.5489	2.4983	0.656835	2.98316	0.809207	3.67779	0.945241	4.30176
0.587889	2.65613	0.436055	1.95152	0.587782	2.65616	0.652946	2.95981	0.778566	3.52567	0.958848	4.34095	0.550675	2.49579	0.65872	2.97911	0.810351	3.66746	0.946666	4.29006
0.590224	2.6555	0.438036	1.95224	0.590117	2.65553	0.654578	2.95473	0.780219	3.51831	0.959874	4.32734	0.552448	2.4933	0.66061	2.97512	0.811501	3.65725	0.948093	4.27846
0.592556	2.65486	0.440016	1.95296	0.59245	2.65489	0.656213	2.9497	0.781875	3.51103	0.960904	4.31386	0.554222	2.49083	0.662503	2.97118	0.812657	3.64714	0.949521	4.26696
0.594886	2.65422	0.441995	1.95366	0.59478	2.65425	0.657852	2.94474	0.783535	3.50382	0.961938	4.30052	0.555996	2.48838	0.664399	2.96729	0.813817	3.63714	0.95095	4.25557
0.597214	2.65358	0.443973	1.95436	0.597107	2.65361	0.659495	2.93983	0.785196	3.49668	0.962977	4.2873	0.55777	2.48595	0.666299	2.96344	0.814982	3.62724	0.952381	4.24427
0.599538	2.65292	0.445951	1.95504	0.599432	2.65295	0.661143	2.93499	0.786861	3.48962	0.964021	4.27422	0.559543	2.48355	0.668202	2.95964	0.816153	3.61745	0.953813	4.23308
0.60186	2.65226	0.447928	1.95572	0.601754	2.65229	0.662794	2.9302	0.788529	3.48262	0.965068	4.26126	0.561317	2.48116	0.670108	2.95588	0.817328	3.60776	0.955247	4.22198
0.604178	2.65159	0.449904	1.95639	0.604072	2.65162	0.664449	2.92547	0.790199	3.4757	0.966121	4.24843	0.563091	2.47879	0.672017	2.95217	0.818509	3.59818	0.956681	4.21099
0.606494	2.65091	0.451879	1.95705	0.606388	2.65095	0.666109	2.92079	0.791872	3.46884	0.967177	4.23572	0.564864	2.47644	0.673929	2.94851	0.819695	3.58869	0.958117	4.20008
0.608806	2.65023	0.453853	1.9577	0.608701	2.65026	0.667774	2.91618	0.793547	3.46205	0.968238	4.22314	0.566638	2.47411	0.675845	2.94488	0.820886	3.5793	0.959555	4.18927
0.611116	2.64954	0.455827	1.95835	0.61101	2.64957	0.669443	2.91162	0.795226	3.45533	0.969304	4.21067	0.568412	2.4718	0.677763	2.9413	0.822082	3.57002	0.960993	4.17856
0.613421	2.64883	0.4578	1.95898	0.613316	2.64886	0.671116	2.90712	0.796907	3.44867	0.970373	4.19833	0.570187	2.46951	0.679684	2.93776	0.823283	3.56083	0.962433	4.16793
0.615723	2.64812	0.459773	1.95961	0.615618	2.64815	0.672795	2.90267	0.79859	3.44208	0.971448	4.1861	0.571961	2.46724	0.681607	2.93425	0.824489	3.55173	0.963874	4.1574
0.618022	2.6474	0.461744	1.96023	0.617917	2.64743	0.674478	2.89829	0.800276	3.43555	0.972526	4.17399	0.573736	2.46499	0.683534	2.93079	0.8257	3.54273	0.965316	4.14695
0.620317	2.64666	0.463715	1.96084	0.620212	2.6467	0.676166	2.89396	0.801964	3.42908	0.973609	4.162	0.575511	2.46276	0.685463	2.92737	0.826917	3.53382	0.966759	4.13659
0.622608	2.64592	0.465685	1.96144	0.622503	2.64595	0.67786	2.88968	0.803654	3.42267	0.974697	4.15012	0.577286	2.46055	0.687394	2.92398	0.828139	3.52501	0.968203	4.12632
0.624895	2.64517	0.467654	1.96204	0.62479	2.6452	0.679559	2.88546	0.805347	3.41632	0.975789	4.13835	0.579062	2.45835	0.689328	2.92063	0.829365	3.51628	0.969649	4.11614
0.627177	2.6444	0.469623	1.96263	0.627073	2.64443	0.681263	2.8813	0.807043	3.41004	0.976885	4.12669	0.580839	2.45618	0.691264	2.91732	0.830597	3.50765	0.971095	4.10604
0.629456	2.64362	0.471591	1.9632	0.629352	2.64366	0.682973	2.8772	0.80874	3.40381	0.977986	4.11515	0.582615	2.45402	0.693203	2.91404	0.831834	3.49911	0.972543	4.09603
0.63173	2.64283	0.473558	1.96378	0.631626	2.64287	0.684688	2.87315	0.81044	3.39764	0.979091	4.10371	0.584392	2.45189	0.695143	2.9108	0.833076	3.49065	0.973992	4.0861
0.633999	2.64203	0.475524	1.96434	0.633896	2.64206	0.68641	2.86915	0.812142	3.39153	0.980201	4.09238	0.58617	2.44977	0.697086	2.90759	0.834323	3.48228	0.975442	4.07624
0.636264	2.64121	0.477489	1.9649	0.63616	2.64125	0.688137	2.86521	0.813846	3.38547	0.981315	4.08116	0.587948	2.44767	0.699031	2.90442	0.835575	3.474	0.976892	4.06648
0.638524	2.64038	0.479454	1.96545	0.638421	2.64042	0.689871	2.86133	0.815552	3.37947	0.982434	4.07004	0.589727	2.44559	0.700978	2.90128	0.836833	3.4658	0.978344	4.05678
0.640779	2.63953	0.481418	1.96599	0.640676	2.63957	0.69161	2.8575	0.81726	3.37353	0.983557	4.05902	0.591506	2.44353	0.702927	2.89817	0.838095	3.45769	0.979797	4.04717
0.643029	2.63867	0.483381	1.96652	0.642926	2.63871	0.693356	2.85373	0.81897	3.36763	0.984684	4.04811	0.593286	2.44148	0.704878	2.89509	0.839363	3.44966	0.981251	4.03764
0.645273	2.6378	0.485343	1.96705	0.645171	2.63784	0.695109	2.85002	0.820682	3.3618	0.985816	4.0373	0.595067	2.43946	0.70683	2.89204	0.840635	3.44171	0.982706	4.02818
0.647512	2.63691	0.487305	1.96757	0.64741	2.63695	0.696868	2.84636	0.822396	3.35601	0.986952	4.02659	0.596848	2.43745	0.708785	2.88903	0.841913	3.43384	0.984161	4.0188
0.649746	2.63601	0.489266	1.96809	0.649644	2.63605	0.698634	2.84275	0.824112	3.35027	0.988093	4.01598	0.59863	2.43546	0.710741	2.88604	0.843196	3.42606	0.985618	4.00949
0.651974	2.63508	0.491226	1.96859	0.651872	2.63513	0.700407	2.8392	0.82583	3.34459	0.989238	4.00547	0.600413	2.43349	0.712698	2.88308	0.844485	3.41835	0.987075	4.00026
0.654196	2.63415	0.493186	1.96909	0.654095	2.63419	0.702188	2.83571	0.82755	3.33895	0.990388	3.99505	0.602196	2.43154	0.714657	2.88015	0.845778	3.41072	0.988534	3.9911
0.656412	2.63319	0.495144	1.96959	0.656311	2.63324	0.703975	2.83227	0.829271	3.33337	0.991542	3.98473	0.60398	2.4296	0.716618	2.87725	0.847076	3.40317	0.989993	3.98202
0.658622	2.63222	0.497102	1.97007	0.658522	2.63226	0.70577	2.82889	0.830994	3.32783	0.9927	3.9745	0.605765	2.42768	0.71858	2.87437	0.84838	3.3957	0.991453	3.973
0.660826	2.63123	0.499059	1.97055	0.660726	2.63127	0.707572	2.82556	0.832719	3.32234	0.993863	3.96437	0.607551	2.42578	0.720543	2.87152	0.849689	3.3883	0.992914	3.96405
0.663024	2.63022	0.501015	1.97103	0.662923	2.63027	0.709382	2.82229	0.834446	3.3169	0.995031	3.95433	0.609338	2.4239	0.722507	2.8687	0.851003	3.38098	0.994376	3.95518
0.665214	2.62919	0.502971	1.97149	0.665114	2.62924	0.7112	2.81907	0.836174	3.31151	0.996202	3.94438	0.611126	2.42203	0.724473	2.8659	0.852322	3.37373	0.995838	3.94637
0.667399	2.62815	0.504926	1.97195	0.667299	2.6282	0.713026	2.81591	0.837903	3.30616	0.997379	3.93453	0.612914	2.42018	0.72644	2.86313	0.853646	3.36656	0.997301	3.93763
0.669576	2.62708	0.50688	1.97241	0.669477	2.62713	0.71486	2.8128	0.839635	3.30085	0.998559	3.92476	0.614703	2.41835	0.728408	2.86038	0.854975	3.35946	0.998766	3.92896
0.671746	2.626	0.508833	1.97286	0.671647	2.62605	0.716703	2.80975	0.841367	3.29559	0.999744	3.91508	0.616494	2.41654	0.730376	2.85766	0.85631	3.35243	1.00023	3.92035
0.67391	2.6249	0.510786	1.9733	0.673811	2.62495	0.718553	2.80676	0.843101	3.29038	1.00093	3.90549	0.618285	2.41474	0.732346	2.85496	0.85765	3.34547		
0.676066	2.62377	0.512737	1.97374	0.675967	2.62383	0.720412	2.80381	0.844837	3.28521			0.620077	2.41296	0.734317	2.85228	0.858995	3.33858		
0.678215	2.62263	0.514688	1.97417	0.678117	2.62268	0.72228	2.80093	0.846574	3.28008			0.621871	2.4112	0.736288	2.84963	0.860345	3.33177		
0.680356	2.62147	0.516639	1.97459	0.680259	2.62152	0.724157	2.79809	0.848313	3.27499			0.623665	2.40945	0.73826	2.84699	0.8617	3.32502		
0.68249	2.62028	0.518588	1.97501	0.682393	2.62034	0.726042	2.79532	0.850052	3.26995			0.62546	2.40772	0.740233	2.84438	0.863061	3.31834		
0.684617	2.61908	0.520537	1.97542	0.68452	2.61913	0.727936	2.79259	0.851793	3.26494			0.627256	2.40601	0.742207	2.84179	0.864427	3.31173		
0.686735	2.61785	0.522485	1.97583	0.686639	2.61791	0.729839	2.78992	0.853535	3.25998			0.629054	2.40431	0.744181	2.83922	0.865798	3.30518		
0.688846	2.61661	0.524432	1.97623	0.68875	2.61666	0.731751	2.7873	0.855279	3.25505			0.630852	2.40263	0.746155	2.83667	0.867174	3.2987		
0.69095	2.61534	0.526379	1.97662	0.690854	2.6154	0.733673	2.78474	0.857024	3.25017			0.632652	2.40096	0.74813	2.83414	0.868556	3.29229		
0.693045	2.61405	0.528325	1.97701	0.692949	2.61411	0.735604	2.78223	0.858769	3.24532			0.634453	2.39931	0.750106	2.83163	0.869942	3.28594		
0.695132	2.61274	0.53027	1.9774	0.695037	2.6128	0.737544	2.77977	0.860516	3.24051			0.636254	2.39768	0.752081	2.82914	0.871335	3.27966		
0.697212	2.61141	0.532214	1.97778	0.697117	2.61148	0.739493	2.77736	0.862264	3.23574			0.638057	2.39606	0.754057	2.82666	0.872732	3.27344		
0.699283	2.61006	0.534158	1.97815	0.699188	2.61013	0.741452	2.77501	0.864013	3.23101			0.639861	2.39445	0.756033	2.82421	0.874134	3.26728		
0.701346	2.60869	0.536101	1.97852	0.701252	2.60876	0.74342	2.77271	0.865764	3.22632			0.641667	2.39287	0.75801	2.82177	0.875542	3.26119		
0.703402	2.6073	0.538043	1.97888	0.703308	2.60737	0.745398	2.77046	0.867515	3.22166			0.643473	2.3913	0.759986	2.81935	0.876955	3.25516		
0.705449	2.60589	0.539984	1.97924	0.705356	2.60596	0.747385	2.76826	0.869267	3.21703			0.645281	2.38974	0.761962	2.81694	0.878374	3.24918		
0.707488	2.60446	0.541925	1.97959	0.707395	2.60453	0.749381	2.76611	0.87102	3.21244			0.64709	2.3882	0.763939	2.81455	0.879798	3.24327		
0.70952	2.60301	0.543865	1.97994	0.709427	2.60308	0.751387	2.764	0.872774	3.20789			0.6489	2.38667	0.765915	2.81218	0.881227	3.23742		
0.711543	2.60154	0.545804	1.98028	0.711451	2.60161	0.753402	2.76195	0.874528	3.20337			0.650711	2.38516	0.767891	2.80983	0.882661	3.23163		
0.713559	2.60006	0.547743	1.98062	0.713467	2.60012	0.755427	2.75995	0.876284	3.19888			0.652524	2.38366	0.769867	2.80749	0.884101	3.2259		
0.715566	2.59855	0.54968	1.98096	0.715475	2.59862	0.757461	2.75799	0.878041	3.19443			0.654337	2.38218	0.771843	2.80516	0.885546	3.22022		
0.717566	2.59702	0.551617	1.98128	0.717475	2.59709	0.759504	2.75608	0.879798	3.19001			0.656152	2.38071	0.773818	2.80285	0.886996	3.2146		
0.719558	2.59548	0.553554	1.98161	0.719467	2.59555	0.761556	2.75421	0.881556	3.18562			0.657969	2.37926	0.775794	2.80055	0.888452	3.20904		
0.721543	2.59392	0.555489	1.98193	0.721452	2.59399	0.763617	2.75239	0.883314	3.18127			0.659786	2.37782	0.777768	2.79827	0.889913	3.20354		
0.723519	2.59235	0.557424	1.98224	0.723429	2.59242	0.765687	2.75062	0.885074	3.17694			0.661605	2.3764	0.779742	2.796	0.891379	3.19809		
0.725489	2.59076	0.559359	1.98255	0.725399	2.59083	0.767767	2.74889	0.886834	3.17265			0.663425	2.37499	0.781716	2.79374	0.892851	3.1927		
0.727451	2.58915	0.561292	1.98286	0.727362	2.58922	0.769855	2.7472	0.888595	3.16839			0.665247	2.37359	0.783689	2.7915	0.894328	3.18736		
0.729406	2.58753	0.563225	1.98316	0.729317	2.5876	0.771951	2.74555	0.890356	3.16416			0.66707	2.37221	0.785662	2.78927	0.89581	3.18208		
0.731354	2.58589	0.565157	1.98345	0.731265	2.58596	0.774057	2.74395	0.892118	3.15996			0.668894	2.37084	0.787634	2.78705	0.897298	3.17685		
0.733295	2.58424	0.567089	1.98374	0.733207	2.58432	0.77617	2.74238	0.893881	3.15578			0.670719	2.36949	0.789605	2.78485	0.898792	3.17168		
0.735229	2.58258	0.569019	1.98403	0.735141	2.58265	0.778292	2.74086	0.895644	3.15164			0.672546	2.36815	0.791576	2.78265	0.90029	3.16655		
0.737157	2.5809	0.570949	1.98432	0.737069	2.58098	0.780422	2.73937	0.897407	3.14753			0.674374	2.36682	0.793545	2.78047	0.901794	3.16148		
0.739078	2.57921	0.572879	1.9846	0.73899	2.57929	0.78256	2.73792	0.899171	3.14344			0.676204	2.3655	0.795514	2.7783	0.903304	3.15647		
0.740993	2.57751	0.574808	1.98487	0.740905	2.57759	0.784706	2.73651	0.900936	3.13939			0.678034	2.3642	0.797482	2.77614	0.904819	3.1515		
0.742901	2.5758	0.576736	1.98514	0.742814	2.57588	0.78686	2.73513	0.902701	3.13536			0.679867	2.36291	0.799449	2.77399	0.906339	3.14658		
0.744803	2.57409	0.578663	1.98541	0.744717	2.57416	0.789021	2.73379	0.904466	3.13136			0.6817	2.36164	0.801415	2.77185	0.907865	3.14172		
0.7467	2.57236	0.58059	1.98567	0.746614	2.57244	0.791189	2.73248	0.906232	3.12738			0.683535	2.36038	0.80338	2.76972	0.909396	3.1369		
0.748591	2.57062	0.582516	1.98593	0.748505	2.5707	0.793365	2.73121	0.907999	3.12344			0.685371	2.35913	0.805344	2.7676	0.910933	3.13214		
0.750476	2.56887	0.584441	1.98619	0.75039	2.56895	0.795547	2.72997	0.909765	3.11952			0.687209	2.35789	0.807306	2.76549	0.912475	3.12742		
0.752356	2.56712	0.586366	1.98644	0.75227	2.5672	0.797737	2.72876	0.911532	3.11562			0.689048	2.35667	0.809268	2.76339	0.914022	3.12275		
0.754231	2.56536	0.58829	1.98668	0.754145	2.56544	0.799933	2.72758	0.913299	3.11175			0.690888	2.35546	0.811228	2.7613	0.915575	3.11814		
0.7561	2.5636	0.590213	1.98693	0.756015	2.56368	0.802136	2.72642	0.915067	3.10791			0.69273	2.35426	0.813188	2.75922	0.917134	3.11356		
0.757965	2.56183	0.592136	1.98717	0.75788	2.56191	0.804345	2.7253	0.916835	3.10409			0.694573	2.35307	0.815146	2.75714	0.918698	3.10904		
0.759825	2.56005	0.594058	1.9874	0.75974	2.56013	0.80656	2.72421	0.918603	3.1003			0.696417	2.3519	0.817102	2.75508	0.920267	3.10456		
0.76168	2.55827	0.595979	1.98764	0.761596	2.55836	0.808781	2.72314	0.920371	3.09653			0.698263	2.35073	0.819057	2.75302	0.921842	3.10013		
0.763531	2.55649	0.5979	1.98787	0.763447	2.55657	0.811008	2.7221	0.92214	3.09278			0.70011	2.34958	0.821011	2.75098	0.923422	3.09574		
0.765378	2.5547	0.59982	1.98809	0.765294	2.55479	0.813241	2.72108	0.923909	3.08906			0.701959	2.34844	0.822963	2.74894	0.925008	3.09141		
0.767221	2.55292	0.60174	1.98831	0.767137	2.553	0.815479	2.72009	0.925678	3.08537			0.703809	2.34732	0.824914	2.7469	0.926599	3.08711		
0.769059	2.55113	0.603659	1.98853	0.768975	2.55121	0.817722	2.71913	0.927447	3.08169			0.70566	2.3462	0.826864	2.74488	0.928196	3.08286		
0.770894	2.54933	0.605577	1.98875	0.770811	2.54942	0.819971	2.71818	0.929216	3.07804			0.707513	2.3451	0.828811	2.74286	0.929798	3.07866		
0.772726	2.54754	0.607495	1.98896	0.772642	2.54762	0.822225	2.71726	0.930986	3.07442			0.709367	2.344	0.830758	2.74085	0.931406	3.07449		
0.774553	2.54575	0.609412	1.98917	0.77447	2.54583	0.824483	2.71636	0.932755	3.07081			0.711223	2.34292	0.832702	2.73885	0.933019	3.07038		
0.776378	2.54395	0.611328	1.98937	0.776295	2.54403	0.826746	2.71548	0.934525	3.06723			0.71308	2.34185	0.834645	2.73685	0.934638	3.0663		
0.778199	2.54216	0.613244	1.98958	0.778116	2.54224	0.829014	2.71462	0.936295	3.06367			0.714938	2.34079	0.836587	2.73486	0.936262	3.06227		
0.780018	2.54037	0.615159	1.98977	0.779935	2.54045	0.831286	2.71378	0.938065	3.06013			0.716798	2.33974	0.838526	2.73288	0.937891	3.05828		
0.781833	2.53858	0.617074	1.98997	0.78175	2.53866	0.833562	2.71296	0.939835	3.05662			0.718659	2.3387	0.840464	2.7309	0.939526	3.05433		
0.783645	2.53679	0.618988	1.99016	0.783563	2.53687	0.835843	2.71216	0.941605	3.05312			0.720521	2.33768	0.8424	2.72893	0.941167	3.05042		
0.785455	2.535	0.620901	1.99035	0.785373	2.53508	0.838127	2.71138	0.943375	3.04965			0.722385	2.33666	0.844335	2.72697	0.942813	3.04656		
0.787263	2.53322	0.622814	1.99054	0.78718	2.5333	0.840416	2.71061	0.945145	3.0462			0.72425	2.33566	0.846267	2.72501	0.944464	3.04274		
0.789068	2.53144	0.624726	1.99072	0.788985	2.53152	0.842708	2.70986	0.946915	3.04276			0.726117	2.33466	0.848198	2.72306	0.946121	3.03895		
0.79087	2.52966	0.626638	1.9909	0.790788	2.52974	0.845003	2.70912	0.948685	3.03935			0.727985	2.33368	0.850127	2.72111	0.947783	3.03521		
0.792671	2.52788	0.628549	1.99108	0.792588	2.52796	0.847302	2.7084	0.950456	3.03596			0.729854	2.3327	0.852054	2.71917	0.949451	3.0315		
0.794469	2.52611	0.630459	1.99126	0.794387	2.52619	0.849604	2.7077	0.952226	3.03259			0.731725	2.33174	0.853979	2.71723	0.951123	3.02784		
0.796265	2.52435	0.632369	1.99143	0.796183	2.52443	0.85191	2.70701	0.953996	3.02924			0.733597	2.33078	0.855902	2.7153	0.952802	3.02421		
0.79806	2.52258	0.634279	1.9916	0.797978	2.52266	0.854218	2.70633	0.955766	3.02591			0.735471	2.32984	0.857823	2.71338	0.954486	3.02062		
0.799853	2.52083	0.636187	1.99177	0.799771	2.52091	0.85653	2.70567	0.957537	3.0226			0.737345	2.3289	0.859742	2.71146	0.956175	3.01707		
0.801644	2.51908	0.638096	1.99193	0.801562	2.51916	0.858844	2.70502	0.959307	3.01931			0.739222	2.32798	0.861659	2.70954	0.957869	3.01356		
0.803433	2.51733	0.640003	1.99209	0.803352	2.51741	0.861161	2.70438	0.961077	3.01603			0.741099	2.32706	0.863574	2.70763	0.959569	3.01008		
0.805221	2.51559	0.64191	1.99225	0.80514	2.51567	0.863481	2.70375	0.962847	3.01278			0.742978	2.32616	0.865488	2.70573	0.961274	3.00664		
0.807008	2.51385	0.643817	1.99241	0.806927	2.51393	0.865803	2.70314	0.964617	3.00955			0.744858	2.32526	0.867399	2.70383	0.962985	3.00324		
0.808794	2.51212	0.645723	1.99256	0.808712	2.5122	0.868128	2.70254	0.966387	3.00633			0.74674	2.32438	0.869308	2.70193	0.964701	2.99988		
0.810578	2.5104	0.647629	1.99271	0.810496	2.51048	0.870455	2.70194	0.968157	3.00313			0.748623	2.3235	0.871215	2.70004	0.966422	2.99655		
0.812361	2.50868	0.649534	1.99286	0.812279	2.50876	0.872784	2.70136	0.969927	2.99995			0.750507	2.32263	0.87312	2.69815	0.968148	2.99325		
0.814143	2.50697	0.651438	1.993	0.814061	2.50705	0.875116	2.70079	0.971697	2.99679			0.752393	2.32177	0.875023	2.69627	0.96988	2.98999		
0.815924	2.50527	0.653342	1.99315	0.815843	2.50535	0.877449	2.70023	0.973467	2.99365			0.75428	2.32092	0.876923	2.69439	0.971617	2.98677		
0.817704	2.50357	0.655246	1.99329	0.817623	2.50365	0.879784	2.69967	0.975237	2.99052			0.756168	2.32008	0.878822	2.69252	0.973359	2.98358		
0.819483	2.50189	0.657149	1.99343	0.819402	2.50196	0.882121	2.69913	0.977007	2.98741			0.758057	2.31925	0.880719	2.69065	0.975106	2.98042		
0.821262	2.5002	0.659051	1.99357	0.821181	2.50028	0.88446	2.69859	0.978777	2.98432			0.759948	2.31842	0.882613	2.68878	0.976858	2.9773		
0.82304	2.49853	0.660953	1.9937	0.822958	2.49861	0.886801	2.69806	0.980547	2.98125			0.761841	2.31761	0.884505	2.68692	0.978616	2.97421		
0.824817	2.49686	0.662854	1.99383	0.824736	2.49694	0.889143	2.69754	0.982317	2.97819			0.763734	2.3168	0.886396	2.68506	0.980378	2.97116		
0.826594	2.4952	0.664755	1.99396	0.826512	2.49528	0.891487	2.69703	0.984086	2.97516			0.765629	2.31601	0.888284	2.68321	0.982146	2.96813		
0.82837	2.49355	0.666656	1.99409	0.828289	2.49363	0.893833	2.69652	0.985856	2.97213			0.767525	2.31522	0.89017	2.68136	0.983919	2.96514		
0.830145	2.49191	0.668556	1.99421	0.830064	2.49198	0.896179	2.69603	0.987626	2.96913			0.769423	2.31444	0.892053	2.67951	0.985697	2.96218		
0.831921	2.49027	0.670455	1.99434	0.83184	2.49035	0.898527	2.69553	0.989395	2.96614			0.771321	2.31366	0.893935	2.67767	0.98748	2.95925		
0.833696	2.48864	0.672354	1.99446	0.833614	2.48872	0.900877	2.69505	0.991165	2.96317			0.773221	2.3129	0.895815	2.67583	0.989267	2.95636		
0.83547	2.48702	0.674253	1.99458	0.835389	2.4871	0.903227	2.69457	0.992935	2.96022			0.775123	2.31214	0.897692	2.674	0.99106	2.95349		
0.837244	2.48541	0.676151	1.9947	0.837163	2.48549	0.905578	2.6941	0.994705	2.95728			0.777025	2.31139	0.899567	2.67217	0.992858	2.95066		
0.839019	2.48381	0.678048	1.99481	0.838938	2.48388	0.907931	2.69363	0.996474	2.95436			0.778929	2.31065	0.90144	2.67034	0.99466	2.94785		
0.840793	2.48222	0.679945	1.99492	0.840712	2.48229	0.910284	2.69317	0.998244	2.95145			0.780834	2.30992	0.903311	2.66852	0.996468	2.94508		
0.842567	2.48063	0.681842	1.99503	0.842485	2.4807	0.912639	2.69271	1.00001	2.94856			0.78274	2.30919	0.90518	2.6667	0.99828	2.94233		
0.84434	2.47905	0.683738	1.99514	0.844259	2.47912	0.914994	2.69226					0.784648	2.30848	0.907047	2.66489	1.0001	2.93961		
0.846114	2.47748	0.685634	1.99525	0.846033	2.47755	0.91735	2.69181					0.786557	2.30777	0.908912	2.66308				
0.847888	2.47592	0.687529	1.99536	0.847807	2.47599	0.919707	2.69137					0.788467	2.30706	0.910775	2.66127				
0.849662	2.47437	0.689424	1.99546	0.849581	2.47444	0.922064	2.69093					0.790378	2.30637	0.912635	2.65947				
0.851436	2.47283	0.691318	1.99556	0.851355	2.4729	0.924422	2.6905					0.792291	2.30568	0.914494	2.65767				
0.85321	2.47129	0.693212	1.99566	0.853129	2.47136	0.92678	2.69007					0.794204	2.305	0.91635	2.65587				
0.854984	2.46977	0.695106	1.99576	0.854903	2.46984	0.929139	2.68964					0.796119	2.30433	0.918205	2.65408				
0.856758	2.46825	0.696999	1.99586	0.856677	2.46832	0.931498	2.68922					0.798036	2.30366	0.920057	2.65229				
0.858533	2.46674	0.698892	1.99595	0.858452	2.46681	0.933858	2.6888					0.799953	2.303	0.921907	2.6505				
0.860308	2.46524	0.700784	1.99605	0.860227	2.46531	0.936218	2.68838					0.801871	2.30235	0.923756	2.64872				
0.862083	2.46375	0.702676	1.99614	0.862002	2.46382	0.938578	2.68796					0.803791	2.30171	0.925602	2.64695				
0.863859	2.46227	0.704568	1.99623	0.863778	2.46233	0.940938	2.68755					0.805712	2.30107	0.927447	2.64517				
0.865635	2.46079	0.706459	1.99631	0.865553	2.46086	0.943299	2.68714					0.807634	2.30044	0.929289	2.6434				
0.867411	2.45933	0.708349	1.9964	0.86733	2.4594	0.945659	2.68674					0.809558	2.29981	0.93113	2.64164				
0.869187	2.45787	0.71024	1.99649	0.869106	2.45794	0.94802	2.68633					0.811482	2.29919	0.932969	2.63988				
0.870964	2.45643	0.71213	1.99657	0.870883	2.45649	0.95038	2.68593					0.813408	2.29858	0.934805	2.63812				
0.872742	2.45499	0.714019	1.99665	0.87266	2.45505	0.95274	2.68553					0.815335	2.29797	0.93664	2.63637				
0.87452	2.45356	0.715908	1.99673	0.874438	2.45362	0.9551	2.68513					0.817262	2.29738	0.938473	2.63462				
0.876298	2.45214	0.717797	1.99681	0.876217	2.4522	0.95746	2.68473					0.819192	2.29678	0.940305	2.63287				
0.878077	2.45073	0.719686	1.99689	0.877996	2.45079	0.95982	2.68434					0.821122	2.2962	0.942134	2.63113				
0.879856	2.44933	0.721574	1.99697	0.879775	2.44939	0.962179	2.68394					0.823053	2.29562	0.943962	2.62939				
0.881636	2.44793	0.723461	1.99704	0.881555	2.44799	0.964538	2.68355					0.824985	2.29504	0.945788	2.62766				
0.883417	2.44655	0.725349	1.99711	0.883335	2.44661	0.966896	2.68315					0.826919	2.29447	0.947612	2.62593				
0.885198	2.44517	0.727236	1.99719	0.885116	2.44523	0.969254	2.68276					0.828854	2.29391	0.949434	2.6242				
0.88698	2.4438	0.729122	1.99726	0.886898	2.44386	0.971612	2.68237					0.830789	2.29336	0.951255	2.62248				
0.888762	2.44244	0.731009	1.99733	0.88868	2.4425	0.973968	2.68198					0.832726	2.29281	0.953074	2.62077				
0.890545	2.44109	0.732894	1.99739	0.890463	2.44115	0.976324	2.68158					0.834664	2.29226	0.954892	2.61906				
0.892328	2.43975	0.73478	1.99746	0.892247	2.43981	0.97868	2.68119					0.836603	2.29172	0.956707	2.61735				
0.894113	2.43842	0.736665	1.99753	0.894031	2.43848	0.981034	2.6808					0.838543	2.29119	0.958522	2.61564				
0.895898	2.43709	0.73855	1.99759	0.895816	2.43715	0.983388	2.68041					0.840485	2.29066	0.960334	2.61394				
0.897683	2.43578	0.740435	1.99766	0.897602	2.43584	0.98574	2.68001					0.842427	2.29014	0.962145	2.61225				
0.89947	2.43447	0.742319	1.99772	0.899388	2.43453	0.988092	2.67962					0.84437	2.28962	0.963955	2.61056				
0.901257	2.43317	0.744203	1.99778	0.901175	2.43323	0.990443	2.67922					0.846314	2.28911	0.965763	2.60887				
0.903044	2.43188	0.746087	1.99784	0.902963	2.43194	0.992792	2.67883					0.84826	2.28861	0.96757	2.60719				
0.904833	2.4306	0.74797	1.9979	0.904751	2.43066	0.995141	2.67843					0.850206	2.28811	0.969375	2.60551				
0.906622	2.42932	0.749853	1.99795	0.90654	2.42938	0.997488	2.67803					0.852153	2.28761	0.971179	2.60384				
0.908412	2.42806	0.751736	1.99801	0.90833	2.42812	0.999834	2.67763					0.854102	2.28712	0.972982	2.60218				
0.910203	2.4268	0.753618	1.99807	0.910121	2.42686	1.00218	2.67723					0.856051	2.28664	0.974783	2.60051				
0.911995	2.42555	0.7555	1.99812	0.911913	2.42561							0.858002	2.28616	0.976583	2.59885				
0.913787	2.42431	0.757382	1.99817	0.913705	2.42437							0.859953	2.28568	0.978381	2.5972				
0.91558	2.42308	0.759264	1.99823	0.915498	2.42314							0.861906	2.28521	0.980178	2.59555				
0.917374	2.42186	0.761145	1.99828	0.917292	2.42191							0.863859	2.28475	0.981974	2.59391				
0.919169	2.42064	0.763026	1.99833	0.919087	2.4207							0.865813	2.28429	0.983769	2.59227				
0.920965	2.41943	0.764907	1.99838	0.920883	2.41949							0.867769	2.28383	0.985563	2.59064				
0.922761	2.41823	0.766787	1.99842	0.922679	2.41829							0.869725	2.28338	0.987355	2.58901				
0.924558	2.41704	0.768667	1.99847	0.924476	2.4171							0.871682	2.28294	0.989147	2.58738				
0.926357	2.41586	0.770547	1.99852	0.926274	2.41591							0.873641	2.2825	0.990937	2.58576				
0.928156	2.41468	0.772426	1.99856	0.928073	2.41474							0.8756	2.28206	0.992726	2.58415				
0.929955	2.41352	0.774306	1.99861	0.929873	2.41357							0.87756	2.28163	0.994514	2.58254				
0.931756	2.41236	0.776185	1.99865	0.931674	2.41241							0.879521	2.2812	0.996302	2.58094				
0.933558	2.41121	0.778064	1.99869	0.933476	2.41126							0.881483	2.28078	0.998088	2.57934				
0.93536	2.41006	0.779942	1.99874	0.935278	2.41011							0.883446	2.28036	0.999873	2.57775				
0.937164	2.40892	0.781821	1.99878	0.937081	2.40898							0.88541	2.27995	1.00166	2.57616				
0.938968	2.4078	0.783699	1.99882	0.938886	2.40785							0.887374	2.27954						
0.940773	2.40668	0.785576	1.99886	0.940691	2.40673							0.88934	2.27913						
0.942579	2.40556	0.787454	1.9989	0.942497	2.40561							0.891307	2.27873						
0.944386	2.40446	0.789331	1.99893	0.944304	2.40451							0.893274	2.27833						
0.946194	2.40336	0.791208	1.99897	0.946112	2.40341							0.895242	2.27794						
0.948003	2.40227	0.793085	1.99901	0.94792	2.40232							0.897211	2.27755						
0.949813	2.40118	0.794962	1.99904	0.94973	2.40123							0.899181	2.27717						
0.951624	2.40011	0.796838	1.99908	0.951541	2.40016							0.901152	2.27679						
0.953435	2.39904	0.798715	1.99911	0.953352	2.39909							0.903124	2.27641						
0.955248	2.39798	0.800591	1.99915	0.955165	2.39803							0.905097	2.27604						
0.957061	2.39693	0.802466	1.99918	0.956978	2.39697							0.90707	2.27567						
0.958875	2.39588	0.804342	1.99921	0.958793	2.39593							0.909044	2.2753						
0.960691	2.39484	0.806217	1.99924	0.960608	2.39489							0.911019	2.27494						
0.962507	2.39381	0.808093	1.99927	0.962424	2.39386							0.912995	2.27458						
0.964324	2.39278	0.809967	1.9993	0.964241	2.39283							0.914972	2.27423						
0.966142	2.39177	0.811842	1.99933	0.966059	2.39181							0.91695	2.27388						
0.967961	2.39075	0.813717	1.99936	0.967878	2.3908							0.918928	2.27353						
0.969781	2.38975	0.815591	1.99939	0.969698	2.3898							0.920907	2.27319						
0.971602	2.38875	0.817465	1.99942	0.971519	2.3888							0.922887	2.27285						
0.973424	2.38776	0.819339	1.99945	0.973341	2.38781							0.924868	2.27251						
0.975247	2.38678	0.821213	1.99947	0.975164	2.38682							0.926849	2.27218						
0.977071	2.3858	0.823087	1.9995	0.976988	2.38585							0.928832	2.27185						
0.978896	2.38483	0.82496	1.99952	0.978812	2.38488							0.930815	2.27152						
0.980722	2.38387	0.826833	1.99955	0.980638	2.38391							0.932798	2.2712						
0.982548	2.38291	0.828706	1.99957	0.982465	2.38296							0.934783	2.27088						
0.984376	2.38196	0.830579	1.9996	0.984292	2.38201							0.936768	2.27056						
0.986204	2.38102	0.832452	1.99962	0.986121	2.38106							0.938754	2.27025						
0.988034	2.38008	0.834325	1.99964	0.98795	2.38013							0.940741	2.26994						
0.989864	2.37915	0.836197	1.99967	0.989781	2.3792							0.942729	2.26963						
0.991696	2.37823	0.838069	1.99969	0.991612	2.37827							0.944717	2.26933						
0.993528	2.37731	0.839941	1.99971	0.993445	2.37735							0.946706	2.26903						
0.995362	2.3764	0.841813	1.99973	0.995278	2.37644							0.948696	2.26873						
0.997196	2.3755	0.843685	1.99975	0.997112	2.37554							0.950686	2.26844						
0.999031	2.3746	0.845557	1.99977	0.998947	2.37464							0.952677	2.26815						
1.00087	2.37371	0.847428	1.99979	1.00078	2.37375							0.954669	2.26786						
		0.8493	1.99981									0.956662	2.26757						
		0.851171	1.99983									0.958655	2.26729						
		0.853042	1.99985									0.960649	2.26701						
		0.854913	1.99986									0.962643	2.26673						
		0.856783	1.99988									0.964639	2.26646						
		0.858654	1.9999									0.966634	2.26619						
		0.860525	1.99992									0.968631	2.26592						
		0.862395	1.99993									0.970628	2.26565						
		0.864265	1.99995									0.972626	2.26539						
		0.866135	1.99996									0.974625	2.26513						
		0.868005	1.99998									0.976624	2.26487						
		0.869875	1.99999									0.978624	2.26462						
		0.871745	2.00001									0.980624	2.26436						
		0.873614	2.00002									0.982625	2.26411						
		0.875484	2.00004									0.984627	2.26387						
		0.877353	2.00005									0.986629	2.26362						
		0.879222	2.00006									0.988632	2.26338						
		0.881091	2.00008									0.990636	2.26314						
		0.88296	2.00009									0.99264	2.2629						
		0.884829	2.0001									0.994644	2.26266						
		0.886698	2.00011									0.99665	2.26243						
		0.888567	2.00012									0.998656	2.2622						
		0.890436	2.00014									1.00066	2.26197						
		0.892304	2.00015																
		0.894172	2.00016																
		0.896041	2.00017																
		0.897909	2.00018																
		0.899777	2.00019																
		0.901645	2.0002																
		0.903513	2.00021																
		0.905381	2.00022																
		0.907248	2.00023																
		0.909116	2.00024																
		0.910984	2.00024																
		0.912851	2.00025																
		0.914719	2.00026																
		0.916586	2.00027																
		0.918453	2.00028																
		0.92032	2.00028																
		0.922187	2.00029																
		0.924054	2.0003																
		0.925921	2.00031																
		0.927788	2.00031																
		0.929655	2.00032																
		0.931522	2.00033																
		0.933388	2.00033																
		0.935255	2.00034																
		0.937121	2.00034																
		0.938988	2.00035																
		0.940854	2.00036																
		0.94272	2.00036																
		0.944587	2.00037																
		0.946453	2.00037																
		0.948319	2.00038																
		0.950185	2.00038																
		0.952051	2.00039																
		0.953917	2.00039																
		0.955783	2.0004																
		0.957649	2.0004																
		0.959514	2.0004																
		0.96138	2.00041																
		0.963246	2.00041																
		0.965112	2.00042																
		0.966977	2.00042																
		0.968843	2.00042																
		0.970708	2.00043																
		0.972574	2.00043																
		0.974439	2.00043																
		0.976304	2.00044																
		0.97817	2.00044																
		0.980035	2.00044																
		0.9819	2.00045																
		0.983765	2.00045																
		0.985631	2.00045																
		0.987496	2.00045																
		0.989361	2.00046																
		0.991226	2.00046																
		0.993091	2.00046																
		0.994956	2.00046																
		0.996821	2.00047																
		0.998686	2.00047																
		1.00055	2.00047																
