Sym0		Asym0		Sym1		Sym2		Sym3		Sym4		Asym1		Asym2		Asym3		Asym4	
456  Points		540  Points		457  Points		406  Points		369  Points		280  Points		480  Points		421  Points		370  Points		279  Points	
Freq (MHz)	Vph (m/ms)	Freq (MHz)	Vph (m/ms)	Freq (MHz)	Vph (m/ms)	Freq (MHz)	Vph (m/ms)	Freq (MHz)	Vph (m/ms)	Freq (MHz)	Vph (m/ms)	Freq (MHz)	Vph (m/ms)	Freq (MHz)	Vph (m/ms)	Freq (MHz)	Vph (m/ms)	Freq (MHz)	Vph (m/ms)
0.279506	314.452	0.000221524	0.0917614	0.279507	366.292	0.356519	4316.4	0.559017	1819.51	0.838526	2311.91	0.139755	1202.43	0.419264	710.683	0.69877	1612	0.713038	4802.72
0.279499	153.524	0.000424896	0.126993	0.2795	164.92	0.356535	351.512	0.559024	451.216	0.83853	647.817	0.139796	133.403	0.419274	275.541	0.698759	511.846	0.713055	660.138
0.279487	101.548	0.000693154	0.162046	0.279489	106.413	0.356579	183.238	0.55904	257.548	0.838538	376.687	0.139904	70.6721	0.419293	170.907	0.698737	304.213	0.713097	354.448
0.279471	75.8617	0.00102554	0.19687	0.279473	78.5445	0.356651	123.937	0.559064	180.208	0.83855	265.55	0.140077	48.1147	0.419319	123.875	0.698704	216.413	0.713165	242.281
0.27945	60.544	0.00142121	0.231432	0.279453	62.241	0.356751	93.6507	0.559096	138.595	0.838567	205.055	0.140316	36.5119	0.419355	97.1465	0.69866	167.937	0.713258	184.055
0.279424	50.3708	0.00187903	0.265677	0.279428	51.5403	0.356878	75.2737	0.559137	112.6	0.838587	167.01	0.140619	29.4508	0.419399	79.9096	0.698606	137.198	0.713375	148.405
0.279394	43.1228	0.00239783	0.299567	0.279399	43.9773	0.357033	62.938	0.559186	94.819	0.838612	140.875	0.140986	24.7066	0.419452	67.8712	0.698543	115.967	0.713516	124.336
0.27936	37.6967	0.00297635	0.333075	0.279365	38.3483	0.357214	54.0868	0.559244	81.8913	0.838642	121.815	0.141416	21.3037	0.419513	58.9882	0.698472	100.422	0.713681	106.993
0.279322	33.4821	0.00361305	0.36615	0.279328	33.9954	0.357423	47.4278	0.55931	72.0686	0.838675	107.299	0.141907	18.7466	0.419583	52.1642	0.698392	88.5493	0.713868	93.9049
0.279281	30.114	0.00430659	0.398781	0.279287	30.5287	0.357659	42.2373	0.559384	64.3526	0.838713	95.8754	0.142459	16.757	0.419662	46.7579	0.698305	79.1843	0.714076	83.677
0.279236	27.3604	0.00505525	0.430928	0.279242	27.7025	0.357921	38.0786	0.559467	58.1314	0.838755	86.6514	0.143071	15.1667	0.419749	42.3693	0.698212	71.6083	0.714305	75.4648
0.279187	25.0673	0.00585738	0.462567	0.279194	25.3543	0.35821	34.6725	0.559558	53.0092	0.838802	79.0477	0.143739	13.8679	0.419844	38.7361	0.698113	65.3534	0.714555	68.7263
0.279136	23.128	0.00671134	0.493682	0.279143	23.3722	0.358524	31.8322	0.559658	48.7185	0.838852	72.6717	0.144464	12.7883	0.419949	35.6787	0.69801	60.1017	0.714823	63.0979
0.279083	21.4664	0.00761543	0.524256	0.27909	21.6767	0.358865	29.4281	0.559766	45.0724	0.838907	67.2485	0.145243	11.8777	0.420062	33.0706	0.697902	55.6296	0.71511	58.3264
0.279027	20.0269	0.00856779	0.554268	0.279034	20.2099	0.359231	27.3672	0.559883	41.9358	0.838967	62.5794	0.146075	11.1	0.420183	30.8195	0.697792	51.7757	0.715415	54.2302
0.278969	18.7677	0.00956674	0.58371	0.278977	18.9285	0.359622	25.5812	0.560008	39.2089	0.83903	58.5174	0.146958	10.4287	0.420313	28.857	0.697679	48.42	0.715737	50.6756
0.27891	17.657	0.0106106	0.612575	0.278918	17.7993	0.360037	24.019	0.560141	36.8166	0.839098	54.9514	0.14789	9.84403	0.420452	27.1311	0.697564	45.4718	0.716074	47.562
0.27885	16.6699	0.0116974	0.640851	0.278858	16.7968	0.360478	22.6411	0.560283	34.7009	0.83917	51.7958	0.14887	9.3306	0.420599	25.6014	0.697449	42.8611	0.716428	44.8123
0.278789	15.787	0.0128256	0.668537	0.278797	15.9007	0.360942	21.4169	0.560433	32.8166	0.839246	48.9836	0.149896	8.87652	0.420755	24.2364	0.697332	40.5332	0.716796	42.3664
0.278727	14.9925	0.0139936	0.695632	0.278735	15.0951	0.361429	20.3224	0.560592	31.1277	0.839327	46.4617	0.150965	8.47241	0.42092	23.0109	0.697216	38.4444	0.717178	40.1765
0.278666	14.2739	0.0151995	0.722135	0.278674	14.3669	0.36194	19.338	0.560759	29.6054	0.839411	44.1875	0.151932	8.15506	0.421093	21.9047	0.697101	36.5599	0.717574	38.2047
0.278605	13.6207	0.0164419	0.748047	0.278613	13.7054	0.362474	18.4482	0.560935	28.2262	0.8395	42.1261	0.15278	7.90686	0.421274	20.9012	0.696987	34.8509	0.717983	36.4199
0.278545	13.0245	0.017719	0.773371	0.278553	13.102	0.36303	17.64	0.561119	26.971	0.839594	40.249	0.153498	7.71549	0.421465	19.9867	0.696874	33.2942	0.718405	34.7968
0.278486	12.4782	0.0190295	0.798114	0.278494	12.5493	0.363608	16.9029	0.561311	25.8238	0.839691	38.5326	0.154076	7.5723	0.421664	19.15	0.696763	31.8703	0.71884	33.3144
0.278429	11.9757	0.0203719	0.822281	0.278437	12.0412	0.364208	16.2279	0.561512	24.7712	0.839793	36.9572	0.154507	7.47129	0.421871	18.3817	0.696655	30.5629	0.719286	31.9553
0.278374	11.512	0.0217446	0.84588	0.278381	11.5725	0.364828	15.6076	0.561721	23.8021	0.839899	35.5061	0.154785	7.40845	0.422087	17.6736	0.696549	29.3582	0.719743	30.7047
0.278322	11.0828	0.0231464	0.868918	0.278329	11.1389	0.36547	15.0358	0.561939	22.907	0.84001	34.1651	0.155188	7.32049	0.422312	17.0191	0.696447	28.2448	0.720212	29.5502
0.278272	10.6844	0.024576	0.891407	0.278279	10.7365	0.366131	14.5069	0.562165	22.0777	0.840124	32.9222	0.155631	7.22792	0.422545	16.4123	0.696348	27.2125	0.720692	28.4811
0.278226	10.3137	0.026032	0.913353	0.278232	10.3622	0.366813	14.0165	0.5624	21.3073	0.840243	31.767	0.15624	7.10686	0.422787	15.8481	0.696252	26.2529	0.721182	27.4883
0.278183	9.96786	0.0275133	0.934768	0.278189	10.0132	0.367514	13.5605	0.562642	20.5897	0.840366	30.6906	0.157023	6.96123	0.423038	15.3224	0.696161	25.3586	0.721682	26.5641
0.278145	9.6445	0.0290187	0.955662	0.27815	9.68693	0.368234	13.1355	0.562894	19.9197	0.840494	29.6852	0.157986	6.79543	0.423297	14.8313	0.696073	24.5232	0.722193	25.7014
0.278111	9.34154	0.030547	0.976047	0.278115	9.38132	0.368973	12.7385	0.563153	19.2928	0.840626	28.744	0.159139	6.61405	0.423565	14.3715	0.69599	23.7409	0.722713	24.8945
0.278082	9.05713	0.0320973	0.995934	0.278085	9.0945	0.36973	12.3669	0.563422	18.705	0.840762	27.8611	0.160492	6.42162	0.423841	13.9402	0.695912	23.0071	0.723242	24.1381
0.278058	8.78963	0.0336686	1.01534	0.278061	8.82481	0.370505	12.0183	0.563698	18.1527	0.840902	27.0311	0.161875	6.24417	0.424126	13.5348	0.695838	22.3172	0.723781	23.4276
0.27804	8.53761	0.0352598	1.03426	0.278042	8.57078	0.371297	11.6906	0.563983	17.6328	0.841046	26.2496	0.163287	6.08011	0.424419	13.1531	0.695769	21.6675	0.72433	22.759
0.278028	8.29979	0.0368701	1.05272	0.278029	8.33112	0.372107	11.3822	0.564276	17.1426	0.841195	25.5124	0.164726	5.92805	0.424722	12.7931	0.695705	21.0547	0.724887	22.1287
0.278022	8.07503	0.0384984	1.07074	0.278023	8.13307	0.372933	11.0914	0.564578	16.6797	0.841348	24.8158	0.166192	5.78676	0.425033	12.453	0.695647	20.4756	0.725452	21.5335
0.278024	7.86231	0.0401442	1.08831	0.278022	7.97164	0.373775	10.8167	0.564888	16.2418	0.841506	24.1566	0.167682	5.6552	0.425352	12.1312	0.695593	19.9275	0.726027	20.9706
0.278032	7.6607	0.0418066	1.10545	0.278024	7.84299	0.374633	10.5569	0.565207	15.827	0.841667	23.5319	0.169196	5.53243	0.42568	11.8263	0.695546	19.4081	0.72661	20.4374
0.278048	7.46938	0.0434847	1.12218	0.278027	7.74422	0.375507	10.3108	0.565533	15.4335	0.841833	22.939	0.170734	5.41765	0.426017	11.537	0.695503	18.9152	0.727201	19.9318
0.278071	7.28761	0.0451779	1.1385	0.278031	7.6732	0.376396	10.0774	0.565869	15.0597	0.842004	22.3756	0.172292	5.31012	0.426362	11.2622	0.695467	18.4468	0.727801	19.4515
0.278103	7.11472	0.0468855	1.15443	0.278034	7.62845	0.3773	9.85579	0.566212	14.7042	0.842178	21.8395	0.173872	5.20922	0.426716	11.0008	0.695436	18.0011	0.728409	18.9947
0.278143	6.95008	0.0486069	1.16997	0.278039	7.56503	0.378219	9.64504	0.566564	14.3658	0.842357	21.3288	0.175471	5.11438	0.427078	10.7519	0.695411	17.5766	0.729025	18.5599
0.278191	6.79315	0.0503414	1.18515	0.278045	7.49732	0.379151	9.44443	0.566925	14.0432	0.84254	20.8418	0.17709	5.02508	0.42745	10.5146	0.695392	17.1717	0.729649	18.1453
0.278249	6.64342	0.0520885	1.19996	0.278055	7.4072	0.380098	9.25326	0.567294	13.7353	0.842727	20.3768	0.178726	4.94089	0.427829	10.2882	0.695379	16.7852	0.73028	17.7498
0.278316	6.50042	0.0538476	1.21441	0.27807	7.29636	0.381058	9.07089	0.567671	13.4412	0.842919	19.9324	0.180379	4.86138	0.428218	10.0719	0.695372	16.4159	0.730919	17.3719
0.278393	6.36373	0.0556182	1.22853	0.278092	7.16679	0.382031	8.89674	0.568056	13.1601	0.843115	19.5072	0.182049	4.7862	0.428615	9.86503	0.695371	16.0625	0.731566	17.0106
0.27848	6.23297	0.0573997	1.24232	0.278124	7.02072	0.383017	8.73028	0.56845	12.8909	0.843315	19.1001	0.183734	4.71501	0.429021	9.66706	0.695376	15.7243	0.732221	16.6648
0.278577	6.10777	0.0591917	1.25578	0.278169	6.8605	0.384016	8.57103	0.568853	12.6331	0.84352	18.7099	0.185434	4.64752	0.429435	9.47743	0.695388	15.4001	0.732883	16.3335
0.278684	5.98781	0.0609938	1.26893	0.278223	6.7077	0.385027	8.41854	0.569263	12.386	0.843728	18.3356	0.187149	4.58346	0.429858	9.29563	0.695406	15.0891	0.733552	16.0159
0.278802	5.87278	0.0628055	1.28177	0.278286	6.56183	0.386051	8.27239	0.569682	12.1488	0.843941	17.9763	0.188877	4.52258	0.430289	9.12119	0.69543	14.7906	0.734229	15.7111
0.278931	5.76241	0.0646263	1.29432	0.278358	6.42244	0.386952	8.14991	0.57011	11.9211	0.844159	17.631	0.190617	4.46466	0.43073	8.95369	0.695461	14.5039	0.734913	15.4183
0.279072	5.65644	0.066456	1.30659	0.278441	6.28915	0.387727	8.04891	0.570545	11.7022	0.84438	17.299	0.192371	4.4095	0.431178	8.79272	0.695498	14.2282	0.735604	15.1369
0.279223	5.55462	0.0682941	1.31857	0.278533	6.16157	0.388373	7.96765	0.570989	11.4917	0.844606	16.9796	0.194136	4.35691	0.431636	8.63794	0.695541	13.963	0.736302	14.8663
0.279387	5.45673	0.0701403	1.33029	0.278636	6.03937	0.388887	7.9048	0.571442	11.2891	0.844837	16.6719	0.195912	4.30672	0.432102	8.48899	0.695591	13.7076	0.737008	14.6058
0.279563	5.36258	0.0719941	1.34174	0.278749	5.92223	0.389266	7.85936	0.571903	11.094	0.845071	16.3755	0.197699	4.25878	0.432577	8.34556	0.695647	13.4615	0.73772	14.3549
0.27975	5.27196	0.0738555	1.35294	0.278874	5.80987	0.389509	7.8306	0.572372	10.906	0.84531	16.0896	0.199496	4.21294	0.432998	8.22485	0.695711	13.2243	0.738439	14.113
0.27995	5.1847	0.0757239	1.36388	0.279009	5.70201	0.38986	7.78972	0.572849	10.7247	0.845553	15.8138	0.201303	4.16907	0.433362	8.12494	0.69578	12.9955	0.739166	13.8797
0.280163	5.10063	0.0775991	1.37459	0.279156	5.59841	0.390243	7.74587	0.573335	10.5498	0.845801	15.5475	0.20312	4.12706	0.433666	8.04433	0.695856	12.7746	0.739899	13.6546
0.280389	5.01959	0.0794808	1.38507	0.279314	5.49885	0.390766	7.6872	0.573829	10.3809	0.846052	15.2903	0.204945	4.08678	0.433909	7.98184	0.695939	12.5613	0.740638	13.4372
0.280627	4.94145	0.0813688	1.39531	0.279485	5.40309	0.391431	7.61455	0.574332	10.2178	0.846308	15.0416	0.206779	4.04814	0.434089	7.93657	0.696029	12.3551	0.741385	13.2272
0.280879	4.86605	0.0832629	1.40534	0.279667	5.31096	0.392241	7.52893	0.574842	10.0601	0.846569	14.8012	0.208621	4.01105	0.434205	7.9079	0.696125	12.1558	0.742138	13.0241
0.281145	4.79328	0.0851626	1.41515	0.279862	5.22226	0.393197	7.43148	0.575361	9.90767	0.846833	14.5685	0.210471	3.9754	0.434372	7.86708	0.696228	11.963	0.742898	12.8277
0.281424	4.72302	0.0870679	1.42475	0.280069	5.13682	0.394305	7.32345	0.575889	9.76016	0.847102	14.3432	0.212328	3.94112	0.434555	7.82325	0.696337	11.7763	0.743665	12.6376
0.281717	4.65515	0.0889785	1.43415	0.280289	5.05448	0.395422	7.21927	0.576424	9.61738	0.847376	14.125	0.214193	3.90815	0.434806	7.7645	0.696453	11.5956	0.744438	12.4536
0.282024	4.58957	0.0908942	1.44335	0.280522	4.9751	0.396549	7.11876	0.576968	9.4791	0.847653	13.9135	0.216064	3.87639	0.435125	7.6916	0.696576	11.4205	0.745217	12.2753
0.282346	4.52617	0.0928148	1.45237	0.280768	4.89852	0.397685	7.02171	0.577521	9.34513	0.847935	13.7085	0.217942	3.8458	0.435516	7.60546	0.696706	11.2507	0.746004	12.1025
0.282682	4.46487	0.0947401	1.46119	0.281028	4.82462	0.398831	6.92797	0.578081	9.21527	0.848221	13.5097	0.219826	3.8163	0.435981	7.50714	0.696843	11.0861	0.746796	11.935
0.283033	4.40558	0.0966699	1.46983	0.281301	4.75328	0.399985	6.83737	0.57865	9.08934	0.848512	13.3167	0.221716	3.78784	0.436523	7.39778	0.696986	10.9265	0.747595	11.7725
0.283398	4.34821	0.0986041	1.4783	0.281588	4.68439	0.401148	6.74975	0.579227	8.96718	0.848806	13.1293	0.223611	3.76037	0.437073	7.29197	0.697136	10.7715	0.7484	11.6147
0.283779	4.29269	0.100542	1.48659	0.281889	4.61782	0.40232	6.66499	0.579813	8.84861	0.849106	12.9474	0.225512	3.73384	0.437632	7.18954	0.697293	10.621	0.749212	11.4616
0.284175	4.23894	0.102485	1.49472	0.282204	4.55349	0.403501	6.58293	0.580407	8.73349	0.849409	12.7706	0.227418	3.7082	0.438199	7.09033	0.697456	10.4749	0.750029	11.3129
0.284587	4.18689	0.104431	1.50269	0.282534	4.49129	0.404689	6.50347	0.581009	8.62168	0.849717	12.5987	0.229329	3.6834	0.438775	6.99422	0.697626	10.3328	0.750853	11.1683
0.285014	4.13647	0.106381	1.51049	0.282878	4.43113	0.405886	6.42648	0.581619	8.51304	0.850029	12.4316	0.231245	3.65941	0.43936	6.90105	0.697803	10.1948	0.751684	11.0279
0.285457	4.08763	0.108334	1.51815	0.283237	4.37294	0.40709	6.35185	0.582158	8.42085	0.850345	12.2691	0.233165	3.63618	0.439953	6.8107	0.697987	10.0605	0.75252	10.8913
0.285916	4.04031	0.110291	1.52565	0.283612	4.31662	0.408302	6.27948	0.582622	8.34403	0.850666	12.1109	0.23509	3.61369	0.440556	6.72306	0.698178	9.92991	0.753362	10.7584
0.28633	4.00026	0.112251	1.533	0.284001	4.26211	0.409522	6.20926	0.583009	8.28169	0.850991	11.9569	0.237019	3.5919	0.441167	6.638	0.698375	9.80282	0.754211	10.6291
0.286693	3.96696	0.114214	1.54022	0.284406	4.20933	0.410749	6.14111	0.583317	8.23314	0.85132	11.807	0.238951	3.57077	0.441786	6.55542	0.69858	9.67911	0.755066	10.5032
0.286999	3.94001	0.115928	1.54639	0.284826	4.15821	0.411983	6.07494	0.583545	8.19786	0.851654	11.6609	0.240888	3.55027	0.442414	6.47522	0.698791	9.55864	0.755926	10.3807
0.287246	3.91905	0.11739	1.55157	0.285262	4.10869	0.413224	6.01067	0.583691	8.17546	0.851992	11.5186	0.242827	3.53038	0.443051	6.39731	0.699009	9.44129	0.756793	10.2613
0.28743	3.90384	0.1186	1.5558	0.285715	4.06071	0.414473	5.94821	0.583903	8.1435	0.852334	11.3799	0.24477	3.51107	0.443697	6.32159	0.699233	9.32695	0.757665	10.1449
0.287549	3.89419	0.119558	1.55911	0.286183	4.01422	0.415727	5.8875	0.584133	8.10909	0.852681	11.2446	0.246717	3.49232	0.444351	6.24798	0.699465	9.21551	0.758544	10.0316
0.287722	3.88044	0.120263	1.56153	0.286668	3.96915	0.416989	5.82846	0.584449	8.06281	0.853032	11.1127	0.248666	3.47409	0.445015	6.17639	0.699703	9.10686	0.759428	9.92101
0.287912	3.86565	0.120714	1.56306	0.28717	3.92546	0.418257	5.77102	0.58485	8.00515	0.853387	10.984	0.250618	3.45638	0.445686	6.10674	0.699948	9.0009	0.760318	9.8132
0.288173	3.8458	0.121363	1.56526	0.287689	3.88309	0.419531	5.71513	0.58534	7.93666	0.853747	10.8585	0.252573	3.43915	0.446367	6.03898	0.700199	8.89754	0.761214	9.70802
0.28851	3.82111	0.122068	1.56763	0.288224	3.84201	0.420811	5.66073	0.585921	7.85803	0.85411	10.7359	0.254531	3.42239	0.447056	5.97301	0.700458	8.79668	0.762116	9.60538
0.288926	3.79186	0.123029	1.57083	0.288778	3.80216	0.422097	5.60775	0.586594	7.76998	0.854479	10.6162	0.256491	3.40607	0.447754	5.90878	0.700723	8.69824	0.763023	9.5052
0.289427	3.75838	0.124244	1.57484	0.289348	3.76351	0.423389	5.55614	0.587276	7.68418	0.854851	10.4993	0.258453	3.39018	0.448461	5.84623	0.70096	8.61436	0.763936	9.40739
0.290018	3.72104	0.125714	1.57962	0.289937	3.72602	0.424687	5.50585	0.587967	7.60055	0.855228	10.3851	0.260418	3.37471	0.449176	5.78529	0.701166	8.54421	0.764855	9.31187
0.290628	3.68481	0.127441	1.58515	0.290544	3.68964	0.425991	5.45684	0.588665	7.51902	0.85561	10.2735	0.262384	3.35963	0.449901	5.72591	0.701339	8.48713	0.765779	9.21856
0.291255	3.64966	0.129425	1.59138	0.29117	3.65435	0.427299	5.40905	0.589372	7.43951	0.855995	10.1644	0.264353	3.34493	0.450633	5.66802	0.701477	8.44257	0.766709	9.12738
0.291902	3.61555	0.131411	1.5975	0.291814	3.6201	0.428614	5.36244	0.590086	7.36195	0.856385	10.0577	0.266323	3.3306	0.451375	5.61159	0.70158	8.41013	0.767645	9.03827
0.292568	3.58246	0.133399	1.60351	0.292477	3.58687	0.429933	5.31697	0.590809	7.28628	0.856779	9.95345	0.268295	3.31661	0.452126	5.55656	0.701647	8.38951	0.768586	8.95116
0.293253	3.55034	0.135389	1.60941	0.29316	3.55462	0.431258	5.2726	0.59154	7.21242	0.857178	9.85145	0.270268	3.30297	0.452885	5.50288	0.701743	8.36005	0.769533	8.86598
0.293958	3.51918	0.137382	1.6152	0.293862	3.52334	0.432588	5.22929	0.59228	7.14032	0.857581	9.75166	0.272243	3.28965	0.453653	5.45051	0.701848	8.32829	0.770485	8.78268
0.294683	3.48895	0.139376	1.62089	0.294584	3.49298	0.433922	5.187	0.593027	7.06992	0.857988	9.65402	0.27422	3.27664	0.454429	5.3994	0.701992	8.28551	0.771319	8.71156
0.295429	3.45961	0.141372	1.62648	0.295327	3.46352	0.435262	5.14571	0.593783	7.00117	0.8584	9.55844	0.276197	3.26393	0.455215	5.34951	0.702177	8.23209	0.772033	8.65199
0.296195	3.43115	0.14337	1.63197	0.29609	3.43494	0.436605	5.10536	0.594546	6.934	0.858816	9.46488	0.278176	3.25152	0.456009	5.30081	0.702404	8.16847	0.772626	8.60346
0.296982	3.40353	0.145369	1.63737	0.296875	3.40721	0.437954	5.06594	0.595318	6.86837	0.859236	9.37327	0.280156	3.23938	0.456812	5.25325	0.702675	8.09519	0.773096	8.56553
0.297791	3.37675	0.14737	1.64267	0.297681	3.38032	0.439307	5.02741	0.596098	6.80423	0.859661	9.28355	0.282137	3.22752	0.457624	5.2068	0.702992	8.01283	0.773443	8.53789
0.298622	3.35077	0.149373	1.64788	0.298509	3.35423	0.440665	4.98974	0.596886	6.74153	0.86009	9.19566	0.284119	3.21591	0.458445	5.16142	0.703316	7.93229	0.773665	8.52032
0.299476	3.32558	0.151377	1.653	0.299359	3.32894	0.442026	4.95291	0.597682	6.68022	0.860523	9.10955	0.286101	3.20456	0.459274	5.11708	0.703647	7.85349	0.773985	8.4952
0.300352	3.30116	0.153383	1.65803	0.300232	3.30441	0.443392	4.91688	0.598487	6.62027	0.860961	9.02517	0.288084	3.19344	0.460112	5.07375	0.703984	7.77639	0.774333	8.46809
0.301252	3.27749	0.15539	1.66298	0.301129	3.28064	0.444762	4.88164	0.599299	6.56163	0.861403	8.94246	0.290068	3.18257	0.460959	5.0314	0.704329	7.70094	0.774808	8.43156
0.302175	3.25454	0.157398	1.66784	0.302049	3.2576	0.446136	4.84715	0.60012	6.50427	0.861792	8.87172	0.292052	3.17191	0.461815	4.98999	0.704679	7.62708	0.77541	8.38588
0.303123	3.23232	0.159408	1.67262	0.302994	3.23528	0.447514	4.81339	0.600948	6.44813	0.862126	8.81237	0.294037	3.16148	0.46268	4.94951	0.705037	7.55476	0.776141	8.33143
0.304096	3.21079	0.161418	1.67732	0.303963	3.21366	0.448895	4.78035	0.601785	6.3932	0.862404	8.76394	0.296022	3.15126	0.463553	4.90992	0.705401	7.48395	0.777002	8.26861
0.305094	3.18995	0.16343	1.68195	0.304958	3.19272	0.450281	4.74799	0.602629	6.33942	0.862625	8.72606	0.298008	3.14124	0.464436	4.87119	0.705772	7.41459	0.777996	8.1979
0.306118	3.16978	0.165444	1.68649	0.305978	3.17246	0.45167	4.7163	0.603482	6.28677	0.862788	8.69843	0.299994	3.13141	0.465327	4.83331	0.706149	7.34665	0.778994	8.12862
0.307168	3.15026	0.167458	1.69096	0.307025	3.15286	0.453062	4.68526	0.604342	6.23522	0.862893	8.68085	0.301979	3.12178	0.466227	4.79624	0.706533	7.28007	0.779998	8.06072
0.308246	3.13139	0.169473	1.69536	0.308099	3.1339	0.454458	4.65485	0.605211	6.18473	0.863044	8.65571	0.303965	3.11233	0.467136	4.75997	0.706924	7.21484	0.781006	7.99417
0.309351	3.11315	0.171489	1.69969	0.3092	3.11558	0.455857	4.62505	0.606088	6.13527	0.863208	8.62857	0.305951	3.10307	0.468053	4.72447	0.707321	7.15089	0.78202	7.92894
0.310484	3.09553	0.173506	1.70395	0.310329	3.09787	0.45726	4.59583	0.606972	6.08682	0.863433	8.59195	0.307937	3.09397	0.46898	4.68971	0.707725	7.08821	0.783039	7.86497
0.311645	3.07851	0.175524	1.70813	0.311487	3.08078	0.458666	4.56719	0.607865	6.03935	0.863719	8.54612	0.309923	3.08504	0.469915	4.65569	0.708135	7.02675	0.784063	7.80224
0.312836	3.06209	0.177543	1.71225	0.312674	3.06428	0.460075	4.53911	0.608765	5.99282	0.864066	8.49141	0.311908	3.07627	0.470859	4.62238	0.708552	6.96649	0.785092	7.74071
0.314057	3.04626	0.179562	1.71631	0.31389	3.04836	0.461487	4.51157	0.609674	5.94722	0.864477	8.4282	0.313893	3.06766	0.471813	4.58975	0.708976	6.90738	0.786125	7.68035
0.315307	3.031	0.181583	1.7203	0.315136	3.03302	0.462902	4.48456	0.61059	5.90251	0.864953	8.35693	0.315878	3.0592	0.472774	4.5578	0.709406	6.84939	0.787164	7.62113
0.316588	3.0163	0.183604	1.72423	0.316413	3.01825	0.46432	4.45806	0.611515	5.85868	0.865433	8.28697	0.317862	3.05089	0.473745	4.5265	0.709843	6.79251	0.788208	7.56301
0.3179	3.00215	0.185625	1.7281	0.317721	3.00402	0.46574	4.43205	0.612447	5.8157	0.865917	8.21828	0.319846	3.04272	0.474725	4.49584	0.710286	6.73669	0.789257	7.50597
0.319243	2.98854	0.187648	1.7319	0.31906	2.99034	0.467164	4.40653	0.613387	5.77354	0.866406	8.15085	0.321829	3.03469	0.475714	4.4658	0.710736	6.68191	0.79031	7.44998
0.320618	2.97545	0.189671	1.73565	0.32043	2.97719	0.46859	4.38148	0.614335	5.7322	0.866899	8.08462	0.323812	3.0268	0.476711	4.43636	0.711192	6.62814	0.791369	7.39501
0.322025	2.96289	0.191694	1.73934	0.321833	2.96456	0.470019	4.35688	0.615291	5.69164	0.867396	8.01958	0.325794	3.01903	0.477717	4.40751	0.711655	6.57536	0.792432	7.34103
0.323463	2.95083	0.193719	1.74297	0.323267	2.95243	0.471451	4.33273	0.616254	5.65184	0.867898	7.95569	0.327775	3.01139	0.478733	4.37924	0.712124	6.52354	0.7935	7.28802
0.324934	2.93927	0.195743	1.74654	0.324734	2.9408	0.472885	4.30902	0.617226	5.61279	0.868404	7.89292	0.329756	3.00388	0.479757	4.35152	0.7126	6.47265	0.794572	7.23595
0.326437	2.92818	0.197769	1.75007	0.326232	2.92965	0.474321	4.28572	0.618205	5.57447	0.868915	7.83124	0.331735	2.99648	0.48079	4.32435	0.713082	6.42268	0.79565	7.1848
0.327972	2.91757	0.199794	1.75353	0.327763	2.91898	0.47576	4.26284	0.619192	5.53685	0.86943	7.77063	0.333714	2.9892	0.481832	4.2977	0.713571	6.3736	0.796732	7.13455
0.329539	2.90741	0.20182	1.75695	0.329326	2.90876	0.477202	4.24035	0.620187	5.49992	0.869949	7.71106	0.335692	2.98203	0.482883	4.27158	0.714066	6.32538	0.797818	7.08517
0.331138	2.8977	0.203847	1.76031	0.33092	2.89899	0.478645	4.21826	0.62119	5.46367	0.870472	7.65251	0.337669	2.97496	0.483943	4.24596	0.714568	6.27801	0.79891	7.03663
0.332768	2.88842	0.205874	1.76363	0.332547	2.88965	0.480091	4.19654	0.6222	5.42808	0.871	7.59494	0.339645	2.96801	0.485011	4.22083	0.715076	6.23146	0.800005	6.98893
0.33443	2.87955	0.207901	1.76689	0.334204	2.88073	0.481539	4.1752	0.623218	5.39312	0.871533	7.53834	0.341619	2.96115	0.486089	4.19619	0.71559	6.18572	0.801106	6.94204
0.336122	2.87109	0.209928	1.77011	0.335892	2.87221	0.482989	4.15421	0.624243	5.35879	0.87207	7.48268	0.343593	2.9544	0.487176	4.17201	0.716111	6.14077	0.802211	6.89594
0.337844	2.86302	0.211956	1.77328	0.33761	2.86408	0.484442	4.13358	0.625277	5.32507	0.872611	7.42794	0.345565	2.94774	0.488271	4.1483	0.716638	6.09658	0.80332	6.85061
0.339596	2.85532	0.213985	1.7764	0.339358	2.85633	0.485896	4.11329	0.626318	5.29195	0.873156	7.3741	0.347536	2.94118	0.489375	4.12503	0.717171	6.05314	0.804434	6.80604
0.341376	2.84798	0.216013	1.77947	0.341134	2.84895	0.487352	4.09333	0.627367	5.25941	0.873706	7.32114	0.349505	2.93471	0.490489	4.10219	0.717711	6.01043	0.805553	6.7622
0.343185	2.84098	0.218041	1.7825	0.342939	2.84191	0.48881	4.0737	0.628423	5.22743	0.87426	7.26903	0.351474	2.92833	0.491611	4.07979	0.718257	5.96843	0.806675	6.71907
0.345021	2.83432	0.22007	1.78549	0.344771	2.8352	0.490271	4.05439	0.629487	5.19601	0.874819	7.21776	0.353441	2.92203	0.492742	4.0578	0.71881	5.92714	0.807803	6.67664
0.346883	2.82797	0.222099	1.78843	0.34663	2.82881	0.491732	4.03539	0.630558	5.16513	0.875382	7.16731	0.355406	2.91582	0.493882	4.03622	0.719368	5.88652	0.808934	6.6349
0.348771	2.82193	0.224128	1.79133	0.348515	2.82273	0.493196	4.01669	0.631637	5.13478	0.875949	7.11766	0.35737	2.90969	0.495031	4.01504	0.719933	5.84657	0.81007	6.59383
0.350684	2.81618	0.226158	1.79419	0.350424	2.81694	0.494662	3.99828	0.632723	5.10495	0.876521	7.06879	0.359332	2.90365	0.496189	3.99425	0.720504	5.80727	0.81121	6.55341
0.352621	2.8107	0.228187	1.79701	0.352358	2.81143	0.496129	3.98017	0.633818	5.07562	0.877097	7.02069	0.361293	2.89767	0.497356	3.97384	0.721082	5.76861	0.812354	6.51363
0.35458	2.80549	0.230217	1.79979	0.354314	2.80618	0.497598	3.96234	0.634919	5.04679	0.877677	6.97333	0.363252	2.89178	0.498532	3.9538	0.721666	5.73056	0.813503	6.47447
0.356562	2.80052	0.232246	1.80252	0.356293	2.80118	0.499069	3.94478	0.636028	5.01844	0.878262	6.9267	0.36521	2.88596	0.499716	3.93413	0.722256	5.69313	0.814656	6.43592
0.358565	2.79579	0.234276	1.80522	0.358293	2.79642	0.500541	3.9275	0.637144	4.99056	0.878851	6.88079	0.367166	2.88021	0.50091	3.91481	0.722852	5.65629	0.815813	6.39797
0.360588	2.79129	0.236306	1.80788	0.360313	2.79188	0.502015	3.91047	0.638268	4.96314	0.879445	6.83557	0.36912	2.87453	0.502112	3.89584	0.723454	5.62003	0.816974	6.3606
0.36263	2.787	0.238335	1.81051	0.362353	2.78756	0.50349	3.8937	0.639399	4.93617	0.880043	6.79104	0.371072	2.86891	0.503324	3.87721	0.724063	5.58434	0.818139	6.3238
0.364691	2.78291	0.240365	1.81309	0.364411	2.78345	0.504967	3.87719	0.640537	4.90965	0.880645	6.74718	0.373022	2.86337	0.504544	3.85891	0.724678	5.54921	0.819308	6.28756
0.366769	2.77901	0.242395	1.81564	0.366487	2.77952	0.506445	3.86092	0.641683	4.88355	0.881252	6.70397	0.374971	2.85788	0.505773	3.84094	0.725299	5.51462	0.820482	6.25186
0.368864	2.77529	0.244424	1.81816	0.36858	2.77578	0.507925	3.84489	0.642836	4.85788	0.881863	6.66141	0.376917	2.85247	0.507011	3.82329	0.725926	5.48056	0.821659	6.2167
0.370975	2.77174	0.246454	1.82064	0.370689	2.77221	0.509406	3.8291	0.643996	4.83263	0.882478	6.61947	0.378862	2.84711	0.508258	3.80596	0.726559	5.44703	0.82284	6.18206
0.373101	2.76835	0.248484	1.82308	0.372813	2.7688	0.510889	3.81354	0.645164	4.80777	0.883098	6.57814	0.380805	2.84181	0.509514	3.78893	0.727198	5.414	0.824026	6.14793
0.375241	2.76512	0.250513	1.82549	0.374951	2.76555	0.512372	3.7982	0.646338	4.78332	0.883722	6.53742	0.382746	2.83657	0.510779	3.7722	0.727844	5.38148	0.825215	6.1143
0.377395	2.76203	0.252543	1.82787	0.377104	2.76244	0.513858	3.78308	0.64752	4.75925	0.884351	6.49729	0.384684	2.83139	0.512052	3.75576	0.728495	5.34945	0.826408	6.08116
0.379562	2.75908	0.254572	1.83022	0.379269	2.75947	0.515344	3.76818	0.648709	4.73556	0.884984	6.45774	0.386621	2.82626	0.513335	3.73961	0.729153	5.31789	0.827605	6.0485
0.381742	2.75625	0.256601	1.83253	0.381447	2.75663	0.516832	3.75348	0.649905	4.71224	0.885621	6.41875	0.388555	2.82119	0.514626	3.72374	0.729817	5.28681	0.828806	6.01631
0.383933	2.75355	0.25863	1.83481	0.383636	2.75391	0.518321	3.739	0.651109	4.68929	0.886263	6.38032	0.390488	2.81617	0.515926	3.70815	0.730486	5.25618	0.830011	5.98458
0.386135	2.75096	0.260659	1.83706	0.385837	2.7513	0.519812	3.72472	0.652319	4.66669	0.886909	6.34243	0.392418	2.8112	0.517235	3.69283	0.731162	5.22601	0.831219	5.9533
0.388347	2.74848	0.262687	1.83928	0.388048	2.74881	0.521303	3.71063	0.653536	4.64444	0.88756	6.30507	0.394346	2.80628	0.518552	3.67777	0.731844	5.19628	0.832431	5.92246
0.39057	2.7461	0.264716	1.84147	0.390269	2.74642	0.522796	3.69674	0.65476	4.62253	0.888215	6.26824	0.396272	2.80141	0.519879	3.66297	0.732531	5.16698	0.833647	5.89206
0.392801	2.74382	0.266744	1.84363	0.392499	2.74412	0.52429	3.68304	0.655992	4.60096	0.888874	6.23192	0.398196	2.79659	0.521214	3.64843	0.733225	5.13811	0.834867	5.86208
0.395042	2.74163	0.268772	1.84577	0.394739	2.74192	0.525785	3.66953	0.65723	4.57972	0.889537	6.19609	0.400117	2.79182	0.522558	3.63414	0.733925	5.10965	0.83609	5.83251
0.397291	2.73952	0.2708	1.84787	0.396987	2.7398	0.527281	3.6562	0.658475	4.5588	0.890206	6.16077	0.402036	2.78709	0.52391	3.62009	0.73463	5.0816	0.837317	5.80335
0.399548	2.7375	0.272828	1.84994	0.399243	2.73777	0.528779	3.64304	0.659726	4.53819	0.890878	6.12592	0.403953	2.78241	0.525272	3.60628	0.735342	5.05395	0.838548	5.77459
0.401813	2.73555	0.274855	1.85199	0.401507	2.73581	0.530277	3.63007	0.660985	4.51789	0.891555	6.09155	0.405868	2.77777	0.526642	3.5927	0.736059	5.0267	0.839782	5.74622
0.404085	2.73368	0.276882	1.85401	0.403778	2.73393	0.531777	3.61726	0.66225	4.4979	0.892236	6.05764	0.40778	2.77317	0.52802	3.57936	0.736783	4.99982	0.84102	5.71824
0.406364	2.73188	0.278909	1.856	0.406056	2.73212	0.533278	3.60463	0.663523	4.4782	0.892922	6.02419	0.40969	2.76862	0.529408	3.56624	0.737512	4.97333	0.842261	5.69063
0.408649	2.73014	0.280936	1.85797	0.40834	2.73037	0.53478	3.59216	0.664801	4.45879	0.893612	5.99119	0.411597	2.76411	0.530803	3.55334	0.738247	4.9472	0.843506	5.66339
0.41094	2.72846	0.282962	1.85991	0.410631	2.72869	0.536283	3.57985	0.666087	4.43967	0.894306	5.95862	0.413502	2.75963	0.532208	3.54066	0.738988	4.92144	0.844754	5.63651
0.413237	2.72685	0.284988	1.86183	0.412927	2.72706	0.537787	3.5677	0.667379	4.42083	0.895005	5.92649	0.415405	2.7552	0.533621	3.52819	0.739735	4.89604	0.846005	5.60998
0.41554	2.72529	0.287014	1.86372	0.415229	2.72549	0.539292	3.55571	0.668678	4.40226	0.895708	5.89478	0.417306	2.75081	0.535043	3.51593	0.740488	4.87098	0.847261	5.58381
0.417847	2.72378	0.289039	1.86558	0.417535	2.72398	0.540798	3.54387	0.669983	4.38397	0.896415	5.86348	0.419204	2.74645	0.536473	3.50387	0.741247	4.84627	0.848519	5.55797
0.42016	2.72232	0.291064	1.86742	0.419847	2.72251	0.542305	3.53218	0.671295	4.36593	0.897127	5.83259	0.421099	2.74213	0.537911	3.49202	0.742011	4.8219	0.849781	5.53248
0.422477	2.72091	0.293089	1.86924	0.422164	2.72109	0.543813	3.52064	0.672613	4.34816	0.897844	5.8021	0.422993	2.73785	0.539358	3.48036	0.742781	4.79785	0.851046	5.50731
0.424799	2.71954	0.295113	1.87103	0.424485	2.71972	0.545323	3.50924	0.673937	4.33064	0.898565	5.77201	0.424883	2.7336	0.540814	3.4689	0.743557	4.77414	0.852314	5.48246
0.427124	2.71822	0.297137	1.8728	0.42681	2.71839	0.546833	3.49799	0.675268	4.31337	0.89929	5.7423	0.426772	2.72939	0.542278	3.45763	0.744339	4.75074	0.853586	5.45793
0.429454	2.71693	0.299161	1.87455	0.429139	2.7171	0.548345	3.48688	0.676606	4.29634	0.900019	5.71297	0.428658	2.72521	0.54375	3.44654	0.745127	4.72765	0.854861	5.43371
0.431787	2.71569	0.301184	1.87627	0.431472	2.71585	0.549857	3.4759	0.67795	4.27956	0.900753	5.68401	0.430541	2.72107	0.54523	3.43563	0.74592	4.70487	0.856139	5.4098
0.434124	2.71448	0.303207	1.87797	0.433809	2.71464	0.551371	3.46506	0.679299	4.263	0.901491	5.65542	0.432422	2.71696	0.546719	3.42491	0.746719	4.68239	0.85742	5.38618
0.436465	2.7133	0.305229	1.87965	0.436148	2.71346	0.552885	3.45435	0.680656	4.24669	0.902234	5.62719	0.434301	2.71288	0.548216	3.41436	0.747524	4.66021	0.858705	5.36286
0.438808	2.71216	0.307251	1.88131	0.438491	2.71232	0.554401	3.44378	0.682018	4.23059	0.902981	5.59931	0.436177	2.70884	0.549721	3.40398	0.748334	4.63832	0.859992	5.33984
0.441154	2.71105	0.309273	1.88294	0.440837	2.7112	0.555918	3.43333	0.683386	4.21472	0.903732	5.57178	0.438051	2.70483	0.551234	3.39377	0.749151	4.61672	0.861283	5.31709
0.443504	2.70998	0.311294	1.88456	0.443186	2.71012	0.557436	3.42301	0.684761	4.19907	0.904488	5.54459	0.439922	2.70084	0.552756	3.38373	0.749972	4.5954	0.862577	5.29462
0.445855	2.70892	0.313314	1.88615	0.445538	2.70906	0.558955	3.41281	0.686142	4.18364	0.905248	5.51774	0.441791	2.69689	0.554285	3.37385	0.7508	4.57436	0.863873	5.27243
0.44821	2.7079	0.315335	1.88773	0.447892	2.70804	0.560475	3.40273	0.687528	4.16841	0.906013	5.49121	0.443658	2.69297	0.555822	3.36413	0.751633	4.55359	0.865173	5.25051
0.450567	2.7069	0.317354	1.88928	0.450248	2.70703	0.561996	3.39278	0.688921	4.15339	0.906782	5.46502	0.445522	2.68908	0.557368	3.35456	0.752472	4.53308	0.866476	5.22885
0.452926	2.70593	0.319374	1.89081	0.452607	2.70606	0.563518	3.38294	0.690319	4.13858	0.907556	5.43913	0.447384	2.68522	0.558921	3.34515	0.753316	4.51284	0.867782	5.20745
0.455287	2.70498	0.321392	1.89233	0.454968	2.7051	0.565042	3.37322	0.691724	4.12396	0.908333	5.41357	0.449244	2.68138	0.560483	3.3359	0.754166	4.49285	0.86909	5.18631
0.45765	2.70405	0.323411	1.89382	0.457331	2.70417	0.566566	3.36361	0.693134	4.10954	0.909116	5.38831	0.451101	2.67758	0.562052	3.32679	0.755022	4.47312	0.870402	5.16541
0.460015	2.70314	0.325429	1.8953	0.459695	2.70326	0.568092	3.35412	0.69455	4.09531	0.909902	5.36335	0.452956	2.6738	0.563628	3.31782	0.755883	4.45364	0.871716	5.14477
0.462381	2.70225	0.327446	1.89676	0.462062	2.70237	0.569619	3.34473	0.695971	4.08128	0.910693	5.3387	0.454808	2.67005	0.565213	3.309	0.75675	4.43441	0.873034	5.12436
0.464749	2.70138	0.329463	1.89819	0.46443	2.7015	0.571147	3.33546	0.697399	4.06742	0.911488	5.31433	0.456658	2.66633	0.566805	3.30032	0.757623	4.41541	0.874354	5.1042
0.467119	2.70053	0.331479	1.89961	0.466799	2.70065	0.572676	3.32629	0.698832	4.05375	0.912288	5.29026	0.458506	2.66263	0.568405	3.29178	0.7585	4.39666	0.875677	5.08427
0.46949	2.6997	0.333495	1.90102	0.46917	2.69981	0.574206	3.31723	0.70027	4.04026	0.913092	5.26647	0.460352	2.65897	0.570012	3.28337	0.759384	4.37813	0.877002	5.06457
0.471863	2.69888	0.33551	1.9024	0.471542	2.69899	0.575738	3.30827	0.701714	4.02695	0.913901	5.24296	0.462195	2.65532	0.571627	3.2751	0.760273	4.35984	0.878331	5.0451
0.474237	2.69808	0.337525	1.90377	0.473916	2.69819	0.577271	3.29941	0.703164	4.0138	0.914714	5.21972	0.464037	2.65171	0.573249	3.26695	0.761168	4.34177	0.879662	5.02585
0.476611	2.6973	0.339539	1.90512	0.476291	2.6974	0.578805	3.29066	0.704619	4.00083	0.915531	5.19676	0.465876	2.64812	0.574879	3.25894	0.762068	4.32393	0.880996	5.00681
0.478987	2.69652	0.341553	1.90645	0.478666	2.69663	0.58034	3.282	0.706079	3.98803	0.916353	5.17406	0.467713	2.64455	0.576516	3.25104	0.762973	4.3063	0.882332	4.988
0.481364	2.69576	0.343566	1.90777	0.481043	2.69587	0.581877	3.27344	0.707545	3.97539	0.917179	5.15162	0.469548	2.64102	0.57816	3.24327	0.763884	4.28889	0.883671	4.96939
0.483742	2.69502	0.345579	1.90906	0.483421	2.69512	0.583415	3.26498	0.709016	3.96291	0.91801	5.12944	0.47138	2.6375	0.579811	3.23563	0.764801	4.27169	0.885013	4.951
0.48612	2.69428	0.347591	1.91035	0.485799	2.69438	0.584955	3.25662	0.710493	3.95059	0.918845	5.10752	0.473211	2.63401	0.581469	3.2281	0.765723	4.2547	0.886357	4.93281
0.488499	2.69356	0.349603	1.91161	0.488178	2.69366	0.586495	3.24835	0.711974	3.93842	0.919684	5.08585	0.475039	2.63055	0.583135	3.22068	0.76665	4.23791	0.887704	4.91482
0.490879	2.69285	0.351613	1.91286	0.490558	2.69294	0.588038	3.24017	0.713461	3.92641	0.920528	5.06442	0.476866	2.62711	0.584807	3.21339	0.767583	4.22133	0.889053	4.89703
0.493259	2.69215	0.353624	1.9141	0.492938	2.69224	0.589581	3.23208	0.714953	3.91455	0.921376	5.04323	0.478691	2.6237	0.586487	3.2062	0.768521	4.20494	0.890405	4.87943
0.49564	2.69145	0.355634	1.91532	0.495319	2.69155	0.591127	3.22409	0.71645	3.90283	0.922228	5.02229	0.480513	2.6203	0.588173	3.19912	0.769465	4.18875	0.891759	4.86203
0.498021	2.69077	0.357643	1.91652	0.4977	2.69086	0.592673	3.21618	0.717951	3.89127	0.923085	5.00158	0.482334	2.61694	0.589866	3.19215	0.770414	4.17276	0.893116	4.84482
0.500403	2.6901	0.359651	1.91771	0.500081	2.69019	0.594221	3.20836	0.719458	3.87984	0.923947	4.9811	0.484153	2.61359	0.591565	3.18529	0.771369	4.15695	0.894475	4.82779
0.502785	2.68943	0.361659	1.91889	0.502463	2.68952	0.595771	3.20063	0.72097	3.86856	0.924812	4.96085	0.48597	2.61027	0.593271	3.17853	0.772329	4.14133	0.895836	4.81095
0.505166	2.68877	0.363667	1.92004	0.504845	2.68886	0.597322	3.19298	0.722487	3.85741	0.925682	4.94082	0.487785	2.60698	0.594984	3.17188	0.773294	4.12589	0.8972	4.79428
0.507548	2.68812	0.365673	1.92119	0.507227	2.68821	0.598875	3.18542	0.724008	3.8464	0.926557	4.92102	0.489598	2.6037	0.596703	3.16532	0.774265	4.11064	0.898567	4.7778
0.509931	2.68747	0.36768	1.92232	0.509609	2.68756	0.60043	3.17793	0.725534	3.83552	0.927436	4.90143	0.49141	2.60045	0.598429	3.15886	0.775241	4.09556	0.899935	4.76148
0.512313	2.68684	0.369685	1.92344	0.511991	2.68692	0.601986	3.17054	0.727065	3.82478	0.928319	4.88206	0.49322	2.59723	0.600161	3.1525	0.776222	4.08066	0.901306	4.74534
0.514695	2.6862	0.37169	1.92454	0.514373	2.68629	0.603544	3.16322	0.728601	3.81416	0.929207	4.8629	0.495028	2.59402	0.601899	3.14623	0.777209	4.06593	0.902679	4.72937
0.517077	2.68557	0.373694	1.92563	0.516755	2.68566	0.605104	3.15599	0.730141	3.80367	0.930099	4.84395	0.496835	2.59084	0.603644	3.14006	0.778201	4.05138	0.904054	4.71357
0.519458	2.68495	0.375698	1.9267	0.519137	2.68504	0.606666	3.14883	0.731685	3.79331	0.930996	4.82521	0.49864	2.58768	0.605394	3.13398	0.779198	4.03699	0.905432	4.69793
0.521839	2.68433	0.377701	1.92776	0.521518	2.68442	0.608229	3.14175	0.733235	3.78306	0.931896	4.80667	0.500444	2.58455	0.607151	3.12798	0.780201	4.02276	0.906811	4.68245
0.52422	2.68372	0.379703	1.92881	0.523899	2.6838	0.609795	3.13475	0.734788	3.77294	0.932802	4.78833	0.502246	2.58143	0.608913	3.12208	0.781209	4.0087	0.908193	4.66714
0.526601	2.68311	0.381705	1.92984	0.52628	2.68319	0.611362	3.12783	0.736346	3.76294	0.933712	4.77018	0.504047	2.57834	0.610681	3.11626	0.782222	3.9948	0.909577	4.65198
0.528981	2.6825	0.383706	1.93087	0.52866	2.68258	0.612931	3.12098	0.737909	3.75306	0.934626	4.75223	0.505846	2.57527	0.612455	3.11052	0.783241	3.98106	0.910963	4.63697
0.531361	2.6819	0.385706	1.93187	0.53104	2.68198	0.614502	3.1142	0.739476	3.74329	0.935544	4.73448	0.507644	2.57222	0.614235	3.10487	0.784265	3.96748	0.912351	4.62211
0.53374	2.6813	0.387706	1.93287	0.533419	2.68138	0.616076	3.10751	0.741047	3.73363	0.936467	4.71691	0.50944	2.5692	0.61602	3.0993	0.785294	3.95405	0.913741	4.60741
0.536118	2.6807	0.389705	1.93385	0.535797	2.68078	0.617651	3.10088	0.742622	3.72409	0.937395	4.69952	0.511236	2.56619	0.617811	3.0938	0.786329	3.94077	0.915134	4.59285
0.538496	2.6801	0.391704	1.93483	0.538175	2.68018	0.619229	3.09433	0.744201	3.71465	0.938326	4.68232	0.51303	2.56321	0.619608	3.08839	0.787368	3.92764	0.916528	4.57844
0.540872	2.6795	0.393701	1.93578	0.540552	2.67958	0.620809	3.08785	0.745785	3.70532	0.939262	4.6653	0.514823	2.56025	0.621409	3.08305	0.788413	3.91466	0.917924	4.56417
0.543248	2.67891	0.395698	1.93673	0.542928	2.67899	0.622391	3.08143	0.747372	3.6961	0.940203	4.64846	0.516614	2.55731	0.623217	3.07779	0.789463	3.90183	0.919322	4.55005
0.545623	2.67831	0.397695	1.93767	0.545303	2.67839	0.623976	3.07509	0.748964	3.68698	0.941148	4.6318	0.518405	2.5544	0.625029	3.0726	0.790519	3.88913	0.920722	4.53606
0.547997	2.67772	0.399691	1.93859	0.547677	2.6778	0.625562	3.06882	0.750559	3.67797	0.942097	4.61531	0.520195	2.5515	0.626846	3.06749	0.791579	3.87658	0.922124	4.52221
0.55037	2.67713	0.401686	1.9395	0.55005	2.67721	0.627152	3.06262	0.752159	3.66905	0.943051	4.59899	0.521983	2.54863	0.628669	3.06244	0.792645	3.86417	0.923528	4.50849
0.552742	2.67654	0.40368	1.9404	0.552422	2.67662	0.628743	3.05649	0.753762	3.66024	0.944009	4.58284	0.523771	2.54577	0.630496	3.05747	0.793716	3.8519	0.924933	4.49491
0.555112	2.67594	0.405674	1.94129	0.554792	2.67602	0.630338	3.05042	0.755369	3.65152	0.944972	4.56686	0.525558	2.54294	0.632328	3.05256	0.794793	3.83976	0.926341	4.48146
0.557482	2.67535	0.407667	1.94217	0.557162	2.67543	0.631935	3.04443	0.75698	3.6429	0.945939	4.55104	0.527343	2.54013	0.634165	3.04772	0.795874	3.82775	0.92775	4.46814
0.55985	2.67475	0.409659	1.94304	0.55953	2.67483	0.633534	3.03849	0.758594	3.63438	0.946911	4.53538	0.529128	2.53734	0.636007	3.04295	0.796961	3.81588	0.929161	4.45494
0.562216	2.67415	0.41165	1.94389	0.561897	2.67424	0.635137	3.03263	0.760212	3.62594	0.947887	4.51989	0.530913	2.53458	0.637854	3.03824	0.798053	3.80414	0.930574	4.44187
0.564581	2.67356	0.413641	1.94474	0.564262	2.67364	0.636742	3.02683	0.761834	3.6176	0.948867	4.50455	0.532696	2.53183	0.639705	3.03359	0.79915	3.79253	0.931989	4.42893
0.566945	2.67295	0.415631	1.94557	0.566626	2.67304	0.63835	3.02109	0.763459	3.60935	0.949851	4.48937	0.534479	2.5291	0.64156	3.02901	0.800252	3.78104	0.933405	4.41611
0.569306	2.67235	0.417621	1.9464	0.568988	2.67243	0.639961	3.01542	0.765088	3.60119	0.950841	4.47434	0.536261	2.5264	0.64342	3.02449	0.80136	3.76968	0.934823	4.40341
0.571667	2.67174	0.41961	1.94721	0.571348	2.67183	0.641575	3.00981	0.766721	3.59312	0.951834	4.45946	0.538042	2.52371	0.645284	3.02002	0.802472	3.75844	0.936243	4.39082
0.574025	2.67113	0.421598	1.94801	0.573706	2.67122	0.643192	3.00427	0.768356	3.58513	0.952832	4.44474	0.539823	2.52105	0.647153	3.01562	0.80359	3.74732	0.937664	4.37836
0.576381	2.67052	0.423585	1.94881	0.576063	2.6706	0.644813	2.99879	0.769996	3.57723	0.953834	4.43016	0.541604	2.5184	0.649025	3.01127	0.804713	3.73633	0.939087	4.36601
0.578735	2.6699	0.425571	1.94959	0.578418	2.66999	0.646436	2.99337	0.771638	3.56941	0.954841	4.41573	0.543384	2.51578	0.650902	3.00698	0.805841	3.72545	0.940511	4.35377
0.581088	2.66928	0.427557	1.95036	0.58077	2.66937	0.648063	2.98801	0.773284	3.56167	0.955852	4.40144	0.545163	2.51318	0.652783	3.00274	0.806974	3.71469	0.941937	4.34165
0.583438	2.66866	0.429542	1.95112	0.583121	2.66874	0.649694	2.98271	0.774933	3.55401	0.956868	4.38729	0.546942	2.5106	0.654667	2.99856	0.808113	3.70404	0.943365	4.32963
0.585786	2.66803	0.431527	1.95188	0.585469	2.66811	0.651328	2.97748	0.776585	3.54644	0.957888	4.37329	0.548721	2.50804	0.656556	2.99443	0.809257	3.69351	0.944794	4.31773
0.588131	2.66739	0.433511	1.95262	0.587815	2.66748	0.652965	2.97231	0.77824	3.53894	0.958913	4.35942	0.550499	2.5055	0.658448	2.99036	0.810405	3.68309	0.946225	4.30593
0.590475	2.66675	0.435494	1.95336	0.590158	2.66684	0.654606	2.96719	0.779898	3.53152	0.959941	4.34569	0.552277	2.50297	0.660343	2.98633	0.811559	3.67278	0.947657	4.29425
0.592815	2.6661	0.437476	1.95408	0.592499	2.66619	0.656251	2.96214	0.78156	3.52417	0.960975	4.3321	0.554055	2.50047	0.662243	2.98235	0.812718	3.66259	0.94909	4.28266
0.595153	2.66545	0.439457	1.9548	0.594838	2.66554	0.6579	2.95714	0.783224	3.5169	0.962013	4.31864	0.555833	2.49799	0.664146	2.97843	0.813882	3.6525	0.950525	4.27118
0.597489	2.66479	0.441438	1.9555	0.597173	2.66488	0.659553	2.95221	0.784891	3.50971	0.963055	4.30531	0.55761	2.49553	0.666052	2.97455	0.815052	3.64251	0.951962	4.2598
0.599821	2.66412	0.443418	1.9562	0.599506	2.66421	0.66121	2.94734	0.786562	3.50258	0.964101	4.29211	0.559388	2.49309	0.667962	2.97071	0.816226	3.63264	0.9534	4.24852
0.602151	2.66345	0.445398	1.95689	0.601836	2.66354	0.662871	2.94252	0.788235	3.49553	0.965152	4.27904	0.561165	2.49067	0.669874	2.96693	0.817406	3.62286	0.954839	4.23734
0.604477	2.66276	0.447376	1.95757	0.604163	2.66286	0.664536	2.93776	0.789911	3.48855	0.966208	4.2661	0.562943	2.48827	0.671791	2.96319	0.818591	3.6132	0.956279	4.22626
0.6068	2.66207	0.449354	1.95824	0.606487	2.66217	0.666206	2.93306	0.791589	3.48164	0.967268	4.25328	0.56472	2.48589	0.67371	2.95949	0.81978	3.60363	0.957721	4.21528
0.609121	2.66137	0.451331	1.9589	0.608808	2.66147	0.66788	2.92842	0.79327	3.47479	0.968332	4.24059	0.566497	2.48353	0.675632	2.95583	0.820975	3.59416	0.959164	4.20439
0.611437	2.66066	0.453308	1.95956	0.611125	2.66076	0.669559	2.92384	0.794954	3.46801	0.969401	4.22802	0.568275	2.48118	0.677557	2.95222	0.822176	3.58479	0.960609	4.19359
0.613751	2.65995	0.455283	1.9602	0.613439	2.66004	0.671243	2.91931	0.796641	3.4613	0.970474	4.21557	0.570052	2.47886	0.679485	2.94865	0.823381	3.57552	0.962055	4.18289
0.61606	2.65922	0.457258	1.96084	0.615749	2.65932	0.672931	2.91485	0.79833	3.45466	0.971551	4.20324	0.57183	2.47656	0.681416	2.94513	0.824591	3.56635	0.963501	4.17228
0.618366	2.65848	0.459232	1.96147	0.618055	2.65858	0.674625	2.91044	0.800022	3.44808	0.972634	4.19103	0.573608	2.47427	0.68335	2.94164	0.825807	3.55727	0.96495	4.16176
0.620668	2.65773	0.461206	1.96209	0.620358	2.65783	0.676323	2.90608	0.801716	3.44156	0.97372	4.17893	0.575386	2.47201	0.685286	2.93819	0.827027	3.54829	0.966399	4.15133
0.622966	2.65697	0.463178	1.9627	0.622656	2.65708	0.678027	2.90179	0.803413	3.4351	0.974811	4.16695	0.577164	2.46976	0.687225	2.93478	0.828253	3.5394	0.96785	4.14099
0.62526	2.6562	0.46515	1.96331	0.624951	2.65631	0.679736	2.89755	0.805112	3.42871	0.975906	4.15509	0.578943	2.46754	0.689166	2.9314	0.829484	3.5306	0.969301	4.13073
0.62755	2.65542	0.467121	1.9639	0.627241	2.65552	0.681451	2.89336	0.806813	3.42238	0.977006	4.14333	0.580722	2.46533	0.69111	2.92807	0.83072	3.5219	0.970754	4.12056
0.629836	2.65462	0.469092	1.96449	0.629527	2.65473	0.683171	2.88924	0.808517	3.4161	0.97811	4.13169	0.582501	2.46314	0.693056	2.92477	0.831961	3.51328	0.972208	4.11048
0.632116	2.65381	0.471061	1.96507	0.631809	2.65392	0.684897	2.88517	0.810223	3.40989	0.979219	4.12016	0.584281	2.46097	0.695004	2.9215	0.833208	3.50476	0.973663	4.10048
0.634393	2.65299	0.47303	1.96565	0.634086	2.65311	0.686628	2.88116	0.811931	3.40373	0.980332	4.10873	0.586061	2.45882	0.696955	2.91827	0.834459	3.49632	0.97512	4.09056
0.636664	2.65216	0.474999	1.96621	0.636358	2.65227	0.688366	2.8772	0.813642	3.39763	0.98145	4.09742	0.587842	2.45669	0.698908	2.91508	0.835716	3.48797	0.976577	4.08072
0.63893	2.65131	0.476966	1.96677	0.638625	2.65143	0.69011	2.8733	0.815355	3.39159	0.982572	4.08621	0.589623	2.45457	0.700862	2.91192	0.836978	3.4797	0.978035	4.07097
0.641192	2.65045	0.478933	1.96732	0.640887	2.65056	0.691861	2.86946	0.817069	3.3856	0.983698	4.0751	0.591405	2.45248	0.702819	2.90879	0.838245	3.47152	0.979495	4.06129
0.643448	2.64957	0.480899	1.96787	0.643144	2.64969	0.693617	2.86567	0.818786	3.37966	0.984829	4.0641	0.593187	2.4504	0.704778	2.90569	0.839517	3.46343	0.980955	4.0517
0.645699	2.64868	0.482864	1.96841	0.645395	2.6488	0.695381	2.86194	0.820505	3.37378	0.985964	4.0532	0.59497	2.44834	0.706738	2.90262	0.840794	3.45542	0.982416	4.04218
0.647944	2.64777	0.484828	1.96894	0.647641	2.64789	0.697151	2.85826	0.822226	3.36796	0.987104	4.04241	0.596753	2.4463	0.708701	2.89958	0.842076	3.44749	0.983879	4.03273
0.650184	2.64684	0.486792	1.96946	0.649882	2.64697	0.698928	2.85464	0.823948	3.36218	0.988249	4.03171	0.598537	2.44428	0.710665	2.89658	0.843364	3.43964	0.985342	4.02337
0.652418	2.6459	0.488755	1.96998	0.652116	2.64603	0.700712	2.85108	0.825673	3.35646	0.989397	4.02111	0.600321	2.44227	0.71263	2.8936	0.844656	3.43187	0.986806	4.01408
0.654646	2.64494	0.490717	1.97048	0.654345	2.64507	0.702503	2.84757	0.8274	3.35079	0.99055	4.01061	0.602107	2.44029	0.714598	2.89065	0.845954	3.42418	0.988271	4.00486
0.656867	2.64397	0.492679	1.97099	0.656568	2.6441	0.704301	2.84412	0.829128	3.34516	0.991708	4.00021	0.603893	2.43832	0.716566	2.88773	0.847257	3.41657	0.989737	3.99571
0.659083	2.64297	0.494639	1.97148	0.658784	2.64311	0.706107	2.84073	0.830858	3.33959	0.99287	3.9899	0.605679	2.43637	0.718537	2.88484	0.848566	3.40904	0.991204	3.98664
0.661292	2.64196	0.496599	1.97197	0.660994	2.6421	0.707921	2.83739	0.83259	3.33407	0.994037	3.97969	0.607467	2.43443	0.720508	2.88198	0.849879	3.40158	0.992672	3.97764
0.663495	2.64093	0.498559	1.97245	0.663198	2.64107	0.709742	2.83411	0.834323	3.32859	0.995208	3.96957	0.609255	2.43252	0.722481	2.87914	0.851197	3.3942	0.994141	3.96871
0.665691	2.63988	0.500517	1.97293	0.665395	2.64002	0.711572	2.83088	0.836059	3.32316	0.996383	3.95954	0.611044	2.43062	0.724455	2.87633	0.852521	3.3869	0.995611	3.95985
0.66788	2.63881	0.502475	1.9734	0.667585	2.63896	0.713409	2.82771	0.837796	3.31778	0.997563	3.94961	0.612834	2.42874	0.72643	2.87354	0.85385	3.37967	0.997081	3.95105
0.670062	2.63773	0.504432	1.97386	0.669768	2.63787	0.715255	2.82459	0.839534	3.31244	0.998747	3.93977	0.614625	2.42687	0.728406	2.87078	0.855184	3.37251	0.998552	3.94233
0.672238	2.63662	0.506388	1.97432	0.671944	2.63677	0.717109	2.82153	0.841274	3.30715	0.999936	3.93001	0.616416	2.42503	0.730384	2.86804	0.856524	3.36543	1.00002	3.93367
0.674406	2.63549	0.508344	1.97477	0.674113	2.63564	0.718971	2.81853	0.843016	3.3019	1.00113	3.92035	0.618209	2.4232	0.732362	2.86532	0.857868	3.35842		
0.676567	2.63434	0.510299	1.97522	0.676275	2.6345	0.720842	2.81558	0.844759	3.2967			0.620002	2.42138	0.734341	2.86263	0.859218	3.35148		
0.67872	2.63318	0.512253	1.97566	0.67843	2.63333	0.722721	2.81268	0.846503	3.29154			0.621796	2.41959	0.736321	2.85996	0.860573	3.34461		
0.680866	2.63199	0.514206	1.97609	0.680577	2.63215	0.72461	2.80984	0.848249	3.28642			0.623591	2.41781	0.738302	2.85732	0.861933	3.33781		
0.683004	2.63078	0.516159	1.97652	0.682716	2.63094	0.726507	2.80706	0.849996	3.28135			0.625388	2.41604	0.740284	2.85469	0.863299	3.33108		
0.685135	2.62955	0.518111	1.97694	0.684848	2.62972	0.728413	2.80433	0.851745	3.27631			0.627185	2.4143	0.742266	2.85209	0.864669	3.32441		
0.687258	2.6283	0.520062	1.97735	0.686971	2.62847	0.730328	2.80165	0.853495	3.27132			0.628983	2.41257	0.744249	2.84951	0.866045	3.31782		
0.689373	2.62703	0.522012	1.97776	0.689088	2.6272	0.732253	2.79903	0.855246	3.26637			0.630782	2.41085	0.746232	2.84695	0.867427	3.31129		
0.69148	2.62573	0.523962	1.97817	0.691196	2.62591	0.734186	2.79646	0.856999	3.26146			0.632582	2.40915	0.748216	2.8444	0.868813	3.30483		
0.693579	2.62442	0.525911	1.97856	0.693296	2.6246	0.736129	2.79395	0.858752	3.25658			0.634384	2.40747	0.7502	2.84188	0.870205	3.29843		
0.69567	2.62308	0.527859	1.97896	0.695388	2.62327	0.738081	2.79149	0.860507	3.25175			0.636186	2.4058	0.752185	2.83938	0.871602	3.2921		
0.697753	2.62173	0.529807	1.97934	0.697472	2.62191	0.740043	2.78908	0.862263	3.24695			0.637989	2.40415	0.75417	2.83689	0.873004	3.28584		
0.699828	2.62035	0.531753	1.97973	0.699548	2.62054	0.742014	2.78672	0.86402	3.24219			0.639794	2.40252	0.756155	2.83443	0.874412	3.27963		
0.701895	2.61895	0.533699	1.9801	0.701616	2.61914	0.743995	2.78442	0.865778	3.23747			0.6416	2.4009	0.75814	2.83198	0.875825	3.27349		
0.703954	2.61754	0.535645	1.98047	0.703676	2.61773	0.745985	2.78216	0.867537	3.23279			0.643406	2.39929	0.760125	2.82955	0.877243	3.26742		
0.706004	2.6161	0.537589	1.98084	0.705728	2.61629	0.747984	2.77996	0.869298	3.22814			0.645214	2.39771	0.762111	2.82713	0.878667	3.2614		
0.708047	2.61464	0.539533	1.9812	0.707772	2.61484	0.749993	2.77781	0.871059	3.22353			0.647023	2.39613	0.764096	2.82473	0.880095	3.25545		
0.710082	2.61316	0.541477	1.98156	0.709807	2.61336	0.752011	2.7757	0.872821	3.21895			0.648833	2.39457	0.766081	2.82235	0.88153	3.24955		
0.712108	2.61167	0.543419	1.98191	0.711835	2.61187	0.754039	2.77365	0.874584	3.21441			0.650645	2.39303	0.768067	2.81999	0.882969	3.24372		
0.714127	2.61015	0.545361	1.98226	0.713855	2.61036	0.756076	2.77164	0.876348	3.2099			0.652457	2.3915	0.770052	2.81764	0.884414	3.23794		
0.716138	2.60862	0.547302	1.9826	0.715867	2.60883	0.758122	2.76969	0.878113	3.20542			0.654271	2.38999	0.772037	2.8153	0.885864	3.23223		
0.718141	2.60707	0.549242	1.98293	0.717871	2.60728	0.760178	2.76778	0.879878	3.20098			0.656086	2.38849	0.774021	2.81298	0.88732	3.22657		
0.720136	2.6055	0.551182	1.98327	0.719867	2.60571	0.762243	2.76591	0.881645	3.19657			0.657902	2.387	0.776005	2.81068	0.888781	3.22097		
0.722123	2.60391	0.553121	1.98359	0.721856	2.60412	0.764317	2.76409	0.883412	3.1922			0.65972	2.38553	0.777989	2.80838	0.890247	3.21543		
0.724103	2.60231	0.555059	1.98392	0.723837	2.60252	0.766399	2.76232	0.88518	3.18785			0.661538	2.38408	0.779973	2.80611	0.891719	3.20994		
0.726076	2.60069	0.556997	1.98423	0.72581	2.60091	0.768491	2.76058	0.886949	3.18354			0.663358	2.38264	0.781955	2.80384	0.893196	3.20451		
0.728041	2.59905	0.558934	1.98455	0.727776	2.59928	0.770592	2.7589	0.888718	3.17926			0.665179	2.38121	0.783938	2.80159	0.894678	3.19914		
0.729999	2.5974	0.56087	1.98486	0.729735	2.59763	0.772701	2.75725	0.890488	3.17501			0.667002	2.3798	0.78592	2.79935	0.896166	3.19382		
0.73195	2.59574	0.562806	1.98516	0.731687	2.59597	0.774818	2.75564	0.892259	3.17079			0.668825	2.3784	0.787901	2.79712	0.89766	3.18855		
0.733894	2.59406	0.564741	1.98546	0.733632	2.59429	0.776944	2.75408	0.89403	3.1666			0.67065	2.37701	0.789881	2.79491	0.899159	3.18334		
0.735832	2.59238	0.566675	1.98576	0.735571	2.5926	0.779079	2.75255	0.895802	3.16244			0.672477	2.37564	0.791861	2.79271	0.900663	3.17818		
0.737762	2.59067	0.568608	1.98605	0.737502	2.5909	0.781221	2.75107	0.897574	3.15831			0.674304	2.37428	0.79384	2.79052	0.902172	3.17308		
0.739687	2.58896	0.570541	1.98633	0.739427	2.58919	0.783371	2.74962	0.899347	3.15421			0.676133	2.37293	0.795818	2.78834	0.903687	3.16802		
0.741604	2.58723	0.572473	1.98662	0.741346	2.58747	0.785529	2.74821	0.901121	3.15013			0.677963	2.3716	0.797795	2.78617	0.905208	3.16302		
0.743516	2.5855	0.574405	1.9869	0.743258	2.58573	0.787695	2.74683	0.902895	3.14609			0.679794	2.37028	0.799771	2.78401	0.906734	3.15807		
0.745421	2.58376	0.576336	1.98717	0.745165	2.58399	0.789868	2.74549	0.904669	3.14207			0.681627	2.36898	0.801746	2.78187	0.908265	3.15318		
0.747321	2.582	0.578266	1.98744	0.747065	2.58224	0.792049	2.74418	0.906444	3.13808			0.683461	2.36769	0.80372	2.77973	0.909802	3.14833		
0.749215	2.58024	0.580195	1.98771	0.74896	2.58048	0.794237	2.74291	0.908219	3.13412			0.685297	2.36641	0.805693	2.77761	0.911344	3.14353		
0.751104	2.57847	0.582124	1.98797	0.750849	2.57871	0.796431	2.74166	0.909995	3.13018			0.687133	2.36514	0.807665	2.77549	0.912892	3.13878		
0.752987	2.57669	0.584053	1.98823	0.752733	2.57693	0.798633	2.74045	0.911771	3.12627			0.688971	2.36388	0.809636	2.77338	0.914446	3.13408		
0.754865	2.57491	0.58598	1.98848	0.754611	2.57515	0.800841	2.73927	0.913547	3.12239			0.690811	2.36264	0.811606	2.77128	0.916004	3.12943		
0.756738	2.57312	0.587907	1.98874	0.756485	2.57336	0.803055	2.73812	0.915324	3.11853			0.692651	2.36141	0.813574	2.76919	0.917569	3.12483		
0.758606	2.57133	0.589833	1.98898	0.758354	2.57157	0.805276	2.737	0.917101	3.1147			0.694493	2.3602	0.815541	2.76712	0.919139	3.12028		
0.760469	2.56953	0.591759	1.98923	0.760218	2.56977	0.807503	2.7359	0.918879	3.11089			0.696337	2.35899	0.817507	2.76504	0.920714	3.11577		
0.762328	2.56772	0.593684	1.98947	0.762077	2.56797	0.809736	2.73484	0.920656	3.10711			0.698181	2.3578	0.819471	2.76298	0.922295	3.11131		
0.764182	2.56592	0.595609	1.9897	0.763932	2.56616	0.811974	2.73379	0.922434	3.10335			0.700027	2.35662	0.821434	2.76093	0.923881	3.1069		
0.766032	2.56411	0.597532	1.98994	0.765783	2.56435	0.814219	2.73278	0.924213	3.09961			0.701875	2.35545	0.823395	2.75888	0.925473	3.10253		
0.767878	2.5623	0.599455	1.99017	0.767629	2.56254	0.816468	2.73179	0.925991	3.09591			0.703723	2.35429	0.825355	2.75684	0.92707	3.09821		
0.76972	2.56048	0.601378	1.99039	0.769472	2.56073	0.818723	2.73082	0.927769	3.09222			0.705574	2.35315	0.827314	2.75481	0.928673	3.09393		
0.771559	2.55867	0.6033	1.99062	0.771311	2.55892	0.820983	2.72987	0.929548	3.08856			0.707425	2.35201	0.829271	2.75278	0.930281	3.0897		
0.773394	2.55685	0.605221	1.99083	0.773146	2.5571	0.823248	2.72895	0.931327	3.08492			0.709278	2.35089	0.831226	2.75077	0.931895	3.08551		
0.775225	2.55504	0.607142	1.99105	0.774978	2.55528	0.825518	2.72805	0.933106	3.0813			0.711132	2.34978	0.83318	2.74876	0.933514	3.08136		
0.777053	2.55322	0.609062	1.99126	0.776807	2.55347	0.827793	2.72717	0.934886	3.07771			0.712987	2.34868	0.835132	2.74675	0.935139	3.07726		
0.778878	2.55141	0.610981	1.99147	0.778632	2.55165	0.830072	2.72631	0.936665	3.07414			0.714844	2.34759	0.837082	2.74476	0.936769	3.07321		
0.7807	2.5496	0.6129	1.99168	0.780454	2.54984	0.832355	2.72547	0.938445	3.07059			0.716702	2.34652	0.839031	2.74277	0.938405	3.06919		
0.782519	2.54778	0.614819	1.99188	0.782273	2.54803	0.834642	2.72464	0.940224	3.06706			0.718562	2.34545	0.840977	2.74079	0.940046	3.06522		
0.784335	2.54597	0.616736	1.99208	0.78409	2.54622	0.836934	2.72384	0.942004	3.06356			0.720423	2.34439	0.842923	2.73881	0.941693	3.06129		
0.786148	2.54417	0.618654	1.99228	0.785904	2.54441	0.839229	2.72305	0.943784	3.06007			0.722285	2.34335	0.844866	2.73684	0.943346	3.0574		
0.787959	2.54236	0.62057	1.99247	0.787715	2.54261	0.841529	2.72229	0.945564	3.05661			0.724149	2.34231	0.846807	2.73487	0.945003	3.05355		
0.789768	2.54056	0.622486	1.99266	0.789524	2.5408	0.843832	2.72153	0.947344	3.05317			0.726014	2.34129	0.848747	2.73291	0.946666	3.04974		
0.791574	2.53876	0.624401	1.99285	0.791331	2.539	0.846138	2.7208	0.949124	3.04975			0.72788	2.34028	0.850684	2.73096	0.948335	3.04598		
0.793378	2.53697	0.626316	1.99304	0.793135	2.53721	0.848448	2.72007	0.950904	3.04635			0.729748	2.33928	0.85262	2.72901	0.950009	3.04225		
0.79518	2.53518	0.628231	1.99322	0.794937	2.53542	0.850761	2.71937	0.952684	3.04297			0.731617	2.33828	0.854554	2.72707	0.951689	3.03856		
0.796981	2.53339	0.630144	1.9934	0.796738	2.53363	0.853077	2.71867	0.954464	3.03961			0.733487	2.3373	0.856486	2.72513	0.953374	3.03492		
0.798779	2.53161	0.632057	1.99357	0.798536	2.53185	0.855396	2.71799	0.956244	3.03627			0.735358	2.33633	0.858416	2.7232	0.955064	3.03131		
0.800575	2.52983	0.63397	1.99375	0.800333	2.53007	0.857718	2.71733	0.958024	3.03295			0.737231	2.33537	0.860343	2.72127	0.95676	3.02774		
0.80237	2.52806	0.635882	1.99392	0.802128	2.5283	0.860043	2.71667	0.959805	3.02965			0.739106	2.33441	0.862269	2.71935	0.958461	3.0242		
0.804163	2.52629	0.637793	1.99409	0.803921	2.52653	0.862371	2.71603	0.961585	3.02637			0.740981	2.33347	0.864193	2.71743	0.960168	3.02071		
0.805955	2.52453	0.639704	1.99425	0.805713	2.52477	0.864701	2.71541	0.963365	3.02311			0.742858	2.33254	0.866115	2.71552	0.96188	3.01725		
0.807746	2.52278	0.641615	1.99441	0.807504	2.52302	0.867034	2.71479	0.965145	3.01986			0.744737	2.33161	0.868035	2.71361	0.963598	3.01383		
0.809535	2.52103	0.643525	1.99457	0.809293	2.52127	0.869369	2.71418	0.966925	3.01664			0.746616	2.3307	0.869952	2.71171	0.96532	3.01044		
0.811323	2.51929	0.645434	1.99473	0.811081	2.51953	0.871706	2.71359	0.968706	3.01343			0.748497	2.3298	0.871868	2.70981	0.967048	3.0071		
0.81311	2.51756	0.647343	1.99489	0.812868	2.51779	0.874046	2.713	0.970486	3.01025			0.750379	2.3289	0.873781	2.70791	0.968782	3.00378		
0.814895	2.51583	0.649251	1.99504	0.814654	2.51606	0.876387	2.71242	0.972266	3.00708			0.752263	2.32802	0.875692	2.70602	0.97052	3.00051		
0.81668	2.51411	0.651159	1.99519	0.816439	2.51434	0.878731	2.71186	0.974046	3.00393			0.754148	2.32714	0.877601	2.70414	0.972264	2.99726		
0.818464	2.51239	0.653066	1.99534	0.818223	2.51262	0.881077	2.7113	0.975826	3.00079			0.756034	2.32627	0.879508	2.70226	0.974013	2.99406		
0.820247	2.51068	0.654973	1.99548	0.820006	2.51091	0.883424	2.71075	0.977606	2.99768			0.757921	2.32541	0.881413	2.70038	0.975768	2.99088		
0.822029	2.50898	0.656879	1.99563	0.821789	2.50921	0.885773	2.71021	0.979386	2.99458			0.75981	2.32456	0.883316	2.6985	0.977527	2.98775		
0.823811	2.50729	0.658785	1.99577	0.82357	2.50752	0.888124	2.70968	0.981166	2.9915			0.7617	2.32372	0.885217	2.69664	0.979292	2.98464		
0.825592	2.50561	0.66069	1.9959	0.825351	2.50583	0.890476	2.70916	0.982947	2.98844			0.763592	2.32289	0.887115	2.69477	0.981062	2.98157		
0.827372	2.50393	0.662595	1.99604	0.827132	2.50416	0.89283	2.70864	0.984727	2.9854			0.765484	2.32206	0.889011	2.69291	0.982837	2.97853		
0.829152	2.50226	0.664499	1.99617	0.828911	2.50249	0.895185	2.70813	0.986507	2.98237			0.767378	2.32125	0.890905	2.69105	0.984617	2.97552		
0.830931	2.5006	0.666403	1.99631	0.830691	2.50082	0.897542	2.70763	0.988287	2.97936			0.769273	2.32044	0.892797	2.6892	0.986403	2.97255		
0.83271	2.49895	0.668306	1.99644	0.83247	2.49917	0.8999	2.70713	0.990067	2.97637			0.77117	2.31964	0.894687	2.68735	0.988193	2.96961		
0.834488	2.4973	0.670209	1.99656	0.834248	2.49752	0.902259	2.70664	0.991847	2.97339			0.773067	2.31885	0.896574	2.6855	0.989988	2.96669		
0.836267	2.49566	0.672112	1.99669	0.836027	2.49588	0.904619	2.70616	0.993627	2.97043			0.774966	2.31807	0.898459	2.68366	0.991789	2.96382		
0.838045	2.49404	0.674013	1.99681	0.837805	2.49425	0.90698	2.70568	0.995407	2.96749			0.776867	2.3173	0.900343	2.68182	0.993594	2.96097		
0.839822	2.49242	0.675915	1.99693	0.839582	2.49263	0.909342	2.70521	0.997188	2.96456			0.778768	2.31653	0.902224	2.67999	0.995404	2.95815		
0.8416	2.4908	0.677816	1.99705	0.84136	2.49102	0.911706	2.70474	0.998968	2.96165			0.780671	2.31577	0.904102	2.67816	0.997219	2.95536		
0.843377	2.4892	0.679716	1.99717	0.843137	2.48942	0.91407	2.70428	1.00075	2.95875			0.782575	2.31502	0.905979	2.67633	0.999039	2.9526		
0.845155	2.48761	0.681616	1.99728	0.844915	2.48782	0.916434	2.70382					0.78448	2.31428	0.907854	2.6745	1.00086	2.94987		
0.846932	2.48602	0.683516	1.9974	0.846692	2.48623	0.9188	2.70337					0.786386	2.31354	0.909726	2.67269				
0.84871	2.48444	0.685415	1.99751	0.84847	2.48465	0.921166	2.70292					0.788294	2.31282	0.911596	2.67087				
0.850487	2.48287	0.687314	1.99762	0.850247	2.48308	0.923533	2.70248					0.790203	2.3121	0.913465	2.66906				
0.852264	2.48131	0.689212	1.99773	0.852024	2.48152	0.9259	2.70204					0.792113	2.31139	0.915331	2.66725				
0.854042	2.47976	0.69111	1.99783	0.853802	2.47997	0.928268	2.70161					0.794024	2.31068	0.917195	2.66544				
0.85582	2.47822	0.693008	1.99794	0.85558	2.47843	0.930636	2.70117					0.795937	2.30998	0.919057	2.66364				
0.857597	2.47669	0.694905	1.99804	0.857357	2.47689	0.933004	2.70074					0.79785	2.30929	0.920916	2.66184				
0.859375	2.47516	0.696801	1.99814	0.859135	2.47537	0.935373	2.70032					0.799765	2.30861	0.922774	2.66005				
0.861154	2.47364	0.698697	1.99824	0.860914	2.47385	0.937742	2.6999					0.801681	2.30793	0.92463	2.65826				
0.862932	2.47214	0.700593	1.99833	0.862692	2.47234	0.940112	2.69948					0.803598	2.30726	0.926483	2.65647				
0.864711	2.47064	0.702489	1.99843	0.864471	2.47084	0.942481	2.69906					0.805517	2.3066	0.928335	2.65469				
0.86649	2.46915	0.704384	1.99852	0.86625	2.46935	0.94485	2.69864					0.807436	2.30595	0.930185	2.65291				
0.86827	2.46767	0.706278	1.99862	0.86803	2.46787	0.94722	2.69823					0.809357	2.3053	0.932033	2.65114				
0.87005	2.4662	0.708172	1.99871	0.869809	2.4664	0.949589	2.69782					0.811279	2.30465	0.933878	2.64937				
0.87183	2.46473	0.710066	1.9988	0.87159	2.46493	0.951958	2.69741					0.813202	2.30402	0.935722	2.6476				
0.873611	2.46328	0.71196	1.99888	0.87337	2.46348	0.954327	2.697					0.815126	2.30339	0.937564	2.64584				
0.875392	2.46183	0.713853	1.99897	0.875151	2.46203	0.956696	2.6966					0.817051	2.30277	0.939404	2.64408				
0.877174	2.4604	0.715745	1.99905	0.876933	2.46059	0.959065	2.69619					0.818977	2.30215	0.941242	2.64232				
0.878956	2.45897	0.717637	1.99914	0.878715	2.45916	0.961433	2.69579					0.820905	2.30154	0.943079	2.64057				
0.880738	2.45755	0.719529	1.99922	0.880498	2.45774	0.963801	2.69539					0.822834	2.30094	0.944913	2.63882				
0.882521	2.45614	0.721421	1.9993	0.882281	2.45633	0.966168	2.69499					0.824763	2.30034	0.946746	2.63708				
0.884305	2.45474	0.723312	1.99938	0.884064	2.45493	0.968535	2.69459					0.826694	2.29975	0.948577	2.63534				
0.886089	2.45335	0.725203	1.99945	0.885848	2.45354	0.970901	2.69419					0.828626	2.29917	0.950406	2.6336				
0.887874	2.45197	0.727093	1.99953	0.887633	2.45215	0.973267	2.69379					0.830559	2.29859	0.952233	2.63187				
0.889659	2.45059	0.728984	1.9996	0.889418	2.45078	0.975632	2.69339					0.832493	2.29802	0.954059	2.63015				
0.891445	2.44923	0.730873	1.99968	0.891204	2.44941	0.977996	2.69299					0.834429	2.29745	0.955883	2.62842				
0.893232	2.44787	0.732763	1.99975	0.892991	2.44805	0.980359	2.69259					0.836365	2.29689	0.957705	2.62671				
0.895019	2.44652	0.734652	1.99982	0.894778	2.4467	0.982722	2.69219					0.838302	2.29633	0.959526	2.62499				
0.896807	2.44518	0.736541	1.99989	0.896566	2.44536	0.985083	2.69178					0.840241	2.29578	0.961345	2.62328				
0.898596	2.44385	0.738429	1.99996	0.898354	2.44403	0.987444	2.69138					0.84218	2.29524	0.963163	2.62158				
0.900385	2.44252	0.740317	2.00002	0.900144	2.4427	0.989803	2.69098					0.844121	2.2947	0.964979	2.61988				
0.902175	2.44121	0.742205	2.00009	0.901933	2.44139	0.992162	2.69058					0.846062	2.29417	0.966793	2.61818				
0.903966	2.4399	0.744092	2.00015	0.903724	2.44008	0.994519	2.69017					0.848005	2.29364	0.968606	2.61649				
0.905757	2.43861	0.745979	2.00022	0.905515	2.43878	0.996875	2.68977					0.849948	2.29312	0.970418	2.6148				
0.907549	2.43732	0.747866	2.00028	0.907307	2.43749	0.999229	2.68936					0.851893	2.2926	0.972228	2.61312				
0.909342	2.43604	0.749753	2.00034	0.9091	2.43621	1.00158	2.68895					0.853838	2.29209	0.974036	2.61144				
0.911136	2.43477	0.751639	2.0004	0.910894	2.43494							0.855785	2.29159	0.975843	2.60976				
0.91293	2.4335	0.753525	2.00046	0.912688	2.43367							0.857733	2.29109	0.977649	2.6081				
0.914725	2.43225	0.755411	2.00052	0.914483	2.43242							0.859681	2.29059	0.979454	2.60643				
0.916521	2.431	0.757296	2.00057	0.916279	2.43117							0.861631	2.2901	0.981257	2.60477				
0.918318	2.42976	0.759181	2.00063	0.918075	2.42993							0.863581	2.28962	0.983059	2.60312				
0.920116	2.42853	0.761066	2.00068	0.919873	2.4287							0.865533	2.28913	0.98486	2.60147				
0.921914	2.42731	0.76295	2.00074	0.921671	2.42747							0.867486	2.28866	0.98666	2.59982				
0.923713	2.42609	0.764834	2.00079	0.92347	2.42626							0.869439	2.28819	0.988458	2.59818				
0.925513	2.42489	0.766718	2.00084	0.92527	2.42505							0.871394	2.28772	0.990255	2.59655				
0.927314	2.42369	0.768602	2.00089	0.927071	2.42385							0.873349	2.28726	0.992051	2.59492				
0.929115	2.4225	0.770485	2.00094	0.928872	2.42266							0.875305	2.28681	0.993846	2.59329				
0.930918	2.42132	0.772368	2.00099	0.930674	2.42148							0.877262	2.28635	0.99564	2.59167				
0.932721	2.42014	0.774251	2.00104	0.932477	2.4203							0.879221	2.28591	0.997433	2.59006				
0.934525	2.41897	0.776133	2.00108	0.934282	2.41913							0.88118	2.28546	0.999224	2.58845				
0.93633	2.41782	0.778016	2.00113	0.936086	2.41797							0.88314	2.28503	1.00102	2.58684				
0.938136	2.41667	0.779898	2.00118	0.937892	2.41682							0.885101	2.28459						
0.939943	2.41552	0.78178	2.00122	0.939699	2.41568							0.887063	2.28416						
0.94175	2.41439	0.783661	2.00126	0.941506	2.41454							0.889025	2.28374						
0.943559	2.41326	0.785542	2.00131	0.943315	2.41341							0.890989	2.28332						
0.945368	2.41214	0.787423	2.00135	0.945124	2.41229							0.892954	2.2829						
0.947178	2.41103	0.789304	2.00139	0.946934	2.41118							0.894919	2.28249						
0.94899	2.40992	0.791185	2.00143	0.948745	2.41007							0.896885	2.28208						
0.950802	2.40882	0.793065	2.00147	0.950557	2.40897							0.898852	2.28168						
0.952615	2.40773	0.794945	2.00151	0.95237	2.40788							0.90082	2.28128						
0.954428	2.40665	0.796825	2.00155	0.954183	2.4068							0.902789	2.28088						
0.956243	2.40557	0.798705	2.00158	0.955998	2.40572							0.904759	2.28049						
0.958059	2.40451	0.800584	2.00162	0.957814	2.40465							0.90673	2.2801						
0.959875	2.40344	0.802464	2.00165	0.95963	2.40359							0.908701	2.27972						
0.961693	2.40239	0.804343	2.00169	0.961447	2.40253							0.910673	2.27934						
0.963511	2.40134	0.806221	2.00172	0.963266	2.40149							0.912646	2.27896						
0.965331	2.40031	0.8081	2.00176	0.965085	2.40045							0.91462	2.27859						
0.967151	2.39927	0.809978	2.00179	0.966905	2.39941							0.916595	2.27822						
0.968972	2.39825	0.811857	2.00182	0.968726	2.39839							0.91857	2.27786						
0.970794	2.39723	0.813735	2.00186	0.970548	2.39737							0.920546	2.2775						
0.972617	2.39622	0.815612	2.00189	0.972371	2.39635							0.922523	2.27714						
0.974441	2.39521	0.81749	2.00192	0.974194	2.39535							0.924501	2.27678						
0.976266	2.39422	0.819367	2.00195	0.976019	2.39435							0.92648	2.27643						
0.978091	2.39323	0.821245	2.00198	0.977845	2.39336							0.928459	2.27609						
0.979918	2.39224	0.823122	2.002	0.979671	2.39237							0.93044	2.27574						
0.981746	2.39126	0.824999	2.00203	0.981499	2.3914							0.93242	2.2754						
0.983574	2.39029	0.826875	2.00206	0.983327	2.39042							0.934402	2.27507						
0.985404	2.38933	0.828752	2.00209	0.985157	2.38946							0.936385	2.27473						
0.987234	2.38837	0.830628	2.00211	0.986987	2.3885							0.938368	2.2744						
0.989066	2.38742	0.832504	2.00214	0.988818	2.38755							0.940352	2.27408						
0.990898	2.38648	0.83438	2.00217	0.99065	2.3866							0.942336	2.27375						
0.992731	2.38554	0.836256	2.00219	0.992483	2.38567							0.944322	2.27343						
0.994565	2.38461	0.838132	2.00221	0.994318	2.38473							0.946308	2.27312						
0.9964	2.38368	0.840007	2.00224	0.996152	2.38381							0.948295	2.2728						
0.998236	2.38276	0.841882	2.00226	0.997988	2.38289							0.950282	2.27249						
1.00007	2.38185	0.843757	2.00228	0.999825	2.38198							0.952271	2.27218						
		0.845632	2.00231	1.00166	2.38107							0.95426	2.27188						
		0.847507	2.00233									0.956249	2.27158						
		0.849382	2.00235									0.95824	2.27128						
		0.851256	2.00237									0.960231	2.27098						
		0.853131	2.00239									0.962223	2.27069						
		0.855005	2.00241									0.964215	2.2704						
		0.856879	2.00243									0.966208	2.27011						
		0.858753	2.00245									0.968202	2.26983						
		0.860627	2.00247									0.970196	2.26955						
		0.862501	2.00249									0.972191	2.26927						
		0.864374	2.00251									0.974187	2.26899						
		0.866247	2.00252									0.976183	2.26872						
		0.868121	2.00254									0.97818	2.26845						
		0.869994	2.00256									0.980178	2.26818						
		0.871867	2.00258									0.982176	2.26791						
		0.87374	2.00259									0.984175	2.26765						
		0.875613	2.00261									0.986175	2.26739						
		0.877485	2.00262									0.988175	2.26713						
		0.879358	2.00264									0.990176	2.26688						
		0.88123	2.00265									0.992177	2.26662						
		0.883102	2.00267									0.994179	2.26637						
		0.884975	2.00268									0.996181	2.26613						
		0.886847	2.0027									0.998185	2.26588						
		0.888719	2.00271									1.00019	2.26564						
		0.89059	2.00272																
		0.892462	2.00274																
		0.894334	2.00275																
		0.896205	2.00276																
		0.898077	2.00277																
		0.899948	2.00279																
		0.901819	2.0028																
		0.90369	2.00281																
		0.905561	2.00282																
		0.907432	2.00283																
		0.909303	2.00284																
		0.911174	2.00285																
		0.913045	2.00286																
		0.914915	2.00287																
		0.916786	2.00288																
		0.918656	2.00289																
		0.920526	2.0029																
		0.922397	2.00291																
		0.924267	2.00292																
		0.926137	2.00293																
		0.928007	2.00293																
		0.929877	2.00294																
		0.931747	2.00295																
		0.933617	2.00296																
		0.935486	2.00297																
		0.937356	2.00297																
		0.939225	2.00298																
		0.941095	2.00299																
		0.942964	2.003																
		0.944834	2.003																
		0.946703	2.00301																
		0.948572	2.00301																
		0.950441	2.00302																
		0.95231	2.00303																
		0.95418	2.00303																
		0.956049	2.00304																
		0.957917	2.00304																
		0.959786	2.00305																
		0.961655	2.00306																
		0.963524	2.00306																
		0.965393	2.00307																
		0.967261	2.00307																
		0.96913	2.00308																
		0.970998	2.00308																
		0.972867	2.00308																
		0.974735	2.00309																
		0.976604	2.00309																
		0.978472	2.0031																
		0.98034	2.0031																
		0.982209	2.00311																
		0.984077	2.00311																
		0.985945	2.00311																
		0.987813	2.00312																
		0.989681	2.00312																
		0.991549	2.00312																
		0.993417	2.00313																
		0.995285	2.00313																
		0.997153	2.00313																
		0.999021	2.00314																
		1.00089	2.00314																
