Sym0		Asym0		Sym1		Sym2		Sym3		Sym4		Sym5		Asym1		Asym2		Asym3		Asym4		Asym5	
392  Points		394  Points		392  Points		389  Points		371  Points		362  Points		158  Points		394  Points		381  Points		373  Points		358  Points		172  Points	
Freq (MHz)	Vph (m/ms)	Freq (MHz)	Vph (m/ms)	Freq (MHz)	Vph (m/ms)	Freq (MHz)	Vph (m/ms)	Freq (MHz)	Vph (m/ms)	Freq (MHz)	Vph (m/ms)	Freq (MHz)	Vph (m/ms)	Freq (MHz)	Vph (m/ms)	Freq (MHz)	Vph (m/ms)	Freq (MHz)	Vph (m/ms)	Freq (MHz)	Vph (m/ms)	Freq (MHz)	Vph (m/ms)
2.20047	2.47142	0.346222	209.529	2.20109	2.4713	0.692219	5254.05	1.13311	3007.57	1.38444	2742.94	1.88852	3611.69	0.346262	180.587	0.755405	1329.59	1.03834	1631.25	1.51076	745.851	1.73055	8309.45
2.19559	2.47234	0.346758	87.5701	2.19621	2.47223	0.692359	283.853	1.13303	422.12	1.38458	492.361	1.88839	667.209	0.346848	82.0978	0.755318	262.67	1.03849	352.758	1.51057	348.623	1.73067	687.958
2.19073	2.47329	0.34773	55.4843	2.19134	2.47317	0.692749	145.948	1.13283	226.95	1.38491	270.516	1.88809	367.499	0.347869	53.2544	0.755115	145.693	1.03885	197.827	1.51023	227.433	1.73099	358.899
2.18588	2.47427	0.349129	40.7168	2.18649	2.47414	0.693387	98.2979	1.13251	155.161	1.38544	186.543	1.88762	253.54	0.349317	39.5173	0.754799	100.77	1.03941	137.512	1.50976	168.731	1.73151	242.833
2.18105	2.47527	0.350945	32.2502	2.18166	2.47514	0.69427	74.1636	1.13208	117.847	1.38615	142.398	1.88699	193.488	0.35118	31.5044	0.754373	76.9946	1.04017	105.429	1.50916	134.086	1.73223	183.541
2.17624	2.47629	0.353163	26.7764	2.17685	2.47616	0.695391	59.5944	1.13153	94.977	1.38704	115.186	1.88619	156.403	0.353443	26.2697	0.753841	62.2745	1.04112	85.5235	1.50843	111.221	1.73314	147.561
2.17145	2.47734	0.355767	22.9575	2.17205	2.47721	0.696744	49.8525	1.13088	79.5211	1.38811	96.7387	1.88525	131.218	0.35609	22.592	0.75321	52.2608	1.04226	71.9748	1.50759	94.9964	1.73424	123.41
2.16667	2.47841	0.358737	20.1491	2.16727	2.47828	0.698323	42.8853	1.13013	68.3745	1.38936	83.4125	1.88416	112.996	0.359101	19.8736	0.752487	45.0054	1.04358	62.1611	1.50663	82.8849	1.73551	106.083
2.1619	2.47951	0.362053	18.0022	2.1625	2.47937	0.700117	37.6591	1.12929	59.9539	1.39077	73.3379	1.88294	99.196	0.362455	17.7878	0.751679	39.5053	1.04508	54.7283	1.50556	73.4968	1.73696	93.0479
2.15715	2.48062	0.365692	16.3118	2.15775	2.48048	0.702118	33.5969	1.12836	53.3672	1.39234	65.4565	1.8816	88.3819	0.36613	16.1405	0.750796	35.1913	1.04674	48.9059	1.5044	66.0054	1.73858	82.8889
2.15241	2.48175	0.369633	14.9489	2.15301	2.48161	0.704315	30.3509	1.12736	48.0735	1.39407	59.1241	1.88015	79.678	0.370103	14.8092	0.749849	31.7167	1.04856	44.2234	1.50316	59.888	1.74035	74.7502
2.14767	2.4829	0.373851	13.829	2.14827	2.48275	0.706695	27.6993	1.12629	43.7256	1.39594	53.9261	1.8786	72.5208	0.374352	13.7131	0.748846	28.8578	1.05053	40.3773	1.50184	54.7979	1.74227	68.0851
2.14293	2.48404	0.378322	12.8939	2.14353	2.4839	0.709249	25.4937	1.12516	40.0906	1.39794	49.5837	1.87696	66.5313	0.378851	12.7964	0.7478	26.4644	1.05264	37.1627	1.50046	50.4961	1.74433	62.5274
2.13817	2.48517	0.383024	12.1024	2.13877	2.48503	0.711962	23.6313	1.12399	37.0064	1.40007	45.9025	1.87524	61.445	0.383578	12.0193	0.746724	24.4312	1.05489	34.4367	1.49902	46.8126	1.74651	57.8231
2.13335	2.48624	0.387932	11.4246	2.13397	2.48611	0.714823	22.0384	1.12279	34.3567	1.40231	42.7425	1.87346	57.0717	0.388508	11.3529	0.745629	22.683	1.05726	32.0963	1.49753	43.6229	1.74882	53.7902
2.12841	2.48716	0.393023	10.838	2.12904	2.48706	0.717818	20.661	1.12155	32.0557	1.40466	40.0009	1.87163	53.2714	0.393618	10.7757	0.74453	21.164	1.05973	30.0655	1.49602	40.8341	1.75123	50.295
2.12318	2.48776	0.398272	10.3258	2.12386	2.48771	0.720934	19.4584	1.12031	30.0391	1.40711	37.6	1.86975	49.9383	0.398884	10.2711	0.74344	19.8322	1.06231	28.287	1.49448	38.3752	1.75374	47.2369
2.11757	2.48791	0.403658	9.87467	2.1183	2.48792	0.724157	18.3995	1.11906	28.2574	1.40965	35.4802	1.86785	46.9915	0.404284	9.82629	0.742373	18.6555	1.06498	26.7166	1.49293	36.1911	1.75635	44.5389
2.11166	2.48772	0.409157	9.4744	2.11242	2.48775	0.727474	17.4601	1.11783	26.6722	1.41226	33.595	1.86592	44.3675	0.409794	9.43128	0.741346	17.6086	1.06773	25.3199	1.49138	34.2383	1.75903	42.1411
2.1056	2.48734	0.414746	9.11671	2.10637	2.48739	0.730872	16.6212	1.11661	25.2528	1.41495	31.9075	1.86398	42.0162	0.415392	9.07804	0.740374	16.6718	1.07055	24.0698	1.48983	32.4822	1.76178	39.9962
2.09946	2.48687	0.420402	8.79498	2.10024	2.48693	0.734336	15.8674	1.11543	23.975	1.41769	30.3882	1.86205	39.8975	0.421056	8.76007	0.739472	15.8291	1.07343	22.9442	1.48831	30.8947	1.7646	38.0661
2.09329	2.48635	0.426105	8.50378	2.09407	2.48642	0.737854	15.1862	1.11429	22.8188	1.42049	29.0132	1.86012	37.9786	0.426026	8.50758	0.738658	15.0674	1.07636	21.9255	1.48681	29.453	1.76747	36.3201
2.0871	2.48581	0.43183	8.23865	2.08788	2.48588	0.741411	14.5676	1.11321	21.768	1.42332	27.7627	1.85822	36.2328	0.430278	8.30811	0.737948	14.3763	1.07933	20.9989	1.48535	28.138	1.77038	34.7331
2.08089	2.48525	0.437555	7.9959	2.08168	2.48532	0.744993	14.0032	1.11219	20.8093	1.42619	26.6206	1.85634	34.6378	0.433797	8.15293	0.737362	13.7469	1.08233	20.1526	1.48395	26.934	1.77333	33.2842
2.07469	2.48469	0.443259	7.77241	2.07547	2.48476	0.748589	13.4858	1.11125	19.9313	1.42909	25.5732	1.85451	33.1752	0.436578	8.03593	0.736916	13.172	1.08534	19.3762	1.4826	25.8279	1.77631	31.9561
2.06848	2.48411	0.448919	7.56556	2.06926	2.48418	0.752183	13.0098	1.11041	19.1247	1.432	24.6092	1.85272	31.8294	0.43862	7.95289	0.73663	12.6454	1.08836	18.6615	1.48132	24.8083	1.7793	30.7342
2.06226	2.48353	0.454513	7.37312	2.06305	2.48361	0.755763	12.5701	1.10967	18.3814	1.43492	23.7188	1.85098	30.5871	0.439926	7.901	0.736523	12.1618	1.09138	18.0011	1.48011	23.8659	1.78231	29.6062
2.05605	2.48295	0.460019	7.19318	2.05684	2.48303	0.759316	12.1624	1.10904	17.6947	1.43783	22.8938	1.84931	29.437	0.441799	7.82806	0.736614	11.7169	1.09439	17.3889	1.47899	22.9924	1.78532	28.5615
2.04984	2.48237	0.465415	7.02412	2.05063	2.48244	0.76283	11.7832	1.10854	17.0587	1.44074	22.1271	1.84771	28.3695	0.443831	7.75089	0.736923	11.3068	1.09738	16.8198	1.47797	22.1809	1.78832	27.5911
2.04363	2.48178	0.470679	6.86452	2.04442	2.48186	0.766291	11.4293	1.10817	16.4683	1.44363	21.4127	1.84618	27.3763	0.446585	7.64926	0.737469	10.9283	1.10034	16.2891	1.47705	21.4251	1.79132	26.6873
2.03743	2.4812	0.475791	6.71317	2.03821	2.48127	0.769687	11.098	1.10795	15.9192	1.44649	20.7452	1.84475	26.45	0.450048	7.52587	0.738272	10.5785	1.10327	15.7929	1.47624	20.7199	1.7943	25.8433
2.03122	2.48062	0.480731	6.56901	2.03201	2.48069	0.773006	10.787	1.10789	15.4075	1.44932	20.12	1.8434	25.5843	0.454199	7.38365	0.739349	10.2549	1.10614	15.3278	1.47555	20.0605	1.79726	25.0532
2.02502	2.48003	0.485481	6.43114	2.02581	2.4801	0.776238	10.4942	1.10799	14.9298	1.45212	19.5331	1.84216	24.7736	0.459007	7.22563	0.740718	9.95525	1.10896	14.8907	1.47498	19.4429	1.80018	24.312
2.01882	2.47945	0.490023	6.29879	2.01961	2.47952	0.779372	10.2178	1.10827	14.4833	1.45486	18.9809	1.84101	24.0132	0.464425	7.05467	0.742396	9.67768	1.11171	14.4791	1.47455	18.8635	1.80307	23.6151
2.01263	2.47886	0.494344	6.17129	2.01341	2.47894	0.782396	9.95627	1.10874	14.0653	1.45756	18.4604	1.83999	23.2985	0.469715	6.89341	0.744397	9.42041	1.1144	14.0906	1.47426	18.3191	1.80591	22.9585
2.00644	2.47828	0.49843	6.04808	2.00722	2.47836	0.785301	9.70819	1.1094	13.6734	1.4602	17.9686	1.83907	22.6259	0.474857	6.74062	0.746733	9.18186	1.117	13.7232	1.47412	17.8067	1.80871	22.3388
2.00025	2.4777	0.502271	5.9287	2.00103	2.47778	0.788079	9.47234	1.11026	13.3056	1.46277	17.5033	1.83829	21.9919	0.47983	6.5952	0.749415	8.96061	1.11953	13.375	1.47413	17.324	1.81145	21.7527
1.99407	2.47712	0.505861	5.81275	1.99485	2.4772	0.790722	9.24763	1.11132	12.96	1.46527	17.0622	1.83763	21.3935	0.484617	6.45623	0.75245	8.75535	1.12196	13.0445	1.47429	16.8685	1.81413	21.1976
1.98789	2.47655	0.509195	5.69994	1.98867	2.47662	0.793223	9.03311	1.1126	12.6349	1.4677	16.6433	1.8371	20.8279	0.489199	6.32291	0.755386	8.58857	1.12429	12.7301	1.47462	16.4383	1.81675	20.6709
1.98172	2.47597	0.512272	5.59	1.9825	2.47605	0.795575	8.82793	1.1141	12.3288	1.47005	16.2449	1.83671	20.2926	0.493561	6.19455	0.758104	8.4547	1.12653	12.4306	1.47511	16.0314	1.8193	20.1704
1.97555	2.4754	0.515095	5.48276	1.97633	2.47547	0.7975	8.65616	1.11581	12.0403	1.47231	15.8654	1.83646	19.7854	0.497692	6.07059	0.7605	8.34944	1.12866	12.1449	1.47577	15.6462	1.82178	19.694
1.96938	2.47483	0.517669	5.37807	1.97016	2.47491	0.799047	8.51454	1.11774	11.7682	1.4745	15.5034	1.83635	19.3044	0.501579	5.95053	0.76249	8.26953	1.13068	11.8719	1.47661	15.2812	1.82418	19.2401
1.96322	2.47427	0.520001	5.27583	1.96401	2.47434	0.80026	8.40059	1.1199	11.5113	1.47659	15.1576	1.83639	18.8476	0.505216	5.83398	0.764006	8.21258	1.13259	11.6107	1.47761	14.935	1.8265	18.8069
1.95707	2.47371	0.522102	5.17597	1.95785	2.47378	0.801176	8.31242	1.12228	11.2684	1.47859	14.827	1.83658	18.4135	0.508597	5.7206	0.765	8.17691	1.13439	11.3605	1.47879	14.6063	1.82875	18.393
1.95092	2.47315	0.523983	5.07845	1.9517	2.47322	0.801826	8.24863	1.12488	11.0388	1.48049	14.5104	1.83691	18.0004	0.511722	5.61015	0.766461	8.12667	1.13608	11.1204	1.48014	14.2938	1.8309	17.997
1.94478	2.47259	0.525658	4.98324	1.94556	2.47266	0.802231	8.20826	1.12769	10.8214	1.48231	14.2068	1.8374	17.6071	0.514592	5.50242	0.768092	8.07342	1.13766	10.8899	1.48167	13.9967	1.83297	17.6178
1.93864	2.47204	0.527142	4.89034	1.93942	2.47211	0.802798	8.15084	1.13072	10.6154	1.48403	13.9156	1.83804	17.2322	0.517211	5.39726	0.77038	8.00318	1.13913	10.6683	1.48336	13.7138	1.83496	17.2542
1.93251	2.4715	0.528451	4.79974	1.93329	2.47157	0.803395	8.08922	1.13395	10.42	1.48565	13.6358	1.83883	16.8746	0.519587	5.29457	0.773387	7.91784	1.14048	10.4551	1.48522	13.4442	1.83686	16.9053
1.92639	2.47096	0.5296	4.71143	1.92717	2.47103	0.804174	8.00671	1.13739	10.2346	1.48719	13.3668	1.83977	16.5331	0.52173	5.19428	0.777192	7.81957	1.14174	10.2498	1.48725	13.1871	1.83867	16.5701
1.92027	2.47042	0.530604	4.62542	1.92105	2.47049	0.805104	7.90442	1.14102	10.0584	1.48864	13.108	1.84086	16.2069	0.523651	5.09633	0.781881	7.71076	1.14289	10.0519	1.48944	12.9418	1.84039	16.2477
1.91416	2.46989	0.531481	4.54171	1.91493	2.46996	0.806148	7.78368	1.14483	9.89086	1.48999	12.8587	1.84209	15.8948	0.525363	5.0007	0.787552	7.59388	1.14395	9.86107	1.49178	12.7074	1.84203	15.9375
1.90806	2.46937	0.532246	4.4603	1.90883	2.46944	0.807261	7.64598	1.14882	9.73134	1.49127	12.6184	1.84347	15.5962	0.526882	4.90737	0.793517	7.48487	1.14491	9.67693	1.49428	12.4833	1.84358	15.6387
1.90196	2.46885	0.532912	4.38117	1.90273	2.46892	0.808391	7.49293	1.15298	9.57933	1.49247	12.3867	1.84499	15.3102	0.528221	4.81634	0.799761	7.38307	1.1458	9.49916	1.49692	12.2688	1.84505	15.3508
1.89587	2.46834	0.533496	4.30432	1.89664	2.4684	0.809366	7.34489	1.15729	9.4343	1.49359	12.1631	1.84664	15.036	0.529398	4.72761	0.806263	7.28786	1.14661	9.32745	1.4997	12.0634	1.84645	15.073
1.88979	2.46784	0.53401	4.22973	1.89056	2.4679	0.810193	7.20159	1.16175	9.29579	1.49464	11.9472	1.84843	14.773	0.530428	4.64117	0.813006	7.19867	1.14736	9.16155	1.50261	11.8666	1.84777	14.8049
1.88372	2.46734	0.534468	4.15737	1.88449	2.4674	0.810874	7.06279	1.16634	9.16335	1.49564	11.7386	1.85034	14.5205	0.531328	4.55704	0.819971	7.11498	1.14805	9.00123	1.50564	11.6777	1.84901	14.546
1.87765	2.46685	0.534881	4.08722	1.87842	2.46691	0.811417	6.92828	1.17106	9.03656	1.49658	11.5371	1.85237	14.2778	0.532112	4.4752	0.827139	7.0363	1.14861	8.8659	1.50878	11.4964	1.8502	14.2958
1.87159	2.46637	0.535212	4.02787	1.87236	2.46643	0.811828	6.79786	1.17588	8.91503	1.49747	11.3422	1.85451	14.0446	0.532796	4.39565	0.83449	6.96218	1.14908	8.75366	1.51203	11.3221	1.85132	14.0539
1.86555	2.4659	0.535481	3.97857	1.86631	2.46596	0.812112	6.67134	1.18016	8.81314	1.49833	11.1538	1.85676	13.8201	0.533394	4.31838	0.842006	6.8922	1.14945	8.66297	1.51538	11.1544	1.85239	13.82
1.85951	2.46544	0.535696	3.93868	1.86027	2.46549	0.812278	6.54857	1.18386	8.72903	1.49916	10.9715	1.85911	13.604	0.53392	4.24337	0.849667	6.82599	1.14974	8.59259	1.51881	10.993	1.85341	13.5936
1.85348	2.46498	0.535862	3.90771	1.85424	2.46504	0.812332	6.42941	1.18695	8.6613	1.49997	10.7952	1.86156	13.3957	0.534387	4.1706	0.857453	6.76317	1.14995	8.54158	1.52232	10.8374	1.8544	13.3745
1.84746	2.46454	0.535984	3.88525	1.84822	2.4646	0.812281	6.3137	1.18941	8.60886	1.50077	10.6245	1.86409	13.1948	0.534807	4.10004	0.865347	6.70343	1.15009	8.50925	1.52589	10.6873	1.85535	13.1623
1.84145	2.46411	0.536061	3.87101	1.84221	2.46416	0.812134	6.20134	1.19123	8.57091	1.50158	10.4594	1.86669	13.0009	0.535192	4.03167	0.873328	6.64646	1.15029	8.46323	1.52952	10.5423	1.85627	12.9568
1.83545	2.46369	0.536173	3.85073	1.83621	2.46374	0.811898	6.0922	1.1924	8.54688	1.50241	10.2996	1.86937	12.8137	0.535552	3.96546	0.881378	6.59197	1.1505	8.4138	1.5332	10.4022	1.85719	12.7577
1.82946	2.46328	0.536294	3.82894	1.83022	2.46333	0.811581	5.98617	1.19408	8.51268	1.50326	10.145	1.87211	12.6326	0.535897	3.90136	0.889477	6.53968	1.1508	8.34753	1.53691	10.2667	1.85809	12.5647
1.82348	2.46288	0.53646	3.79972	1.82424	2.46293	0.811189	5.88315	1.19592	8.47598	1.50416	9.99537	1.8749	12.4575	0.536236	3.83934	0.897604	6.48934	1.15118	8.26531	1.54065	10.1354	1.85899	12.3777
1.81752	2.4625	0.536672	3.76345	1.81827	2.46255	0.81073	5.78305	1.19842	8.42679	1.50511	9.85065	1.87773	12.288	0.536578	3.77935	0.905739	6.44071	1.15165	8.16822	1.5444	10.0082	1.85991	12.1964
1.81157	2.46213	0.536936	3.72057	1.81232	2.46218	0.810211	5.68577	1.2016	8.36577	1.50613	9.71067	1.8806	12.1237	0.536931	3.72135	0.913859	6.39355	1.15225	8.05752	1.54815	9.88468	1.86085	12.0207
1.80562	2.46178	0.537257	3.67164	1.80638	2.46182	0.809639	5.59122	1.20546	8.29366	1.50723	9.57533	1.8835	11.9644	0.537301	3.6653	0.921942	6.34763	1.15299	7.93471	1.55189	9.76472	1.86182	11.8503
1.7997	2.46144	0.537649	3.61728	1.80045	2.46148	0.809021	5.49932	1.20999	8.21127	1.50843	9.44451	1.88642	11.8098	0.537696	3.61116	0.929963	6.30273	1.15383	7.81633	1.55562	9.64808	1.86283	11.6852
1.79378	2.46111	0.53807	3.56477	1.79453	2.46115	0.808362	5.40999	1.2152	8.11946	1.50974	9.31812	1.88934	11.6597	0.538121	3.55886	0.937896	6.25862	1.15478	7.70237	1.55931	9.53454	1.8639	11.525
1.78788	2.46081	0.538527	3.51408	1.78863	2.46084	0.80767	5.32316	1.22039	8.03035	1.51118	9.19604	1.89226	11.5138	0.538582	3.50837	0.945715	6.2151	1.15587	7.59277	1.56296	9.4239	1.86502	11.3698
1.78199	2.46052	0.539024	3.46515	1.78274	2.46055	0.806951	5.23875	1.22556	7.94373	1.51256	9.09312	1.89518	11.3718	0.539084	3.45964	0.953389	6.17194	1.15712	7.48755	1.56656	9.316	1.86622	11.2193
1.77612	2.46025	0.539566	3.41794	1.77686	2.46028	0.806209	5.15669	1.23068	7.85938	1.51382	9.00788	1.89807	11.2337	0.539631	3.41262	0.960887	6.12893	1.15858	7.3867	1.5701	9.21066	1.8675	11.0733
1.77026	2.45999	0.540158	3.37239	1.771	2.46003	0.80545	5.0769	1.23574	7.7771	1.51493	8.93911	1.90095	11.0991	0.540229	3.36727	0.968177	6.08586	1.16027	7.29024	1.57312	9.12082	1.86887	10.9319
1.76442	2.45976	0.540803	3.32847	1.76516	2.45979	0.80468	4.99934	1.24073	7.69672	1.51585	8.8858	1.90379	10.9679	0.540881	3.32353	0.975225	6.04252	1.16223	7.19818	1.57565	9.04559	1.87035	10.7948
1.75859	2.45955	0.541505	3.28613	1.75933	2.45958	0.803903	4.92393	1.24562	7.61805	1.51656	8.84722	1.90659	10.84	0.54159	3.28136	0.981996	5.99872	1.16449	7.11056	1.57771	8.98429	1.87193	10.662
1.75278	2.45936	0.542268	3.24531	1.75352	2.45939	0.803124	4.8506	1.25041	7.54092	1.51703	8.82279	1.90934	10.715	0.542359	3.24072	0.988457	5.95426	1.16709	7.02738	1.57931	8.93637	1.87364	10.5333
1.74699	2.4592	0.543093	3.20598	1.74772	2.45922	0.802348	4.77931	1.25508	7.46519	1.51771	8.78803	1.91203	10.593	0.543192	3.20155	0.994576	5.90899	1.17005	6.94868	1.58047	8.90144	1.87547	10.4086
1.74122	2.45906	0.543984	3.16809	1.74195	2.45907	0.801579	4.70999	1.25961	7.39071	1.51848	8.75073	1.91466	10.4737	0.544091	3.16383	1.00032	5.86275	1.17341	6.87444	1.58121	8.87922	1.87744	10.2878
1.73546	2.45894	0.544944	3.13159	1.73619	2.45895	0.80082	4.64259	1.26399	7.31734	1.51957	8.7008	1.91722	10.357	0.545058	3.12749	1.00567	5.81545	1.17719	6.80463	1.58226	8.84745	1.87956	10.1708
1.72972	2.45885	0.545973	3.09645	1.73045	2.45886	0.800076	4.57705	1.26821	7.24496	1.52101	8.63896	1.91971	10.2427	0.546096	3.0925	1.0106	5.76702	1.18142	6.73918	1.58339	8.81316	1.88182	10.0575
1.724	2.45878	0.547075	3.06262	1.72473	2.45879	0.799351	4.51333	1.27224	7.17347	1.52287	8.56608	1.92212	10.1308	0.547206	3.05882	1.0151	5.71742	1.18611	6.67801	1.5849	8.76689	1.88425	9.94773
1.7183	2.45875	0.54825	3.03006	1.71903	2.45875	0.798647	4.45136	1.27609	7.10276	1.52519	8.48323	1.92444	10.0212	0.54839	3.0264	1.01917	5.66668	1.19125	6.62097	1.58678	8.70899	1.88683	9.84148
1.71263	2.45874	0.549501	2.99873	1.71335	2.45874	0.797968	4.3911	1.27974	7.03274	1.52808	8.39157	1.92667	9.91373	0.54965	2.99521	1.0228	5.61485	1.19686	6.56789	1.58899	8.63984	1.88958	9.73861
1.70697	2.45877	0.550829	2.9686	1.70769	2.45876	0.797317	4.33251	1.28318	6.96335	1.5312	8.30348	1.92882	9.80829	0.550987	2.96521	1.02602	5.56204	1.20291	6.51857	1.5915	8.55989	1.89249	9.639
1.70133	2.45882	0.552235	2.93962	1.70205	2.45881	0.796697	4.27553	1.28641	6.89453	1.53456	8.21886	1.93086	9.70483	0.552401	2.93636	1.02883	5.50837	1.20939	6.47277	1.59426	8.46963	1.89558	9.54257
1.69572	2.45891	0.553719	2.91176	1.69643	2.4589	0.796111	4.22013	1.28941	6.82621	1.53816	8.13761	1.93281	9.60325	0.553895	2.90863	1.03125	5.45399	1.21629	6.43025	1.59689	8.38086	1.89883	9.44918
1.69013	2.45903	0.555284	2.88498	1.69084	2.45901	0.795561	4.16626	1.29219	6.75838	1.54202	8.05962	1.93466	9.5035	0.555469	2.88198	1.03333	5.39907	1.22356	6.39076	1.59938	8.29352	1.9018	9.37022
1.68457	2.45919	0.556929	2.85925	1.68527	2.45917	0.79505	4.11387	1.29475	6.691	1.54612	7.98477	1.9362	9.41801	0.557124	2.85636	1.03507	5.34376	1.23119	6.35403	1.60174	8.20754	1.90444	9.30463
1.67902	2.45938	0.558656	2.83454	1.67972	2.45935	0.79458	4.06293	1.29708	6.62406	1.55047	7.91295	1.93744	9.34615	0.55886	2.83177	1.03652	5.28824	1.23915	6.31983	1.60395	8.12285	1.90669	9.25155
1.6735	2.45961	0.560465	2.81081	1.6742	2.45958	0.794154	4.0134	1.29919	6.55756	1.55507	7.84403	1.93843	9.28743	0.560678	2.80815	1.0377	5.23265	1.2474	6.28791	1.60603	8.03943	1.90851	9.2103
1.66801	2.45988	0.562357	2.78804	1.66871	2.45984	0.793774	3.96524	1.30108	6.4915	1.5599	7.77789	1.93919	9.24144	0.56258	2.78548	1.03863	5.17714	1.25591	6.25806	1.60797	7.9572	1.90987	9.18038
1.66255	2.46019	0.564332	2.76619	1.66324	2.46015	0.793442	3.91842	1.30276	6.42589	1.56497	7.7144	1.93973	9.20786	0.564564	2.76373	1.03936	5.12184	1.26467	6.23006	1.60976	7.87616	1.91076	9.1614
1.6571	2.46054	0.566392	2.74523	1.65779	2.46049	0.793159	3.87289	1.30423	6.36075	1.57026	7.65344	1.94008	9.18648	0.566634	2.74288	1.03989	5.06686	1.27364	6.20373	1.61142	7.79626	1.91204	9.13436
1.65169	2.46093	0.568536	2.72515	1.65238	2.46088	0.792928	3.82862	1.3055	6.2961	1.57577	7.59487	1.94056	9.15589	0.568788	2.7229	1.04026	5.0123	1.2828	6.17889	1.61295	7.71749	1.91346	9.10528
1.6463	2.46137	0.570767	2.70591	1.64698	2.46131	0.79275	3.78559	1.30658	6.23197	1.58148	7.53856	1.94107	9.12284	0.571028	2.70376	1.04048	4.95825	1.29212	6.1554	1.61435	7.63984	1.91542	9.06625
1.64094	2.46185	0.573085	2.6875	1.64162	2.46179	0.792627	3.74375	1.30748	6.16837	1.58739	7.4844	1.94175	9.07821	0.573357	2.68544	1.04058	4.90479	1.3016	6.1331	1.61562	7.56328	1.91795	9.01773
1.63561	2.46237	0.575492	2.6699	1.63629	2.46231	0.792561	3.70308	1.30821	6.10535	1.59347	7.43224	1.94257	9.02228	0.575775	2.66793	1.04057	4.85196	1.31119	6.11188	1.61678	7.48783	1.92108	8.96026
1.63031	2.46295	0.577992	2.6531	1.63098	2.46287	0.792553	3.66355	1.30877	6.04292	1.59973	7.38198	1.94353	8.95542	0.578286	2.65122	1.04046	4.79983	1.3209	6.0916	1.61783	7.41348	1.92487	8.89449
1.62504	2.46357	0.580589	2.63709	1.6257	2.46349	0.792604	3.62512	1.30919	5.98112	1.60615	7.33349	1.94459	8.87806	0.580893	2.6353	1.04028	4.74843	1.3307	6.07217	1.61878	7.34023	1.92934	8.82111
1.61979	2.46424	0.583287	2.62187	1.62046	2.46415	0.792717	3.58777	1.30946	5.91996	1.6127	7.28666	1.94573	8.79067	0.583604	2.62017	1.04003	4.69779	1.34057	6.05348	1.61965	7.2681	1.93395	8.74987
1.61458	2.46496	0.586098	2.60746	1.61524	2.46486	0.792892	3.55148	1.30961	5.85949	1.61939	7.24138	1.9468	8.70475	0.586429	2.60586	1.03972	4.64795	1.3505	6.03544	1.62043	7.1971	1.93868	8.68067
1.6094	2.46573	0.589037	2.59391	1.61005	2.46563	0.793131	3.51621	1.30963	5.79971	1.62619	7.19754	1.9478	8.62028	0.589384	2.59241	1.03936	4.59892	1.36048	6.01797	1.62115	7.12726	1.94354	8.61341
1.60424	2.46655	0.592129	2.58129	1.60489	2.46645	0.793435	3.48194	1.30954	5.74064	1.6331	7.15503	1.94874	8.53726	0.592495	2.57991	1.03897	4.55072	1.37048	6.00097	1.62182	7.05859	1.9485	8.54799
1.59912	2.46743	0.595415	2.56977	1.59976	2.46731	0.793806	3.44864	1.30934	5.68231	1.64009	7.11376	1.94963	8.45567	0.595807	2.56852	1.03854	4.50335	1.3805	5.98436	1.62245	6.99113	1.95356	8.48433
1.59402	2.46836	0.598964	2.5596	1.59467	2.46824	0.794243	3.4163	1.30905	5.62473	1.64716	7.07363	1.95047	8.37551	0.599393	2.55853	1.0381	4.45682	1.39051	5.96807	1.62306	6.92491	1.95872	8.42232
1.58896	2.46934	0.60288	2.55117	1.5896	2.46921	0.79475	3.38489	1.30868	5.56792	1.65429	7.03454	1.95128	8.29678	0.603358	2.55034	1.03763	4.41114	1.4005	5.952	1.62367	6.85997	1.96396	8.36187
1.58393	2.47038	0.607273	2.54492	1.58457	2.47024	0.795327	3.35438	1.30822	5.51188	1.66147	6.99641	1.95206	8.21948	0.607812	2.54435	1.03716	4.36631	1.41045	5.93607	1.6243	6.79637	1.96926	8.3029
1.57893	2.47147	0.612194	2.54097	1.57956	2.47133	0.795975	3.32476	1.3077	5.45662	1.66868	6.95915	1.95284	8.14362	0.612791	2.54065	1.03668	4.32231	1.42033	5.92019	1.62497	6.73416	1.97463	8.24532
1.57396	2.47262	0.617574	2.53898	1.57459	2.47247	0.796696	3.296	1.30711	5.40215	1.6759	6.92266	1.95361	8.06921	0.618216	2.53886	1.03621	4.27915	1.43013	5.90425	1.62571	6.67342	1.98005	8.18904
1.56902	2.47383	0.62328	2.53836	1.56964	2.47367	0.79749	3.26809	1.30647	5.34848	1.68312	6.88686	1.9544	7.99626	0.62395	2.53835	1.03574	4.23683	1.43982	5.88816	1.62655	6.61423	1.9855	8.13398
1.56411	2.4751	0.629193	2.53859	1.56473	2.47493	0.79836	3.24101	1.30577	5.29561	1.69033	6.85168	1.95522	7.92478	0.629881	2.53865	1.03527	4.19533	1.44936	5.87178	1.62753	6.55669	1.99099	8.08006
1.55923	2.47642	0.635235	2.53933	1.55985	2.47625	0.799305	3.21473	1.30503	5.24353	1.69751	6.81701	1.95608	7.8548	0.635935	2.53943	1.03482	4.15465	1.45873	5.85499	1.62869	6.50091	1.99648	8.0272
1.55438	2.4778	0.641357	2.54037	1.55499	2.47762	0.800328	3.18925	1.30425	5.19225	1.70464	6.78279	1.95699	7.78634	0.642064	2.5405	1.03438	4.11478	1.46788	5.83763	1.63006	6.44703	2.00198	7.97532
1.54956	2.47923	0.647532	2.5416	1.55017	2.47905	0.801431	3.16455	1.30343	5.14177	1.7117	6.74893	1.95799	7.71942	0.648244	2.54175	1.03396	4.0757	1.47676	5.81955	1.63172	6.3952	2.00747	7.92435
1.54477	2.48073	0.653741	2.54294	1.54538	2.48054	0.802614	3.1406	1.30258	5.09209	1.71868	6.71533	1.95907	7.65408	0.654456	2.5431	1.03357	4.03742	1.48532	5.80055	1.6337	6.34559	2.01294	7.87421
1.54001	2.48228	0.659974	2.54435	1.54061	2.48208	0.803879	3.11741	1.30171	5.04319	1.72555	6.68193	1.96027	7.59034	0.660691	2.54451	1.03319	3.9999	1.49351	5.78043	1.63608	6.29837	2.01837	7.82484
1.53528	2.48389	0.666223	2.54579	1.53588	2.48368	0.805227	3.09494	1.30082	4.99508	1.73229	6.64863	1.96161	7.52825	0.666941	2.54596	1.03284	3.96316	1.50126	5.759	1.63891	6.25374	2.02376	7.77616
1.53057	2.48556	0.672482	2.54725	1.53117	2.48534	0.806662	3.0732	1.29991	4.94775	1.73888	6.61535	1.9631	7.46784	0.673202	2.54742	1.03253	3.92716	1.50851	5.73605	1.64227	6.21185	2.02908	7.72809
1.5259	2.48728	0.678749	2.54871	1.52649	2.48706	0.808184	3.05217	1.29899	4.9012	1.7453	6.582	1.96477	7.40914	0.679469	2.54888	1.03224	3.89191	1.5152	5.7114	1.6462	6.17286	2.03433	7.68059
1.52125	2.48906	0.685021	2.55017	1.52183	2.48883	0.809797	3.03184	1.29806	4.85541	1.75153	6.54851	1.96663	7.3522	0.685742	2.55033	1.03198	3.85738	1.52129	5.6849	1.65076	6.13684	2.03949	7.63357
1.51662	2.4909	0.691297	2.55161	1.5172	2.49066	0.811501	3.0122	1.29712	4.81038	1.75755	6.5148	1.96872	7.29706	0.692018	2.55178	1.03176	3.82358	1.52673	5.65647	1.65596	6.10383	2.04455	7.58698
1.51202	2.49278	0.697574	2.55304	1.5126	2.49254	0.813301	2.99324	1.29617	4.7661	1.76333	6.48078	1.97105	7.24375	0.698295	2.5532	1.03157	3.79047	1.53152	5.62609	1.66182	6.07377	2.04949	7.54076
1.50744	2.49472	0.703852	2.55444	1.50802	2.49448	0.815198	2.97496	1.29523	4.72256	1.76884	6.4464	1.97364	7.1923	0.704573	2.5546	1.03142	3.75806	1.53564	5.59383	1.66832	6.04653	2.05431	7.49485
1.50288	2.49671	0.710129	2.55582	1.50346	2.49646	0.817197	2.95735	1.29429	4.67976	1.77408	6.41158	1.97652	7.14274	0.71085	2.55598	1.03131	3.72633	1.53913	5.55982	1.67542	6.02192	2.05898	7.44919
1.49834	2.49875	0.716406	2.55718	1.49891	2.49849	0.8193	2.94041	1.29335	4.63768	1.77903	6.37627	1.97971	7.09508	0.717127	2.55733	1.03124	3.69527	1.54203	5.52425	1.68309	5.9997	2.0635	7.40374
1.49382	2.50084	0.722682	2.55851	1.49439	2.50057	0.821511	2.92413	1.29242	4.59632	1.78366	6.34044	1.98321	7.04934	0.723403	2.55866	1.03121	3.66486	1.54439	5.48734	1.69126	5.97964	2.06786	7.35844
1.48931	2.50296	0.728957	2.55981	1.48988	2.50269	0.823835	2.90852	1.2915	4.55566	1.78797	6.30404	1.98704	7.0055	0.729677	2.55996	1.03122	3.6351	1.54627	5.44933	1.69987	5.96147	2.07203	7.31326
1.48482	2.50512	0.735229	2.56108	1.48539	2.50484	0.826275	2.89356	1.29059	4.5157	1.79194	6.26707	1.99121	6.96356	0.735949	2.56123	1.03128	3.60597	1.54772	5.41045	1.70888	5.94496	2.07602	7.26815
1.48033	2.50731	0.741498	2.56233	1.4809	2.50703	0.828837	2.87927	1.2897	4.47642	1.79558	6.22953	1.99573	6.92348	0.742219	2.56247	1.03138	3.57745	1.5488	5.37091	1.71823	5.92987	2.07982	7.22309
1.47585	2.50953	0.747766	2.56355	1.47642	2.50925	0.831526	2.86564	1.28882	4.43782	1.79888	6.19142	2.00059	6.88522	0.748485	2.56368	1.03153	3.54955	1.54957	5.33091	1.72786	5.91602	2.08341	7.17805
1.47137	2.51176	0.75403	2.56473	1.47194	2.51148	0.834346	2.85267	1.28795	4.39988	1.80185	6.15277	2.00578	6.84872	0.754749	2.56487	1.03172	3.52225	1.55006	5.29061	1.73775	5.90324	2.0868	7.13302
1.46688	2.514	0.760291	2.56589	1.46745	2.51372	0.837304	2.84038	1.2871	4.36261	1.80449	6.11361	2.01131	6.81391	0.76101	2.56602	1.03196	3.49553	1.55032	5.25015	1.74785	5.89138	2.08998	7.08797
1.46238	2.51624	0.766549	2.56702	1.46295	2.51596	0.840403	2.82875	1.28628	4.32597	1.80681	6.074	2.01716	6.78073	0.767268	2.56715	1.03225	3.46938	1.55038	5.20965	1.75814	5.88031	2.09294	7.0429
1.45786	2.51846	0.772804	2.56812	1.45843	2.51818	0.843648	2.81779	1.28547	4.28998	1.80883	6.03399	2.02332	6.74909	0.773522	2.56825	1.03258	3.44381	1.55028	5.16922	1.76858	5.86992	2.09569	6.99781
1.45331	2.52065	0.779055	2.5692	1.45389	2.52037	0.847044	2.80749	1.28469	4.25461	1.81057	5.99364	2.02977	6.71889	0.779773	2.56932	1.03297	3.41878	1.55003	5.12893	1.77915	5.86012	2.09822	6.95271
1.44871	2.52278	0.785302	2.57024	1.4493	2.52251	0.850594	2.79786	1.28394	4.21985	1.81203	5.953	2.0365	6.69006	0.78602	2.57036	1.0334	3.3943	1.54966	5.08886	1.78983	5.85084	2.10055	6.90761
1.44407	2.52483	0.791546	2.57126	1.44466	2.52457	0.854299	2.78888	1.2832	4.18571	1.81323	5.91215	2.04348	6.66249	0.792263	2.57137	1.03389	3.37035	1.54919	5.04905	1.8006	5.842	2.10267	6.86252
1.43935	2.52678	0.797785	2.57225	1.43995	2.52654	0.858161	2.78055	1.2825	4.15216	1.8142	5.87114	2.0507	6.6361	0.798502	2.57236	1.03442	3.34692	1.54863	5.00955	1.81145	5.83353	2.1046	6.81747
1.43456	2.5286	0.80402	2.57321	1.43517	2.52838	0.862179	2.77283	1.28182	4.11919	1.81495	5.83004	2.05814	6.6108	0.804736	2.57331	1.03501	3.32401	1.54799	4.9704	1.82237	5.8254	2.10634	6.77248
1.42966	2.53027	0.810251	2.57414	1.43029	2.53007	0.866349	2.76572	1.28117	4.08681	1.8155	5.7889	2.06577	6.58651	0.810966	2.57424	1.03565	3.3016	1.5473	4.93163	1.83334	5.81755	2.1079	6.72759
1.42466	2.53175	0.816477	2.57504	1.4253	2.53158	0.870668	2.75919	1.28056	4.05499	1.81587	5.74778	2.07359	6.56315	0.817192	2.57514	1.03634	3.27968	1.54655	4.89326	1.84434	5.80993	2.10929	6.68282
1.41954	2.53304	0.822699	2.57592	1.4202	2.53289	0.875131	2.75319	1.27997	4.02373	1.81607	5.70672	2.08156	6.54063	0.823413	2.57602	1.03709	3.25825	1.54576	4.85531	1.85538	5.80251	2.11053	6.63821
1.4143	2.53412	0.828915	2.57677	1.41497	2.534	0.879729	2.74772	1.27941	3.99302	1.81611	5.66578	2.08968	6.51888	0.829629	2.57686	1.03789	3.23729	1.54493	4.81779	1.86642	5.79524	2.11163	6.5938
1.40894	2.53499	0.835127	2.57759	1.40962	2.53489	0.884456	2.74271	1.27889	3.96285	1.81602	5.62499	2.09793	6.49784	0.83584	2.57768	1.03874	3.21681	1.54408	4.78072	1.87747	5.78809	2.11259	6.54964
1.40345	2.53566	0.841333	2.57838	1.40415	2.53558	0.889302	2.73815	1.2784	3.93321	1.8158	5.5844	2.10629	6.47744	0.842046	2.57847	1.03965	3.19678	1.5432	4.74411	1.88852	5.78101	2.11345	6.50575
1.39786	2.53613	0.847534	2.57915	1.39858	2.53608	0.894258	2.73399	1.27795	3.9041	1.81546	5.54403	2.11475	6.45762	0.848246	2.57923	1.04061	3.17719	1.5423	4.70795	1.89954	5.77396	2.11421	6.4622
1.39217	2.53642	0.853729	2.57988	1.3929	2.5364	0.899316	2.73019	1.27753	3.8755	1.81502	5.50391	2.12328	6.43832	0.854441	2.57997	1.04163	3.15806	1.54139	4.67226	1.91052	5.76691	2.1149	6.41902
1.3864	2.53656	0.859919	2.58059	1.38713	2.53655	0.904467	2.72673	1.27714	3.8474	1.81449	5.46407	2.13188	6.41948	0.860629	2.58067	1.04271	3.13935	1.54047	4.63704	1.92146	5.75979	2.11553	6.37627
1.38055	2.53657	0.866102	2.58127	1.38129	2.53657	0.909702	2.72356	1.2768	3.8198	1.81388	5.42453	2.14053	6.40105	0.866811	2.58135	1.04384	3.12107	1.53954	4.60228	1.93232	5.75256	2.11612	6.33402
1.37463	2.53645	0.872278	2.58193	1.37538	2.53647	0.915013	2.72067	1.27648	3.79269	1.81319	5.38531	2.14921	6.38297	0.872987	2.582	1.04502	3.10321	1.53861	4.568	1.94308	5.74514	2.11671	6.29232
1.36866	2.53623	0.878448	2.58255	1.36942	2.53627	0.920392	2.71801	1.27621	3.76606	1.81244	5.34642	2.15792	6.3652	0.879156	2.58262	1.04627	3.08576	1.53768	4.53418	1.95372	5.73747	2.11732	6.25125
1.36264	2.53593	0.88461	2.58315	1.36341	2.53597	0.925833	2.71558	1.27598	3.73991	1.81162	5.30789	2.16662	6.34768	0.885318	2.58321	1.04757	3.06871	1.53676	4.50084	1.96421	5.72944	2.11798	6.2109
1.35659	2.53554	0.890766	2.58371	1.35736	2.53559	0.93133	2.71334	1.27578	3.71421	1.81075	5.26972	2.17532	6.33037	0.891472	2.58377	1.04893	3.05206	1.53584	4.46795	1.9745	5.72095	2.11874	6.17137
1.35049	2.53509	0.896913	2.58425	1.35127	2.53515	0.936876	2.71127	1.27563	3.68898	1.80984	5.23193	2.18399	6.3132	0.897618	2.5843	1.05034	3.0358	1.53493	4.43553	1.98455	5.71187	2.11965	6.13278
1.34437	2.53458	0.903052	2.58475	1.34515	2.53465	0.942467	2.70936	1.27551	3.66419	1.80888	5.19452	2.19261	6.29613	0.903756	2.58481	1.05182	3.01992	1.53403	4.40357	1.99428	5.70202	2.12075	6.09529
1.33823	2.53402	0.909182	2.58522	1.33901	2.53409	0.948097	2.70758	1.27543	3.63984	1.80789	5.15749	2.20117	6.27909	0.909885	2.58527	1.05335	3.00442	1.53314	4.37206	2.00363	5.69121	2.12212	6.05905
1.33206	2.53341	0.915303	2.58566	1.33285	2.53349	0.953764	2.70594	1.2754	3.61593	1.80687	5.12086			0.916005	2.58571	1.05494	2.98929	1.53227	4.341	2.01251	5.67921	2.12385	6.02429
1.32588	2.53277	0.921414	2.58607	1.32667	2.53285	0.959463	2.7044	1.2754	3.59245	1.80581	5.08463			0.922115	2.58611	1.0566	2.97453	1.53141	4.31039	2.02082	5.66577	2.12602	5.99124
1.31968	2.53208	0.927514	2.58644	1.32047	2.53217	0.96519	2.70296	1.27545	3.56939	1.80474	5.04881			0.928214	2.58648	1.05831	2.96012	1.53057	4.28022	2.02845	5.65061	2.12875	5.96017
1.31347	2.53137	0.933604	2.58678	1.31425	2.53146	0.970944	2.70162	1.27554	3.54673	1.80364	5.01338			0.934303	2.58681	1.06008	2.94607	1.52974	4.25049	2.03531	5.6335	2.13213	5.93133
1.30724	2.53062	0.939682	2.58708	1.30803	2.53072	0.976721	2.70036	1.27567	3.52449	1.80253	4.97836			0.940379	2.58711	1.06192	2.93237	1.52894	4.22119	2.04131	5.61426	2.13628	5.90496
1.301	2.52985	0.945747	2.58734	1.30179	2.52995	0.98252	2.69917	1.27585	3.50264	1.80141	4.94375			0.946442	2.58737	1.06382	2.91902	1.52816	4.19232	2.04642	5.59282	2.14126	5.88122
1.29476	2.52905	0.951798	2.58756	1.29555	2.52915	0.988337	2.69805	1.27607	3.48119	1.80027	4.90954			0.952492	2.58758	1.06578	2.906	1.52739	4.16388	2.05065	5.56924	2.14711	5.86015
1.2885	2.52823	0.957835	2.58774	1.2893	2.52833	0.994171	2.69699	1.27633	3.46013	1.79913	4.87574			0.958527	2.58776	1.06781	2.89333	1.52666	4.13585	2.05403	5.5437	2.15381	5.84165
1.28224	2.52738	0.963856	2.58787	1.28304	2.52749	1.00002	2.69598	1.27663	3.43944	1.79798	4.84235			0.964546	2.58789	1.0699	2.88098	1.52594	4.10823	2.05666	5.51645	2.16132	5.82554
1.27597	2.52652	0.96986	2.58796	1.27677	2.52663	1.00588	2.69502	1.27698	3.41913	1.79683	4.80936			0.970548	2.58797	1.07206	2.86896	1.52525	4.08102	2.05864	5.48778	2.16953	5.81155
1.2697	2.52564	0.975846	2.588	1.2705	2.52575	1.01176	2.69411	1.27738	3.39918	1.79567	4.77677			0.976532	2.588	1.07428	2.85727	1.52459	4.05422	2.06006	5.458	2.17837	5.79936
1.26342	2.52474	0.981812	2.58799	1.26422	2.52485	1.01765	2.69324	1.27782	3.3796	1.79452	4.74458			0.982496	2.58798	1.07658	2.84591	1.52395	4.02781	2.06102	5.42736	2.18772	5.7887
1.25714	2.52382	0.987757	2.58792	1.25794	2.52394	1.02354	2.69241	1.2783	3.36037	1.79337	4.71279			0.988438	2.5879	1.07894	2.83486	1.52334	4.00179	2.0616	5.39609	2.1975	5.77929
1.25085	2.52288	0.993679	2.58779	1.25165	2.523	1.02945	2.69161	1.27883	3.3415	1.79223	4.68139			0.994358	2.58777	1.08137	2.82414	1.52276	3.97616	2.06186	5.36438	2.20763	5.77093
1.24456	2.52193	0.999575	2.58759	1.24536	2.52205	1.03537	2.69084	1.27941	3.32296	1.79109	4.65039			1.00025	2.58757	1.08388	2.81374	1.5222	3.95091	2.06187	5.33239		
1.23827	2.52097	1.00544	2.58733	1.23907	2.52109	1.04129	2.69009	1.28003	3.30477	1.78995	4.61977			1.00612	2.5873	1.08647	2.80365	1.52168	3.92604	2.06166	5.30023		
1.23197	2.51999	1.01128	2.587	1.23277	2.52011	1.04721	2.68938	1.28069	3.28691	1.78883	4.58954			1.01195	2.58696	1.08913	2.79388	1.52118	3.90153	2.06128	5.26801		
1.22567	2.51899	1.01709	2.58659	1.22647	2.51912	1.05315	2.68868	1.28141	3.26938	1.78772	4.55969			1.01776	2.58653	1.09187	2.78443	1.52072	3.8774	2.06076	5.2358		
1.21937	2.51799	1.02286	2.58609	1.22017	2.51811	1.05909	2.68801	1.28217	3.25218	1.78662	4.53022			1.02352	2.58603	1.09469	2.7753	1.52029	3.85362	2.06012	5.20365		
1.21307	2.51697	1.0286	2.5855	1.21387	2.5171	1.06503	2.68735	1.28297	3.23529	1.78553	4.50112			1.02925	2.58543	1.0976	2.76649	1.51989	3.8302	2.05937	5.17163		
1.20677	2.51593	1.03429	2.58482	1.20757	2.51607	1.07098	2.68671	1.28383	3.21871	1.78445	4.4724			1.03494	2.58473	1.1006	2.758	1.51952	3.80713	2.05854	5.13977		
1.20047	2.51489	1.03993	2.58403	1.20126	2.51502	1.07692	2.68609	1.28473	3.20244	1.78339	4.44404			1.04058	2.58393	1.10368	2.74984	1.51918	3.78441	2.05764	5.1081		
1.19416	2.51383	1.04553	2.58312	1.19496	2.51397	1.08288	2.68548	1.28568	3.18648	1.78235	4.41605			1.04617	2.58301	1.10687	2.74201	1.51888	3.76203	2.05669	5.07664		
1.18786	2.51277	1.05107	2.5821	1.18866	2.5129	1.08883	2.68488	1.28667	3.17082	1.78132	4.38841			1.05171	2.58197	1.11015	2.73452	1.51861	3.73999	2.05568	5.04541		
1.18155	2.51169	1.05656	2.58094	1.18235	2.51183	1.09478	2.68429	1.28772	3.15545	1.78031	4.36114			1.05718	2.5808	1.11354	2.72736	1.51837	3.71827	2.05463	5.01444		
1.17525	2.5106	1.06198	2.57965	1.17605	2.51074	1.10074	2.68371	1.28881	3.14037	1.77932	4.33421			1.0626	2.5795	1.11703	2.72054	1.51817	3.69689	2.05354	4.98372		
1.16894	2.5095	1.06734	2.57822	1.16974	2.50964	1.10669	2.68313	1.28995	3.12558	1.77835	4.30763			1.06795	2.57805	1.12064	2.71407	1.518	3.67583	2.05243	4.95328		
1.16264	2.5084	1.07263	2.57664	1.16344	2.50854	1.11265	2.68256	1.29114	3.11107	1.77739	4.28139			1.07324	2.57645	1.12436	2.70794	1.51787	3.65508	2.05129	4.92312		
1.15634	2.50728	1.07785	2.5749	1.15714	2.50742	1.1186	2.682	1.29238	3.09684	1.77646	4.2555			1.07845	2.57469	1.12819	2.70216	1.51777	3.63465	2.05014	4.89325		
1.15004	2.50616	1.083	2.57301	1.15084	2.5063	1.12456	2.68144	1.29367	3.08288	1.77555	4.22994			1.08358	2.57278	1.13215	2.69674	1.5177	3.61453	2.04896	4.86367		
1.14374	2.50503	1.08806	2.57095	1.14454	2.50517	1.13051	2.68087	1.29501	3.06919	1.77466	4.20471			1.08864	2.57071	1.13623	2.69166	1.51768	3.59471	2.04778	4.83438		
1.13744	2.50389	1.09305	2.56874	1.13824	2.50404	1.13645	2.68031	1.2964	3.05578	1.7738	4.17981			1.09362	2.56848	1.14043	2.68693	1.51769	3.57519	2.04659	4.80539		
1.13115	2.50275	1.09797	2.56637	1.13195	2.50289	1.1424	2.67975	1.29784	3.04262	1.77296	4.15523			1.09853	2.56609	1.14476	2.68254	1.51773	3.55597	2.04539	4.7767		
1.12486	2.5016	1.10281	2.56386	1.12565	2.50175	1.14834	2.67919	1.29933	3.02972	1.77214	4.13097			1.10336	2.56356	1.1492	2.67848	1.51781	3.53704	2.04419	4.74831		
1.11857	2.50045	1.10757	2.5612	1.11937	2.5006	1.15428	2.67862	1.30087	3.01709	1.77134	4.10703			1.10812	2.56089	1.15377	2.67474	1.51793	3.51839	2.04299	4.72022		
1.11229	2.4993	1.11227	2.55842	1.11308	2.49944	1.16021	2.67804	1.30246	3.0047	1.77058	4.0834			1.11281	2.55809	1.15846	2.67131	1.51809	3.50004	2.04179	4.69244		
1.10601	2.49814	1.11691	2.55551	1.1068	2.49828	1.16614	2.67746	1.30411	2.99257	1.76983	4.06008			1.11744	2.55517	1.16326	2.66818	1.51828	3.48196	2.04059	4.66495		
1.09973	2.49698	1.12149	2.55251	1.10053	2.49713	1.17206	2.67687	1.30581	2.98069	1.76911	4.03707			1.12201	2.55216	1.16816	2.66532	1.51851	3.46415	2.0394	4.63776		
1.09346	2.49582	1.12601	2.54943	1.09426	2.49597	1.17797	2.67627	1.30756	2.96905	1.76842	4.01435			1.12653	2.54907	1.17317	2.66272	1.51878	3.44662	2.03821	4.61086		
1.0872	2.49467	1.13049	2.54627	1.088	2.49481	1.18387	2.67566	1.30937	2.95766	1.76776	3.99193			1.13101	2.5459	1.17826	2.66036	1.51908	3.42936	2.03703	4.58427		
1.08095	2.49352	1.13494	2.54306	1.08174	2.49366	1.18977	2.67503	1.31123	2.94651	1.76712	3.96981			1.13544	2.54269	1.18345	2.65823	1.51943	3.41236	2.03586	4.55796		
1.0747	2.49237	1.13935	2.53982	1.07549	2.49252	1.19565	2.67439	1.31315	2.9356	1.76651	3.94797			1.13985	2.53944	1.18872	2.65629	1.51981	3.39562	2.0347	4.53196		
1.06846	2.49123	1.14374	2.53655	1.06925	2.49138	1.20153	2.67373	1.31512	2.92492	1.76593	3.92642			1.14424	2.53618	1.19406	2.65454	1.52023	3.37914	2.03355	4.50624		
1.06223	2.49011	1.14811	2.53328	1.06302	2.49025	1.20739	2.67305	1.31716	2.91449	1.76537	3.90516			1.14861	2.5329	1.19947	2.65296	1.52069	3.36291	2.03242	4.48081		
1.05601	2.489	1.15247	2.53002	1.0568	2.48914	1.21323	2.67234	1.31925	2.90429	1.76485	3.88417			1.15297	2.52964	1.20494	2.65153	1.52118	3.34693	2.03129	4.45566		
1.04981	2.4879	1.15682	2.52677	1.05059	2.48804	1.21907	2.67161	1.3214	2.89433	1.76435	3.86345			1.15732	2.5264	1.21047	2.65023	1.52172	3.3312	2.03018	4.43081		
1.04362	2.48683	1.16117	2.52356	1.0444	2.48696	1.22488	2.67085	1.32362	2.8846	1.76388	3.84301			1.16167	2.52319	1.21605	2.64906	1.52229	3.31571	2.02909	4.40623		
1.03744	2.48578	1.16553	2.52039	1.03822	2.48591	1.23068	2.67006	1.3259	2.87511	1.76344	3.82284			1.16603	2.52003	1.22167	2.648	1.52291	3.30046	2.02801	4.38193		
1.03128	2.48476	1.16989	2.51727	1.03206	2.48488	1.23646	2.66923	1.32824	2.86585	1.76303	3.80293			1.17039	2.51691	1.22733	2.64703	1.52356	3.28544	2.02695	4.35791		
1.02514	2.48377	1.17427	2.51421	1.02592	2.48389	1.24221	2.66836	1.33065	2.85683	1.76266	3.78328			1.17477	2.51386	1.23303	2.64616	1.52425	3.27066	2.0259	4.33416		
1.01902	2.48283	1.17867	2.51121	1.0198	2.48294	1.24794	2.66744	1.33313	2.84805	1.76231	3.76389			1.17917	2.51087	1.23876	2.64536	1.52499	3.25611	2.02488	4.31068		
1.01293	2.48193	1.18308	2.50829	1.0137	2.48204	1.25364	2.66648	1.33568	2.83951	1.76199	3.74476			1.18359	2.50796	1.24452	2.64463	1.52576	3.24179	2.02387	4.28748		
1.00686	2.4811	1.18752	2.50545	1.00763	2.4812	1.25931	2.66546	1.33831	2.8312	1.7617	3.72588			1.18803	2.50512	1.25031	2.64397	1.52657	3.22769	2.02288	4.26453		
1.00083	2.48033	1.19199	2.50269	1.00159	2.48042	1.26495	2.66438	1.34102	2.82315	1.76145	3.70725			1.1925	2.50237	1.25612	2.64336	1.52742	3.21381	2.02191	4.24186		
0.994829	2.47964	1.19648	2.50001	0.995588	2.47972	1.27055	2.66324	1.3438	2.81534	1.76122	3.68886			1.197	2.49971	1.26195	2.6428	1.52831	3.20014	2.02096	4.21944		
0.988868	2.47904	1.20101	2.49743	0.989622	2.47911	1.27611	2.66202	1.34668	2.80778	1.76103	3.67071			1.20153	2.49714	1.26781	2.64229	1.52924	3.1867	2.02003	4.19728		
0.982952	2.47854	1.20557	2.49495	0.983699	2.4786	1.28163	2.66072	1.34964	2.80048	1.76086	3.65281			1.2061	2.49467	1.27367	2.64181	1.53021	3.17346	2.01912	4.17537		
0.977084	2.47817	1.21017	2.49256	0.977825	2.47821	1.2871	2.65933	1.35269	2.79344	1.76073	3.63514			1.2107	2.49229	1.27956	2.64137	1.53122	3.16043	2.01824	4.15372		
0.971272	2.47793	1.21481	2.49028	0.972006	2.47795	1.29251	2.65785	1.35584	2.78667	1.76064	3.6177			1.21534	2.49002	1.28545	2.64097	1.53227	3.14761	2.01737	4.13232		
0.965522	2.47784	1.21948	2.48809	0.966248	2.47784	1.29787	2.65627	1.35909	2.78017	1.76057	3.60049			1.22002	2.48785	1.29136	2.64059	1.53336	3.135	2.01653	4.11117		
0.95984	2.47794	1.2242	2.48601	0.960557	2.47791	1.30317	2.65457	1.36245	2.77395	1.76054	3.58351			1.22474	2.48578	1.29728	2.64023	1.5345	3.12258	2.01571	4.09026		
0.954233	2.47822	1.22896	2.48404	0.95494	2.47818	1.3084	2.65276	1.36592	2.768	1.76054	3.56676			1.22951	2.48382	1.30321	2.6399	1.53567	3.11036	2.01492	4.06959		
0.948708	2.47873	1.23376	2.48217	0.949404	2.47865	1.31356	2.65082	1.3695	2.76235	1.76057	3.55023			1.23432	2.48196	1.30915	2.63959	1.53688	3.09834	2.01415	4.04916		
0.943271	2.47947	1.23861	2.48041	0.943956	2.47936	1.31864	2.64875	1.37321	2.75699	1.76063	3.53391			1.23917	2.48021	1.31509	2.63929	1.53814	3.08651	2.0134	4.02897		
0.937928	2.48047	1.2435	2.47875	0.9386	2.48033	1.32365	2.64654	1.37703	2.75192	1.76073	3.51782			1.24407	2.47857	1.32104	2.63901	1.53943	3.07487	2.01267	4.00901		
0.932683	2.48174	1.24844	2.4772	0.933342	2.48157	1.32858	2.64419	1.38098	2.74715	1.76086	3.50193			1.24901	2.47703	1.32699	2.63874	1.54077	3.06342	2.01198	3.98928		
0.927539	2.4833	1.25343	2.47576	0.928186	2.48309	1.33342	2.64171	1.38506	2.74267	1.76102	3.48626			1.254	2.4756	1.33295	2.63848	1.54214	3.05216	2.0113	3.96978		
0.922498	2.48516	1.25846	2.47442	0.923132	2.48491	1.33819	2.63908	1.38926	2.73848	1.76122	3.47079			1.25904	2.47427	1.33891	2.63823	1.54356	3.04108	2.01065	3.95051		
0.91756	2.48732	1.26354	2.47318	0.918181	2.48703	1.34287	2.63632	1.39359	2.73458	1.76145	3.45553			1.26412	2.47305	1.34488	2.63799	1.54502	3.03018	2.01003	3.93146		
0.912723	2.48978	1.26866	2.47205	0.913331	2.48945	1.34748	2.63343	1.39805	2.73096	1.76171	3.44048			1.26925	2.47193	1.35084	2.63776	1.54652	3.01946	2.00943	3.91263		
0.907984	2.49254	1.27383	2.47102	0.908579	2.49217	1.35201	2.63043	1.40262	2.7276	1.76201	3.42562			1.27443	2.47091	1.35681	2.63753	1.54807	3.00892	2.00886	3.89402		
0.903338	2.49559	1.27905	2.47008	0.903922	2.49519	1.35647	2.62732	1.40732	2.7245	1.76234	3.41096			1.27965	2.46998	1.36278	2.6373	1.54965	2.99855	2.00831	3.87563		
0.89878	2.49893	1.28431	2.46925	0.899353	2.49849	1.36087	2.62411	1.41212	2.72164	1.7627	3.3965			1.28492	2.46916	1.36874	2.63707	1.55128	2.98836	2.00779	3.85745		
0.894303	2.50254	1.28962	2.4685	0.894866	2.50206	1.36522	2.62083	1.41702	2.719	1.7631	3.38223			1.29024	2.46842	1.37471	2.63684	1.55295	2.97834	2.0073	3.83948		
0.889902	2.5064	1.29498	2.46785	0.890456	2.5059	1.36952	2.61749	1.42203	2.71658	1.76354	3.36816			1.29559	2.46778	1.38068	2.63662	1.55466	2.96848	2.00683	3.82173		
0.885568	2.51051	1.30037	2.46728	0.886114	2.50998	1.37378	2.6141	1.42713	2.71435	1.764	3.35427			1.30099	2.46722	1.38664	2.63639	1.55642	2.9588	2.0064	3.80417		
0.881294	2.51485	1.30581	2.4668	0.881833	2.51429	1.37801	2.61069	1.43231	2.7123	1.7645	3.34056			1.30644	2.46675	1.3926	2.63615	1.55822	2.94928	2.00598	3.78683		
0.877074	2.51939	1.31129	2.4664	0.877606	2.51881	1.38222	2.60726	1.43756	2.71041	1.76504	3.32704			1.31192	2.46636	1.39856	2.63592	1.56006	2.93993	2.0056	3.76968		
0.872899	2.52413	1.31681	2.46608	0.873426	2.52352	1.38642	2.60385	1.44289	2.70867	1.76561	3.3137			1.31744	2.46604	1.40451	2.63568	1.56194	2.93074	2.00524	3.75274		
0.868763	2.52904	1.32236	2.46583	0.869285	2.52841	1.39062	2.60047	1.44828	2.70707	1.76621	3.30054			1.323	2.4658	1.41046	2.63543	1.56387	2.92171	2.00491	3.73599		
0.864656	2.53411	1.32796	2.46565	0.865175	2.53346	1.39483	2.59714	1.45373	2.70559	1.76685	3.28756			1.3286	2.46563	1.4164	2.63517	1.56585	2.91284	2.00461	3.71943		
0.860571	2.53931	1.33359	2.46554	0.861088	2.53864	1.39906	2.59388	1.45923	2.70421	1.76753	3.27476			1.33424	2.46553	1.42234	2.6349	1.56787	2.90413	2.00434	3.70307		
0.8565	2.54462	1.33925	2.46549	0.857016	2.54394	1.40333	2.59071	1.46479	2.70294	1.76824	3.26212			1.3399	2.46549	1.42827	2.63463	1.56993	2.89558	2.0041	3.68691		
0.852435	2.55003	1.34495	2.46551	0.85295	2.54934	1.40764	2.58765	1.47038	2.70176	1.76898	3.24966			1.3456	2.46551	1.43419	2.63434	1.57204	2.88718	2.00388	3.67093		
0.848365	2.55549	1.35068	2.46558	0.848882	2.5548	1.41202	2.58473	1.47601	2.70066	1.76976	3.23737			1.35134	2.46559	1.44011	2.63404	1.5742	2.87894	2.00369	3.65513		
0.844283	2.56099	1.35643	2.4657	0.844801	2.5603	1.41647	2.58197	1.48168	2.69963	1.77057	3.22524			1.3571	2.46572	1.44601	2.63373	1.5764	2.87086	2.00353	3.63952		
0.840178	2.56651	1.36222	2.46588	0.8407	2.56581	1.421	2.57939	1.48738	2.69867	1.77142	3.21328			1.36289	2.4659	1.45191	2.6334	1.57865	2.86292	2.0034	3.6241		
0.836041	2.572	1.36803	2.4661	0.836567	2.5713	1.42564	2.57702	1.4931	2.69777	1.7723	3.20148			1.3687	2.46613	1.45779	2.63305	1.58095	2.85515	2.0033	3.60885		
0.831861	2.57743	1.37387	2.46637	0.832394	2.57675	1.4304	2.57487	1.49886	2.69692	1.77322	3.18984			1.37455	2.4664	1.46366	2.63268	1.5833	2.84752	2.00323	3.59378		
0.82763	2.58279	1.37974	2.46668	0.82817	2.58212	1.43528	2.57298	1.50464	2.69612	1.77417	3.17836			1.38041	2.46672	1.46952	2.63229	1.5857	2.84005	2.00319	3.57889		
0.823339	2.58803	1.38563	2.46703	0.823886	2.58738	1.4403	2.57134	1.51043	2.69536	1.77516	3.16704			1.3863	2.46707	1.47536	2.63188	1.58814	2.83273	2.00317	3.56417		
0.818978	2.59313	1.39154	2.46742	0.819535	2.5925	1.44546	2.56996	1.51625	2.69465	1.77618	3.15587			1.39222	2.46746	1.48119	2.63145	1.59065	2.82556	2.00319	3.54963		
0.81454	2.59806	1.39747	2.46784	0.815108	2.59745	1.45075	2.56883	1.52208	2.69397	1.77724	3.14486			1.39815	2.46789	1.487	2.63099	1.5932	2.81854	2.00323	3.53525		
0.810021	2.6028	1.40342	2.46829	0.810598	2.60221	1.45617	2.56794	1.52793	2.69332	1.77833	3.134			1.4041	2.46834	1.4928	2.6305	1.59581	2.81168	2.00331	3.52105		
0.805414	2.60733	1.40939	2.46877	0.806003	2.60677	1.46171	2.56726	1.5338	2.69271	1.77946	3.12329			1.41007	2.46883	1.49857	2.62998	1.59847	2.80497	2.00341	3.50701		
0.800717	2.61164	1.41538	2.46928	0.801318	2.6111	1.46736	2.56677	1.53967	2.69212	1.78062	3.11272			1.41607	2.46934	1.50432	2.62942	1.60119	2.79841	2.00355	3.49313		
0.79593	2.61571	1.42138	2.46981	0.796542	2.6152	1.47309	2.56644	1.54556	2.69156	1.78182	3.10231			1.42207	2.46988	1.51005	2.62883	1.60397	2.79201	2.00371	3.47942		
0.791052	2.61954	1.4274	2.47037	0.791675	2.61907	1.4789	2.56626	1.55146	2.69102	1.78306	3.09204			1.4281	2.47044	1.51575	2.6282	1.60681	2.78577	2.0039	3.46587		
0.786085	2.62314	1.43344	2.47095	0.78672	2.62269	1.48478	2.56618	1.55737	2.69049	1.78433	3.08191			1.43413	2.47102	1.52142	2.62753	1.60971	2.77968	2.00413	3.45248		
0.781034	2.6265	1.43949	2.47155	0.781679	2.62609	1.49072	2.56621	1.56328	2.68999	1.78564	3.07192			1.44019	2.47162	1.52707	2.62681	1.61268	2.77375	2.00438	3.43924		
0.775901	2.62965	1.44556	2.47217	0.776556	2.62926	1.4967	2.56631	1.56921	2.68951	1.78698	3.06208			1.44625	2.47224	1.53268	2.62604	1.61572	2.76799	2.00466	3.42617		
0.770692	2.63258	1.45163	2.47281	0.771356	2.63222	1.50272	2.56649	1.57514	2.68904	1.78836	3.05237			1.45233	2.47288	1.53826	2.62522	1.61882	2.76238	2.00498	3.41324		
0.765411	2.63531	1.45773	2.47346	0.766085	2.63498	1.50878	2.56671	1.58107	2.68858	1.78977	3.0428			1.45843	2.47354	1.5438	2.62434	1.62199	2.75694	2.00532	3.40047		
0.760065	2.63786	1.46383	2.47413	0.760746	2.63755	1.51486	2.56699	1.58702	2.68814	1.79122	3.03337			1.46453	2.47421	1.5493	2.6234	1.62524	2.75167	2.0057	3.38785		
0.754657	2.64024	1.46994	2.47481	0.755346	2.63994	1.52097	2.5673	1.59296	2.68771	1.79271	3.02407			1.47064	2.47489	1.55476	2.62239	1.62856	2.74657	2.0061	3.37538		
0.749194	2.64246	1.47607	2.47551	0.74989	2.64218	1.5271	2.56764	1.59891	2.68728	1.79423	3.01491			1.47677	2.47559	1.56017	2.62132	1.63197	2.74164	2.00654	3.36305		
0.743681	2.64453	1.4822	2.47621	0.744382	2.64427	1.53324	2.568	1.60487	2.68687	1.79579	3.00587			1.4829	2.47629	1.56553	2.62017	1.63545	2.73689	2.007	3.35088		
0.738121	2.64647	1.48834	2.47693	0.738828	2.64623	1.5394	2.56839	1.61082	2.68647	1.79739	2.99697			1.48905	2.47701	1.57084	2.61895	1.63902	2.73231	2.0075	3.33884		
0.732519	2.6483	1.4945	2.47765	0.733231	2.64807	1.54557	2.56879	1.61678	2.68607	1.79902	2.9882			1.4952	2.47774	1.5761	2.61764	1.64268	2.72792	2.00803	3.32695		
0.726879	2.65002	1.50066	2.47839	0.727596	2.6498	1.55174	2.56921	1.62274	2.68567	1.80069	2.97955			1.50137	2.47847	1.5813	2.61625	1.64643	2.72371	2.00858	3.3152		
0.721205	2.65164	1.50683	2.47913	0.721926	2.65144	1.55793	2.56964	1.62871	2.68529	1.8024	2.97103			1.50754	2.47921	1.58643	2.61477	1.65027	2.71968	2.00917	3.30359		
0.7155	2.65317	1.513	2.47988	0.716225	2.65298	1.56413	2.57008	1.63467	2.6849	1.80414	2.96264			1.51371	2.47996	1.59151	2.6132	1.65421	2.71584	2.00979	3.29212		
0.709767	2.65462	1.51919	2.48063	0.710496	2.65444	1.57033	2.57052	1.64063	2.68453	1.80593	2.95437			1.5199	2.48072	1.59652	2.61153	1.65824	2.71218	2.01044	3.28078		
0.704009	2.65601	1.52538	2.48139	0.70474	2.65584	1.57653	2.57097	1.6466	2.68415	1.80775	2.94623			1.52609	2.48148	1.60147	2.60978	1.66237	2.70871	2.01112	3.26958		
0.698228	2.65733	1.53158	2.48216	0.698962	2.65716	1.58274	2.57142	1.65256	2.68377	1.8096	2.93821			1.53229	2.48225	1.60635	2.60793	1.66659	2.70542	2.01183	3.25851		
0.692426	2.65859	1.53778	2.48293	0.693163	2.65844	1.58896	2.57187	1.65852	2.6834	1.8115	2.93031			1.5385	2.48302	1.61117	2.60598	1.67091	2.70232	2.01257	3.24758		
0.686605	2.65981	1.54399	2.48371	0.687344	2.65966	1.59517	2.57233	1.66448	2.68302	1.81343	2.92253			1.54471	2.4838	1.61592	2.60395	1.67534	2.69939	2.01335	3.23677		
0.680768	2.66098	1.55021	2.48448	0.681509	2.66084	1.60139	2.57278	1.67044	2.68265	1.81541	2.91487			1.55093	2.48457	1.62061	2.60182	1.67985	2.69664	2.01415	3.2261		
0.674915	2.66211	1.55643	2.48527	0.675658	2.66197	1.60761	2.57323	1.67639	2.68227	1.81742	2.90733			1.55715	2.48536	1.62523	2.59962	1.68446	2.69407	2.01498	3.21555		
0.669048	2.66321	1.56266	2.48605	0.669793	2.66308	1.61383	2.57368	1.68234	2.68189	1.81947	2.89991			1.56338	2.48614	1.62979	2.59733	1.68916	2.69165	2.01585	3.20513		
0.663169	2.66428	1.56889	2.48683	0.663916	2.66415	1.62005	2.57413	1.68829	2.68151	1.82157	2.89261			1.56961	2.48692	1.6343	2.59497	1.69395	2.68939	2.01675	3.19483		
0.657279	2.66533	1.57513	2.48762	0.658027	2.66519	1.62627	2.57458	1.69423	2.68112	1.8237	2.88542			1.57585	2.48771	1.63875	2.59254	1.69882	2.68728	2.01767	3.18466		
0.651379	2.66635	1.58137	2.48841	0.652128	2.66622	1.63249	2.57502	1.70017	2.68073	1.82587	2.87835			1.58209	2.4885	1.64315	2.59004	1.70378	2.68532	2.01863	3.17461		
0.64547	2.66735	1.58761	2.4892	0.64622	2.66723	1.63871	2.57546	1.7061	2.68033	1.82809	2.8714			1.58833	2.48929	1.6475	2.5875	1.7088	2.68349	2.01962	3.16468		
0.639553	2.66834	1.59386	2.48999	0.640303	2.66822	1.64493	2.57589	1.71203	2.67993	1.83035	2.86457			1.59458	2.49008	1.65182	2.5849	1.71391	2.68178	2.02064	3.15488		
0.633628	2.66932	1.60012	2.49078	0.63438	2.6692	1.65115	2.57632	1.71795	2.67951	1.83265	2.85785			1.60083	2.49087	1.65609	2.58227	1.71908	2.68019	2.02169	3.14519		
0.627697	2.67029	1.60637	2.49157	0.62845	2.67017	1.65736	2.57674	1.72386	2.67909	1.835	2.85125			1.60709	2.49166	1.66033	2.5796	1.72431	2.67871	2.02278	3.13562		
0.621761	2.67126	1.61263	2.49236	0.622514	2.67114	1.66358	2.57715	1.72976	2.67866	1.83739	2.84477			1.61335	2.49245	1.66454	2.57691	1.7296	2.67733	2.02389	3.12616		
0.61582	2.67223	1.61889	2.49314	0.616573	2.6721	1.66979	2.57756	1.73565	2.67821	1.83982	2.8384			1.61961	2.49323	1.66873	2.57419	1.73494	2.67605	2.02503	3.11682		
0.609874	2.67319	1.62516	2.49393	0.610628	2.67307	1.67599	2.57796	1.74153	2.67775	1.84231	2.83215			1.62588	2.49402	1.6729	2.57146	1.74034	2.67485	2.02621	3.1076		
0.603926	2.67416	1.63143	2.49472	0.60468	2.67404	1.6822	2.57835	1.74739	2.67727	1.84484	2.82602			1.63215	2.49481	1.67704	2.56873	1.74578	2.67374	2.02742	3.09848		
0.597974	2.67514	1.6377	2.4955	0.598729	2.67502	1.6884	2.57873	1.75325	2.67678	1.84742	2.82			1.63842	2.49559	1.68118	2.56599	1.75127	2.67269	2.02866	3.08948		
0.59202	2.67613	1.64397	2.49628	0.592775	2.676	1.6946	2.57911	1.75909	2.67627	1.85005	2.81411			1.64469	2.49637	1.6853	2.56326	1.75679	2.67171	2.02993	3.08059		
0.586065	2.67713	1.65024	2.49706	0.58682	2.67701	1.70079	2.57947	1.76491	2.67573	1.85274	2.80833			1.65096	2.49715	1.68942	2.56053	1.76235	2.6708	2.03123	3.07181		
0.580108	2.67815	1.65652	2.49783	0.580863	2.67802	1.70698	2.57983	1.77072	2.67517	1.85548	2.80268			1.65724	2.49792	1.69353	2.55782	1.76794	2.66994	2.03256	3.06314		
0.574151	2.67919	1.6628	2.4986	0.574906	2.67906	1.71316	2.58018	1.7765	2.67459	1.85827	2.79716			1.66352	2.49869	1.69764	2.55513	1.77357	2.66913	2.03393	3.05457		
0.568194	2.68025	1.66907	2.49937	0.56895	2.68012	1.71933	2.58051	1.78226	2.67398	1.86112	2.79176			1.66979	2.49946	1.70175	2.55245	1.77922	2.66837	2.03532	3.04611		
0.562238	2.68134	1.67535	2.50013	0.562993	2.6812	1.7255	2.58083	1.788	2.67333	1.86404	2.78649			1.67607	2.50022	1.70587	2.5498	1.78489	2.66765	2.03675	3.03776		
0.556284	2.68246	1.68163	2.50089	0.557039	2.68232	1.73167	2.58114	1.79372	2.67266	1.86702	2.78135			1.68235	2.50098	1.70999	2.54717	1.79059	2.66697	2.03821	3.02951		
0.550331	2.68362	1.68791	2.50164	0.551086	2.68347	1.73782	2.58144	1.7994	2.67194	1.87006	2.77634			1.68863	2.50173	1.71412	2.54458	1.79631	2.66633	2.0397	3.02136		
0.544381	2.68481	1.69418	2.50239	0.545136	2.68466	1.74397	2.58173	1.80506	2.67118	1.87318	2.77147			1.6949	2.50247	1.71826	2.54201	1.80205	2.66572	2.04122	3.01332		
0.538435	2.68605	1.70046	2.50312	0.539189	2.68589	1.75011	2.582	1.81068	2.67038	1.87637	2.76674			1.70118	2.50321	1.72241	2.53949	1.80781	2.66513	2.04278	3.00538		
0.532493	2.68734	1.70673	2.50385	0.533246	2.68718	1.75624	2.58225	1.81626	2.66953	1.87963	2.76215			1.70745	2.50393	1.72658	2.537	1.81358	2.66458	2.04436	2.99754		
0.526555	2.68869	1.71299	2.50456	0.527307	2.68851	1.76236	2.58249	1.8218	2.66862	1.88297	2.75772			1.71371	2.50464	1.73076	2.53456	1.81937	2.66405	2.04598	2.98979		
0.520623	2.69009	1.71925	2.50526	0.521375	2.68991	1.76847	2.5827	1.8273	2.66766	1.8864	2.75343			1.71997	2.50534	1.73497	2.53216	1.82517	2.66354	2.04763	2.98215		
0.514698	2.69157	1.7255	2.50594	0.515449	2.69138	1.77457	2.5829	1.83275	2.66664	1.88992	2.74931			1.72621	2.50601	1.7392	2.52982	1.83098	2.66305	2.04931	2.9746		
0.508781	2.69312	1.73173	2.50658	0.50953	2.69292	1.78065	2.58308	1.83815	2.66554	1.89353	2.74534			1.73244	2.50666	1.74346	2.52753	1.8368	2.66258	2.05103	2.96715		
0.502872	2.69475	1.73793	2.50719	0.50362	2.69454	1.78672	2.58324	1.8435	2.66438	1.89724	2.74155			1.73864	2.50726	1.74776	2.52532	1.84263	2.66213	2.05278	2.9598		
0.496973	2.69648	1.7441	2.50774	0.49772	2.69626	1.79277	2.58338	1.84879	2.66315	1.90104	2.73792			1.7448	2.5078	1.75211	2.52319	1.84847	2.66169	2.05455	2.95254		
0.491085	2.69832	1.7502	2.50819	0.491831	2.69808	1.79881	2.58348	1.85402	2.66184	1.90495	2.73446			1.75089	2.50823	1.75653	2.52117	1.85431	2.66127	2.05637	2.94538		
0.48521	2.70027	1.75619	2.50848	0.485954	2.70002	1.80483	2.58356	1.85919	2.66046	1.90897	2.73118			1.75687	2.5085	1.76105	2.51932	1.86016	2.66085	2.05821	2.93831		
0.479349	2.70236	1.76199	2.5085	0.480091	2.70208	1.81082	2.58361	1.86431	2.65899	1.9131	2.72808			1.76264	2.50848	1.76574	2.51772	1.86602	2.66045	2.06009	2.93133		
0.473504	2.70459	1.76751	2.50812	0.474244	2.7043	1.8168	2.58363	1.86936	2.65745	1.91733	2.72516			1.76813	2.50805	1.77068	2.51649	1.87188	2.66006	2.062	2.92445		
0.467678	2.70698	1.7727	2.50727	0.468415	2.70667	1.82275	2.58362	1.87435	2.65584	1.92168	2.72241			1.77328	2.50715	1.77597	2.51576	1.87775	2.65967	2.06394	2.91766		
0.461872	2.70957	1.7776	2.50602	0.462607	2.70923	1.82867	2.58356	1.87929	2.65415	1.92614	2.71984			1.77815	2.50586	1.7816	2.51551	1.88361	2.65929	2.06592	2.91095		
0.456089	2.71236	1.78232	2.50453	0.456821	2.71199	1.83456	2.58346	1.88417	2.65241	1.93072	2.71744			1.78285	2.50434	1.78749	2.51563	1.88948	2.65891	2.06793	2.90434		
0.450332	2.71538	1.78693	2.5029	0.45106	2.71498	1.84042	2.58332	1.88901	2.6506	1.93539	2.71521			1.78746	2.5027	1.79353	2.51596	1.89535	2.65854	2.06997	2.89782		
0.444605	2.71867	1.7915	2.50121	0.445329	2.71824	1.84625	2.58313	1.8938	2.64876	1.94017	2.71313			1.79202	2.50101	1.79967	2.51642	1.90123	2.65818	2.07205	2.89139		
0.438912	2.72227	1.79604	2.49949	0.439632	2.7218	1.85203	2.58289	1.89856	2.64687	1.94506	2.71121			1.79656	2.4993	1.80586	2.51696	1.9071	2.65781	2.07416	2.88505		
0.433257	2.72621	1.80057	2.49779	0.433972	2.72569	1.85777	2.58258	1.9033	2.64497	1.95003	2.70943			1.80109	2.49759	1.81208	2.51754	1.91297	2.65745	2.0763	2.8788		
0.427646	2.73055	1.80511	2.49609	0.428354	2.72997	1.86347	2.58221	1.90802	2.64305	1.9551	2.70779			1.80563	2.4959	1.81833	2.51815	1.91884	2.65708	2.07849	2.87263		
0.422084	2.73534	1.80966	2.49442	0.422786	2.7347	1.86911	2.58178	1.91273	2.64114	1.96024	2.70627			1.81018	2.49423	1.8246	2.51878	1.9247	2.65672	2.0807	2.86655		
0.416579	2.74064	1.81422	2.49278	0.417274	2.73994	1.87469	2.58127	1.91745	2.63925	1.96547	2.70487			1.81474	2.49259	1.83088	2.51942	1.93057	2.65635	2.08295	2.86056		
0.41114	2.74655	1.8188	2.49117	0.411825	2.74577	1.88022	2.58068	1.92219	2.63739	1.97077	2.70357			1.81932	2.49099	1.83716	2.52007	1.93643	2.65598	2.08524	2.85466		
0.405775	2.75315	1.82339	2.48959	0.40645	2.75227	1.88568	2.58	1.92695	2.63558	1.97613	2.70237			1.82392	2.48942	1.84346	2.52072	1.94228	2.65561	2.08757	2.84884		
0.400495	2.76054	1.828	2.48805	0.401159	2.75956	1.89108	2.57924	1.93174	2.63382	1.98155	2.70126			1.82853	2.48788	1.84975	2.52138	1.94813	2.65523	2.08993	2.84311		
0.395312	2.76886	1.83264	2.48655	0.395964	2.76775	1.8964	2.57839	1.93657	2.63213	1.98703	2.70023			1.83317	2.48638	1.85606	2.52204	1.95398	2.65485	2.09233	2.83747		
0.390242	2.77824	1.83729	2.48508	0.390878	2.77699	1.90165	2.57743	1.94146	2.63052	1.99255	2.69928			1.83782	2.48492	1.86236	2.5227	1.95981	2.65446	2.09476	2.83191		
0.385298	2.78886	1.84196	2.48366	0.385917	2.78744	1.90682	2.57639	1.9464	2.62899	1.99812	2.69839			1.8425	2.48349	1.86867	2.52335	1.96564	2.65406	2.09724	2.82644		
0.380497	2.80089	1.84666	2.48227	0.381097	2.79928	1.91191	2.57524	1.9514	2.62756	2.00374	2.69757			1.8472	2.48211	1.87498	2.52401	1.97146	2.65365	2.09975	2.82106		
0.375859	2.81455	1.85138	2.48091	0.376437	2.81272	1.91692	2.57399	1.95647	2.62623	2.00939	2.69679			1.85192	2.48076	1.88129	2.52466	1.97728	2.65323	2.10231	2.81576		
0.371401	2.83007	1.85612	2.4796	0.371956	2.82799	1.92186	2.57264	1.9616	2.62499	2.01507	2.69607			1.85667	2.47945	1.8876	2.52532	1.98308	2.6528	2.10491	2.81055		
0.367143	2.84769	1.86088	2.47832	0.367672	2.84533	1.92672	2.57121	1.96681	2.62385	2.02078	2.6954			1.86143	2.47818	1.89392	2.52596	1.98887	2.65236	2.10754	2.80543		
0.363103	2.86768	1.86567	2.47709	0.363603	2.865	1.9315	2.56968	1.97208	2.62282	2.02652	2.69476			1.86622	2.47695	1.90023	2.52661	1.99464	2.6519	2.11022	2.8004		
0.359297	2.89029	1.87048	2.47589	0.359766	2.88727	1.93622	2.56807	1.97742	2.62187	2.03229	2.69416			1.87103	2.47575	1.90654	2.52725	2.00041	2.65143	2.11295	2.79545		
0.355738	2.91578	1.87531	2.47473	0.356175	2.91238	1.94087	2.56639	1.98283	2.62102	2.03808	2.6936			1.87587	2.4746	1.91286	2.52789	2.00615	2.65094	2.11572	2.7906		
0.352438	2.94442	1.88017	2.4736	0.352842	2.9406	1.94546	2.56463	1.9883	2.62026	2.04389	2.69306			1.88073	2.47348	1.91918	2.52853	2.01188	2.65043	2.11853	2.78583		
0.349402	2.97643	1.88505	2.47252	0.349773	2.97218	1.95	2.56282	1.99383	2.61958	2.04972	2.69255			1.88561	2.4724	1.92549	2.52916	2.0176	2.6499	2.1214	2.78116		
0.346635	3.01206	1.88995	2.47147	0.346971	3.00734	1.95448	2.56095	1.99941	2.61897	2.05556	2.69207			1.89052	2.47135	1.93181	2.52979	2.02329	2.64935	2.12431	2.77658		
0.344135	3.05152	1.89488	2.47046	0.344437	3.0463	1.95893	2.55903	2.00504	2.61844	2.06142	2.69161			1.89545	2.47034	1.93812	2.53041	2.02896	2.64878	2.12727	2.77209		
0.341898	3.09501	1.89983	2.46948	0.342167	3.08927	1.96333	2.55708	2.01072	2.61796	2.06729	2.69118			1.9004	2.46937	1.94444	2.53103	2.03461	2.64817	2.13029	2.7677		
0.33992	3.14275	1.9048	2.46854	0.340157	3.13646	1.9677	2.55509	2.01644	2.61755	2.07318	2.69076			1.90537	2.46844	1.95075	2.53165	2.04024	2.64754	2.13335	2.7634		
0.338192	3.19493	1.9098	2.46764	0.338398	3.18806	1.97204	2.55308	2.0222	2.61719	2.07908	2.69035			1.91037	2.46754	1.95706	2.53226	2.04583	2.64688	2.13648	2.7592		
0.336707	3.25178	1.91482	2.46677	0.336882	3.24431	1.97636	2.55105	2.028	2.61687	2.08499	2.68997			1.9154	2.46667	1.96338	2.53286	2.0514	2.64619	2.13966	2.7551		
0.335454	3.31353	1.91986	2.46594	0.335601	3.30542	1.98065	2.549	2.03382	2.6166	2.0909	2.68959			1.92044	2.46584	1.96969	2.53347	2.05694	2.64546	2.1429	2.7511		
0.334427	3.38042	1.92493	2.46514	0.334545	3.37165	1.98493	2.54694	2.03968	2.61637	2.09683	2.68924			1.92551	2.46505	1.976	2.53406	2.06245	2.64469	2.1462	2.7472		
0.333614	3.45274	1.93001	2.46437	0.333706	3.44326	1.9892	2.54488	2.04556	2.61617	2.10276	2.68889			1.9306	2.46428	1.98231	2.53465	2.06792	2.64388	2.14957	2.74341		
0.333008	3.53079	1.93513	2.46364	0.333074	3.52056	1.99346	2.54282	2.05147	2.616	2.1087	2.68855			1.93571	2.46356	1.98862	2.53524	2.07335	2.64303	2.15301	2.73972		
0.332601	3.6149	1.94026	2.46294	0.332642	3.60389	1.99771	2.54077	2.05739	2.61586	2.11465	2.68822			1.94085	2.46286	1.99493	2.53582	2.07874	2.64213	2.15651	2.73615		
0.332382	3.70545	1.94542	2.46227	0.3324	3.6936	2.00195	2.53872	2.06334	2.61575	2.1206	2.68791			1.94601	2.4622	2.00123	2.5364	2.08409	2.64118	2.16009	2.73269		
0.332345	3.80286	1.95059	2.46164	0.33234	3.79012	2.00619	2.53667	2.0693	2.61565	2.12656	2.6876			1.95119	2.46157	2.00754	2.53697	2.08939	2.64018	2.16374	2.72934		
0.332481	3.90759	1.95579	2.46103	0.332455	3.89389	2.01044	2.53464	2.07528	2.61558	2.13252	2.68729			1.95639	2.46097	2.01384	2.53753	2.09465	2.63913	2.16746	2.7261		
0.332783	4.02016	1.96102	2.46046	0.332736	4.00543	2.01468	2.53263	2.08127	2.61552	2.13848	2.68699			1.96162	2.4604	2.02014	2.53809	2.09985	2.63802	2.17127	2.72298		
0.333243	4.14114	1.96626	2.45992	0.333176	4.12532	2.01893	2.53063	2.08727	2.61548	2.14445	2.6867			1.96687	2.45986	2.02644	2.53865	2.10501	2.63685	2.17515	2.71998		
0.333852	4.27119	1.97153	2.45941	0.333767	4.25417	2.02319	2.52865	2.09328	2.61545	2.15042	2.68642			1.97213	2.45935	2.03273	2.53919	2.11011	2.63562	2.17912	2.71711		
0.334604	4.41102	1.97681	2.45893	0.334501	4.39272	2.02745	2.52669	2.0993	2.61544	2.15639	2.68613			1.97742	2.45887	2.03903	2.53974	2.11515	2.63433	2.18317	2.71435		
0.33549	4.56144	1.98212	2.45847	0.33537	4.54175	2.03172	2.52475	2.10533	2.61543	2.16236	2.68586			1.98273	2.45842	2.04532	2.54027	2.12014	2.63297	2.18731	2.71171		
0.336502	4.72338	1.98745	2.45805	0.336367	4.70218	2.036	2.52283	2.11137	2.61543	2.16834	2.68558			1.98807	2.458	2.0516	2.5408	2.12506	2.63155	2.19153	2.7092		
0.337631	4.89787	1.9928	2.45765	0.337482	4.87502	2.04028	2.52094	2.11741	2.61544	2.17432	2.68531			1.99342	2.45761	2.05789	2.54132	2.12993	2.63006	2.19584	2.7068		
0.338706	5.06108	1.99817	2.45728	0.338708	5.06143	2.04458	2.51907	2.12346	2.61546	2.18029	2.68504			1.99879	2.45724	2.06417	2.54183	2.13474	2.62852	2.20023	2.70453		
0.339683	5.2091	2.00356	2.45694	0.340036	5.26273	2.0489	2.51723	2.12951	2.61548	2.18627	2.68477			2.00418	2.4569	2.07044	2.54233	2.13949	2.6269				
0.340531	5.33813	2.00897	2.45662	0.341457	5.48045	2.05322	2.51541	2.13557	2.61551	2.19224	2.6845			2.00959	2.45659	2.07671	2.54283	2.14419	2.62523				
0.341225	5.44468	2.0144	2.45633	0.342963	5.71631	2.05756	2.51362	2.14163	2.61554	2.19821	2.68423			2.01503	2.4563	2.08298	2.54332	2.14883	2.6235				
0.341749	5.52569	2.01985	2.45606	0.344543	5.97234	2.06191	2.51186	2.14769	2.61557	2.20419	2.68396			2.02048	2.45604	2.08924	2.5438	2.15342	2.62171				
0.34224	5.60231	2.02532	2.45582	0.346189	6.25089	2.06628	2.51012	2.15376	2.61561					2.02595	2.4558	2.0955	2.54426	2.15795	2.61988				
0.342587	5.65682	2.0308	2.4556	0.347892	6.55471	2.07067	2.50842	2.15982	2.61564					2.03143	2.45558	2.10175	2.54472	2.16244	2.61799				
0.343137	5.74406	2.03631	2.45541	0.349412	6.84259	2.07507	2.50674	2.16589	2.61568					2.03694	2.45539	2.10799	2.54517	2.16688	2.61606				
0.3439	5.8669	2.04183	2.45524	0.350731	7.10697	2.07949	2.5051	2.17195	2.61572					2.04247	2.45522	2.11422	2.5456	2.17129	2.6141				
0.344888	6.02956	2.04737	2.45509	0.351834	7.34014	2.08392	2.50348	2.17802	2.61575					2.04801	2.45507	2.12044	2.54602	2.17566	2.6121				
0.346115	6.23793	2.05293	2.45496	0.352712	7.53463	2.08838	2.50191	2.18408	2.61578					2.05357	2.45494	2.12666	2.54643	2.17999	2.61008				
0.347593	6.50014	2.0585	2.45485	0.35336	7.68374	2.09286	2.50036	2.19014	2.61581					2.05914	2.45484	2.13286	2.54682	2.1843	2.60803				
0.349334	6.82728	2.06409	2.45476	0.353958	7.82575	2.09737	2.49886	2.1962	2.61584					2.06474	2.45475	2.13905	2.5472	2.18859	2.60597				
0.351111	7.18608	2.0697	2.4547	0.354375	7.9274	2.1019	2.49739	2.20226	2.61587					2.07034	2.45469	2.14523	2.54755	2.19286	2.60391				
0.352916	7.58102	2.07532	2.45465	0.355027	8.09114	2.10648	2.49599							2.07597	2.45464	2.15139	2.54789	2.19712	2.60183				
0.354736	8.01752	2.08096	2.45462	0.355913	8.32396	2.11111	2.49465							2.08161	2.45462	2.15753	2.5482	2.20137	2.59977				
0.356562	8.50217	2.08662	2.45461	0.357034	8.63647	2.11582	2.49342							2.08727	2.45461	2.16365	2.54848						
0.358381	9.0431	2.09229	2.45462	0.358385	9.04412	2.1207	2.49239							2.09294	2.45462	2.16975	2.54874						
0.360183	9.65044	2.09797	2.45464	0.359956	9.56935	2.12588	2.49172							2.09863	2.45464	2.17582	2.54896						
0.361956	10.337	2.10367	2.45468	0.361733	10.245	2.13146	2.49152							2.10433	2.45469	2.18187	2.54915						
0.363688	11.1192	2.10939	2.45474	0.363471	11.014	2.13736	2.4917							2.11004	2.45475	2.18787	2.54929						
0.365368	12.0184	2.11511	2.45481	0.365158	11.897	2.14342	2.49207							2.11577	2.45482	2.19383	2.54939						
0.366984	13.063	2.12085	2.4549	0.366783	12.9213	2.14957	2.49253							2.12151	2.45491	2.19975	2.54943						
0.368525	14.2917	2.12661	2.45501	0.368334	14.124	2.15576	2.49304							2.12727	2.45502	2.20561	2.5494						
0.369979	15.7582	2.13238	2.45512	0.3698	15.5567	2.16198	2.49358							2.13304	2.45514								
0.371337	17.5397	2.13816	2.45526	0.37117	17.2929	2.16822	2.49413							2.13882	2.45527								
0.372586	19.7514	2.14395	2.4554	0.372434	19.4418	2.17446	2.49469							2.14461	2.45542								
0.373718	22.5724	2.14975	2.45556	0.373581	22.1724	2.18071	2.49526							2.15042	2.45558								
0.374723	26.2981	2.15557	2.45573	0.374603	25.7608	2.18697	2.49583							2.15624	2.45575								
0.375593	31.4524	2.1614	2.45592	0.37549	30.692	2.19324	2.49641							2.16207	2.45594								
0.376321	39.0608	2.16724	2.45611	0.376236	37.9012	2.19951	2.49698							2.16791	2.45614								
0.3769	51.441	2.17309	2.45632	0.376835	49.4575	2.20578	2.49756							2.17376	2.45634								
0.377325	75.1728	2.17895	2.45654	0.37728	71.0246									2.17962	2.45656								
0.377594	139.229	2.18482	2.45677	0.377568	125.665									2.1855	2.45679								
0.377702	933.415	2.1907	2.457	0.377697	541.753									2.19138	2.45703								
		2.19659	2.45725											2.19727	2.45728								
		2.2025	2.45751											2.20317	2.45754								
