Sym0		Asym0		Sym1		Sym2		Sym3		Sym4		Sym5		Asym1		Asym2		Asym3		Asym4		Asym5	
387  Points		387  Points		388  Points		374  Points		368  Points		360  Points		149  Points		387  Points		381  Points		367  Points		176  Points		136  Points	
Freq (MHz)	Vph (m/ms)	Freq (MHz)	Vph (m/ms)	Freq (MHz)	Vph (m/ms)	Freq (MHz)	Vph (m/ms)	Freq (MHz)	Vph (m/ms)	Freq (MHz)	Vph (m/ms)	Freq (MHz)	Vph (m/ms)	Freq (MHz)	Vph (m/ms)	Freq (MHz)	Vph (m/ms)	Freq (MHz)	Vph (m/ms)	Freq (MHz)	Vph (m/ms)	Freq (MHz)	Vph (m/ms)
2.20044	2.50224	0.34615	356.547	2.2056	2.50252	0.69232	372.425	1.30573	14445.5	1.38444	5650.51	2.07659	1717.35	0.34611	3325.32	0.870455	743.862	1.03833	11469.9	1.72907	866.243	1.74289	761.055
2.19438	2.50191	0.346569	105.718	2.19954	2.50219	0.692727	166.267	1.30542	544.429	1.38483	542.559	2.07613	590.384	0.346358	143.629	0.870194	250.23	1.03852	433.091	1.72535	400.922	1.74683	379.954
2.18833	2.50159	0.347439	62.2023	2.19348	2.50186	0.693444	107.116	1.30456	277.261	1.38585	285.166	2.07524	356.327	0.347059	73.5471	0.869679	150.334	1.03906	220.827	1.72101	260.33	1.75136	253.641
2.18228	2.50127	0.348754	44.1851	2.18742	2.50154	0.694464	79.0859	1.30319	185.836	1.38745	193.584	2.07394	255.054	0.348209	49.5581	0.868917	107.375	1.03994	148.294	1.71649	192.469	1.75611	190.627
2.17623	2.50096	0.350504	34.3618	2.18137	2.50122	0.695782	62.7479	1.30136	139.631	1.38958	146.664	2.07226	198.516	0.349797	37.4769	0.86792	83.4557	1.04116	111.712	1.71191	152.5	1.76096	152.866
2.17019	2.50065	0.352676	28.1965	2.17533	2.50091	0.697388	52.0597	1.29914	111.731	1.39218	118.161	2.07025	162.421	0.351812	30.2216	0.866703	68.2059	1.04271	89.6759	1.70733	126.16	1.76588	127.712
2.16416	2.50035	0.355254	23.979	2.16929	2.5006	0.699272	44.5302	1.2966	93.0476	1.39516	99.0221	2.06794	137.372	0.354239	25.3963	0.865282	57.6295	1.04456	74.9597	1.70277	107.495	1.77084	109.755
2.15814	2.50005	0.35822	20.9209	2.16326	2.5003	0.701423	38.9448	1.29379	79.6565	1.39848	85.2898	2.06539	118.968	0.357062	21.9651	0.863676	49.8602	1.04669	64.4425	1.69823	93.5778	1.77584	96.2938
2.15212	2.49976	0.361555	18.6081	2.15724	2.50001	0.703829	34.6404	1.29079	69.5858	1.40208	74.9606	2.06262	104.87	0.36026	19.4072	0.861905	43.909	1.0491	56.5563	1.69373	82.802	1.78086	85.8276
2.14611	2.49948	0.365238	16.8023	2.15122	2.49972	0.706475	31.2247	1.28762	61.7358	1.40591	66.911	2.05968	93.7252	0.363815	17.4319	0.859989	39.2031	1.05176	50.4271	1.68927	74.2127	1.7859	77.4571
2.1401	2.4992	0.369249	15.3567	2.14521	2.49944	0.709348	28.4503	1.28434	55.4445	1.40993	60.4627	2.05659	84.6922	0.367705	15.8644	0.857949	35.3879	1.05466	45.529	1.68486	67.2062	1.79096	70.6102
2.13411	2.49893	0.373564	14.1758	2.13921	2.49916	0.712434	26.1537	1.28097	50.2897	1.41411	55.182	2.05339	77.2225	0.371908	14.593	0.855804	32.2318	1.05776	41.5266	1.6805	61.3826	1.79603	64.9057
2.12812	2.49867	0.378161	13.1949	2.13321	2.49889	0.715718	24.2225	1.27754	45.9892	1.41843	50.7785	2.05009	70.9424	0.376402	13.5432	0.853576	29.5775	1.06106	38.1962	1.67619	56.4661	1.80112	60.0797
2.12214	2.49841	0.38302	12.3687	2.12723	2.49863	0.719186	22.5768	1.27408	42.3472	1.42287	47.0506	2.04672	65.5887	0.381166	12.6632	0.851283	27.3142	1.06454	35.3824	1.67193	52.2606	1.80621	55.9437
2.11616	2.49817	0.388117	11.6641	2.12125	2.49838	0.722822	21.1584	1.2706	39.2235	1.42739	43.8542	2.04329	60.9706	0.386176	11.9162	0.848943	25.3615	1.06817	32.9744	1.66773	48.6226	1.81131	52.3596
2.1102	2.49793	0.393432	11.0571	2.11527	2.49813	0.726614	19.9237	1.26713	36.5154	1.432	41.0833	2.03983	56.9464	0.391411	11.275	0.846575	23.6598	1.07195	30.8907	1.6636	45.4449	1.81641	49.2238
2.10424	2.4977	0.398943	10.5292	2.10931	2.4979	0.730546	18.8395	1.26367	34.1453	1.43667	38.6582	2.03634	53.4086	0.396851	10.7192	0.844196	22.1641	1.07586	29.0703	1.65953	42.6457	1.82151	46.4571
2.09829	2.49748	0.40463	10.0663	2.10335	2.49767	0.734605	17.8803	1.26025	32.0542	1.44139	36.5179	2.03284	50.2743	0.402474	10.2333	0.841822	20.8393	1.07988	27.4664	1.65553	40.1615	1.82661	43.9979
2.09235	2.49727	0.410473	9.65729	2.09741	2.49745	0.738778	17.0256	1.25686	30.196	1.44616	34.6152	2.02933	47.4783	0.407509	9.85736	0.839469	19.6582	1.084	26.0428	1.6516	37.9424	1.8317	41.7976
2.08642	2.49707	0.416453	9.29347	2.09147	2.49724	0.743051	16.2595	1.25353	28.5341	1.45096	32.9123	2.02584	44.969	0.411888	9.56665	0.837153	18.599	1.0882	24.7707	1.64775	35.9483	1.83679	39.8172
2.0805	2.49688	0.42255	8.96777	2.08554	2.49704	0.747413	15.5689	1.25025	27.0393	1.45579	31.3795	2.02236	42.7045	0.415565	9.34443	0.834888	17.6442	1.09249	23.6272	1.64397	34.1469	1.84187	38.0253
2.07459	2.4967	0.428747	8.67449	2.07962	2.49685	0.751849	14.9431	1.24705	25.6881	1.46063	29.9923	2.01891	40.6509	0.418505	9.17921	0.83269	16.7795	1.09683	22.5937	1.64027	32.5119	1.84693	36.3961
2.06869	2.49653	0.435024	8.40893	2.07371	2.49667	0.756349	14.3733	1.24392	24.461	1.46549	28.7308	2.01549	38.7803	0.420684	9.06318	0.830572	15.9932	1.10123	21.6551	1.63666	31.0215	1.85199	34.9084
2.0628	2.49637	0.441364	8.16722	2.06781	2.4965	0.7609	13.8524	1.24087	23.342	1.47036	27.5787	2.0121	37.0694	0.422085	8.99121	0.828549	15.2755	1.10568	20.7988	1.63313	29.6576	1.85702	33.5443
2.05692	2.49622	0.44775	7.94611	2.06192	2.49635	0.765491	13.3742	1.23792	22.3178	1.47523	26.5222	2.00876	35.4989	0.424109	8.89073	0.826635	14.6184	1.11016	20.0143	1.6297	28.405	1.86203	32.2891
2.05105	2.49609	0.454163	7.74286	2.05604	2.4962	0.770111	12.9335	1.23507	21.3772	1.48009	25.5498	2.00548	34.0523	0.42632	8.78531	0.824845	14.0148	1.11466	19.293	1.62636	27.2509	1.86703	31.1301
2.04519	2.49597	0.460587	7.55517	2.05018	2.49607	0.774748	12.526	1.23233	20.5105	1.48495	24.6517	2.00224	32.7156	0.429345	8.64792	0.823192	13.4591	1.11918	18.6273	1.62312	26.1842	1.87199	30.0565
2.03934	2.49586	0.467003	7.38105	2.04432	2.49595	0.779392	12.1479	1.2297	19.7098	1.48979	23.8196	1.99908	31.4771	0.433197	8.48331	0.821692	12.9462	1.12371	18.011	1.61998	25.1957	1.87693	29.0592
2.03351	2.49577	0.473395	7.21881	2.03847	2.49585	0.784032	11.796	1.22719	18.9681	1.49461	23.0465	1.99597	30.3265	0.437889	8.29671	0.820358	12.4718	1.12824	17.4387	1.61695	24.2773	1.88183	28.1302
2.02769	2.49569	0.479744	7.06698	2.03264	2.49576	0.788657	11.4675	1.22481	18.2794	1.49941	22.3261	1.99294	29.2548	0.443431	8.09338	0.819207	12.0322	1.13277	16.9057	1.61402	23.422	1.8867	27.2627
2.02188	2.49563	0.486034	6.92428	2.02682	2.49568	0.793257	11.1599	1.22256	17.6384	1.50418	21.6532	1.98999	28.2545	0.449828	7.87834	0.818252	11.6242	1.13728	16.408	1.61122	22.6238	1.89153	26.4506
2.01608	2.49558	0.492246	6.78959	2.02101	2.49562	0.797822	10.8713	1.22046	17.0408	1.50891	21.0231	1.98712	27.3187	0.456246	7.68038	0.817509	11.2451	1.14177	15.9421	1.60853	21.8772	1.89633	25.6887
2.01029	2.49554	0.498363	6.66194	2.01521	2.49557	0.802341	10.5996	1.2185	16.4825	1.51361	20.4317	1.98434	26.4417	0.462669	7.49729	0.816994	10.8923	1.14623	15.5048	1.60597	21.1777	1.90107	24.9725
2.00452	2.49553	0.504368	6.54048	2.00943	2.49554	0.806806	10.3433	1.2167	15.96	1.51827	19.8755	1.98165	25.6182	0.46908	7.3272	0.816722	10.5637	1.15066	15.0936	1.60353	20.5212	1.90577	24.2977
1.99876	2.49553	0.510243	6.42443	2.00366	2.49553	0.811205	10.1009	1.21507	15.4703	1.52288	19.3513	1.97905	24.8436	0.47546	7.16849	0.816708	10.2574	1.15504	14.706	1.60122	19.904	1.91042	23.6609
1.99302	2.49555	0.515971	6.31314	1.99791	2.49553	0.814977	9.89998	1.2136	15.0107	1.52743	18.8563	1.97656	24.1138	0.481792	7.01975	0.816918	10.0073	1.15937	14.3399	1.59906	19.3228	1.91501	23.0588
1.98729	2.49558	0.521535	6.20601	1.99217	2.49555	0.818144	9.73573	1.21231	14.5786	1.53194	18.3881	1.97418	23.4253	0.488058	6.87976	0.817268	9.80567	1.16365	13.9935	1.59703	18.7749	1.91954	22.4885
1.98158	2.49564	0.526921	6.10254	1.98644	2.49559	0.820726	9.60445	1.2112	14.1721	1.53638	17.9444	1.9719	22.7747	0.494241	6.74746	0.81768	9.64657	1.16787	13.665	1.59515	18.2575	1.92401	21.9476
1.97588	2.49571	0.532112	6.00227	1.98073	2.49565	0.822741	9.5034	1.21029	13.7891	1.54075	17.5233	1.96974	22.1593	0.500324	6.6219	0.818088	9.52543	1.17202	13.3531	1.59342	17.7685	1.92841	21.4336
1.97019	2.49581	0.537097	5.90481	1.97503	2.49573	0.824208	9.43058	1.20957	13.4279	1.54506	17.1229	1.9677	21.5762	0.506289	6.50227	0.818434	9.4389	1.1761	13.0563	1.59185	17.3056	1.93274	20.9446
1.96453	2.49592	0.541862	5.80981	1.96935	2.49582	0.82514	9.38462	1.20905	13.0869	1.54929	16.7417	1.96579	21.0233	0.512118	6.38784	0.818677	9.38462	1.18009	12.7735	1.59043	16.8671	1.93699	20.4787
1.95887	2.49606	0.546397	5.71701	1.96368	2.49594	0.826471	9.31939	1.20874	12.7648	1.55345	16.3783	1.964	20.4984	0.517794	6.27796	0.819055	9.30806	1.18401	12.5035	1.58918	16.4513	1.94117	20.0341
1.95324	2.49622	0.550695	5.62615	1.95803	2.49608	0.827904	9.2496	1.20865	12.4602	1.55752	16.0312	1.96235	19.9995	0.523302	6.17207	0.819505	9.22677	1.18783	12.2455	1.5881	16.0566	1.94527	19.6094
1.94762	2.4964	0.55475	5.53704	1.9524	2.49624	0.82983	9.15646	1.20877	12.1719	1.56151	15.6994	1.96084	19.525	0.528627	6.06969	0.820185	9.11935	1.19155	11.9985	1.58719	15.6815	1.94928	19.2032
1.94202	2.4966	0.558558	5.44954	1.94678	2.49643	0.832227	9.0415	1.20912	11.8989	1.56541	15.3818	1.95947	19.0731	0.533752	5.97037	0.821156	8.98849	1.19518	11.7617	1.58645	15.3249	1.95319	18.8141
1.93643	2.49683	0.562117	5.36353	1.94118	2.49664	0.835065	8.90648	1.20969	11.6402	1.56921	15.0773	1.95824	18.6425	0.538667	5.87374	0.8225	8.8374	1.1987	11.5345	1.5859	14.9855	1.95702	18.4411
1.93087	2.49708	0.565431	5.27892	1.9356	2.49687	0.838306	8.75333	1.21049	11.3949	1.57292	14.7852	1.95717	18.2318	0.543358	5.77948	0.82432	8.66964	1.20212	11.3161	1.58552	14.6622	1.96075	18.083
1.92532	2.49736	0.568502	5.19567	1.93004	2.49712	0.841902	8.58406	1.21152	11.1622	1.57653	14.5045	1.95625	17.8397	0.547818	5.68733	0.826734	8.48902	1.20542	11.106	1.58533	14.3542	1.96437	17.739
1.91979	2.49767	0.571337	5.11374	1.9245	2.49741	0.84536	8.4212	1.21278	10.9412	1.58003	14.2345	1.95549	17.4653	0.552037	5.59706	0.829502	8.32032	1.20861	10.9035	1.58532	14.0604	1.96789	17.4081
1.91428	2.49799	0.573944	5.03313	1.91897	2.49771	0.848674	8.26425	1.21427	10.7313	1.58343	13.9746	1.95488	17.1073	0.556012	5.50849	0.832626	8.16273	1.21168	10.7083	1.5855	13.78	1.97131	17.0894
1.90879	2.49835	0.576333	4.95384	1.91346	2.49805	0.851838	8.11278	1.216	10.5318	1.58672	13.7242	1.95444	16.765	0.559739	5.42148	0.836106	8.01553	1.21463	10.5199	1.58587	13.5122	1.97461	16.7824
1.90332	2.49873	0.578516	4.8759	1.90797	2.49841	0.854848	7.96638	1.21795	10.342	1.5899	13.4826	1.95417	16.4373	0.563219	5.33594	0.839939	7.87801	1.21747	10.3379	1.58643	13.2564	1.97781	16.4862
1.89786	2.49915	0.580505	4.79933	1.9025	2.49879	0.8577	7.82471	1.21984	10.1842	1.59296	13.2493	1.95406	16.1234	0.566453	5.25177	0.844119	7.74951	1.21984	10.1842	1.58718	13.0118	1.98089	16.2003
1.89243	2.49959	0.582314	4.72417	1.89705	2.49921	0.860391	7.68744	1.22158	10.0548	1.59592	13.024	1.95412	15.8227	0.569447	5.16895	0.84864	7.6294	1.2218	10.0566	1.58812	12.7777	1.98385	15.924
1.88702	2.50006	0.583958	4.65045	1.89162	2.49966	0.862919	7.55428	1.22312	9.95135	1.59876	12.806	1.95435	15.5343	0.572207	5.08745	0.853491	7.51707	1.22336	9.95333	1.58924	12.5537	1.98669	15.6569
1.88163	2.50056	0.585449	4.5782	1.88621	2.50013	0.865283	7.425	1.22439	9.87167	1.60149	12.5951	1.95474	15.2576	0.574742	5.00727	0.85866	7.41197	1.22457	9.87313	1.59055	12.3392	1.98942	15.3984
1.87625	2.50109	0.586804	4.50747	1.88082	2.50064	0.867483	7.29935	1.22536	9.81426	1.60411	12.3908	1.95531	14.992	0.577063	4.92841	0.864133	7.31355	1.22544	9.81493	1.59204	12.1335	1.99203	15.148
1.8709	2.50165	0.588037	4.43827	1.87546	2.50117	0.86952	7.17714	1.22599	9.77803	1.60662	12.1929	1.95605	14.7369	0.579182	4.85091	0.869897	7.22131	1.22599	9.77803	1.59371	11.9363	1.99452	14.9054
1.86557	2.50224	0.589161	4.37063	1.87011	2.50174	0.871395	7.05819	1.22692	9.72662	1.60902	12.001	1.95695	14.4918	0.581111	4.7748	0.875934	7.13476	1.22677	9.72543	1.59555	11.7471	1.9969	14.6702
1.86026	2.50287	0.590189	4.30458	1.86478	2.50233	0.87311	6.94233	1.22795	9.67165	1.61131	11.8147	1.95801	14.2561	0.582865	4.7001	0.882227	7.05346	1.2276	9.66887	1.59757	11.5655	1.99916	14.442
1.85498	2.50353	0.591136	4.24013	1.85947	2.50296	0.874669	6.82943	1.2294	9.59835	1.61351	11.634	1.95924	14.0294	0.584457	4.62685	0.88876	6.97698	1.22871	9.59294	1.59974	11.3909	2.0013	14.2205
1.84971	2.50422	0.592013	4.17728	1.85419	2.50363	0.876076	6.71936	1.23131	9.50799	1.6156	11.4585	1.96063	13.8111	0.585903	4.55509	0.895514	6.90493	1.23008	9.4985	1.60208	11.2232	2.00334	14.0054
1.84446	2.50494	0.592832	4.11605	1.84893	2.50432	0.877336	6.61201	1.23371	9.40208	1.61761	11.288	1.96218	13.601	0.587217	4.48485	0.902471	6.83693	1.23168	9.38661	1.60457	11.0618	2.00527	13.7963
1.83924	2.5057	0.593605	4.05643	1.84368	2.50505	0.878453	6.50727	1.23666	9.28234	1.61953	11.1223	1.96387	13.3984	0.588412	4.41616	0.909614	6.77265	1.23348	9.25849	1.6072	10.9065	2.0071	13.5931
1.83404	2.50649	0.594248	4.00578	1.83846	2.50581	0.879434	6.40506	1.24022	9.15059	1.62136	10.9612	1.96572	13.2032	0.589504	4.34904	0.916922	6.71176	1.23546	9.11547	1.60997	10.7568	2.00884	13.3955
1.82886	2.50731	0.594779	3.96357	1.83326	2.50661	0.880284	6.30529	1.24396	9.02452	1.62313	10.8046	1.9677	13.0148	0.590505	4.2835	0.92438	6.65396	1.23735	8.97657	1.61287	10.6126	2.01048	13.2033
1.8237	2.50818	0.595209	3.92932	1.82809	2.50744	0.881011	6.20789	1.24786	8.9038	1.62483	10.6523	1.96983	12.833	0.591427	4.21957	0.931968	6.59898	1.23915	8.84165	1.6155	10.4911	2.01203	13.0163
1.81856	2.50907	0.595545	3.90266	1.82293	2.50831	0.881621	6.1128	1.25192	8.78808	1.62626	10.523	1.97208	12.6574	0.592284	4.15725	0.939669	6.54655	1.24088	8.71058	1.61781	10.3905	2.01351	12.8342
1.81344	2.51	0.59579	3.8833	1.8178	2.50921	0.88212	6.01995	1.25613	8.67706	1.62745	10.4152	1.97445	12.4877	0.593087	4.09654	0.947465	6.49644	1.24255	8.58324	1.61977	10.3092	2.01491	12.657
1.80835	2.51097	0.595947	3.87101	1.81268	2.51014	0.882517	5.9293	1.26047	8.57044	1.62842	10.3277	1.97695	12.3236	0.593847	4.03744	0.955338	6.4484	1.24415	8.45952	1.62134	10.2461	2.01625	12.4845
1.80327	2.51197	0.596171	3.85349	1.80759	2.51112	0.882817	5.84077	1.26493	8.46795	1.62918	10.2595	1.97955	12.1649	0.594573	3.97994	0.963271	6.40223	1.24572	8.33933	1.62251	10.2004	2.01752	12.3164
1.79822	2.51301	0.596414	3.83464	1.80252	2.51212	0.883029	5.75433	1.26951	8.3693	1.62973	10.21	1.98226	12.0112	0.595276	3.92403	0.971244	6.35772	1.24726	8.22261	1.62327	10.1714	2.01875	12.1527
1.79319	2.51408	0.596744	3.80931	1.79747	2.51317	0.88316	5.66992	1.27419	8.27427	1.63008	10.1786	1.98506	11.8623	0.595963	3.86971	0.97924	6.31468	1.24878	8.10928	1.62437	10.1302	2.01994	11.9933
1.78817	2.51519	0.597162	3.7778	1.79244	2.51424	0.883216	5.58751	1.27895	8.18261	1.63058	10.1337	1.98795	11.718	0.596644	3.81694	0.98724	6.27293	1.2503	7.99929	1.62557	10.0859	2.02109	11.8379
1.78318	2.51633	0.597671	3.74046	1.78743	2.51536	0.883204	5.50705	1.28379	8.09409	1.63112	10.0855	1.99092	11.578	0.597325	3.76571	0.995223	6.23229	1.25184	7.89261	1.62723	10.0264	2.02222	11.6866
1.77821	2.51751	0.598276	3.69771	1.78244	2.51651	0.883131	5.42849	1.2887	8.00851	1.63185	10.0205	1.99396	11.4422	0.598014	3.716	1.00317	6.19259	1.2534	7.78919	1.62935	9.95254	2.02333	11.5391
1.77325	2.51873	0.598986	3.65005	1.77747	2.51769	0.883004	5.3518	1.29365	7.92566	1.63277	9.93969	1.99707	11.3103	0.598717	3.66778	1.01106	6.15365	1.25503	7.68901	1.63195	9.86516	2.02443	11.3955
1.76832	2.51998	0.599718	3.60384	1.77252	2.51891	0.882828	5.27694	1.29865	7.84536	1.63388	9.84374	2.00024	11.1821	0.599441	3.62103	1.01888	6.11533	1.25672	7.59206	1.63505	9.76522	2.02554	11.2555
1.7634	2.52126	0.600477	3.55905	1.76758	2.52017	0.88261	5.20387	1.30367	7.76742	1.63519	9.73367	2.00345	11.0574	0.600189	3.57571	1.02659	6.07746	1.25851	7.49834	1.63867	9.6538	2.02666	11.1192
1.7585	2.52258	0.601268	3.51566	1.76267	2.52145	0.882356	5.13254	1.3087	7.69168	1.63669	9.61063	2.00671	10.9361	0.600967	3.5318	1.03418	6.03989	1.26041	7.40785	1.64235	9.54569	2.0278	10.9864
1.75362	2.52393	0.602096	3.47363	1.75777	2.52278	0.882071	5.06293	1.31374	7.61798	1.63822	9.491	2.00958	10.8331	0.60178	3.48926	1.04162	6.00246	1.26246	7.32059	1.64606	9.44069	2.02882	10.8734
1.74875	2.52531	0.602963	3.43294	1.75289	2.52413	0.881761	4.995	1.31877	7.54615	1.63978	9.37471	2.01204	10.747	0.602633	3.44807	1.04889	5.96504	1.26467	7.23658	1.64982	9.33863	2.02971	10.7792
1.7439	2.52672	0.603875	3.39355	1.74803	2.52552	0.881431	4.9287	1.32377	7.47606	1.64138	9.26171	2.01408	10.6771	0.603527	3.40819	1.05596	5.92747	1.26707	7.15584	1.6536	9.23935	2.03046	10.7026
1.73906	2.52816	0.604834	3.35543	1.74318	2.52693	0.881085	4.86402	1.32873	7.40757	1.64304	9.15192	2.0157	10.6226	0.604468	3.3696	1.06281	5.88963	1.26969	7.07838	1.65739	9.14269	2.03107	10.6429
1.73423	2.52962	0.605844	3.31855	1.73834	2.52837	0.880729	4.8009	1.33365	7.34056	1.64477	9.0453	2.01689	10.5829	0.605459	3.33226	1.06941	5.85138	1.27255	7.00424	1.6612	9.0485	2.03152	10.5996
1.72941	2.53111	0.606906	3.28288	1.73351	2.52984	0.880366	4.73931	1.3385	7.27488	1.64658	8.94179	2.01766	10.5577	0.606501	3.29614	1.07574	5.81262	1.27568	6.93341	1.665	8.95664	2.03182	10.572
1.7246	2.53263	0.608024	3.24838	1.72869	2.53134	0.880002	4.67922	1.34329	7.21044	1.64848	8.84134	2.01876	10.5217	0.607597	3.2612	1.08177	5.77323	1.2791	6.8659	1.66879	8.86698	2.03225	10.5327
1.7198	2.53416	0.609199	3.21503	1.72389	2.53286	0.87964	4.62061	1.34798	7.14712	1.65049	8.7439	2.01995	10.4829	0.608751	3.22742	1.08749	5.73315	1.28284	6.80172	1.67256	8.77939	2.03272	10.4903
1.715	2.53571	0.610434	3.18279	1.71908	2.53439	0.879283	4.56342	1.35258	7.08483	1.65262	8.64943	2.02158	10.4307	0.609963	3.19477	1.09287	5.6923	1.28691	6.74083	1.67631	8.69376	2.03338	10.4334
1.7102	2.53726	0.611731	3.15163	1.71428	2.53594	0.878936	4.50764	1.35707	7.02346	1.65487	8.55786	2.02364	10.3655	0.611236	3.16321	1.09792	5.65065	1.29133	6.68322	1.68002	8.60997	2.03424	10.3624
1.70539	2.53883	0.61309	3.12152	1.70948	2.5375	0.878601	4.45323	1.36144	6.96293	1.65726	8.46916	2.02613	10.2879	0.612572	3.13271	1.10261	5.60818	1.29611	6.62881	1.68369	8.52793	2.03531	10.2782
1.70058	2.54039	0.614513	3.09244	1.70467	2.53906	0.878282	4.40015	1.36568	6.90316	1.65979	8.38327	2.02904	10.1986	0.613971	3.10325	1.10694	5.5649	1.30126	6.57753	1.68731	8.44752	2.03663	10.1814
1.69575	2.54194	0.616002	3.06435	1.69986	2.54062	0.877983	4.34838	1.36978	6.84407	1.66249	8.30014	2.03237	10.0982	0.615435	3.07479	1.11091	5.52085	1.30678	6.52929	1.69087	8.36866	2.03822	10.0732
1.6909	2.54347	0.617558	3.03723	1.69503	2.54217	0.877705	4.29789	1.37374	6.78561	1.66535	8.21972	2.03568	10	0.616966	3.04731	1.11454	5.47607	1.31267	6.48397	1.69436	8.29127	2.0399	9.9678
1.68603	2.54497	0.619181	3.01104	1.69018	2.54369	0.877452	4.24865	1.37754	6.7277	1.66838	8.14196	2.03896	9.90387	0.618563	3.02077	1.11782	5.43064	1.31893	6.44143	1.69778	8.21526	2.04168	9.86527
1.68112	2.54643	0.620872	2.98576	1.6853	2.54519	0.877226	4.20063	1.38118	6.6703	1.67159	8.0668	2.04221	9.80971	0.620229	2.99515	1.12078	5.38464	1.32553	6.40153	1.70113	8.14056	2.04356	9.76551
1.67616	2.54783	0.622632	2.96137	1.68038	2.54664	0.87703	4.15379	1.38465	6.61337	1.67499	7.99418	2.04542	9.71744	0.621963	2.97043	1.12342	5.33817	1.33246	6.36411	1.70439	8.06711	2.04556	9.66845
1.67116	2.54916	0.624462	2.93783	1.67542	2.54803	0.876866	4.10812	1.38795	6.55686	1.67857	7.92403	2.04859	9.62696	0.623766	2.94657	1.12578	5.29134	1.33971	6.329	1.70757	7.99483	2.04768	9.57403
1.66609	2.5504	0.626361	2.91512	1.67041	2.54935	0.876735	4.06358	1.39107	6.50075	1.68235	7.85629	2.05171	9.5382	0.625639	2.92355	1.12786	5.24424	1.34727	6.29605	1.71066	7.92368	2.04991	9.48219
1.66095	2.55154	0.62833	2.89321	1.66533	2.55058	0.876641	4.02015	1.39401	6.44501	1.68632	7.79089	2.05478	9.45108	0.627582	2.90135	1.12968	5.19698	1.3551	6.26508	1.71365	7.85359	2.05227	9.39286
1.65572	2.55257	0.63037	2.87209	1.66017	2.5517	0.876584	3.9778	1.39678	6.38962	1.69049	7.72776	2.05779	9.36554	0.629596	2.87994	1.13128	5.14966	1.36318	6.23595	1.71654	7.78453	2.05476	9.30598
1.65041	2.55347	0.63248	2.85172	1.65494	2.55271	0.876568	3.9365	1.39936	6.33457	1.69485	7.66682	2.06074	9.28151	0.631679	2.85929	1.13266	5.10237	1.37151	6.2085	1.71933	7.71646	2.05739	9.22148
1.64502	2.55423	0.634661	2.83209	1.64962	2.55359	0.876593	3.89624	1.40176	6.27987	1.6994	7.608	2.06363	9.19893	0.633833	2.83938	1.13386	5.0552	1.38005	6.18257	1.72203	7.64934	2.06014	9.13931
1.63953	2.55487	0.636912	2.81317	1.6442	2.55434	0.87666	3.85699	1.40399	6.22549	1.70414	7.55122	2.06646	9.11774	0.636058	2.8202	1.13488	5.00823	1.38878	6.15805	1.72462	7.58313	2.06303	9.05939
1.63395	2.55537	0.639234	2.79495	1.6387	2.55495	0.876773	3.81872	1.40605	6.17146	1.70906	7.49639	2.06922	9.03789	0.638354	2.80171	1.13574	4.96152	1.39769	6.13479	1.72711	7.51782	2.06605	8.98167
1.6283	2.55575	0.641627	2.77739	1.63312	2.55543	0.876931	3.7814	1.40793	6.11776	1.71417	7.44344	2.07191	8.95935	0.64072	2.7839	1.13647	4.91515	1.40676	6.11269	1.72951	7.45339	2.06921	8.90606
1.62257	2.55601	0.64409	2.76048	1.62745	2.55579	0.877137	3.74503	1.40965	6.06442	1.71944	7.39228	2.07453	8.88206	0.643156	2.76675	1.13707	4.86917	1.41597	6.09163	1.73181	7.3898	2.0725	8.83252
1.61677	2.55617	0.646623	2.7442	1.62171	2.55604	0.877392	3.70957	1.4112	6.01145	1.72488	7.34283	2.07708	8.80599	0.645663	2.75024	1.13757	4.82362	1.4253	6.0715	1.73401	7.32707	2.07593	8.76096
1.61092	2.55624	0.649227	2.72853	1.6159	2.55619	0.877696	3.67501	1.41261	5.95886	1.73048	7.29501	2.07956	8.7311	0.64824	2.73434	1.13796	4.77855	1.43474	6.05221	1.73613	7.26518	2.07948	8.69133
1.60501	2.55623	0.651901	2.71345	1.61004	2.55624	0.878051	3.64131	1.41386	5.90666	1.73623	7.24873	2.08198	8.65737	0.650888	2.71905	1.13828	4.734	1.44427	6.03368	1.73816	7.20412	2.08317	8.62355
1.59906	2.55614	0.654645	2.69895	1.60413	2.55622	0.878459	3.60847	1.41497	5.85487	1.74212	7.20391	2.08433	8.58477	0.653606	2.70433	1.13852	4.68999	1.45387	6.01582	1.74012	7.14391	2.08697	8.55756
1.59307	2.556	0.65746	2.68502	1.59817	2.55613	0.878919	3.57647	1.41595	5.8035	1.74813	7.16047	2.08661	8.51328	0.656395	2.69019	1.13869	4.64655	1.46354	5.99855	1.742	7.08454	2.09089	8.49329
1.58705	2.5558	0.660347	2.67163	1.59218	2.55597	0.879434	3.54527	1.4168	5.75258	1.75427	7.11834	2.08884	8.44288	0.659254	2.6766	1.13881	4.6037	1.47325	5.98179	1.74383	7.02603	2.09493	8.43067
1.581	2.55555	0.663305	2.65878	1.58615	2.55577	0.880003	3.51487	1.41753	5.70212	1.76052	7.07742	2.09101	8.37356	0.662185	2.66354	1.13889	4.56145	1.483	5.96548	1.7456	6.96839	2.09908	8.36964
1.57493	2.55526	0.666336	2.64645	1.5801	2.55551	0.880628	3.48525	1.41814	5.65213	1.76687	7.03765	2.09313	8.3053	0.665188	2.65102	1.13893	4.51983	1.49276	5.94954	1.74734	6.91166	2.10333	8.31013
1.56883	2.55494	0.669441	2.63464	1.57402	2.55522	0.881309	3.45638	1.41865	5.60264	1.7733	6.99896	2.0952	8.2381	0.668266	2.63902	1.13893	4.47884	1.50253	5.9339	1.74904	6.85584	2.10767	8.25207
1.56272	2.55458	0.672625	2.62335	1.56792	2.55489	0.882048	3.42826	1.41906	5.55364	1.77981	6.96126	2.09723	8.17194	0.67142	2.62753	1.13891	4.43848	1.51229	5.91849	1.75074	6.80098	2.11211	8.19541
1.55659	2.5542	0.675892	2.61258	1.56181	2.55453	0.882844	3.40085	1.41938	5.50517	1.78639	6.92449	2.09923	8.10684	0.674655	2.61656	1.13887	4.39876	1.52201	5.90325	1.75244	6.7471	2.11663	8.14006
1.55044	2.55378	0.67925	2.60235	1.55567	2.55414	0.8837	3.37416	1.41961	5.45722	1.79302	6.88857	2.1012	8.04279	0.677977	2.60613	1.13881	4.35969	1.53169	5.88809	1.75416	6.69427	2.12122	8.08598
1.54429	2.55335	0.682712	2.59269	1.54953	2.55372	0.884614	3.34815	1.41976	5.4098	1.79969	6.85345	2.10315	7.97978	0.681398	2.59625	1.13875	4.32127	1.54131	5.87295	1.75593	6.64252	2.12589	8.0331
1.53812	2.55289	0.6863	2.58368	1.54337	2.55328	0.885589	3.32282	1.41983	5.36294	1.80639	6.81904	2.1051	7.91784	0.684935	2.58698	1.13867	4.28349	1.55083	5.85774	1.75776	6.59191	2.13061	7.98136
1.53195	2.55242	0.690054	2.57544	1.5372	2.55282	0.886624	3.29815	1.41984	5.31663	1.8131	6.78529	2.10704	7.85696	0.688621	2.57843	1.1386	4.24636	1.56024	5.84238	1.75969	6.54252	2.13539	7.93069
1.52576	2.55192	0.694039	2.5682	1.53102	2.55234	0.88772	3.27413	1.41978	5.27089	1.81982	6.75212	2.10899	7.79716	0.692509	2.57078	1.13853	4.20987	1.56952	5.82678	1.76173	6.49441	2.1402	7.88105
1.51957	2.55141	0.698356	2.56229	1.52484	2.55185	0.888878	3.25073	1.41967	5.22571	1.82653	6.71949	2.11097	7.73844	0.696688	2.56433	1.13846	4.17401	1.57863	5.81083	1.76393	6.44768	2.14505	7.83237
1.51337	2.55089	0.703111	2.55808	1.51865	2.55133	0.890098	3.22796	1.41951	5.1811	1.83321	6.68732	2.11297	7.68083	0.701269	2.55945	1.13841	4.13879	1.58755	5.79444	1.76632	6.40241	2.14993	7.78459
1.50717	2.55035	0.708328	2.55561	1.51245	2.55081	0.891381	3.20578	1.4193	5.13707	1.83986	6.65555	2.11503	7.62434	0.706317	2.55635	1.13836	4.10419	1.59623	5.77748	1.76894	6.35871	2.15483	7.73767
1.50096	2.5498	0.713918	2.55451	1.50624	2.55027	0.892727	3.1842	1.41905	5.09362	1.84646	6.62412	2.11714	7.56899	0.711783	2.55479	1.13833	4.07022	1.60465	5.75984	1.77182	6.31669	2.15973	7.69154
1.49474	2.54923	0.719754	2.5543	1.50003	2.54971	0.894138	3.1632	1.41876	5.05075	1.85299	6.59297	2.11932	7.5148	0.71754	2.5543	1.13831	4.03686	1.61276	5.74139	1.77502	6.27645	2.16463	7.64616
1.48852	2.54866	0.72574	2.55463	1.49382	2.54915	0.895612	3.14276	1.41844	5.00846	1.85944	6.56204	2.12158	7.46179	0.723478	2.55446	1.13832	4.00411	1.62052	5.722	1.77857	6.23811	2.16952	7.60147
1.4823	2.54807	0.731815	2.55526	1.4876	2.54857	0.897152	3.12288	1.41808	4.96676	1.86579	6.53128	2.12395	7.40997	0.729525	2.55499	1.13834	3.97196	1.62788	5.70156	1.78251	6.20176	2.17439	7.55743
1.47608	2.54747	0.737946	2.55607	1.48137	2.54798	0.898757	3.10354	1.41771	4.92563	1.87203	6.50063	2.12643	7.35938	0.735638	2.55575	1.13839	3.9404	1.63482	5.67996	1.78689	6.16748	2.17922	7.51399
1.46985	2.54686	0.744113	2.557	1.47515	2.54738	0.900428	3.08473	1.41731	4.88508	1.87815	6.47002	2.12904	7.31004	0.741793	2.55664	1.13846	3.90943	1.64129	5.6571	1.79174	6.13533	2.18402	7.47109
1.46361	2.54624	0.750303	2.55799	1.46892	2.54677	0.902167	3.06645	1.41689	4.84511	1.88412	6.43942	2.13179	7.26196	0.747976	2.55761	1.13856	3.87903	1.64728	5.63291	1.79706	6.10534	2.18877	7.42871
1.45738	2.54562	0.756509	2.55901	1.46269	2.54615	0.903973	3.04867	1.41646	4.80571	1.88994	6.40877	2.1347	7.21516	0.754176	2.55863	1.13869	3.8492	1.65274	5.60737	1.80289	6.07749	2.19347	7.38679
1.45114	2.54498	0.762726	2.56006	1.45645	2.54552	0.905847	3.0314	1.41601	4.76688	1.89559	6.37801	2.13779	7.16967	0.76039	2.55967	1.13884	3.81993	1.6577	5.58048	1.80922	6.05174	2.19809	7.34529
1.44491	2.54434	0.76895	2.56112	1.45021	2.54489	0.90779	3.01463	1.41556	4.72862	1.90105	6.34711	2.14106	7.12549	0.766612	2.56072	1.13903	3.79122	1.66213	5.55229	1.81603	6.028	2.20264	7.30417
1.43867	2.54368	0.77518	2.56218	1.44398	2.54424	0.909803	2.99834	1.4151	4.69092	1.90631	6.31603	2.14453	7.08265	0.772839	2.56178	1.13925	3.76304	1.66606	5.52286	1.82331	6.00616		
1.43242	2.54302	0.781413	2.56323	1.43774	2.54359	0.911887	2.98253	1.41463	4.65378	1.91137	6.28472	2.14821	7.04115	0.779071	2.56283	1.1395	3.73541	1.66952	5.49231	1.83102	5.98608		
1.42618	2.54235	0.787648	2.56427	1.43149	2.54292	0.914043	2.96719	1.41416	4.61719	1.9162	6.25316	2.15211	7.00099	0.785305	2.56388	1.13979	3.70829	1.67253	5.46075	1.83914	5.96762		
1.41994	2.54168	0.793884	2.5653	1.42525	2.54225	0.916272	2.95231	1.41369	4.58115	1.92079	6.22132	2.15624	6.96218	0.791541	2.56492	1.14011	3.6817	1.67513	5.42833	1.84764	5.95062		
1.41369	2.54099	0.800121	2.56632	1.41901	2.54158	0.918575	2.93789	1.41323	4.54566	1.92516	6.18919	2.16061	6.92469	0.797778	2.56594	1.14047	3.65562	1.67735	5.39519	1.85646	5.93494		
1.40745	2.5403	0.806357	2.56733	1.41276	2.54089	0.920955	2.92392	1.41277	4.5107	1.92927	6.15675	2.16522	6.88853	0.804015	2.56695	1.14086	3.63003	1.67923	5.36145	1.86558	5.92043		
1.4012	2.53961	0.812593	2.56831	1.40652	2.5402	0.923411	2.9104	1.41232	4.47628	1.93314	6.124	2.17008	6.85367	0.810251	2.56794	1.14129	3.60494	1.68081	5.32725	1.87497	5.90696		
1.39495	2.5389	0.818829	2.56928	1.40027	2.5395	0.925946	2.89732	1.41187	4.44238	1.93675	6.09093	2.17518	6.82008	0.816487	2.56892	1.14176	3.58034	1.68212	5.2927	1.88459	5.89442		
1.38871	2.53819	0.825063	2.57024	1.39402	2.5388	0.928563	2.88468	1.41144	4.40901	1.94012	6.05756	2.18053	6.78773	0.822721	2.56988	1.14227	3.55621	1.6832	5.25791	1.89442	5.8827		
1.38246	2.53748	0.831296	2.57117	1.38778	2.53809	0.931262	2.87247	1.41102	4.37614	1.94324	6.0239	2.18611	6.7566	0.828954	2.57082	1.14283	3.53254	1.68406	5.22297	1.90442	5.87169		
1.37621	2.53676	0.837527	2.57209	1.38153	2.53737	0.934046	2.8607	1.41061	4.34379	1.94611	5.98996	2.19194	6.72662	0.835186	2.57174	1.14342	3.50934	1.68474	5.18796	1.91458	5.86132		
1.36997	2.53603	0.843756	2.57299	1.37528	2.53665	0.936918	2.84936	1.41021	4.31193	1.94875	5.95577	2.19799	6.69777	0.841416	2.57265	1.14405	3.48659	1.68527	5.15296	1.92488	5.85151		
1.36372	2.53529	0.849984	2.57387	1.36904	2.53592	0.93988	2.83845	1.40983	4.28058	1.95115	5.92136	2.20426	6.66999	0.847645	2.57354	1.14472	3.46429	1.68565	5.11801	1.93529	5.84218		
1.35748	2.53456	0.856209	2.57473	1.36279	2.53519	0.942935	2.82797	1.40947	4.24971	1.95333	5.88675			0.853871	2.57441	1.14544	3.44242	1.6859	5.08318	1.9458	5.83329		
1.35123	2.53381	0.862433	2.57557	1.35655	2.53445	0.946086	2.81792	1.40913	4.21932	1.95529	5.85198			0.860095	2.57526	1.1462	3.42098	1.68605	5.0485	1.9564	5.82477		
1.34499	2.53307	0.868654	2.5764	1.3503	2.5337	0.949337	2.8083	1.40881	4.18941	1.95705	5.81708			0.866317	2.57609	1.147	3.39996	1.6861	5.01402	1.96707	5.81659		
1.33875	2.53231	0.874873	2.57721	1.34406	2.53295	0.95269	2.79912	1.40851	4.15997	1.95862	5.78208			0.872537	2.5769	1.14785	3.37936	1.68607	4.97976	1.97781	5.80869		
1.33251	2.53156	0.88109	2.578	1.33782	2.5322	0.956148	2.79036	1.40823	4.13099	1.96	5.74701			0.878755	2.5777	1.14874	3.35916	1.68597	4.94575	1.98858	5.80103		
1.32627	2.5308	0.887304	2.57877	1.33158	2.53145	0.959716	2.78204	1.40797	4.10247	1.96121	5.71192			0.88497	2.57848	1.14967	3.33936	1.68581	4.91202	1.9994	5.79358		
1.32003	2.53004	0.893515	2.57952	1.32534	2.53069	0.963395	2.77415	1.40774	4.0744	1.96226	5.67682			0.891182	2.57924	1.15065	3.31995	1.68559	4.87858	2.01024	5.7863		
1.31379	2.52927	0.899724	2.58026	1.3191	2.52992	0.967189	2.76669	1.40753	4.04678	1.96316	5.64175			0.897392	2.57998	1.15168	3.30093	1.68532	4.84545	2.02109	5.77916		
1.30756	2.52851	0.905931	2.58098	1.31287	2.52916	0.971099	2.75966	1.40735	4.01959	1.96391	5.60674			0.9036	2.58071	1.15275	3.28229	1.68501	4.81264	2.03195	5.77211		
1.30133	2.52774	0.912135	2.58168	1.30663	2.52839	0.975128	2.75306	1.40719	3.99283	1.96453	5.57181			0.909804	2.58142	1.15386	3.26402	1.68467	4.78016	2.04279	5.76514		
1.2951	2.52697	0.918335	2.58237	1.3004	2.52762	0.979275	2.74687	1.40707	3.9665	1.96503	5.537			0.916006	2.58211	1.15502	3.24612	1.6843	4.74803	2.05362	5.75819		
1.28888	2.5262	0.924533	2.58304	1.29418	2.52685	0.983541	2.7411	1.40697	3.94059	1.96542	5.50231			0.922206	2.58279	1.15623	3.22857	1.68391	4.71623	2.06441	5.75123		
1.28266	2.52543	0.930728	2.58369	1.28795	2.52608	0.987925	2.73572	1.4069	3.91509	1.9657	5.46779			0.928402	2.58345	1.15748	3.21138	1.68349	4.68479	2.07515	5.74423		
1.27644	2.52466	0.93692	2.58432	1.28173	2.52531	0.992424	2.73073	1.40685	3.89	1.96589	5.43343			0.934595	2.58409	1.15878	3.19454	1.68306	4.6537	2.08582	5.73713		
1.27023	2.52389	0.943109	2.58494	1.27552	2.52454	0.997036	2.72611	1.40684	3.86531	1.96599	5.39927			0.940785	2.58471	1.16013	3.17803	1.68261	4.62298	2.0964	5.72988		
1.26402	2.52312	0.949295	2.58555	1.26931	2.52377	1.00176	2.72185	1.40686	3.84101	1.966	5.36531			0.946972	2.58532	1.16152	3.16186	1.68215	4.59261	2.10688	5.72242		
1.25782	2.52236	0.955478	2.58613	1.2631	2.52301	1.00658	2.71791	1.40691	3.81711	1.96595	5.33158			0.953156	2.58591	1.16296	3.14602	1.68169	4.5626	2.11722	5.7147		
1.25163	2.5216	0.961657	2.5867	1.2569	2.52224	1.0115	2.71429	1.407	3.79358	1.96582	5.29808			0.959336	2.58649	1.16445	3.1305	1.68123	4.53296	2.1274	5.70662		
1.24544	2.52085	0.967833	2.58726	1.2507	2.52149	1.01652	2.71096	1.40711	3.77043	1.96563	5.26483			0.965513	2.58705	1.16598	3.1153	1.68076	4.50368	2.13737	5.6981		
1.23925	2.5201	0.974005	2.58779	1.24451	2.52074	1.02162	2.7079	1.40726	3.74766	1.96538	5.23183			0.971687	2.58759	1.16756	3.10041	1.68029	4.47476	2.1471	5.68904		
1.23308	2.51936	0.980173	2.58832	1.23833	2.51999	1.0268	2.70509	1.40744	3.72525	1.96508	5.1991			0.977857	2.58812	1.16919	3.08582	1.67982	4.4462	2.15653	5.67932		
1.22691	2.51864	0.986338	2.58882	1.23216	2.51926	1.03205	2.7025	1.40766	3.7032	1.96474	5.16665			0.984023	2.58863	1.17086	3.07154	1.67936	4.418	2.16561	5.66879		
1.22075	2.51792	0.992499	2.58931	1.22599	2.51853	1.03737	2.70012	1.4079	3.68151	1.96435	5.13447			0.990185	2.58913	1.17259	3.05755	1.67891	4.39016	2.17429	5.65732		
1.2146	2.51722	0.998656	2.58978	1.21983	2.51782	1.04275	2.69793	1.40819	3.66016	1.96392	5.10258			0.996344	2.58961	1.17436	3.04385	1.67846	4.36267	2.18248	5.64474		
1.20847	2.51654	1.00481	2.59024	1.21369	2.51712	1.04819	2.69591	1.4085	3.63917	1.96346	5.07098			1.0025	2.59007	1.17618	3.03044	1.67803	4.33553	2.19012	5.63091		
1.20234	2.51587	1.01096	2.59068	1.20755	2.51643	1.05368	2.69404	1.40886	3.61851	1.96296	5.03967			1.00865	2.59052	1.17804	3.01731	1.6776	4.30875	2.19716	5.61568		
1.19623	2.51522	1.0171	2.5911	1.20143	2.51577	1.05922	2.69232	1.40925	3.59818	1.96244	5.00866			1.01479	2.59095	1.17995	3.00445	1.67719	4.28231	2.20353	5.59896		
1.19013	2.5146	1.02324	2.59151	1.19532	2.51513	1.0648	2.69072	1.40967	3.57818	1.9619	4.97796			1.02093	2.59136	1.18192	2.99187	1.67679	4.25621				
1.18405	2.51401	1.02937	2.5919	1.18922	2.51451	1.07042	2.68924	1.41013	3.55851	1.96133	4.94755			1.02707	2.59175	1.18393	2.97956	1.67641	4.23046				
1.17799	2.51345	1.0355	2.59227	1.18314	2.51392	1.07607	2.68786	1.41063	3.53916	1.96075	4.91745			1.0332	2.59213	1.18598	2.9675	1.67604	4.20504				
1.17194	2.51293	1.04163	2.59263	1.17708	2.51337	1.08176	2.68657	1.41116	3.52012	1.96015	4.88766			1.03933	2.59249	1.18809	2.95571	1.67568	4.17996				
1.16592	2.51244	1.04775	2.59296	1.17104	2.51285	1.08747	2.68537	1.41173	3.50139	1.95953	4.85818			1.04545	2.59284	1.19025	2.94417	1.67535	4.15521				
1.15992	2.51201	1.05386	2.59328	1.16502	2.51237	1.09321	2.68425	1.41234	3.48296	1.95891	4.829			1.05156	2.59316	1.19245	2.93288	1.67504	4.13079				
1.15395	2.51162	1.05997	2.59358	1.15903	2.51195	1.09897	2.6832	1.41299	3.46484	1.95827	4.80013			1.05767	2.59347	1.1947	2.92184	1.67474	4.1067				
1.148	2.5113	1.06607	2.59386	1.15306	2.51157	1.10476	2.68221	1.41367	3.44701	1.95763	4.77157			1.06377	2.59376	1.197	2.91103	1.67447	4.08292				
1.14209	2.51104	1.07216	2.59413	1.14712	2.51125	1.11056	2.68128	1.41439	3.42947	1.95698	4.74332			1.06987	2.59403	1.19935	2.90047	1.67421	4.05946				
1.13621	2.51085	1.07824	2.59437	1.14121	2.51101	1.11638	2.6804	1.41515	3.41222	1.95633	4.71537			1.07596	2.59428	1.20175	2.89015	1.67398	4.03632				
1.13038	2.51075	1.08432	2.59459	1.13534	2.51083	1.12222	2.67957	1.41594	3.39525	1.95568	4.68773			1.08204	2.59451	1.2042	2.88006	1.67377	4.01348				
1.12458	2.51074	1.09039	2.59479	1.12951	2.51074	1.12807	2.67878	1.41678	3.37856	1.95503	4.66039			1.08812	2.59472	1.2067	2.87019	1.67358	3.99096				
1.11882	2.51083	1.09646	2.59497	1.12372	2.51075	1.13393	2.67803	1.41765	3.36214	1.95437	4.63335			1.09418	2.5949	1.20925	2.86056	1.67342	3.96873				
1.11312	2.51103	1.10251	2.59512	1.11797	2.51085	1.13981	2.67732	1.41856	3.34599	1.95373	4.60661			1.10024	2.59507	1.21185	2.85114	1.67329	3.94681				
1.10747	2.51136	1.10855	2.59525	1.11227	2.51107	1.1457	2.67664	1.41951	3.33011	1.95308	4.58017			1.10629	2.59521	1.2145	2.84195	1.67317	3.92518				
1.10187	2.51181	1.11459	2.59536	1.10663	2.51142	1.1516	2.676	1.4205	3.31449	1.95244	4.55403			1.11232	2.59532	1.2172	2.83298	1.67309	3.90384				
1.09634	2.51241	1.12061	2.59544	1.10104	2.51189	1.1575	2.67538	1.42153	3.29913	1.95181	4.52819			1.11835	2.59541	1.21995	2.82422	1.67302	3.8828				
1.09086	2.51315	1.12662	2.59549	1.09552	2.51251	1.16342	2.67479	1.4226	3.28402	1.95119	4.50263			1.12437	2.59548	1.22276	2.81567	1.67299	3.86203				
1.08546	2.51405	1.13262	2.59552	1.09005	2.51328	1.16934	2.67422	1.4237	3.26916	1.95057	4.47737			1.13037	2.59551	1.22562	2.80734	1.67298	3.84155				
1.08011	2.51513	1.13861	2.59551	1.08465	2.5142	1.17527	2.67367	1.42485	3.25454	1.94996	4.4524			1.13636	2.59552	1.22853	2.79922	1.673	3.82135				
1.07484	2.51637	1.14458	2.59547	1.07932	2.5153	1.18121	2.67315	1.42603	3.24017	1.94937	4.42771			1.14234	2.59549	1.2315	2.7913	1.67305	3.80142				
1.06964	2.51779	1.15054	2.5954	1.07406	2.51657	1.18715	2.67264	1.42726	3.22604	1.94878	4.40331			1.1483	2.59543	1.23452	2.7836	1.67312	3.78177				
1.0645	2.51939	1.15648	2.59529	1.06887	2.51801	1.1931	2.67215	1.42852	3.21214	1.94821	4.37918			1.15425	2.59534	1.2376	2.7761	1.67323	3.76238				
1.05944	2.52116	1.1624	2.59515	1.06374	2.51964	1.19905	2.67167	1.42983	3.19848	1.94765	4.35534			1.16018	2.59521	1.24074	2.7688	1.67336	3.74325				
1.05444	2.52312	1.1683	2.59496	1.05869	2.52144	1.20501	2.67121	1.43117	3.18504	1.94711	4.33177			1.16609	2.59503	1.24393	2.76171	1.67352	3.72439				
1.0495	2.52525	1.17419	2.59473	1.0537	2.52343	1.21097	2.67076	1.43255	3.17183	1.94658	4.30848			1.17198	2.59482	1.24719	2.75483	1.67371	3.70578				
1.04463	2.52756	1.18005	2.59445	1.04877	2.52559	1.21693	2.67032	1.43397	3.15884	1.94607	4.28545			1.17785	2.59456	1.2505	2.74815	1.67393	3.68743				
1.03982	2.53004	1.18588	2.59412	1.04391	2.52792	1.2229	2.6699	1.43543	3.14607	1.94557	4.2627			1.18369	2.59425	1.25388	2.74167	1.67418	3.66933				
1.03505	2.53267	1.19169	2.59374	1.0391	2.53042	1.22886	2.66948	1.43694	3.13352	1.94509	4.24021			1.18952	2.59389	1.25733	2.7354	1.67446	3.65148				
1.03034	2.53546	1.19748	2.5933	1.03435	2.53308	1.23484	2.66907	1.43848	3.12117	1.94462	4.21798			1.19531	2.59347	1.26084	2.72934	1.67477	3.63387				
1.02568	2.5384	1.20323	2.5928	1.02965	2.53589	1.24081	2.66868	1.44006	3.10904	1.94418	4.19601			1.20107	2.593	1.26442	2.72349	1.67511	3.61651				
1.02106	2.54147	1.20895	2.59224	1.02499	2.53885	1.24678	2.66828	1.44168	3.09711	1.94375	4.17431			1.2068	2.59246	1.26807	2.71785	1.67548	3.59938				
1.01647	2.54468	1.21463	2.59161	1.02037	2.54194	1.25276	2.6679	1.44334	3.08538	1.94334	4.15285			1.2125	2.59185	1.2718	2.71242	1.67589	3.58249				
1.01192	2.548	1.22028	2.5909	1.01579	2.54517	1.25874	2.66752	1.44504	3.07386	1.94296	4.13165			1.21816	2.59117	1.2756	2.7072	1.67632	3.56582				
1.0074	2.55143	1.22589	2.59012	1.01125	2.5485	1.26471	2.66715	1.44678	3.06253	1.94259	4.1107			1.22379	2.59042	1.27947	2.7022	1.67678	3.54939				
1.00289	2.55495	1.23145	2.58925	1.00672	2.55195	1.27069	2.66678	1.44857	3.0514	1.94224	4.08999			1.22937	2.58958	1.28343	2.69741	1.67728	3.53319				
0.998405	2.55856	1.23697	2.5883	1.00222	2.55548	1.27667	2.66641	1.45039	3.04046	1.94191	4.06953			1.2349	2.58866	1.28748	2.69285	1.67781	3.51721				
0.993927	2.56223	1.24244	2.58725	0.997736	2.5591	1.28265	2.66605	1.45225	3.02971	1.94161	4.04931			1.24039	2.58765	1.2916	2.68851	1.67837	3.50145				
0.989455	2.56597	1.24786	2.58611	0.99326	2.56279	1.28863	2.66569	1.45415	3.01914	1.94132	4.02933			1.24583	2.58655	1.29582	2.68439	1.67896	3.4859				
0.98498	2.56974	1.25323	2.58488	0.988788	2.56653	1.2946	2.66533	1.4561	3.00876	1.94106	4.00959			1.25122	2.58535	1.30012	2.68049	1.67959	3.47057				
0.980498	2.57354	1.25855	2.58354	0.984313	2.57031	1.30058	2.66497	1.45808	2.99857	1.94083	3.99008			1.25656	2.58406	1.30452	2.67682	1.68025	3.45546				
0.976001	2.57734	1.26381	2.58211	0.979828	2.57411	1.30655	2.66461	1.4601	2.98855	1.94061	3.9708			1.26184	2.58266	1.309	2.67336	1.68094	3.44055				
0.971482	2.58114	1.26901	2.58058	0.975328	2.57791	1.31252	2.66426	1.46217	2.97871	1.94042	3.95174			1.26706	2.58117	1.31358	2.67013	1.68166	3.42585				
0.966935	2.58491	1.27416	2.57896	0.970806	2.5817	1.31849	2.6639	1.46427	2.96904	1.94025	3.93292			1.27223	2.57958	1.31825	2.66711	1.68241	3.41135				
0.962354	2.58863	1.27926	2.57723	0.966255	2.58546	1.32446	2.66354	1.46642	2.95955	1.9401	3.91432			1.27735	2.57789	1.32301	2.6643	1.6832	3.39705				
0.957731	2.59228	1.2843	2.57543	0.961668	2.58918	1.33043	2.66317	1.46861	2.95022	1.93998	3.89594			1.28241	2.57612	1.32785	2.66169	1.68402	3.38296				
0.953062	2.59585	1.2893	2.57353	0.957038	2.59282	1.33639	2.66281	1.47084	2.94107	1.93989	3.87778			1.28743	2.57425	1.33279	2.65928	1.68487	3.36905				
0.94834	2.59933	1.29424	2.57156	0.952361	2.59638	1.34235	2.66244	1.47311	2.93208	1.93982	3.85983			1.29239	2.57231	1.3378	2.65706	1.68576	3.35534				
0.943561	2.60269	1.29915	2.56953	0.947631	2.59984	1.3483	2.66206	1.47542	2.92326	1.93977	3.8421			1.29731	2.5703	1.3429	2.65501	1.68668	3.34183				
0.938721	2.60593	1.30401	2.56743	0.942843	2.60318	1.35425	2.66169	1.47777	2.9146	1.93975	3.82458			1.30219	2.56822	1.34807	2.65313	1.68763	3.3285				
0.933817	2.60902	1.30884	2.56528	0.937994	2.6064	1.36019	2.6613	1.48017	2.9061	1.93975	3.80726			1.30703	2.56609	1.35331	2.65141	1.68862	3.31535				
0.928848	2.61198	1.31364	2.56309	0.933081	2.60947	1.36613	2.66091	1.48261	2.89776	1.93978	3.79016			1.31184	2.56392	1.35862	2.64983	1.68964	3.30239				
0.923814	2.61479	1.31841	2.56087	0.928102	2.61241	1.37207	2.66051	1.48509	2.88958	1.93984	3.77325			1.31662	2.56171	1.36399	2.64838	1.69069	3.28961				
0.918714	2.61745	1.32316	2.55863	0.923058	2.6152	1.37799	2.6601	1.48762	2.88155	1.93992	3.75655			1.32137	2.55947	1.36942	2.64706	1.69177	3.27701				
0.913549	2.61996	1.32789	2.55637	0.917948	2.61783	1.38391	2.65968	1.49018	2.87368	1.94003	3.74005			1.32611	2.55722	1.3749	2.64586	1.69289	3.26459				
0.908322	2.62232	1.3326	2.55411	0.912774	2.62032	1.38982	2.65925	1.4928	2.86597	1.94016	3.72375			1.33083	2.55496	1.38043	2.64476	1.69404	3.25234				
0.903035	2.62454	1.33731	2.55184	0.907538	2.62266	1.39573	2.6588	1.49545	2.85841	1.94032	3.70764			1.33554	2.55269	1.38601	2.64375	1.69523	3.24026				
0.897691	2.62662	1.34202	2.54959	0.902242	2.62486	1.40162	2.65834	1.49816	2.851	1.94051	3.69172			1.34025	2.55044	1.39162	2.64283	1.69645	3.22835				
0.892294	2.62858	1.34672	2.54736	0.89689	2.62692	1.4075	2.65787	1.5009	2.84374	1.94073	3.67599			1.34495	2.54819	1.39728	2.64199	1.6977	3.21661				
0.886846	2.63041	1.35142	2.54515	0.891485	2.62886	1.41338	2.65738	1.5037	2.83664	1.94097	3.66045			1.34965	2.54597	1.40296	2.64123	1.69899	3.20504				
0.881352	2.63213	1.35613	2.54296	0.88603	2.63067	1.41924	2.65687	1.50654	2.82968	1.94124	3.6451			1.35436	2.54378	1.40868	2.64052	1.70031	3.19362				
0.875814	2.63374	1.36084	2.54081	0.880529	2.63237	1.42508	2.65635	1.50943	2.82287	1.94154	3.62993			1.35907	2.54162	1.41443	2.63988	1.70166	3.18237				
0.870237	2.63525	1.36557	2.5387	0.874985	2.63397	1.43092	2.6558	1.51237	2.81622	1.94186	3.61494			1.36379	2.53949	1.4202	2.63928	1.70305	3.17128				
0.864622	2.63667	1.37031	2.53663	0.869402	2.63547	1.43673	2.65522	1.51536	2.80971	1.94221	3.60014			1.36853	2.5374	1.426	2.63874	1.70447	3.16035				
0.858974	2.63801	1.37507	2.53461	0.863783	2.63688	1.44253	2.65462	1.5184	2.80336	1.94259	3.58551			1.37328	2.53536	1.43181	2.63824	1.70592	3.14957				
0.853296	2.63927	1.37984	2.53263	0.85813	2.6382	1.44831	2.65399	1.52149	2.79715	1.943	3.57105			1.37804	2.53337	1.43765	2.63778	1.70741	3.13894				
0.847589	2.64047	1.38463	2.53071	0.852447	2.63945	1.45407	2.65332	1.52464	2.7911	1.94344	3.55677			1.38283	2.53142	1.4435	2.63735	1.70893	3.12847				
0.841856	2.64159	1.38944	2.52884	0.846736	2.64064	1.45981	2.65262	1.52784	2.7852	1.9439	3.54266			1.38763	2.52954	1.44937	2.63696	1.71048	3.11814				
0.836099	2.64266	1.39428	2.52703	0.840999	2.64176	1.46552	2.65189	1.53111	2.77945	1.9444	3.52872			1.39246	2.5277	1.45525	2.63659	1.71207	3.10796				
0.830321	2.64368	1.39914	2.52528	0.835239	2.64282	1.47121	2.65111	1.53443	2.77386	1.94492	3.51495			1.39731	2.52593	1.46115	2.63625	1.71369	3.09793				
0.824524	2.64465	1.40402	2.52358	0.829458	2.64383	1.47687	2.65028	1.53781	2.76843	1.94547	3.50134			1.40218	2.52421	1.46706	2.63594	1.71535	3.08804				
0.818708	2.64558	1.40893	2.52195	0.823658	2.64479	1.48249	2.64941	1.54126	2.76316	1.94604	3.48789			1.40709	2.52256	1.47298	2.63564	1.71704	3.07829				
0.812876	2.64646	1.41387	2.52038	0.81784	2.64571	1.48809	2.64848	1.54477	2.75805	1.94665	3.47461			1.41201	2.52096	1.4789	2.63537	1.71876	3.06869				
0.807029	2.64732	1.41884	2.51888	0.812005	2.64659	1.49364	2.6475	1.54835	2.7531	1.94729	3.46149			1.41697	2.51943	1.48484	2.63511	1.72051	3.05922				
0.801168	2.64813	1.42384	2.51743	0.806156	2.64744	1.49916	2.64645	1.552	2.74832	1.94795	3.44852			1.42196	2.51797	1.49078	2.63487	1.7223	3.04989				
0.795295	2.64892	1.42886	2.51606	0.800293	2.64825	1.50463	2.64534	1.55573	2.74371	1.94864	3.43572			1.42697	2.51657	1.49674	2.63465	1.72412	3.04069				
0.78941	2.64969	1.43392	2.51474	0.794418	2.64904	1.51006	2.64415	1.55954	2.73927	1.94936	3.42306			1.43202	2.51523	1.50269	2.63443	1.72598	3.03163				
0.783515	2.65043	1.43901	2.5135	0.788532	2.6498	1.51544	2.64289	1.56342	2.73502	1.95011	3.41056			1.43709	2.51396	1.50865	2.63423	1.72787	3.0227				
0.77761	2.65114	1.44413	2.51231	0.782635	2.65053	1.52076	2.64156	1.56739	2.73094	1.95089	3.39821			1.4422	2.51275	1.51462	2.63404	1.72979	3.01389				
0.771696	2.65184	1.44928	2.5112	0.776729	2.65125	1.52604	2.64013	1.57145	2.72704	1.9517	3.38601			1.44734	2.51161	1.52059	2.63385	1.73175	3.00522				
0.765774	2.65253	1.45446	2.51014	0.770814	2.65195	1.53126	2.63863	1.57559	2.72332	1.95254	3.37396			1.45251	2.51053	1.52657	2.63368	1.73374	2.99668				
0.759845	2.6532	1.45968	2.50915	0.764891	2.65263	1.53642	2.63704	1.57983	2.7198	1.95341	3.36205			1.45772	2.50952	1.53255	2.63351	1.73576	2.98826				
0.75391	2.65385	1.46493	2.50823	0.758961	2.65329	1.54152	2.63536	1.58415	2.71645	1.9543	3.35029			1.46295	2.50857	1.53853	2.63334	1.73782	2.97996				
0.747968	2.6545	1.47021	2.50736	0.753025	2.65395	1.54656	2.63359	1.58857	2.7133	1.95523	3.33867			1.46822	2.50768	1.54451	2.63319	1.73991	2.97179				
0.742021	2.65513	1.47552	2.50656	0.747082	2.65459	1.55155	2.63174	1.59308	2.71032	1.95618	3.32718			1.47352	2.50685	1.5505	2.63303	1.74204	2.96373				
0.736069	2.65576	1.48087	2.50582	0.741134	2.65523	1.55648	2.62981	1.59769	2.70753	1.95716	3.31584			1.47885	2.50609	1.55648	2.63288	1.74419	2.9558				
0.730113	2.65639	1.48624	2.50513	0.735181	2.65586	1.56135	2.62779	1.60239	2.70492	1.95818	3.30464			1.48422	2.50538	1.56247	2.63274	1.74639	2.94799				
0.724152	2.65701	1.49165	2.50451	0.729224	2.65648	1.56617	2.62571	1.60718	2.70247	1.95922	3.29357			1.48962	2.50473	1.56846	2.63259	1.74861	2.94029				
0.718188	2.65762	1.49709	2.50394	0.723263	2.6571	1.57094	2.62356	1.61205	2.7002	1.96029	3.28264			1.49504	2.50414	1.57445	2.63245	1.75087	2.93271				
0.712221	2.65824	1.50256	2.50342	0.717299	2.65771	1.57567	2.62136	1.61701	2.69808	1.96139	3.27184			1.5005	2.50361	1.58044	2.63231	1.75316	2.92524				
0.706251	2.65885	1.50806	2.50296	0.711331	2.65833	1.58036	2.6191	1.62206	2.69611	1.96252	3.26117			1.50599	2.50313	1.58643	2.63216	1.75549	2.91789				
0.700278	2.65947	1.51358	2.50255	0.70536	2.65895	1.58501	2.61681	1.62717	2.69428	1.96368	3.25063			1.5115	2.5027	1.59241	2.63202	1.75785	2.91065				
0.694304	2.66009	1.51914	2.50219	0.699388	2.65956	1.58964	2.61449	1.63236	2.69259	1.96487	3.24022			1.51705	2.50232	1.5984	2.63188	1.76024	2.90352				
0.688328	2.66072	1.52472	2.50188	0.693413	2.66018	1.59424	2.61215	1.63762	2.69102	1.96608	3.22994			1.52262	2.50199	1.60438	2.63173	1.76267	2.8965				
0.68235	2.66135	1.53033	2.50161	0.687436	2.66081	1.59883	2.6098	1.64294	2.68956	1.96733	3.21979			1.52822	2.50171	1.61037	2.63159	1.76513	2.88959				
0.676372	2.66199	1.53597	2.50139	0.681459	2.66144	1.60341	2.60745	1.64832	2.68821	1.96861	3.20975			1.53385	2.50147	1.61635	2.63144	1.76762	2.88278				
0.670393	2.66263	1.54163	2.50122	0.67548	2.66208	1.60798	2.60511	1.65375	2.68696	1.96991	3.19984			1.5395	2.50128	1.62233	2.63128	1.77015	2.87609				
0.664413	2.66329	1.54732	2.50108	0.669501	2.66273	1.61256	2.6028	1.65923	2.6858	1.97125	3.19005			1.54518	2.50113	1.6283	2.63113	1.77272	2.8695				
0.658434	2.66396	1.55303	2.50099	0.663522	2.66339	1.61715	2.60052	1.66476	2.68472	1.97261	3.18039			1.55088	2.50102	1.63427	2.63097	1.77532	2.86301				
0.652455	2.66465	1.55877	2.50093	0.657542	2.66407	1.62176	2.5983	1.67033	2.68371	1.974	3.17084			1.55661	2.50095	1.64024	2.6308	1.77795	2.85663				
0.646476	2.66535	1.56452	2.50091	0.651563	2.66475	1.6264	2.59613	1.67593	2.68277	1.97543	3.1614			1.56236	2.50091	1.6462	2.63063	1.78062	2.85035				
0.640499	2.66607	1.5703	2.50092	0.645585	2.66546	1.63107	2.59403	1.68157	2.6819	1.97688	3.15209			1.56813	2.50091	1.65216	2.63045	1.78332	2.84417				
0.634523	2.66681	1.5761	2.50096	0.639608	2.66618	1.63579	2.59202	1.68725	2.68108	1.97836	3.14289			1.57392	2.50094	1.65811	2.63027	1.78606	2.83809				
0.628549	2.66757	1.58192	2.50104	0.633632	2.66692	1.64056	2.59011	1.69295	2.68031	1.97987	3.1338			1.57973	2.50101	1.66406	2.63008	1.78883	2.83211				
0.622577	2.66835	1.58776	2.50114	0.627658	2.66768	1.64539	2.58832	1.69868	2.67959	1.98141	3.12482			1.58556	2.5011	1.67	2.62988	1.79164	2.82624				
0.616607	2.66916	1.59361	2.50128	0.621687	2.66847	1.6503	2.58665	1.70443	2.67891	1.98298	3.11596			1.59141	2.50122	1.67594	2.62967	1.79449	2.82046				
0.610641	2.67001	1.59949	2.50144	0.615717	2.66929	1.6553	2.58513	1.7102	2.67827	1.98457	3.1072			1.59728	2.50137	1.68187	2.62945	1.79737	2.81478				
0.604678	2.67088	1.60538	2.50162	0.609752	2.67013	1.66038	2.58376	1.716	2.67767	1.9862	3.09856			1.60316	2.50155	1.68779	2.62923	1.80029	2.8092				
0.598719	2.67179	1.61128	2.50183	0.603789	2.67101	1.66556	2.58255	1.72181	2.6771	1.98786	3.09002			1.60906	2.50175	1.6937	2.62899	1.80324	2.80372				
0.592764	2.67274	1.6172	2.50206	0.597831	2.67193	1.67084	2.5815	1.72764	2.67656	1.98954	3.08158			1.61498	2.50197	1.69961	2.62874	1.80624	2.79833				
0.586815	2.67373	1.62314	2.50231	0.591877	2.67288	1.67623	2.58062	1.73348	2.67605	1.99126	3.07326			1.62091	2.50222	1.7055	2.62847	1.80927	2.79304				
0.580871	2.67477	1.62909	2.50258	0.585928	2.67388	1.6817	2.57989	1.73934	2.67556	1.993	3.06503			1.62686	2.50248	1.71138	2.6282	1.81234	2.78785				
0.574933	2.67586	1.63506	2.50287	0.579985	2.67493	1.68728	2.5793	1.74521	2.6751	1.99478	3.05691			1.63281	2.50276	1.71726	2.6279	1.81545	2.78276				
0.569003	2.677	1.64103	2.50318	0.574049	2.67602	1.69293	2.57885	1.75109	2.67465	1.99658	3.04889			1.63879	2.50307	1.72312	2.62759	1.8186	2.77776				
0.56308	2.67821	1.64702	2.50351	0.56812	2.67718	1.69866	2.57852	1.75698	2.67423	1.99841	3.04097			1.64477	2.50338	1.72897	2.62727	1.82178	2.77286				
0.557167	2.67949	1.65303	2.50385	0.562198	2.6784	1.70446	2.57828	1.76289	2.67382	2.00027	3.03316			1.65077	2.50372	1.7348	2.62692	1.82502	2.76805				
0.551262	2.68085	1.65904	2.5042	0.556286	2.67969	1.71031	2.57814	1.7688	2.67343	2.00216	3.02543			1.65678	2.50407	1.74062	2.62656	1.82829	2.76335				
0.545369	2.68229	1.66506	2.50457	0.550383	2.68106	1.71621	2.57807	1.77472	2.67306	2.00408	3.01781			1.6628	2.50443	1.74642	2.62617	1.8316	2.75874				
0.539488	2.68382	1.6711	2.50496	0.544492	2.68251	1.72215	2.57806	1.78065	2.6727	2.00602	3.01028			1.66883	2.50481	1.75221	2.62576	1.83496	2.75422				
0.53362	2.68545	1.67714	2.50535	0.538613	2.68405	1.72813	2.57811	1.78658	2.67235	2.008	3.00285			1.67487	2.5052	1.75798	2.62533	1.83837	2.74981				
0.527768	2.6872	1.68319	2.50576	0.532747	2.68571	1.73415	2.5782	1.79252	2.67201	2.01001	2.99552			1.68092	2.5056	1.76373	2.62487	1.84182	2.7455				
0.521932	2.68908	1.68926	2.50617	0.526897	2.68747	1.74018	2.57833	1.79847	2.67169	2.01204	2.98827			1.68698	2.50601	1.76946	2.62438	1.84531	2.74128				
0.516114	2.6911	1.69533	2.5066	0.521063	2.68937	1.74624	2.57849	1.80442	2.67137	2.0141	2.98112			1.69304	2.50644	1.77516	2.62386	1.84886	2.73717				
0.510318	2.69328	1.70141	2.50703	0.515249	2.69142	1.75232	2.57868	1.81037	2.67106	2.0162	2.97406			1.69912	2.50687	1.78084	2.62331	1.85246	2.73315				
0.504545	2.69564	1.70749	2.50748	0.509456	2.69362	1.75841	2.57889	1.81633	2.67076	2.01832	2.96709			1.70521	2.50731	1.7865	2.62273	1.8561	2.72924				
0.498798	2.6982	1.71359	2.50793	0.503686	2.69601	1.76452	2.57912	1.8223	2.67047	2.02047	2.96021			1.7113	2.50776	1.79213	2.62211	1.8598	2.72544				
0.493081	2.70098	1.71969	2.50839	0.497944	2.6986	1.77064	2.57937	1.82826	2.67019	2.02265	2.95342			1.7174	2.50822	1.79772	2.62145	1.86356	2.72174				
0.487397	2.70403	1.7258	2.50886	0.492231	2.70142	1.77677	2.57963	1.83424	2.66991	2.02486	2.94672			1.7235	2.50868	1.80329	2.62075	1.86737	2.71814				
0.481751	2.70736	1.73191	2.50933	0.486553	2.7045	1.78291	2.5799	1.84021	2.66964	2.02709	2.9401			1.72962	2.50915	1.80883	2.62001	1.87124	2.71466				
0.476147	2.71102	1.73804	2.50981	0.480913	2.70788	1.78906	2.58018	1.84618	2.66937	2.02936	2.93357			1.73573	2.50963	1.81432	2.61922	1.87517	2.71128				
0.470591	2.71506	1.74416	2.51029	0.475316	2.7116	1.79521	2.58046	1.85216	2.66911	2.03166	2.92713			1.74186	2.51011	1.81979	2.61838	1.87916	2.70802				
0.46509	2.71952	1.7503	2.51078	0.469768	2.71569	1.80137	2.58076	1.85814	2.66886	2.03398	2.92077			1.74799	2.5106	1.82521	2.6175	1.88321	2.70486				
0.459651	2.72448	1.75644	2.51128	0.464275	2.72023	1.80753	2.58105	1.86412	2.6686	2.03633	2.91449			1.75413	2.51109	1.83059	2.61656	1.88733	2.70182				
0.454282	2.72999	1.76258	2.51178	0.458846	2.72526	1.8137	2.58136	1.87011	2.66835	2.03872	2.9083			1.76027	2.51159	1.83594	2.61557	1.89151	2.6989				
0.448993	2.73615	1.76873	2.51228	0.453489	2.73087	1.81987	2.58166	1.87609	2.66811	2.04113	2.90218			1.76642	2.51209	1.84123	2.61452	1.89577	2.69609				
0.443795	2.74304	1.77489	2.51279	0.448213	2.73713	1.82604	2.58197	1.88207	2.66786	2.04357	2.89615			1.77257	2.51259	1.84649	2.61342	1.90009	2.6934				
0.438699	2.75077	1.78104	2.5133	0.443028	2.74414	1.83222	2.58228	1.88806	2.66762	2.04604	2.89021			1.77873	2.5131	1.85169	2.61226	1.90448	2.69082				
0.433717	2.75946	1.78721	2.51381	0.437948	2.752	1.8384	2.58258	1.89404	2.66738	2.04854	2.88434			1.78489	2.51362	1.85685	2.61104	1.90894	2.68836				
0.428864	2.76924	1.79338	2.51432	0.432985	2.76084	1.84458	2.58289	1.90002	2.66714	2.05107	2.87855			1.79106	2.51413	1.86197	2.60976	1.91347	2.68602				
0.424155	2.78025	1.79955	2.51484	0.428153	2.7708	1.85076	2.5832	1.90601	2.6669	2.05363	2.87284			1.79723	2.51465	1.86703	2.60842	1.91808	2.68379				
0.419604	2.79266	1.80572	2.51536	0.423466	2.78201	1.85694	2.58351	1.91199	2.66666	2.05622	2.86721			1.8034	2.51517	1.87205	2.60703	1.92276	2.68167				
0.415225	2.80662	1.8119	2.51588	0.41894	2.79464	1.86313	2.58382	1.91797	2.66642	2.05884	2.86165			1.80958	2.51569	1.87702	2.60558	1.9275	2.67967				
0.411033	2.8223	1.81809	2.51641	0.414588	2.80884	1.86931	2.58413	1.92395	2.66618	2.06149	2.85617			1.81576	2.51621	1.88195	2.60408	1.93232	2.67778				
0.40704	2.83987	1.82427	2.51693	0.410425	2.82479	1.87549	2.58443	1.92993	2.66594	2.06417	2.85077			1.82195	2.51674	1.88683	2.60253	1.9372	2.67599				
0.403255	2.8595	1.83046	2.51746	0.406462	2.84266	1.88168	2.58474	1.93591	2.6657	2.06688	2.84545			1.82814	2.51726	1.89167	2.60093	1.94215	2.6743				
0.399688	2.88135	1.83666	2.51799	0.40271	2.86262	1.88786	2.58504	1.94188	2.66546	2.06963	2.8402			1.83433	2.51779	1.89648	2.59928	1.94717	2.67272				
0.396345	2.90558	1.84285	2.51851	0.399176	2.88481	1.89404	2.58533	1.94785	2.66521	2.0724	2.83503			1.84053	2.51832	1.90124	2.5976	1.95225	2.67123				
0.393226	2.93232	1.84905	2.51904	0.395865	2.9094	1.90023	2.58563	1.95382	2.66497	2.0752	2.82993			1.84673	2.51884	1.90597	2.59587	1.95738	2.66983				
0.390335	2.96172	1.85526	2.51957	0.392781	2.93653	1.90641	2.58592	1.95979	2.66472	2.07803	2.8249			1.85293	2.51937	1.91066	2.59411	1.96258	2.66851				
0.387669	2.99391	1.86146	2.5201	0.389923	2.96634	1.91259	2.58621	1.96575	2.66446	2.0809	2.81996			1.85913	2.5199	1.91533	2.59233	1.96782	2.66728				
0.385226	3.02902	1.86767	2.52063	0.387291	2.99895	1.91877	2.5865	1.9717	2.66421	2.0838	2.81508			1.86534	2.52043	1.91996	2.59051	1.97312	2.66612				
0.383002	3.06717	1.87388	2.52116	0.384881	3.03451	1.92495	2.58678	1.97766	2.66394	2.08673	2.81028			1.87154	2.52096	1.92458	2.58868	1.97847	2.66504				
0.380992	3.10852	1.88009	2.52169	0.382689	3.07313	1.93112	2.58706	1.98361	2.66368	2.08969	2.80555			1.87776	2.52149	1.92917	2.58683	1.98386	2.66402				
0.379192	3.1532	1.8863	2.52222	0.38071	3.11497	1.9373	2.58733	1.98955	2.6634	2.09269	2.8009			1.88397	2.52202	1.93374	2.58496	1.9893	2.66307				
0.377597	3.20136	1.89252	2.52275	0.378941	3.16015	1.94347	2.5876	1.99548	2.66312	2.09572	2.79631			1.89018	2.52255	1.9383	2.58308	1.99477	2.66218				
0.376201	3.25316	1.89874	2.52327	0.377376	3.20884	1.94964	2.58786	2.00141	2.66284	2.09878	2.79181			1.8964	2.52308	1.94284	2.5812	2.00029	2.66134				
0.375	3.3088	1.90496	2.5238	0.37601	3.26121	1.95581	2.58812	2.00734	2.66254	2.10188	2.78737			1.90262	2.5236	1.94737	2.57931	2.00583	2.66055				
0.37399	3.36846	1.91118	2.52433	0.374838	3.31744	1.96197	2.58838	2.01325	2.66224	2.10501	2.78301			1.90884	2.52413	1.95189	2.57742	2.01141	2.65981				
0.373165	3.43237	1.9174	2.52485	0.373855	3.37772	1.96813	2.58863	2.01916	2.66193	2.10818	2.77873			1.91506	2.52465	1.95641	2.57554	2.01702	2.65911				
0.372521	3.50074	1.92363	2.52537	0.373057	3.44227	1.97429	2.58887	2.02505	2.66161	2.11139	2.77452			1.92129	2.52518	1.96092	2.57366	2.02265	2.65845				
0.372054	3.57385	1.92985	2.5259	0.37244	3.51134	1.98045	2.58911	2.03094	2.66128	2.11463	2.77038			1.92751	2.5257	1.96542	2.57179	2.02832	2.65783				
0.371761	3.65197	1.93608	2.52642	0.372	3.58517	1.9866	2.58934	2.03682	2.66093	2.11792	2.76632			1.93374	2.52622	1.96993	2.56992	2.034	2.65725				
0.371636	3.73541	1.94231	2.52693	0.371731	3.66407	1.99275	2.58957	2.04268	2.66057	2.12124	2.76233			1.93997	2.52674	1.97444	2.56807	2.03971	2.6567				
0.371675	3.82451	1.94854	2.52745	0.371631	3.74833	1.99889	2.58979	2.04853	2.6602	2.1246	2.75843			1.9462	2.52726	1.97895	2.56623	2.04543	2.65617				
0.371876	3.91964	1.95476	2.52796	0.371695	3.8383	2.00503	2.59	2.05437	2.65981	2.12801	2.7546			1.95242	2.52777	1.98346	2.56441	2.05118	2.65568				
0.372233	4.0212	1.96099	2.52848	0.371919	3.93436	2.01117	2.59021	2.06019	2.6594	2.13146	2.75085			1.95865	2.52828	1.98797	2.56261	2.05694	2.6552				
0.372742	4.12963	1.96722	2.52898	0.372299	4.03692	2.0173	2.5904	2.066	2.65897	2.13496	2.74718			1.96488	2.52879	1.9925	2.56082	2.06272	2.65476				
0.373398	4.24544	1.97345	2.52949	0.37283	4.14642	2.02343	2.59059	2.07178	2.65853	2.1385	2.74359			1.97111	2.5293	1.99703	2.55905	2.06851	2.65433				
0.374198	4.36916	1.97968	2.52999	0.373509	4.26337	2.02955	2.59078	2.07755	2.65806	2.14209	2.74008			1.97734	2.5298	2.00157	2.55731	2.07432	2.65392				
0.375137	4.50139	1.98591	2.53049	0.37433	4.38831	2.03566	2.59095	2.0833	2.65756	2.14573	2.73666			1.98357	2.5303	2.00612	2.55559	2.08014	2.65353				
0.376209	4.64279	1.99213	2.53098	0.375288	4.52187	2.04177	2.59111	2.08902	2.65704	2.14942	2.73333			1.9898	2.53079	2.01068	2.5539	2.08597	2.65316				
0.377409	4.79412	1.99836	2.53146	0.376379	4.6647	2.04787	2.59126	2.09472	2.65649	2.15317	2.73008			1.99602	2.53128	2.01526	2.55223	2.09181	2.6528				
0.378732	4.95619	2.00457	2.53194	0.377598	4.81758	2.05396	2.59141	2.10039	2.65591	2.15697	2.72693			2.00224	2.53176	2.01985	2.55059	2.09766	2.65246				
0.380172	5.12994	2.01079	2.5324	0.378939	4.98133	2.06004	2.59154	2.10603	2.6553	2.16083	2.72386			2.00845	2.53223	2.02446	2.54899	2.10351	2.65213				
0.381723	5.3164	2.01699	2.53286	0.380396	5.1569	2.06612	2.59166	2.11164	2.65465	2.16476	2.7209			2.01466	2.53269	2.02909	2.54742	2.10938	2.65181				
0.38316	5.49016	2.02318	2.53329	0.381963	5.34535	2.07218	2.59176	2.11722	2.65397	2.16874	2.71803			2.02086	2.53313	2.03375	2.54589	2.11525	2.6515				
0.384445	5.64727	2.02935	2.53369	0.383634	5.54788	2.07824	2.59186	2.12277	2.65324	2.1728	2.71526			2.02703	2.53354	2.03845	2.54442	2.12113	2.6512				
0.385547	5.78388	2.03548	2.53405	0.385403	5.76585	2.08428	2.59193	2.12827	2.65248	2.17693	2.71259			2.03318	2.53392	2.04319	2.54301	2.12702	2.65091				
0.386442	5.89645	2.04156	2.53434	0.387261	6.00081	2.09031	2.592	2.13374	2.65167	2.18112	2.71003			2.03928	2.53424	2.04801	2.54171	2.13291	2.65063				
0.387114	5.98191	2.04753	2.53449	0.389203	6.25451	2.09633	2.59204	2.13917	2.65081	2.18539	2.70757			2.04531	2.53445	2.05295	2.54057	2.1388	2.65036				
0.387741	6.06263	2.05334	2.53444	0.391219	6.52902	2.10233	2.59207	2.14456	2.64991	2.18974	2.70523			2.05118	2.53449	2.05808	2.53967	2.1447	2.65009				
0.388182	6.12	2.05888	2.53406	0.393303	6.82668	2.10832	2.59208	2.1499	2.64896	2.19417	2.70299			2.05683	2.53424	2.06349	2.53912	2.15061	2.64983				
0.38888	6.2117	2.06414	2.53335	0.395446	7.15023	2.11429	2.59207	2.1552	2.64796	2.19867	2.70086			2.06219	2.53365	2.0692	2.53893	2.15651	2.64957				
0.389845	6.34062	2.0692	2.53238	0.397638	7.5029	2.12024	2.59203	2.16046	2.64692	2.20326	2.69885			2.06732	2.53277	2.07512	2.53901	2.16242	2.64932				
0.39109	6.51096	2.07414	2.53128	0.399581	7.83689	2.12618	2.59197	2.16568	2.64584					2.07229	2.5317	2.08117	2.53924	2.16833	2.64908				
0.392628	6.72859	2.07902	2.53011	0.401257	8.14353	2.13209	2.59189	2.17086	2.64471					2.07719	2.53055	2.08729	2.53955	2.17425	2.64883				
0.394477	7.00153	2.08387	2.52891	0.402653	8.4139	2.13797	2.59178	2.176	2.64354					2.08205	2.52936	2.09345	2.53992	2.18016	2.64859				
0.396648	7.34069	2.0887	2.5277	0.403762	8.63939	2.14384	2.59163	2.18111	2.64234					2.08689	2.52815	2.09964	2.54032	2.18607	2.64836				
0.398863	7.71097	2.09354	2.5265	0.404579	8.81227	2.14967	2.59146	2.18618	2.64111					2.09172	2.52695	2.10585	2.54074	2.19199	2.64812				
0.401113	8.11653	2.09838	2.52531	0.405332	8.9769	2.15547	2.59124	2.19124	2.63985					2.09656	2.52575	2.11207	2.54117	2.19791	2.64789				
0.403388	8.56234	2.10323	2.52413	0.405856	9.09474	2.16124	2.59099	2.19627	2.63858					2.10141	2.52457	2.11829	2.5416	2.20382	2.64765				
0.405678	9.05439	2.10809	2.52298	0.406675	9.28454	2.16698	2.5907	2.20129	2.6373					2.10626	2.52341	2.12453	2.54204						
0.40797	9.59995	2.11296	2.52184	0.407788	9.55443	2.17267	2.59037							2.11113	2.52226	2.13076	2.54249						
0.410255	10.2079	2.11784	2.52073	0.409194	9.91669	2.17833	2.58998							2.116	2.52114	2.13701	2.54294						
0.412518	10.8895	2.12274	2.51964	0.410886	10.3893	2.18394	2.58955							2.1209	2.52004	2.14325	2.54338						
0.414749	11.6585	2.12765	2.51857	0.412853	10.9982	2.1895	2.58907							2.1258	2.51897	2.1495	2.54383						
0.416934	12.5327	2.13258	2.51752	0.415078	11.7816	2.19502	2.58853							2.13072	2.51791	2.15575	2.54428						
0.419059	13.5354	2.13752	2.5165	0.417255	12.6734	2.20049	2.58793							2.13566	2.51688	2.162	2.54473						
0.421111	14.6971	2.14248	2.51551	0.41937	13.6977									2.14061	2.51588	2.16825	2.54517						
0.423077	16.0589	2.14745	2.51453	0.42141	14.8862									2.14558	2.5149	2.1745	2.54562						
0.424942	17.678	2.15244	2.51358	0.423362	16.2823									2.15056	2.51394	2.18076	2.54606						
0.426692	19.6356	2.15744	2.51266	0.42521	17.9459									2.15556	2.513	2.18701	2.5465						
0.428313	22.0516	2.16247	2.51176	0.426942	19.9631									2.16058	2.51209	2.19327	2.54694						
0.429792	25.1108	2.1675	2.51088	0.428542	22.4613									2.16561	2.51121	2.19952	2.54738						
0.431115	29.1129	2.17256	2.51003	0.429999	25.6382									2.17066	2.51034	2.20578	2.54782						
0.432272	34.5791	2.17763	2.5092	0.431299	29.818									2.17572	2.50951								
0.433252	42.5023	2.18272	2.50839	0.43243	35.5705									2.1808	2.50869								
0.434044	55.0384	2.18782	2.50761	0.433382	43.9999									2.1859	2.5079								
0.43464	77.9093	2.19294	2.50685	0.434145	57.5621									2.19102	2.50713								
0.435036	132.981	2.19808	2.50611	0.434712	83.0426									2.19615	2.50638								
0.435226	451.475	2.20323	2.50539	0.435077	148.622									2.20129	2.50566								
				0.435237	701.972																		
