Sym0		Asym0		Sym1		Sym2		Sym3		Sym4		Sym5		Asym1		Asym2		Asym3		Asym4		Asym5	
387  Points		386  Points		387  Points		374  Points		367  Points		357  Points		147  Points		385  Points		381  Points		366  Points		176  Points		135  Points	
Freq (MHz)	Vph (m/ms)	Freq (MHz)	Vph (m/ms)	Freq (MHz)	Vph (m/ms)	Freq (MHz)	Vph (m/ms)	Freq (MHz)	Vph (m/ms)	Freq (MHz)	Vph (m/ms)	Freq (MHz)	Vph (m/ms)	Freq (MHz)	Vph (m/ms)	Freq (MHz)	Vph (m/ms)	Freq (MHz)	Vph (m/ms)	Freq (MHz)	Vph (m/ms)	Freq (MHz)	Vph (m/ms)
2.20227	2.5036	0.346111	1978.85	2.20064	2.50352	0.692236	918.349	1.32342	1065.25	1.38461	934.997	2.07658	1374.6	0.346222	213.681	0.882343	1281.57	1.03839	783.088	1.73054	5917.89	1.76481	2026.72
2.19624	2.50331	0.346373	139.537	2.19461	2.50323	0.6925	226.22	1.32265	372.604	1.38554	365.745	2.07619	543.778	0.34677	88.2888	0.882116	294.443	1.0388	285.901	1.7297	665.316	1.76602	555.671
2.19022	2.50303	0.34709	72.4661	2.18859	2.50295	0.693081	129.1	1.3212	225.57	1.38722	227.575	2.07546	338.824	0.347769	55.7762	0.88161	166.239	1.03957	174.988	1.72771	352.075	1.76837	322.367
2.1842	2.50275	0.348256	49.0702	2.18257	2.50267	0.693975	90.4088	1.31916	161.572	1.38955	165.362	2.07441	245.991	0.349211	40.8794	0.880831	115.736	1.04071	126.174	1.72487	239.081	1.77154	227.326
2.17819	2.50247	0.349861	37.2015	2.17656	2.5024	0.695177	69.6335	1.31664	125.731	1.39242	130.006	2.07305	193.017	0.351085	32.3585	0.879795	88.7063	1.0422	98.7343	1.72149	180.79	1.77527	175.763
2.17218	2.50221	0.351894	30.0459	2.17056	2.50214	0.696677	56.6829	1.31376	102.803	1.39573	107.216	2.07142	158.758	0.353379	26.8581	0.878517	71.8596	1.04402	81.1646	1.71776	145.211	1.77936	143.407
2.16618	2.50195	0.35434	25.2752	2.16456	2.50188	0.698465	47.8461	1.31059	86.8706	1.39938	91.3121	2.06953	134.779	0.356075	23.0251	0.877016	60.3471	1.04615	68.96	1.71381	121.231	1.7837	121.215
2.16019	2.50169	0.357181	21.8772	2.15857	2.50163	0.700531	41.438	1.30722	75.153	1.40331	79.5859	2.06742	117.051	0.359155	20.209	0.875315	51.9775	1.04857	59.9946	1.70974	103.972	1.78822	105.05
2.15421	2.50145	0.3604	19.3409	2.15259	2.50138	0.702862	36.5828	1.3037	66.1727	1.40746	70.5846	2.0651	103.411	0.362599	18.0582	0.873434	45.6157	1.05126	53.1339	1.70559	90.9572	1.79287	92.7509
2.14823	2.50121	0.363975	17.3806	2.14661	2.50115	0.705445	32.7804	1.30008	59.0706	1.41178	63.4583	2.0626	92.5876	0.366387	16.3662	0.871398	40.6151	1.0542	47.7174	1.7014	80.7922	1.79761	83.0792
2.14226	2.50098	0.367886	15.8238	2.14065	2.50092	0.708264	29.7244	1.29639	53.3136	1.41625	57.6771	2.05994	83.7899	0.370497	15.0034	0.86923	36.58	1.05737	43.3347	1.6972	72.6341	1.80243	75.2746
2.1363	2.50076	0.372111	14.5605	2.13469	2.5007	0.711306	27.2165	1.29266	48.5531	1.42083	52.8933	2.05716	76.4969	0.374908	13.8846	0.86695	33.2549	1.06073	39.7169	1.69299	65.9425	1.8073	68.844
2.13035	2.50054	0.376628	13.5168	2.12874	2.50049	0.714556	25.1228	1.28892	44.5513	1.42551	48.8696	2.05426	70.3528	0.379596	12.9515	0.864581	30.4674	1.06429	36.6809	1.6888	60.355	1.81222	63.4542
2.1244	2.50034	0.381414	12.6417	2.1228	2.50029	0.717998	23.3496	1.28518	41.1407	1.43026	45.4382	2.05127	65.1057	0.384541	12.1627	0.862144	28.0969	1.06801	34.0975	1.68464	55.6198	1.81717	58.8712
2.11847	2.50014	0.386449	11.8986	2.11687	2.50009	0.721619	21.8293	1.28145	38.1999	1.43507	42.4774	2.04821	60.5724	0.38972	11.4881	0.859658	26.0565	1.07188	31.873	1.68051	51.5559	1.82216	54.9267
2.11254	2.49996	0.391711	11.2606	2.11094	2.49991	0.725403	20.512	1.27775	35.6383	1.43994	39.8966	2.04508	56.6166	0.395112	10.9053	0.857142	24.282	1.07588	29.9379	1.67643	48.0306	1.82716	51.4958
2.10663	2.49978	0.397178	10.7075	2.10503	2.49974	0.729336	19.3601	1.2741	33.3876	1.44485	37.627	2.04191	53.1347	0.400698	10.3973	0.854613	22.7249	1.07999	28.2393	1.67239	44.9437	1.83218	48.4843
2.10072	2.49962	0.40283	10.2239	2.09912	2.49957	0.733404	18.3445	1.27049	31.3948	1.44979	35.6155	2.03871	50.0464	0.405707	10.0053	0.852088	21.348	1.08421	26.7365	1.6684	42.2186	1.83721	45.8197
2.09482	2.49946	0.408648	9.79782	2.09323	2.49942	0.737593	17.4426	1.26694	29.6184	1.45475	33.8204	2.03549	47.2888	0.41007	9.70273	0.849584	20.122	1.08852	25.3977	1.66447	39.7956	1.84225	43.4452
2.08894	2.49932	0.414611	9.41968	2.08734	2.49928	0.74189	16.6364	1.26346	28.0253	1.45973	32.2085	2.03225	44.8114	0.413738	9.47185	0.847115	19.0239	1.09291	24.1974	1.6606	37.6273	1.84729	41.316
2.08306	2.49919	0.420702	9.08196	2.08147	2.49915	0.746283	15.9116	1.26005	26.5889	1.46473	30.7531	2.02902	42.574	0.416673	9.30042	0.844696	18.035	1.09737	23.1151	1.6568	35.6759	1.85233	39.3957
2.07719	2.49907	0.426901	8.77852	2.07561	2.49904	0.750758	15.2565	1.25673	25.2874	1.46973	29.4323	2.02579	40.5433	0.418849	9.18014	0.842343	17.1404	1.10188	22.1343	1.65307	33.9107	1.85737	37.6549
2.07134	2.49896	0.433191	8.50435	2.06975	2.49893	0.755304	14.6614	1.25349	24.1032	1.47474	28.2282	2.02258	38.6923	0.42025	9.10558	0.840068	16.3275	1.10643	21.2413	1.64941	32.3065	1.8624	36.0697
2.06549	2.49887	0.439554	8.25531	2.06391	2.49884	0.759909	14.1184	1.25035	23.0213	1.47974	27.1259	2.01939	36.9981	0.422273	9.00155	0.837885	15.5861	1.11103	20.4247	1.64583	30.8425	1.86743	34.6199
2.05966	2.49878	0.445972	8.02796	2.05808	2.49877	0.764561	13.6209	1.2473	22.0294	1.48474	26.1129	2.01623	35.442	0.424485	8.89249	0.835809	14.9076	1.11565	19.6751	1.64234	29.5013	1.87243	33.2887
2.05384	2.49872	0.452429	7.8194	2.05227	2.4987	0.769248	13.1633	1.24437	21.117	1.48972	25.1788	2.01311	34.0077	0.427513	8.75048	0.833854	14.2848	1.12029	18.9844	1.63892	28.2684	1.87743	32.0623
2.04803	2.49867	0.458906	7.62718	2.04646	2.49865	0.773961	12.7409	1.24154	20.2752	1.49469	24.3145	2.01003	32.6819	0.431372	8.58053	0.832032	13.7116	1.12494	18.3459	1.6356	27.1313	1.8824	30.9285
2.04223	2.49863	0.465388	7.44924	2.04067	2.49862	0.778688	12.3496	1.23884	19.4964	1.49964	23.5125	2.007	31.4526	0.436078	8.38815	0.830357	13.1828	1.12959	17.7537	1.63238	26.0796	1.88735	29.8771
2.03645	2.49861	0.471857	7.28376	2.03489	2.4986	0.783419	11.9861	1.23626	18.774	1.50456	22.7661	2.00403	30.3101	0.441644	8.17887	0.828845	12.6937	1.13424	17.203	1.62925	25.1041	1.89228	28.8995
2.03068	2.4986	0.478295	7.12922	2.02912	2.4986	0.788142	11.6471	1.23381	18.1026	1.50946	22.0696	2.00113	29.2455	0.448076	7.95794	0.827508	12.2407	1.13888	16.6893	1.62622	24.1972	1.89717	27.988
2.02492	2.49861	0.484687	6.98428	2.02337	2.49861	0.792849	11.3304	1.23151	17.4771	1.51432	21.4181	1.99828	28.2513	0.454542	7.75497	0.826361	11.8203	1.14351	16.2089	1.6233	23.352	1.90203	27.136
2.01918	2.49864	0.491013	6.84776	2.01763	2.49865	0.797528	11.0334	1.22935	16.8932	1.51914	20.8073	1.99552	27.3209	0.461022	7.56763	0.82542	11.4296	1.1481	15.7587	1.62049	22.5627	1.90686	26.3378
2.01345	2.49868	0.497259	6.71866	2.0119	2.4987	0.802171	10.7543	1.22733	16.3472	1.52392	20.2333	1.99283	26.4485	0.467502	7.39393	0.824698	11.066	1.15267	15.3356	1.6178	21.824	1.91165	25.5884
2.00774	2.49874	0.503405	6.59606	2.00619	2.49876	0.806766	10.4914	1.22548	15.8359	1.52866	19.6929	1.99022	25.6291	0.473962	7.23219	0.824211	10.7274	1.15719	14.9373	1.61522	21.1316	1.91639	24.8834
2.00204	2.49883	0.509435	6.47919	2.0005	2.49885	0.811305	10.2431	1.22379	15.3562	1.53335	19.1831	1.9877	24.858	0.480387	7.08092	0.823973	10.4116	1.16168	14.5614	1.61277	20.4812	1.92109	24.2188
1.99635	2.49893	0.515332	6.36733	1.99482	2.49896	0.815206	10.0375	1.22228	14.9056	1.53798	18.7012	1.98528	24.1314	0.48676	6.93885	0.823981	10.1537	1.16611	14.2061	1.61045	19.8695	1.92573	23.5911
1.99068	2.49905	0.521079	6.25988	1.98915	2.49908	0.818487	9.86962	1.22094	14.4818	1.54256	18.245	1.98295	23.4455	0.493062	6.80486	0.824153	9.94576	1.17048	13.8695	1.60826	19.2933	1.93033	22.9973
1.98503	2.49919	0.526661	6.15628	1.9835	2.49923	0.821167	9.73554	1.21978	14.0827	1.54707	17.8122	1.98073	22.7973	0.499276	6.67797	0.824415	9.78161	1.17479	13.5501	1.60621	18.7497	1.93486	22.4346
1.97939	2.49935	0.532062	6.05607	1.97787	2.4994	0.823263	9.6324	1.21882	13.7064	1.55152	17.4012	1.97861	22.1838	0.505387	6.55732	0.824701	9.6566	1.17903	13.2465	1.60431	18.2362	1.93933	21.9006
1.97377	2.49954	0.537267	5.95882	1.97225	2.49959	0.824791	9.55811	1.21805	13.3513	1.5559	17.01	1.97661	21.6026	0.511375	6.44215	0.824957	9.56727	1.1832	12.9574	1.60254	17.7507	1.94374	21.3929
1.96816	2.49974	0.542264	5.86417	1.96665	2.4998	0.825762	9.51123	1.21749	13.0159	1.5602	16.6374	1.97473	21.0511	0.517225	6.3318	0.825141	9.51123	1.18728	12.6817	1.60094	17.2909	1.94808	20.9096
1.96258	2.49997	0.547041	5.77181	1.96107	2.50004	0.827149	9.44474	1.21713	12.6989	1.56442	16.2818	1.97298	20.5275	0.52292	6.22566	0.825434	9.43219	1.19128	12.4183	1.59948	16.8552	1.95234	20.4489
1.957	2.50022	0.551589	5.68147	1.9555	2.5003	0.828645	9.37362	1.21699	12.3989	1.56856	15.942	1.97135	20.0297	0.528444	6.12322	0.825791	9.34824	1.19519	12.1664	1.59819	16.4418	1.95653	20.0092
1.95145	2.5005	0.555899	5.59294	1.94995	2.50058	0.830658	9.27876	1.21706	12.1148	1.57261	15.617	1.96985	19.556	0.533783	6.02402	0.826342	9.23728	1.199	11.9251	1.59706	16.0492	1.96063	19.5889
1.94592	2.5008	0.559966	5.50604	1.94442	2.50089	0.833169	9.16174	1.21735	11.8457	1.57657	15.3056	1.96849	19.1049	0.538922	5.92766	0.827148	9.10207	1.20271	11.6937	1.59611	15.6761	1.96465	19.1867
1.9404	2.50113	0.563787	5.42063	1.93891	2.50122	0.836148	9.02441	1.21787	11.5905	1.58044	15.007	1.96727	18.6748	0.543848	5.83379	0.828289	8.94589	1.20632	11.4714	1.59532	15.3212	1.96857	18.8014
1.9349	2.50148	0.567362	5.3366	1.93342	2.50158	0.83956	8.86877	1.21862	11.3484	1.58421	14.7203	1.9662	18.2646	0.548551	5.74211	0.829865	8.77241	1.20982	11.2577	1.59471	14.9833	1.97241	18.4318
1.92942	2.50186	0.570691	5.2539	1.92794	2.50197	0.843359	8.69692	1.2196	11.1186	1.58788	14.4446	1.96528	17.8729	0.553022	5.65239	0.831996	8.58552	1.21321	11.0519	1.59428	14.6614	1.97614	18.0769
1.92396	2.50227	0.57378	5.17246	1.92249	2.50238	0.847028	8.53174	1.22081	10.9003	1.59144	14.1794	1.9645	17.4987	0.557253	5.5644	0.834477	8.41085	1.21648	10.8536	1.59403	14.3545	1.97978	17.7358
1.91852	2.5027	0.576634	5.09227	1.91705	2.50282	0.850558	8.37271	1.22225	10.6929	1.5949	13.924	1.96389	17.1409	0.56124	5.478	0.837312	8.24761	1.21964	10.6623	1.59396	14.0617	1.98331	17.4076
1.9131	2.50316	0.579262	5.01332	1.91163	2.50329	0.853945	8.21936	1.22392	10.4956	1.59825	13.6777	1.96344	16.7987	0.564981	5.39306	0.840502	8.09505	1.22268	10.4775	1.59408	13.7822	1.98673	17.0915
1.90769	2.50365	0.581674	4.93563	1.90623	2.50379	0.857183	8.07127	1.22556	10.3316	1.60148	13.44	1.96314	16.471	0.568475	5.30947	0.844046	7.95246	1.22523	10.3215	1.59439	13.5152	1.99004	16.7868
1.90231	2.50417	0.583882	4.85922	1.90086	2.50431	0.860268	7.92806	1.2271	10.1972	1.60461	13.2104	1.96301	16.1571	0.571726	5.22718	0.847942	7.81918	1.22734	10.1921	1.59488	13.2601	1.99324	16.4928
1.89695	2.50472	0.585897	4.78413	1.8955	2.50487	0.863194	7.7894	1.22846	10.0897	1.60762	12.9884	1.96305	15.8563	0.574737	5.14614	0.852183	7.69457	1.22903	10.0874	1.59556	13.016	1.99632	16.2088
1.89161	2.5053	0.587733	4.71037	1.89016	2.50546	0.865961	7.65498	1.2296	10.0069	1.61051	12.7737	1.96326	15.5678	0.577517	5.06636	0.856761	7.57802	1.23033	10.0061	1.59643	12.7825	1.99929	15.9344
1.88628	2.5059	0.589406	4.63801	1.88485	2.50607	0.868565	7.52452	1.23047	9.94728	1.6133	12.5658	1.96363	15.291	0.580073	4.98782	0.861666	7.46897	1.23128	9.94707	1.59749	12.559	2.00214	15.6689
1.88098	2.50654	0.590927	4.56706	1.87955	2.50672	0.871006	7.39778	1.23104	9.90965	1.61597	12.3644	1.96417	15.0252	0.582417	4.91055	0.866885	7.36687	1.23187	9.90965	1.59873	12.3448	2.00486	15.412
1.8757	2.50722	0.592313	4.49757	1.87427	2.5074	0.873282	7.27456	1.23188	9.85627	1.61853	12.1692	1.96488	14.7699	0.58456	4.83456	0.872404	7.2712	1.23272	9.85633	1.60016	12.1395	2.00747	15.1631
1.87044	2.50792	0.593577	4.42956	1.86902	2.50811	0.875396	7.15464	1.23282	9.79919	1.62098	11.9798	1.96575	14.5246	0.586515	4.7599	0.87821	7.18148	1.23362	9.79899	1.60176	11.9426	2.00996	14.9218
1.8652	2.50865	0.594734	4.36306	1.86379	2.50886	0.877347	7.03787	1.23415	9.72309	1.62333	11.7959	1.96679	14.2887	0.588297	4.6866	0.884285	7.09724	1.23482	9.72202	1.60354	11.7537	2.01234	14.6878
1.85998	2.50942	0.595795	4.29809	1.85857	2.50964	0.879139	6.92408	1.23589	9.6293	1.62557	11.6175	1.96799	14.0617	0.589918	4.61469	0.890612	7.01806	1.23631	9.6263	1.60549	11.5723	2.01459	14.4608
1.85478	2.51022	0.596776	4.23467	1.85338	2.51045	0.880774	6.81315	1.2381	9.51942	1.62771	11.4441	1.96936	13.8432	0.591394	4.54421	0.897175	6.94352	1.23805	9.5129	1.60761	11.3979	2.01673	14.2403
1.8496	2.51106	0.597686	4.17281	1.84821	2.51129	0.882257	6.70494	1.24084	9.39522	1.62976	11.2755	1.97088	13.6328	0.592739	4.4752	0.903955	6.87325	1.24002	9.38304	1.60988	11.2304	2.01876	14.0261
1.84445	2.51193	0.598539	4.11252	1.84306	2.51217	0.883592	6.59936	1.24417	9.25863	1.63172	11.1117	1.97255	13.43	0.593966	4.40768	0.910934	6.80689	1.24218	9.23809	1.61232	11.0692	2.02069	13.8179
1.83931	2.51283	0.599346	4.05379	1.83792	2.51308	0.884783	6.49631	1.24768	9.12802	1.6336	10.9524	1.97438	13.2345	0.59509	4.34168	0.918094	6.74411	1.24424	9.0973	1.6149	10.914	2.0225	13.6155
1.83419	2.51376	0.600018	4.00389	1.83281	2.51402	0.885838	6.39569	1.25137	9.00303	1.6354	10.7975	1.97634	13.0459	0.596124	4.27722	0.925417	6.68461	1.24621	8.96053	1.61762	10.7645	2.02422	13.4186
1.8291	2.51473	0.600574	3.96228	1.82772	2.515	0.88676	6.29745	1.25522	8.88331	1.63692	10.6659	1.97845	12.8639	0.59708	4.21431	0.932885	6.62808	1.24809	8.82761	1.6201	10.6387	2.02585	13.2271
1.82402	2.51573	0.601025	3.92851	1.82265	2.51601	0.887558	6.20149	1.25924	8.76854	1.63818	10.5562	1.98069	12.6881	0.597971	4.15296	0.940481	6.57427	1.2499	8.69844	1.6223	10.5345	2.02738	13.0406
1.81897	2.51677	0.601377	3.90223	1.8176	2.51706	0.888238	6.10777	1.2634	8.65842	1.63919	10.4671	1.98306	12.5182	0.598807	4.09318	0.948186	6.52292	1.25164	8.57288	1.62416	10.4504	2.02883	12.8591
1.81393	2.51784	0.601634	3.88313	1.81257	2.51814	0.888806	6.01622	1.2677	8.55265	1.63998	10.3977	1.98555	12.354	0.5996	4.03496	0.955983	6.4738	1.25332	8.45086	1.62566	10.3852	2.03021	12.6824
1.80892	2.51894	0.601798	3.87101	1.80756	2.51925	0.889269	5.92679	1.27213	8.45096	1.64055	10.3473	1.98815	12.1951	0.60036	3.9783	0.963855	6.42669	1.25496	8.33228	1.62679	10.338	2.03152	12.5102
1.80392	2.52008	0.602033	3.85373	1.80257	2.5204	0.889635	5.83943	1.27667	8.35309	1.64092	10.3153	1.99086	12.0413	0.601096	3.92319	0.971783	6.38137	1.25657	8.21706	1.62751	10.3081	2.03277	12.3426
1.79894	2.52125	0.602287	3.83513	1.7976	2.52158	0.889911	5.75409	1.28132	8.2588	1.64144	10.2696	1.99367	11.8924	0.601816	3.86962	0.979749	6.33765	1.25816	8.10515	1.62857	10.2654	2.03396	12.1792
1.79398	2.52246	0.602633	3.81014	1.79264	2.52279	0.890104	5.67074	1.28605	8.16785	1.642	10.2204	1.99657	11.748	0.60253	3.81756	0.987736	6.29535	1.25974	7.9965	1.62973	10.2197	2.03511	12.02
1.78904	2.5237	0.603071	3.77904	1.7877	2.52404	0.890221	5.58931	1.29087	8.08003	1.64275	10.1543	1.99956	11.608	0.603243	3.76701	0.995724	6.25429	1.26134	7.89105	1.63132	10.1583	2.03623	11.8649
1.78411	2.52497	0.603604	3.74219	1.78278	2.52531	0.890268	5.50979	1.29575	7.99513	1.6437	10.0719	2.00263	11.4721	0.603964	3.71794	1.00369	6.21429	1.26296	7.78879	1.63338	10.0821	2.03731	11.7137
1.7792	2.52627	0.604236	3.69998	1.77787	2.52662	0.890252	5.43212	1.30069	7.91294	1.64483	9.97411	2.00577	11.3402	0.604698	3.67033	1.01163	6.17518	1.26464	7.6897	1.6359	9.99196	2.03838	11.5664
1.7743	2.5276	0.604977	3.65291	1.77298	2.52796	0.89018	5.35627	1.30567	7.83329	1.64615	9.86187	2.00896	11.212	0.605451	3.62414	1.0195	6.13682	1.26638	7.59374	1.63893	9.88899	2.03944	11.4228
1.76942	2.52896	0.605738	3.60725	1.76811	2.52933	0.890058	5.2822	1.31069	7.756	1.64767	9.73634	2.01222	11.0874	0.606229	3.57936	1.0273	6.09903	1.26821	7.50093	1.64247	9.77428	2.04049	11.2829
1.76456	2.53034	0.606527	3.56298	1.76324	2.53072	0.889892	5.20987	1.31572	7.6809	1.64918	9.61421	2.01509	10.9815	0.607036	3.53595	1.03499	6.06168	1.27015	7.41126	1.64608	9.66309	2.04156	11.1466
1.7597	2.53176	0.607346	3.52009	1.75839	2.53214	0.889688	5.13925	1.32075	7.60782	1.65072	9.49542	2.01757	10.8933	0.607878	3.4939	1.04256	6.0246	1.27222	7.32475	1.64975	9.55522	2.0425	11.0306
1.75485	2.53319	0.608201	3.47852	1.75354	2.53359	0.889452	5.07031	1.32579	7.53663	1.65228	9.37991	2.01963	10.8216	0.608757	3.45315	1.04999	5.98765	1.27446	7.2414	1.65348	9.45047	2.04331	10.9338
1.75001	2.53465	0.609096	3.43827	1.74871	2.53505	0.889189	5.003	1.3308	7.46718	1.65388	9.26761	2.02126	10.7657	0.609678	3.4137	1.05724	5.9507	1.27687	7.16122	1.65724	9.34869	2.044	10.8552
1.74518	2.53613	0.610034	3.39928	1.74388	2.53653	0.888904	4.9373	1.33578	7.39933	1.65553	9.15847	2.02247	10.725	0.610645	3.3755	1.06429	5.9136	1.27949	7.08425	1.66103	9.2497	2.04455	10.7939
1.74035	2.53762	0.611018	3.36155	1.73905	2.53803	0.888602	4.87317	1.34072	7.33296	1.65725	9.05242	2.02325	10.6992	0.611659	3.33853	1.07112	5.87623	1.28235	7.0105	1.66485	9.15335	2.04497	10.7493
1.73552	2.53912	0.612052	3.32502	1.73422	2.53953	0.888288	4.81057	1.3456	7.26794	1.65905	8.94942	2.02436	10.6624	0.612725	3.30275	1.07771	5.83846	1.28546	6.93998	1.66868	9.05949	2.04523	10.721
1.73069	2.54063	0.613137	3.28968	1.72938	2.54104	0.887966	4.74948	1.35041	7.20416	1.66093	8.84942	2.02558	10.6227	0.613845	3.26814	1.08403	5.80018	1.28886	6.8727	1.67252	8.96798	2.04562	10.6806
1.72585	2.54214	0.614277	3.2555	1.72454	2.54254	0.88764	4.68986	1.35515	7.14152	1.66291	8.75237	2.02723	10.5692	0.61502	3.23466	1.09005	5.7613	1.29256	6.80865	1.67636	8.87869	2.04605	10.637
1.721	2.54364	0.615474	3.22244	1.71969	2.54404	0.887315	4.63168	1.35979	7.07991	1.665	8.65821	2.02933	10.5026	0.616253	3.20228	1.09577	5.72174	1.29658	6.74783	1.68018	8.79149	2.04664	10.5785
1.71613	2.54512	0.616729	3.19047	1.71481	2.54552	0.886994	4.5749	1.36434	7.01923	1.66721	8.56692	2.03187	10.4233	0.617546	3.17098	1.10116	5.68145	1.30094	6.69019	1.68398	8.70627	2.04741	10.5055
1.71124	2.54657	0.618045	3.15956	1.70991	2.54696	0.886682	4.5195	1.36877	6.95941	1.66955	8.47843	2.03486	10.332	0.618901	3.14073	1.10622	5.64037	1.30566	6.6357	1.68775	8.62291	2.04837	10.4188
1.70631	2.54799	0.619423	3.12968	1.70497	2.54837	0.88638	4.46545	1.37308	6.90037	1.67203	8.3927	2.03828	10.2295	0.620318	3.11148	1.11092	5.59851	1.31073	6.58428	1.69149	8.54131	2.04954	10.3192
1.70135	2.54936	0.620864	3.10081	1.69999	2.54972	0.886093	4.4127	1.37725	6.84202	1.67467	8.30968	2.0417	10.1294	0.621799	3.08323	1.11528	5.55586	1.31617	6.53584	1.69518	8.46137	2.05096	10.2077
1.69633	2.55066	0.622369	3.07292	1.69496	2.551	0.885824	4.36125	1.38129	6.7843	1.67746	8.22932	2.0451	10.0314	0.623346	3.05593	1.11929	5.51246	1.32197	6.49028	1.69882	8.38299	2.05246	10.0992
1.69125	2.55188	0.62394	3.04597	1.68987	2.5522	0.885575	4.31105	1.38518	6.72715	1.68042	8.15157	2.04848	9.93555	0.624958	3.02957	1.12295	5.46835	1.32813	6.44747	1.7024	8.3061	2.05404	9.99355
1.68611	2.55301	0.625578	3.01995	1.68471	2.5533	0.885349	4.26208	1.38891	6.67052	1.68356	8.07638	2.05183	9.84166	0.626637	3.00411	1.12628	5.42361	1.33463	6.40727	1.70592	8.2306	2.05572	9.89069
1.68089	2.55403	0.627282	2.99482	1.67946	2.55429	0.885149	4.2143	1.39248	6.61436	1.68687	8.00368	2.05515	9.74968	0.628384	2.97952	1.12928	5.37832	1.34147	6.36954	1.70937	8.15643	2.0575	9.79057
1.67559	2.55493	0.629054	2.97056	1.67414	2.55516	0.884978	4.1677	1.39588	6.55863	1.69037	7.93343	2.05843	9.65951	0.6302	2.95579	1.13198	5.33257	1.34862	6.33411	1.71274	8.08351	2.05939	9.69313
1.6702	2.55571	0.630895	2.94714	1.66873	2.5559	0.884837	4.12224	1.39911	6.50331	1.69405	7.86555	2.06167	9.57107	0.632083	2.93289	1.13439	5.28645	1.35608	6.30084	1.71603	8.01179	2.0614	9.59832
1.66473	2.55636	0.632805	2.92454	1.66323	2.55651	0.884729	4.0779	1.40216	6.44835	1.69793	7.79998	2.06486	9.48428	0.634036	2.91078	1.13652	5.24006	1.36381	6.26956	1.71923	7.9412	2.06352	9.50606
1.65917	2.55688	0.634783	2.90273	1.65765	2.557	0.884655	4.03465	1.40504	6.39375	1.70199	7.73665	2.068	9.39909	0.636058	2.88946	1.13841	5.19351	1.37181	6.24013	1.72235	7.87168	2.06576	9.41629
1.65353	2.55728	0.636831	2.88168	1.65199	2.55737	0.884618	3.99247	1.40775	6.33949	1.70625	7.67549	2.07108	9.31541	0.638149	2.86889	1.14007	5.14689	1.38004	6.21238	1.72537	7.8032	2.06812	9.32896
1.64781	2.55757	0.638948	2.86139	1.64625	2.55763	0.88462	3.95133	1.41028	6.28556	1.7107	7.61644	2.0741	9.23318	0.64031	2.84905	1.14151	5.10029	1.3885	6.18618	1.72829	7.73571	2.07062	9.24401
1.64203	2.55776	0.641135	2.84182	1.64046	2.55779	0.884662	3.91121	1.41263	6.23196	1.71533	7.55941	2.07707	9.15236	0.64254	2.82992	1.14277	5.0538	1.39715	6.16139	1.73112	7.66916	2.07325	9.16136
1.63619	2.55785	0.643392	2.82295	1.6346	2.55787	0.884746	3.87208	1.41481	6.17868	1.72015	7.50432	2.07996	9.07288	0.644841	2.81147	1.14385	5.00748	1.40598	6.13789	1.73385	7.60353	2.07601	9.08097
1.6303	2.55787	0.645717	2.80476	1.6287	2.55786	0.884873	3.83392	1.41682	6.12573	1.72514	7.4511	2.08279	8.9947	0.64721	2.7937	1.14478	4.96142	1.41498	6.11556	1.73648	7.5388	2.0789	9.00276
1.62436	2.55781	0.648113	2.78723	1.62275	2.55779	0.885045	3.79671	1.41866	6.07312	1.73031	7.39967	2.08556	8.91778	0.649649	2.77657	1.14556	4.91567	1.42412	6.09429	1.73902	7.47493	2.08193	8.92667
1.61838	2.55769	0.650578	2.77034	1.61676	2.55765	0.885263	3.76042	1.42035	6.02085	1.73564	7.34995	2.08826	8.84207	0.652157	2.76007	1.14623	4.87029	1.43338	6.07397	1.74146	7.4119	2.08509	8.85263
1.61237	2.55752	0.653111	2.75407	1.61074	2.55747	0.885528	3.72504	1.42187	5.96895	1.74113	7.30186	2.09089	8.76754	0.654734	2.74418	1.14678	4.82533	1.44276	6.05451	1.74381	7.34971	2.08838	8.78059
1.60633	2.5573	0.655715	2.7384	1.6047	2.55724	0.885842	3.69054	1.42325	5.91742	1.74677	7.25531	2.09345	8.69416	0.65738	2.72888	1.14723	4.78083	1.45224	6.03582	1.74606	7.28835	2.0918	8.71047
1.60027	2.55704	0.658387	2.72332	1.59862	2.55696	0.886206	3.6569	1.42449	5.86628	1.75256	7.21023	2.09594	8.62191	0.660096	2.71416	1.1476	4.73682	1.46179	6.01782	1.74824	7.2278	2.09535	8.64222
1.59418	2.55674	0.661128	2.7088	1.59253	2.55666	0.886621	3.62411	1.42559	5.81554	1.75847	7.16654	2.09837	8.55074	0.66288	2.69999	1.1479	4.69334	1.47141	6.00043	1.75033	7.16808	2.09902	8.57576
1.58808	2.55641	0.663938	2.69484	1.58642	2.55632	0.887087	3.59213	1.42656	5.76523	1.76451	7.12416	2.10074	8.48066	0.665733	2.68636	1.14813	4.6504	1.48108	5.98357	1.75235	7.10918	2.10282	8.51103
1.58196	2.55605	0.666817	2.68141	1.5803	2.55595	0.887607	3.56096	1.4274	5.71535	1.77067	7.08302	2.10305	8.41163	0.668656	2.67327	1.1483	4.60804	1.49079	5.96717	1.75431	7.05111	2.10673	8.44797
1.57582	2.55567	0.669766	2.66851	1.57416	2.55556	0.888179	3.53058	1.42813	5.66592	1.77692	7.04304	2.10531	8.34365	0.671649	2.66069	1.14843	4.56626	1.50053	5.95117	1.75621	6.99388	2.11076	8.38651
1.56967	2.55526	0.672785	2.65612	1.56801	2.55514	0.888807	3.50096	1.42875	5.61695	1.78327	7.00414	2.10751	8.2767	0.674713	2.64862	1.14851	4.52508	1.51027	5.93548	1.75806	6.93751	2.11489	8.32658
1.56351	2.55483	0.675876	2.64423	1.56185	2.55471	0.88949	3.47209	1.42926	5.56847	1.7897	6.96626	2.10967	8.21078	0.677849	2.63704	1.14856	4.48452	1.52	5.92005	1.75988	6.88203	2.11912	8.26813
1.55735	2.55438	0.67904	2.63284	1.55568	2.55425	0.890228	3.44396	1.42968	5.52048	1.7962	6.92932	2.11179	8.14588	0.68106	2.62596	1.14859	4.44457	1.52971	5.9048	1.76168	6.82746	2.12344	8.21108
1.55117	2.55391	0.68228	2.62195	1.5495	2.55378	0.891023	3.41654	1.43001	5.47299	1.80276	6.89326	2.11388	8.082	0.684351	2.61538	1.14859	4.40525	1.53938	5.88967	1.76347	6.77384	2.12786	8.15538
1.54498	2.55343	0.685602	2.61156	1.54331	2.5533	0.891876	3.38982	1.43026	5.42602	1.80936	6.85801	2.11594	8.01915	0.687728	2.60531	1.14858	4.36656	1.54899	5.87458	1.76528	6.7212	2.13235	8.10096
1.53879	2.55293	0.689013	2.60169	1.53712	2.55279	0.892787	3.36378	1.43043	5.37957	1.816	6.82349	2.11799	7.95731	0.691201	2.59578	1.14855	4.3285	1.55852	5.85945	1.76711	6.66959	2.13692	8.04777
1.53259	2.55242	0.692527	2.59237	1.53092	2.55228	0.893756	3.33841	1.43053	5.33366	1.82266	6.78966	2.12003	7.89651	0.69479	2.58684	1.14852	4.29107	1.56795	5.8442	1.769	6.61905	2.14155	7.99574
1.52639	2.5519	0.696166	2.58368	1.52471	2.55175	0.894785	3.31369	1.43056	5.28829	1.82933	6.75643	2.12206	7.83675	0.698526	2.5786	1.14849	4.25427	1.57725	5.82875	1.77095	6.56966	2.14624	7.94481
1.52018	2.55136	0.69997	2.57574	1.5185	2.55121	0.895873	3.28961	1.43054	5.24347	1.836	6.72376	2.12411	7.77803	0.702465	2.57124	1.14846	4.2181	1.5864	5.813	1.77301	6.52148	2.15098	7.89493
1.51397	2.55081	0.704006	2.56878	1.51229	2.55066	0.897022	3.26615	1.43046	5.1992	1.84265	6.69158	2.12618	7.72038	0.706697	2.56507	1.14843	4.18254	1.59537	5.79685	1.7752	6.47458	2.15576	7.84603
1.50776	2.55025	0.708375	2.56314	1.50607	2.5501	0.898231	3.24331	1.43033	5.15548	1.84927	6.65982	2.12828	7.6638	0.71133	2.56044	1.14841	4.14761	1.60413	5.7802	1.77755	6.42905	2.16058	7.79807
1.50154	2.54968	0.71318	2.55916	1.49985	2.54953	0.899502	3.22106	1.43015	5.11233	1.85585	6.62844	2.13043	7.60831	0.716425	2.55754	1.14839	4.11329	1.61263	5.76292	1.7801	6.38499	2.16542	7.75099
1.49531	2.5491	0.718439	2.55686	1.49363	2.54895	0.900835	3.1994	1.42993	5.06974	1.86238	6.59736	2.13263	7.55393	0.721924	2.55612	1.1484	4.07958	1.62085	5.74491	1.78289	6.34248	2.17028	7.70473
1.48909	2.54852	0.724057	2.55587	1.4874	2.54836	0.90223	3.17831	1.42968	5.02772	1.86883	6.56654	2.1349	7.50068	0.727703	2.5557	1.14841	4.04648	1.62874	5.72605	1.78595	6.30165	2.17514	7.65925
1.48286	2.54792	0.729911	2.55571	1.48117	2.54776	0.903687	3.15777	1.4294	4.98626	1.87519	6.53592	2.13726	7.44858	0.733654	2.55588	1.14845	4.01397	1.63626	5.70621	1.78933	6.26258	2.18	7.6145
1.47663	2.54731	0.735906	2.55605	1.47494	2.54715	0.905208	3.13779	1.42908	4.94536	1.88146	6.50543	2.13972	7.39764	0.739707	2.55642	1.1485	3.98204	1.64338	5.68528	1.79306	6.22538	2.18484	7.57042
1.4704	2.5467	0.741986	2.55668	1.46871	2.54653	0.906793	3.11834	1.42875	4.90503	1.88761	6.47504	2.14228	7.3479	0.745823	2.55717	1.14858	3.9507	1.65005	5.66318	1.7972	6.19015	2.18967	7.52696
1.46416	2.54608	0.748118	2.55748	1.46247	2.54591	0.908442	3.09942	1.42839	4.86526	1.89363	6.44468	2.14497	7.29936	0.751978	2.55803	1.14868	3.91994	1.65626	5.63982	1.80176	6.15694	2.19447	7.48409
1.45793	2.54545	0.754285	2.55838	1.45624	2.54527	0.910156	3.08101	1.42801	4.82605	1.8995	6.4143	2.14781	7.25206	0.75816	2.55898	1.14881	3.88974	1.66198	5.61516	1.80679	6.12581	2.19923	7.44176
1.45169	2.54481	0.760474	2.55934	1.45	2.54463	0.911936	3.06311	1.42762	4.7874	1.90522	6.38386	2.15079	7.206	0.764359	2.55996	1.14896	3.8601	1.66719	5.58919	1.81229	6.09677	2.20394	7.39992
1.44545	2.54416	0.766678	2.56034	1.44376	2.54399	0.913782	3.04571	1.42722	4.74931	1.91076	6.35332	2.15395	7.16121	0.77057	2.56097	1.14914	3.83101	1.67189	5.56194	1.81828	6.0698		
1.43921	2.54351	0.772892	2.56135	1.43752	2.54333	0.915694	3.02879	1.42681	4.71176	1.91612	6.32262	2.15728	7.11769	0.776789	2.56199	1.14935	3.80246	1.6761	5.53346	1.82475	6.04484		
1.43297	2.54285	0.779114	2.56238	1.43128	2.54267	0.917674	3.01235	1.42639	4.67477	1.92128	6.29174	2.16081	7.07547	0.783013	2.56302	1.14959	3.77445	1.67983	5.50384	1.83169	6.02181		
1.42673	2.54219	0.78534	2.5634	1.42504	2.54201	0.919722	2.99637	1.42597	4.63831	1.92623	6.26065	2.16454	7.03455	0.789242	2.56404	1.14987	3.74696	1.6831	5.47319	1.83908	6.00058		
1.42049	2.54151	0.791569	2.56442	1.4188	2.54133	0.92184	2.98086	1.42555	4.6024	1.93096	6.2293	2.16849	6.99492	0.795472	2.56506	1.15017	3.71999	1.68595	5.44163	1.84689	5.98104		
1.41425	2.54084	0.797801	2.56543	1.41256	2.54065	0.924027	2.96581	1.42513	4.56701	1.93546	6.1977	2.17266	6.9566	0.801705	2.56606	1.15051	3.69353	1.68842	5.4093	1.8551	5.96305		
1.40801	2.54015	0.804033	2.56643	1.40632	2.53997	0.926286	2.9512	1.42471	4.53216	1.93973	6.16581	2.17706	6.91956	0.807937	2.56705	1.15089	3.66757	1.69053	5.37633	1.86365	5.94644		
1.40176	2.53946	0.810266	2.56742	1.40007	2.53928	0.928617	2.93704	1.4243	4.49783	1.94376	6.13362	2.1817	6.88381	0.81417	2.56803	1.1513	3.64211	1.69233	5.34283	1.87253	5.9311		
1.39552	2.53877	0.816499	2.56839	1.39383	2.53858	0.931021	2.92331	1.42389	4.46402	1.94754	6.10115	2.18657	6.84931	0.820403	2.56899	1.15175	3.61713	1.69384	5.30894	1.88169	5.91687		
1.38928	2.53807	0.822731	2.56934	1.38759	2.53788	0.9335	2.91001	1.42349	4.43071	1.95108	6.06838	2.19168	6.81605	0.826635	2.56994	1.15224	3.59263	1.6951	5.27475	1.89111	5.90365		
1.38304	2.53736	0.828963	2.57028	1.38135	2.53717	0.936056	2.89714	1.4231	4.39792	1.95438	6.03533	2.19702	6.78399	0.832866	2.57086	1.15277	3.56859	1.69614	5.24037	1.90075	5.89131		
1.3768	2.53665	0.835193	2.57121	1.37511	2.53646	0.938689	2.88469	1.42273	4.36563	1.95744	6.00201	2.2026	6.75311	0.839096	2.57178	1.15333	3.54502	1.69699	5.20587	1.91058	5.87975		
1.37056	2.53594	0.841423	2.57211	1.36887	2.53574	0.941403	2.87265	1.42236	4.33383	1.96027	5.96843			0.845324	2.57267	1.15394	3.5219	1.69766	5.17132	1.9206	5.86889		
1.36432	2.53522	0.84765	2.573	1.36263	2.53502	0.944198	2.86104	1.42201	4.30252	1.96286	5.93463			0.85155	2.57355	1.15458	3.49923	1.69818	5.1368	1.93076	5.85863		
1.35808	2.53449	0.853876	2.57387	1.3564	2.5343	0.947078	2.84984	1.42168	4.27169	1.96523	5.90063			0.857775	2.57441	1.15527	3.477	1.69857	5.10236	1.94105	5.84892		
1.35185	2.53377	0.8601	2.57473	1.35016	2.53357	0.950044	2.83906	1.42137	4.24133	1.96738	5.86645			0.863998	2.57525	1.156	3.45519	1.69884	5.06805	1.95146	5.83968		
1.34561	2.53304	0.866323	2.57556	1.34393	2.53284	0.9531	2.82868	1.42107	4.21145	1.96933	5.83213			0.870219	2.57608	1.15677	3.43381	1.69901	5.03389	1.96197	5.83086		
1.33938	2.5323	0.872543	2.57638	1.3377	2.5321	0.956247	2.81872	1.42079	4.18203	1.97108	5.79769			0.876438	2.57689	1.15758	3.41285	1.69908	4.99994	1.97255	5.8224		
1.33315	2.53157	0.878761	2.57718	1.33147	2.53137	0.95949	2.80917	1.42054	4.15307	1.97264	5.76317			0.882655	2.57768	1.15844	3.39229	1.69908	4.96622	1.98321	5.81426		
1.32692	2.53083	0.884977	2.57797	1.32524	2.53063	0.96283	2.80004	1.4203	4.12456	1.97402	5.7286			0.888869	2.57845	1.15933	3.37214	1.69901	4.93274	1.99393	5.80639		
1.3207	2.53009	0.89119	2.57874	1.31901	2.52989	0.966272	2.79131	1.42009	4.0965	1.97524	5.69401			0.895081	2.57921	1.16028	3.35238	1.69888	4.89954	2.00469	5.79877		
1.31447	2.52935	0.897402	2.57949	1.31279	2.52915	0.969818	2.78301	1.4199	4.06887	1.9763	5.65942			0.901291	2.57995	1.16126	3.333	1.6987	4.86662	2.01548	5.79134		
1.30825	2.52861	0.90361	2.58022	1.30657	2.52841	0.97347	2.77511	1.41974	4.04168	1.97722	5.62487			0.907498	2.58067	1.16229	3.31401	1.69847	4.83401	2.0263	5.78408		
1.30204	2.52787	0.909817	2.58094	1.30036	2.52767	0.977233	2.76764	1.4196	4.01492	1.97799	5.59039			0.913703	2.58138	1.16337	3.29539	1.6982	4.80172	2.03713	5.77694		
1.29583	2.52713	0.916021	2.58164	1.29414	2.52693	0.981108	2.76057	1.41949	3.98857	1.97864	5.55599			0.919905	2.58207	1.16448	3.27714	1.6979	4.76975	2.04796	5.7699		
1.28962	2.52639	0.922222	2.58232	1.28794	2.52619	0.985097	2.75392	1.4194	3.96264	1.97917	5.52171			0.926105	2.58274	1.16565	3.25925	1.69757	4.73811	2.05878	5.76292		
1.28341	2.52565	0.92842	2.58299	1.28174	2.52545	0.989201	2.74767	1.41935	3.93712	1.97959	5.48756			0.932302	2.5834	1.16686	3.24172	1.69722	4.70681	2.06958	5.75597		
1.27721	2.52492	0.934616	2.58364	1.27554	2.52472	0.993421	2.74181	1.41932	3.91201	1.97991	5.45356			0.938496	2.58404	1.16811	3.22453	1.69684	4.67586	2.08034	5.749		
1.27102	2.52419	0.940809	2.58428	1.26935	2.52399	0.997757	2.73635	1.41932	3.88728	1.98014	5.41974			0.944687	2.58467	1.16941	3.20769	1.69645	4.64525	2.09105	5.74197		
1.26483	2.52346	0.946999	2.5849	1.26316	2.52327	1.00221	2.73127	1.41935	3.86296	1.98028	5.3861			0.950875	2.58528	1.17076	3.19118	1.69605	4.61499	2.10168	5.73485		
1.25865	2.52274	0.953186	2.5855	1.25698	2.52255	1.00677	2.72656	1.41941	3.83901	1.98034	5.35267			0.95706	2.58587	1.17215	3.175	1.69564	4.58508	2.11223	5.72757		
1.25248	2.52203	0.95937	2.58609	1.25081	2.52184	1.01144	2.72219	1.4195	3.81545	1.98032	5.31945			0.963243	2.58645	1.17358	3.15915	1.69522	4.55553	2.12267	5.72008		
1.24631	2.52133	0.965551	2.58666	1.24465	2.52114	1.01621	2.71815	1.41962	3.79226	1.98024	5.28647			0.969422	2.58701	1.17507	3.14362	1.6948	4.52633	2.13297	5.71232		
1.24015	2.52064	0.971729	2.58722	1.23849	2.52046	1.02108	2.71443	1.41978	3.76944	1.9801	5.25372			0.975597	2.58756	1.1766	3.1284	1.69438	4.49748	2.1431	5.7042		
1.23401	2.51996	0.977904	2.58776	1.23235	2.51978	1.02605	2.71101	1.41997	3.74698	1.9799	5.22123			0.98177	2.58809	1.17817	3.11348	1.69396	4.46899	2.15303	5.69564		
1.22787	2.5193	0.984075	2.58829	1.22621	2.51912	1.0311	2.70785	1.42019	3.72488	1.97965	5.189			0.987939	2.58861	1.17979	3.09888	1.69354	4.44085	2.16271	5.68653		
1.22174	2.51865	0.990243	2.5888	1.22009	2.51848	1.03624	2.70495	1.42044	3.70313	1.97935	5.15703			0.994105	2.58911	1.18146	3.08456	1.69312	4.41306	2.17209	5.67677		
1.21563	2.51803	0.996407	2.5893	1.21398	2.51786	1.04145	2.70228	1.42072	3.68173	1.97901	5.12533			1.00027	2.5896	1.18318	3.07054	1.69271	4.38562	2.18112	5.66621		
1.20953	2.51742	1.00257	2.58978	1.20788	2.51727	1.04673	2.69983	1.42104	3.66067	1.97863	5.09391			1.00642	2.59007	1.18494	3.05681	1.69231	4.35852	2.18975	5.65472		
1.20344	2.51685	1.00872	2.59024	1.2018	2.51669	1.05208	2.69757	1.4214	3.63995	1.97822	5.06278			1.01258	2.59053	1.18675	3.04336	1.69192	4.33177	2.1979	5.64214		
1.19738	2.5163	1.01488	2.59069	1.19574	2.51615	1.05749	2.69548	1.42179	3.61956	1.97778	5.03193			1.01873	2.59096	1.1886	3.03019	1.69154	4.30536	2.20551	5.62834		
1.19132	2.51578	1.02103	2.59113	1.18969	2.51565	1.06295	2.69356	1.42221	3.59949	1.97731	5.00138			1.02488	2.59139	1.1905	3.01729	1.69117	4.27929				
1.18529	2.5153	1.02717	2.59154	1.18367	2.51518	1.06846	2.69178	1.42267	3.57975	1.97682	4.97111			1.03102	2.5918	1.19245	3.00465	1.69081	4.25355				
1.17929	2.51487	1.03331	2.59195	1.17766	2.51476	1.07401	2.69014	1.42317	3.56032	1.9763	4.94115			1.03715	2.59219	1.19445	2.99229	1.69047	4.22815				
1.1733	2.51448	1.03945	2.59233	1.17169	2.51438	1.07961	2.68861	1.4237	3.54121	1.97577	4.91148			1.04329	2.59257	1.19649	2.98018	1.69014	4.20308				
1.16734	2.51414	1.04558	2.5927	1.16574	2.51406	1.08524	2.6872	1.42426	3.5224	1.97522	4.8821			1.04942	2.59293	1.19858	2.96832	1.68984	4.17833				
1.16141	2.51387	1.0517	2.59306	1.15982	2.5138	1.0909	2.68588	1.42487	3.5039	1.97465	4.85303			1.05554	2.59327	1.20072	2.95672	1.68954	4.15391				
1.15552	2.51366	1.05782	2.5934	1.15393	2.51361	1.0966	2.68465	1.42551	3.4857	1.97408	4.82426			1.06166	2.5936	1.2029	2.94537	1.68927	4.12981				
1.14966	2.51352	1.06394	2.59372	1.14808	2.5135	1.10232	2.6835	1.42618	3.46779	1.97349	4.79579			1.06777	2.59391	1.20514	2.93426	1.68902	4.10603				
1.14383	2.51347	1.07005	2.59402	1.14227	2.51347	1.10807	2.68242	1.4269	3.45016	1.9729	4.76761			1.07387	2.5942	1.20742	2.92338	1.68878	4.08256				
1.13805	2.51351	1.07615	2.5943	1.1365	2.51354	1.11384	2.68141	1.42765	3.43283	1.9723	4.73974			1.07997	2.59447	1.20974	2.91275	1.68857	4.0594				
1.13232	2.51365	1.08225	2.59457	1.13077	2.51371	1.11963	2.68046	1.42844	3.41577	1.9717	4.71217			1.08607	2.59473	1.21212	2.90234	1.68838	4.03655				
1.12663	2.5139	1.08834	2.59482	1.1251	2.51399	1.12544	2.67957	1.42926	3.39899	1.9711	4.68489			1.09215	2.59497	1.21454	2.89217	1.68821	4.014				
1.12099	2.51427	1.09443	2.59505	1.11948	2.51439	1.13126	2.67872	1.43012	3.38248	1.97049	4.65791			1.09823	2.59519	1.21702	2.88222	1.68806	3.99175				
1.11541	2.51477	1.1005	2.59526	1.11391	2.51492	1.13711	2.67792	1.43103	3.36624	1.96989	4.63122			1.10431	2.59538	1.21954	2.87249	1.68794	3.9698				
1.10989	2.5154	1.10657	2.59545	1.1084	2.5156	1.14296	2.67716	1.43196	3.35027	1.96929	4.60483			1.11037	2.59556	1.22211	2.86298	1.68784	3.94814				
1.10443	2.51618	1.11263	2.59562	1.10296	2.51642	1.14883	2.67645	1.43294	3.33455	1.96869	4.57873			1.11643	2.59572	1.22472	2.85369	1.68776	3.92678				
1.09903	2.51712	1.11869	2.59577	1.09758	2.5174	1.15471	2.67576	1.43396	3.31909	1.9681	4.55292			1.12247	2.59585	1.22739	2.84461	1.68772	3.90569				
1.0937	2.51821	1.12473	2.59589	1.09227	2.51854	1.1606	2.67511	1.43501	3.30388	1.96751	4.5274			1.12851	2.59596	1.23011	2.83575	1.68769	3.88489				
1.08843	2.51948	1.13076	2.596	1.08702	2.51985	1.1665	2.67448	1.4361	3.28892	1.96693	4.50216			1.13454	2.59605	1.23288	2.82709	1.68769	3.86437				
1.08323	2.5209	1.13679	2.59607	1.08184	2.52132	1.17241	2.67389	1.43723	3.27421	1.96636	4.47721			1.14056	2.59611	1.2357	2.81864	1.68772	3.84413				
1.0781	2.5225	1.1428	2.59612	1.07672	2.52297	1.17833	2.67332	1.4384	3.25974	1.9658	4.45254			1.14656	2.59614	1.23857	2.8104	1.68778	3.82415				
1.07303	2.52428	1.1488	2.59614	1.07167	2.52479	1.18425	2.67277	1.43961	3.2455	1.96525	4.42815			1.15255	2.59614	1.24149	2.80235	1.68786	3.80445				
1.06803	2.52622	1.15479	2.59614	1.06669	2.52677	1.19019	2.67224	1.44085	3.2315	1.96471	4.40403			1.15853	2.59612	1.24446	2.79451	1.68797	3.78501				
1.06309	2.52833	1.16076	2.5961	1.06176	2.52893	1.19612	2.67173	1.44214	3.21773	1.96418	4.3802			1.1645	2.59606	1.24749	2.78687	1.68811	3.76583				
1.0582	2.5306	1.16672	2.59603	1.05689	2.53124	1.20207	2.67124	1.44346	3.20419	1.96367	4.35663			1.17045	2.59597	1.25057	2.77943	1.68827	3.74692				
1.05338	2.53303	1.17266	2.59593	1.05208	2.53371	1.20802	2.67077	1.44482	3.19087	1.96317	4.33333			1.17638	2.59585	1.25371	2.77218	1.68847	3.72826				
1.0486	2.53561	1.17859	2.59579	1.04731	2.53634	1.21397	2.67031	1.44623	3.17777	1.96268	4.31031			1.18229	2.59568	1.2569	2.76513	1.68869	3.70985				
1.04387	2.53834	1.1845	2.59561	1.0426	2.5391	1.21993	2.66986	1.44767	3.16489	1.96221	4.28754			1.18819	2.59548	1.26015	2.75828	1.68894	3.69169				
1.03919	2.54121	1.19039	2.59539	1.03793	2.54201	1.22589	2.66943	1.44915	3.15222	1.96175	4.26504			1.19407	2.59523	1.26346	2.75162	1.68922	3.67378				
1.03454	2.54421	1.19626	2.59513	1.03329	2.54504	1.23186	2.66901	1.45066	3.13977	1.96131	4.2428			1.19992	2.59494	1.26683	2.74516	1.68953	3.65611				
1.02993	2.54732	1.2021	2.59482	1.02869	2.54819	1.23782	2.6686	1.45222	3.12752	1.96089	4.22082			1.20575	2.5946	1.27026	2.7389	1.68987	3.63867				
1.02535	2.55055	1.20792	2.59446	1.02412	2.55144	1.24379	2.66819	1.45382	3.11548	1.96048	4.19909			1.21155	2.5942	1.27375	2.73284	1.69025	3.62148				
1.0208	2.55388	1.21371	2.59404	1.01957	2.5548	1.24977	2.6678	1.45545	3.10364	1.9601	4.17762			1.21733	2.59375	1.27731	2.72697	1.69065	3.60452				
1.01626	2.5573	1.21947	2.59357	1.01504	2.55823	1.25574	2.66742	1.45713	3.09199	1.95973	4.15639			1.22307	2.59324	1.28093	2.7213	1.69108	3.58779				
1.01174	2.56079	1.22521	2.59304	1.01052	2.56175	1.26172	2.66704	1.45884	3.08055	1.95938	4.13541			1.22878	2.59267	1.28462	2.71583	1.69154	3.57129				
1.00723	2.56435	1.23091	2.59244	1.00601	2.56532	1.26769	2.66667	1.4606	3.0693	1.95905	4.11468			1.23446	2.59203	1.28839	2.71057	1.69204	3.55502				
1.00272	2.56796	1.23657	2.59177	1.0015	2.56894	1.27367	2.6663	1.46239	3.05824	1.95874	4.09418			1.2401	2.59132	1.29223	2.70551	1.69256	3.53896				
0.998212	2.5716	1.24219	2.59103	0.99699	2.57259	1.27965	2.66594	1.46422	3.04736	1.95845	4.07393			1.2457	2.59053	1.29614	2.70066	1.69312	3.52313				
0.993693	2.57527	1.24778	2.59021	0.992468	2.57626	1.28563	2.66559	1.46609	3.03668	1.95818	4.05391			1.25125	2.58966	1.30013	2.69601	1.6937	3.50751				
0.989158	2.57894	1.25332	2.58931	0.987928	2.57993	1.29161	2.66524	1.46801	3.02617	1.95793	4.03413			1.25677	2.5887	1.3042	2.69158	1.69432	3.4921				
0.984602	2.5826	1.25881	2.58833	0.983365	2.58358	1.29759	2.66489	1.46996	3.01585	1.95771	4.01458			1.26223	2.58766	1.30836	2.68736	1.69497	3.47691				
0.980018	2.58623	1.26426	2.58725	0.978772	2.5872	1.30357	2.66454	1.47195	3.0057	1.9575	3.99526			1.26765	2.58653	1.3126	2.68335	1.69565	3.46192				
0.975399	2.58981	1.26966	2.58608	0.974143	2.59077	1.30955	2.6642	1.47398	2.99573	1.95732	3.97617			1.27301	2.58531	1.31692	2.67955	1.69637	3.44714				
0.97074	2.59332	1.275	2.58482	0.969472	2.59426	1.31553	2.66385	1.47605	2.98594	1.95716	3.9573			1.27833	2.58399	1.32134	2.67597	1.69711	3.43256				
0.966034	2.59676	1.2803	2.58347	0.964752	2.59767	1.3215	2.66351	1.47816	2.97631	1.95703	3.93865			1.28359	2.58257	1.32584	2.67259	1.69789	3.41818				
0.961277	2.6001	1.28554	2.58202	0.959981	2.60099	1.32748	2.66317	1.48031	2.96686	1.95692	3.92022			1.28879	2.58107	1.33043	2.66943	1.6987	3.404				
0.956465	2.60333	1.29072	2.58048	0.955152	2.60418	1.33345	2.66282	1.4825	2.95757	1.95683	3.90201			1.29395	2.57947	1.33511	2.66647	1.69955	3.39001				
0.951593	2.60644	1.29586	2.57885	0.950264	2.60726	1.33942	2.66248	1.48473	2.94844	1.95677	3.88401			1.29905	2.57778	1.33987	2.66372	1.70042	3.37622				
0.946659	2.60942	1.30094	2.57713	0.945313	2.6102	1.34539	2.66213	1.487	2.93948	1.95673	3.86622			1.3041	2.57601	1.34473	2.66116	1.70133	3.36262				
0.941662	2.61226	1.30597	2.57533	0.940299	2.613	1.35136	2.66178	1.48931	2.93068	1.95671	3.84864			1.3091	2.57416	1.34966	2.65879	1.70227	3.3492				
0.936601	2.61496	1.31096	2.57345	0.935221	2.61566	1.35732	2.66143	1.49166	2.92204	1.95672	3.83128			1.31406	2.57224	1.35468	2.6566	1.70324	3.33597				
0.931477	2.61751	1.3159	2.57151	0.93008	2.61818	1.36328	2.66108	1.49405	2.91356	1.95676	3.81411			1.31898	2.57026	1.35978	2.65458	1.70425	3.32292				
0.92629	2.61993	1.32081	2.56951	0.924877	2.62055	1.36923	2.66072	1.49648	2.90523	1.95682	3.79715			1.32386	2.56823	1.36495	2.65273	1.70528	3.31005				
0.921043	2.6222	1.32568	2.56745	0.919614	2.62279	1.37518	2.66035	1.49896	2.89705	1.9569	3.78039			1.32871	2.56614	1.37019	2.65102	1.70635	3.29736				
0.915739	2.62433	1.33051	2.56535	0.914294	2.62489	1.38113	2.65998	1.50147	2.88903	1.95701	3.76383			1.33353	2.56402	1.3755	2.64946	1.70746	3.28485				
0.910379	2.62634	1.33532	2.56322	0.90892	2.62686	1.38707	2.6596	1.50403	2.88116	1.95715	3.74746			1.33832	2.56187	1.38086	2.64803	1.70859	3.27251				
0.904967	2.62822	1.34011	2.56106	0.903494	2.62871	1.393	2.65921	1.50663	2.87344	1.95731	3.73128			1.34309	2.5597	1.38629	2.64672	1.70976	3.26034				
0.899507	2.62999	1.34487	2.55889	0.898021	2.63045	1.39893	2.65882	1.50927	2.86587	1.9575	3.7153			1.34785	2.55752	1.39176	2.64553	1.71096	3.24834				
0.894001	2.63165	1.34963	2.55671	0.892504	2.63208	1.40485	2.65841	1.51196	2.85845	1.95771	3.69951			1.3526	2.55534	1.39729	2.64443	1.7122	3.2365				
0.888454	2.6332	1.35437	2.55452	0.886946	2.63361	1.41076	2.65799	1.51469	2.85117	1.95796	3.6839			1.35733	2.55316	1.40286	2.64343	1.71347	3.22483				
0.882867	2.63466	1.3591	2.55235	0.88135	2.63504	1.41667	2.65756	1.51746	2.84404	1.95822	3.66848			1.36207	2.55099	1.40847	2.64252	1.71477	3.21332				
0.877245	2.63604	1.36383	2.55018	0.875719	2.63639	1.42256	2.65712	1.52028	2.83705	1.95852	3.65324			1.3668	2.54884	1.41412	2.64168	1.7161	3.20198				
0.871591	2.63733	1.36857	2.54804	0.870055	2.63767	1.42845	2.65666	1.52314	2.83021	1.95884	3.63818			1.37153	2.54671	1.41981	2.64091	1.71747	3.19079				
0.865906	2.63855	1.3733	2.54592	0.864363	2.63887	1.43432	2.65619	1.52605	2.82351	1.95919	3.62331			1.37627	2.5446	1.42552	2.64021	1.71886	3.17976				
0.860194	2.63971	1.37804	2.54383	0.858644	2.64001	1.44018	2.6557	1.52901	2.81695	1.95957	3.6086			1.38102	2.54253	1.43126	2.63957	1.7203	3.16888				
0.854456	2.6408	1.38279	2.54177	0.8529	2.64108	1.44603	2.65519	1.53201	2.81054	1.95997	3.59407			1.38578	2.5405	1.43703	2.63898	1.72176	3.15816				
0.848696	2.64183	1.38756	2.53975	0.847134	2.64211	1.45187	2.65465	1.53507	2.80427	1.9604	3.57972			1.39055	2.53851	1.44282	2.63843	1.72326	3.14758				
0.842914	2.64282	1.39233	2.53778	0.841347	2.64308	1.45769	2.6541	1.53817	2.79815	1.96086	3.56553			1.39533	2.53656	1.44864	2.63793	1.72479	3.13716				
0.837114	2.64376	1.39712	2.53585	0.835541	2.644	1.46349	2.65351	1.54133	2.79217	1.96135	3.55152			1.40014	2.53466	1.45447	2.63747	1.72636	3.12688				
0.831295	2.64465	1.40193	2.53396	0.829718	2.64489	1.46927	2.6529	1.54453	2.78633	1.96186	3.53767			1.40496	2.53281	1.46032	2.63705	1.72795	3.11675				
0.825461	2.64551	1.40676	2.53213	0.82388	2.64574	1.47504	2.65226	1.5478	2.78064	1.9624	3.52398			1.4098	2.53101	1.46619	2.63665	1.72958	3.10676				
0.819612	2.64634	1.41161	2.53035	0.818027	2.64655	1.48078	2.65158	1.55112	2.7751	1.96297	3.51046			1.41466	2.52927	1.47207	2.63629	1.73125	3.09691				
0.813749	2.64713	1.41649	2.52863	0.812161	2.64734	1.4865	2.65087	1.55449	2.76971	1.96357	3.4971			1.41955	2.52758	1.47796	2.63595	1.73294	3.0872				
0.807874	2.64789	1.42138	2.52696	0.806282	2.64809	1.49219	2.65012	1.55793	2.76447	1.9642	3.4839			1.42446	2.52595	1.48386	2.63563	1.73467	3.07763				
0.801988	2.64863	1.42631	2.52535	0.800393	2.64883	1.49786	2.64932	1.56143	2.75938	1.96485	3.47085			1.4294	2.52438	1.48978	2.63534	1.73643	3.0682				
0.796091	2.64935	1.43125	2.52381	0.794494	2.64954	1.50349	2.64848	1.56499	2.75445	1.96554	3.45797			1.43437	2.52286	1.49571	2.63507	1.73823	3.0589				
0.790185	2.65004	1.43623	2.52232	0.788586	2.65022	1.50909	2.64758	1.56862	2.74967	1.96625	3.44523			1.43936	2.52141	1.50164	2.63481	1.74005	3.04973				
0.784271	2.65072	1.44123	2.52089	0.782669	2.6509	1.51466	2.64663	1.57232	2.74505	1.96699	3.43265			1.44438	2.52002	1.50758	2.63457	1.74191	3.04069				
0.778348	2.65138	1.44626	2.51952	0.776744	2.65155	1.52018	2.64562	1.5761	2.7406	1.96775	3.42022			1.44943	2.51869	1.51353	2.63435	1.74381	3.03178				
0.772418	2.65202	1.45133	2.51821	0.770813	2.65219	1.52567	2.64455	1.57994	2.73631	1.96855	3.40793			1.45451	2.51743	1.51949	2.63413	1.74573	3.02301				
0.766482	2.65265	1.45642	2.51697	0.764875	2.65282	1.53111	2.64341	1.58387	2.73219	1.96937	3.3958			1.45962	2.51622	1.52545	2.63393	1.74769	3.01435				
0.760539	2.65328	1.46154	2.51579	0.758931	2.65344	1.5365	2.6422	1.58788	2.72825	1.97023	3.3838			1.46476	2.51508	1.53141	2.63374	1.74968	3.00583				
0.754592	2.65389	1.46669	2.51467	0.752981	2.65405	1.54185	2.64091	1.59197	2.72447	1.97111	3.37196			1.46993	2.51399	1.53739	2.63356	1.75171	2.99742				
0.748639	2.6545	1.47187	2.51361	0.747027	2.65466	1.54714	2.63954	1.59614	2.72088	1.97202	3.36025			1.47513	2.51297	1.54336	2.63339	1.75377	2.98914				
0.742682	2.6551	1.47708	2.51261	0.741069	2.65526	1.55238	2.6381	1.60041	2.71745	1.97296	3.34868			1.48036	2.51201	1.54934	2.63322	1.75586	2.98098				
0.73672	2.65569	1.48233	2.51167	0.735107	2.65585	1.55756	2.63657	1.60476	2.71421	1.97393	3.33726			1.48563	2.51111	1.55532	2.63306	1.75798	2.97294				
0.730756	2.65628	1.4876	2.51079	0.729141	2.65644	1.56269	2.63495	1.6092	2.71114	1.97492	3.32597			1.49092	2.51027	1.5613	2.6329	1.76013	2.96501				
0.724787	2.65687	1.49291	2.50998	0.723172	2.65703	1.56776	2.63326	1.61374	2.70825	1.97595	3.31481			1.49625	2.50949	1.56729	2.63275	1.76232	2.95721				
0.718816	2.65746	1.49825	2.50922	0.7172	2.65762	1.57277	2.63148	1.61836	2.70554	1.977	3.30379			1.50161	2.50877	1.57328	2.63261	1.76454	2.94951				
0.712843	2.65805	1.50362	2.50851	0.711226	2.65821	1.57773	2.62962	1.62307	2.70299	1.97808	3.2929			1.50699	2.5081	1.57927	2.63247	1.7668	2.94193				
0.706867	2.65865	1.50901	2.50786	0.70525	2.65881	1.58264	2.62769	1.62787	2.70061	1.9792	3.28215			1.51241	2.50749	1.58526	2.63233	1.76909	2.93447				
0.70089	2.65924	1.51444	2.50727	0.699273	2.65941	1.58749	2.62569	1.63276	2.69839	1.98034	3.27152			1.51786	2.50693	1.59125	2.63219	1.77141	2.92711				
0.694912	2.65984	1.5199	2.50673	0.693294	2.66001	1.5923	2.62363	1.63773	2.69632	1.98151	3.26102			1.52334	2.50642	1.59724	2.63205	1.77376	2.91987				
0.688932	2.66045	1.52539	2.50625	0.687314	2.66062	1.59706	2.62151	1.64278	2.69439	1.9827	3.25065			1.52884	2.50597	1.60323	2.63191	1.77614	2.91273				
0.682951	2.66107	1.5309	2.50581	0.681333	2.66124	1.60178	2.61934	1.6479	2.69261	1.98393	3.2404			1.53437	2.50556	1.60922	2.63178	1.77856	2.9057				
0.67697	2.66169	1.53645	2.50542	0.675352	2.66186	1.60647	2.61713	1.65309	2.69095	1.98519	3.23028			1.53994	2.5052	1.61521	2.63164	1.78101	2.89878				
0.670989	2.66233	1.54202	2.50508	0.66937	2.6625	1.61113	2.6149	1.65835	2.68941	1.98647	3.22028			1.54552	2.50489	1.62119	2.6315	1.7835	2.89196				
0.665008	2.66298	1.54762	2.50479	0.663389	2.66316	1.61577	2.61264	1.66368	2.68798	1.98778	3.2104			1.55114	2.50462	1.62718	2.63137	1.78602	2.88525				
0.659027	2.66364	1.55324	2.50453	0.657409	2.66382	1.62039	2.61038	1.66906	2.68665	1.98913	3.20064			1.55678	2.5044	1.63316	2.63122	1.78857	2.87864				
0.653047	2.66432	1.55889	2.50433	0.651429	2.6645	1.62501	2.60811	1.67449	2.68542	1.9905	3.191			1.56244	2.50422	1.63915	2.63108	1.79115	2.87214				
0.647068	2.66501	1.56456	2.50416	0.645451	2.66521	1.62961	2.60586	1.67997	2.68428	1.9919	3.18147			1.56813	2.50407	1.64513	2.63094	1.79377	2.86573				
0.641091	2.66573	1.57026	2.50403	0.639474	2.66593	1.63422	2.60362	1.6855	2.68322	1.99333	3.17206			1.57384	2.50397	1.6511	2.63079	1.79642	2.85943				
0.635115	2.66647	1.57598	2.50394	0.633499	2.66667	1.63884	2.60142	1.69106	2.68223	1.99478	3.16277			1.57958	2.5039	1.65707	2.63063	1.79911	2.85322				
0.629142	2.66723	1.58172	2.50388	0.627526	2.66744	1.64348	2.59926	1.69667	2.68131	1.99627	3.15359			1.58533	2.50386	1.66304	2.63047	1.80183	2.84712				
0.623171	2.66801	1.58749	2.50386	0.621557	2.66823	1.64814	2.59715	1.70231	2.68044	1.99778	3.14452			1.59111	2.50386	1.66901	2.63031	1.80458	2.84111				
0.617204	2.66883	1.59327	2.50387	0.61559	2.66905	1.65283	2.59511	1.70798	2.67964	1.99933	3.13556			1.59691	2.50389	1.67497	2.63014	1.80737	2.8352				
0.61124	2.66967	1.59908	2.50391	0.609627	2.66991	1.65757	2.59315	1.71368	2.67888	2.0009	3.12671			1.60272	2.50395	1.68093	2.62996	1.81019	2.82938				
0.605279	2.67056	1.6049	2.50398	0.603668	2.6708	1.66235	2.59128	1.7194	2.67818	2.0025	3.11797			1.60856	2.50404	1.68688	2.62978	1.81305	2.82367				
0.599324	2.67147	1.61074	2.50408	0.597713	2.67173	1.6672	2.58952	1.72515	2.67751	2.00413	3.10934			1.61441	2.50416	1.69282	2.62959	1.81594	2.81804				
0.593373	2.67244	1.6166	2.50421	0.591764	2.6727	1.67211	2.58788	1.73093	2.67688	2.00579	3.10081			1.62028	2.5043	1.69876	2.62939	1.81887	2.81251				
0.587428	2.67344	1.62248	2.50436	0.58582	2.67372	1.6771	2.58637	1.73672	2.67629	2.00747	3.09239			1.62617	2.50447	1.7047	2.62918	1.82183	2.80708				
0.581489	2.6745	1.62837	2.50454	0.579883	2.67479	1.68218	2.585	1.74253	2.67573	2.00919	3.08407			1.63207	2.50466	1.71062	2.62897	1.82483	2.80174				
0.575557	2.67561	1.63428	2.50473	0.573953	2.67592	1.68735	2.58378	1.74836	2.6752	2.01093	3.07585			1.63799	2.50487	1.71654	2.62874	1.82786	2.79649				
0.569632	2.67678	1.6402	2.50495	0.568031	2.67711	1.69262	2.58272	1.7542	2.67469	2.01271	3.06773			1.64392	2.5051	1.72245	2.6285	1.83093	2.79134				
0.563717	2.67802	1.64614	2.50519	0.562118	2.67837	1.69798	2.58182	1.76006	2.67421	2.01451	3.05972			1.64986	2.50535	1.72835	2.62825	1.83404	2.78628				
0.55781	2.67933	1.65209	2.50545	0.556214	2.6797	1.70345	2.58107	1.76592	2.67376	2.01634	3.0518			1.65582	2.50562	1.73424	2.62798	1.83719	2.78131				
0.551915	2.68072	1.65805	2.50573	0.550322	2.68112	1.709	2.58046	1.77181	2.67332	2.0182	3.04399			1.6618	2.50591	1.74012	2.62771	1.84038	2.77643				
0.546031	2.68221	1.66403	2.50602	0.544441	2.68262	1.71463	2.57998	1.7777	2.67291	2.02008	3.03627			1.66778	2.50621	1.74598	2.62741	1.8436	2.77165				
0.540161	2.68379	1.67002	2.50633	0.538575	2.68423	1.72034	2.57962	1.7836	2.67251	2.022	3.02864			1.67378	2.50653	1.75184	2.6271	1.84686	2.76696				
0.534305	2.68548	1.67602	2.50666	0.532723	2.68596	1.72612	2.57936	1.78951	2.67213	2.02394	3.02111			1.67978	2.50687	1.75768	2.62678	1.85017	2.76236				
0.528465	2.68729	1.68203	2.50699	0.526888	2.68781	1.73196	2.57919	1.79543	2.67176	2.02592	3.01367			1.6858	2.50721	1.76351	2.62643	1.85351	2.75785				
0.522643	2.68924	1.68805	2.50735	0.521071	2.6898	1.73785	2.57909	1.80135	2.6714	2.02792	3.00633			1.69183	2.50757	1.76933	2.62606	1.8569	2.75344				
0.516842	2.69135	1.69408	2.50771	0.515276	2.69194	1.74378	2.57906	1.80729	2.67106	2.02994	2.99908			1.69787	2.50795	1.77512	2.62568	1.86033	2.74912				
0.511063	2.69362	1.70012	2.50809	0.509504	2.69427	1.74975	2.57909	1.81323	2.67073	2.032	2.99192			1.70391	2.50833	1.7809	2.62527	1.86381	2.7449				
0.50531	2.69609	1.70617	2.50847	0.503758	2.69679	1.75575	2.57916	1.81917	2.67041	2.03409	2.98485			1.70997	2.50872	1.78667	2.62483	1.86733	2.74077				
0.499585	2.69877	1.71223	2.50887	0.498042	2.69953	1.76177	2.57927	1.82512	2.67011	2.0362	2.97787			1.71603	2.50913	1.79241	2.62437	1.87089	2.73673				
0.493893	2.70169	1.7183	2.50928	0.492359	2.70253	1.76782	2.57941	1.83108	2.66981	2.03835	2.97098			1.72211	2.50954	1.79813	2.62388	1.87451	2.7328				
0.488237	2.70489	1.72438	2.5097	0.486713	2.70581	1.77389	2.57958	1.83704	2.66951	2.04052	2.96418			1.72819	2.50996	1.80383	2.62337	1.87817	2.72896				
0.482622	2.70841	1.73046	2.51012	0.48111	2.70942	1.77998	2.57978	1.843	2.66923	2.04272	2.95746			1.73428	2.51039	1.8095	2.62282	1.88188	2.72522				
0.477053	2.71228	1.73655	2.51055	0.475555	2.71339	1.78608	2.57999	1.84897	2.66895	2.04494	2.95083			1.74037	2.51083	1.81515	2.62223	1.88565	2.72157				
0.471537	2.71655	1.74265	2.51099	0.470055	2.71779	1.79219	2.58022	1.85494	2.66868	2.0472	2.94428			1.74647	2.51127	1.82077	2.62161	1.88947	2.71803				
0.466081	2.72129	1.74875	2.51144	0.464616	2.72266	1.79831	2.58047	1.86091	2.66842	2.04948	2.93781			1.75258	2.51172	1.82636	2.62095	1.89334	2.7146				
0.460692	2.72656	1.75487	2.51189	0.459247	2.72809	1.80445	2.58072	1.86689	2.66816	2.0518	2.93143			1.7587	2.51218	1.83192	2.62026	1.89727	2.71126				
0.45538	2.73244	1.76098	2.51235	0.453957	2.73414	1.81059	2.58099	1.87287	2.66791	2.05414	2.92514			1.76482	2.51264	1.83745	2.61952	1.90126	2.70803				
0.450154	2.739	1.76711	2.51281	0.448757	2.74091	1.81673	2.58126	1.87885	2.66766	2.05651	2.91892			1.77095	2.51311	1.84294	2.61873	1.90531	2.70491				
0.445027	2.74636	1.77324	2.51328	0.443658	2.7485	1.82289	2.58154	1.88483	2.66741	2.05891	2.91278			1.77708	2.51358	1.84839	2.6179	1.90942	2.7019				
0.440009	2.75462	1.77937	2.51376	0.438673	2.75703	1.82904	2.58182	1.89081	2.66717	2.06133	2.90673			1.78322	2.51405	1.85381	2.61702	1.9136	2.69899				
0.435116	2.76391	1.78551	2.51423	0.433815	2.76662	1.83521	2.58211	1.8968	2.66693	2.06379	2.90075			1.78936	2.51454	1.85919	2.61609	1.91783	2.69619				
0.43036	2.77437	1.79165	2.51472	0.429099	2.77741	1.84137	2.5824	1.90278	2.66669	2.06627	2.89486			1.79551	2.51502	1.86452	2.61511	1.92214	2.69351				
0.425756	2.78613	1.7978	2.5152	0.424538	2.78956	1.84754	2.5827	1.90877	2.66646	2.06879	2.88904			1.80166	2.51551	1.86981	2.61407	1.92651	2.69094				
0.421318	2.79936	1.80396	2.51569	0.420148	2.80321	1.85371	2.58299	1.91475	2.66623	2.07133	2.88329			1.80782	2.516	1.87506	2.61298	1.93095	2.68847				
0.41706	2.81421	1.81012	2.51618	0.415941	2.81853	1.85989	2.58329	1.92074	2.666	2.0739	2.87763			1.81398	2.51649	1.88027	2.61183	1.93546	2.68612				
0.412995	2.83086	1.81628	2.51668	0.41193	2.83569	1.86606	2.58359	1.92672	2.66577	2.07649	2.87204			1.82014	2.51699	1.88542	2.61063	1.94004	2.68388				
0.409133	2.84945	1.82245	2.51717	0.408124	2.85483	1.87224	2.58389	1.93271	2.66554	2.07912	2.86653			1.82631	2.51749	1.89054	2.60937	1.94469	2.68175				
0.405482	2.87015	1.82862	2.51767	0.404531	2.87613	1.87842	2.58418	1.93869	2.66531	2.08178	2.86109			1.83248	2.51799	1.8956	2.60806	1.9494	2.67973				
0.402049	2.8931	1.83479	2.51817	0.401158	2.89971	1.8846	2.58448	1.94467	2.66508	2.08447	2.85572			1.83866	2.51849	1.90063	2.60669	1.95419	2.67781				
0.398837	2.91844	1.84097	2.51868	0.398006	2.92573	1.89078	2.58478	1.95066	2.66485	2.08718	2.85043			1.84484	2.51899	1.9056	2.60527	1.95904	2.676				
0.395847	2.94631	1.84715	2.51918	0.395077	2.9543	1.89696	2.58507	1.95664	2.66462	2.08993	2.84521			1.85102	2.5195	1.91054	2.6038	1.96396	2.67429				
0.39308	2.97684	1.85334	2.51969	0.392369	2.98557	1.90314	2.58537	1.96261	2.66439	2.0927	2.84007			1.85721	2.52001	1.91543	2.60229	1.96894	2.67267				
0.390533	3.01015	1.85952	2.52019	0.389881	3.01965	1.90932	2.58566	1.96859	2.66416	2.0955	2.835			1.8634	2.52051	1.92028	2.60073	1.97398	2.67115				
0.388202	3.04636	1.86571	2.5207	0.387608	3.05668	1.9155	2.58595	1.97456	2.66392	2.09834	2.83			1.86959	2.52102	1.92509	2.59913	1.97909	2.66972				
0.386084	3.08561	1.87191	2.52121	0.385547	3.09677	1.92168	2.58623	1.98053	2.66369	2.1012	2.82507			1.87579	2.52153	1.92987	2.59749	1.98425	2.66838				
0.384174	3.12803	1.8781	2.52172	0.383692	3.14007	1.92786	2.58652	1.9865	2.66345	2.1041	2.82021			1.88199	2.52204	1.93462	2.59581	1.98946	2.66712				
0.382468	3.17377	1.8843	2.52223	0.38204	3.18673	1.93404	2.5868	1.99247	2.6632	2.10702	2.81543			1.88819	2.52255	1.93933	2.5941	1.99473	2.66593				
0.38096	3.22296	1.89051	2.52274	0.380586	3.2369	1.94022	2.58708	1.99843	2.66296	2.10998	2.81071			1.89439	2.52306	1.94402	2.59237	2.00005	2.66482				
0.379647	3.2758	1.89671	2.52325	0.379324	3.29074	1.94639	2.58735	2.00438	2.66271	2.11297	2.80607			1.9006	2.52357	1.94868	2.59062	2.00541	2.66378				
0.378523	3.33245	1.90292	2.52376	0.378251	3.34846	1.95257	2.58762	2.01033	2.66245	2.11599	2.80149			1.9068	2.52408	1.95332	2.58884	2.01082	2.6628				
0.377585	3.39312	1.90912	2.52427	0.377363	3.41026	1.95874	2.58789	2.01628	2.66219	2.11904	2.79699			1.91301	2.52459	1.95794	2.58705	2.01627	2.66189				
0.376828	3.45803	1.91533	2.52478	0.376655	3.47635	1.96491	2.58815	2.02222	2.66192	2.12212	2.79255			1.91923	2.52509	1.96254	2.58524	2.02176	2.66103				
0.376249	3.5274	1.92155	2.52528	0.376123	3.54698	1.97108	2.58841	2.02815	2.66165	2.12524	2.78819			1.92544	2.5256	1.96712	2.58343	2.02728	2.66022				
0.375844	3.60151	1.92776	2.52579	0.375764	3.62241	1.97725	2.58867	2.03408	2.66137	2.12839	2.7839			1.93166	2.52611	1.97169	2.58161	2.03284	2.65946				
0.375608	3.68063	1.93398	2.5263	0.375573	3.70294	1.98341	2.58892	2.04	2.66108	2.13158	2.77968			1.93787	2.52662	1.97625	2.57979	2.03843	2.65874				
0.375539	3.76508	1.9402	2.5268	0.375548	3.78889	1.98957	2.58916	2.04591	2.66078	2.1348	2.77553			1.94409	2.52712	1.98081	2.57797	2.04404	2.65807				
0.375631	3.85519	1.94641	2.52731	0.375684	3.8806	1.99573	2.5894	2.05181	2.66048	2.13806	2.77145			1.95031	2.52762	1.98536	2.57615	2.04969	2.65743				
0.375883	3.95135	1.95263	2.52781	0.375977	3.97845	2.00189	2.58964	2.05771	2.66016	2.14135	2.76744			1.95653	2.52813	1.9899	2.57434	2.05536	2.65683				
0.376288	4.05394	1.95886	2.52831	0.376424	4.08286	2.00804	2.58987	2.06359	2.65983	2.14468	2.7635			1.96275	2.52863	1.99444	2.57254	2.06105	2.65627				
0.376844	4.16343	1.96508	2.52881	0.37702	4.1943	2.0142	2.59009	2.06946	2.65949	2.14805	2.75964			1.96898	2.52913	1.99898	2.57074	2.06676	2.65573				
0.377546	4.2803	1.9713	2.52931	0.377761	4.31326	2.02034	2.59031	2.07532	2.65913	2.15146	2.75585			1.9752	2.52962	2.00352	2.56896	2.07249	2.65523				
0.378391	4.40511	1.97753	2.52981	0.378643	4.44031	2.02648	2.59052	2.08116	2.65876	2.15491	2.75213			1.98143	2.53012	2.00806	2.56719	2.07824	2.65474				
0.379372	4.53845	1.98375	2.5303	0.379661	4.57607	2.03262	2.59073	2.087	2.65838	2.1584	2.74849			1.98765	2.53061	2.01261	2.56543	2.08401	2.65429				
0.380486	4.68099	1.98998	2.5308	0.38081	4.72123	2.03876	2.59093	2.09281	2.65797	2.16193	2.74492			1.99388	2.5311	2.01716	2.5637	2.08979	2.65385				
0.381728	4.83347	1.9962	2.53129	0.382085	4.87654	2.04489	2.59112	2.09861	2.65755	2.16551	2.74144			2.0001	2.53159	2.02172	2.56198	2.09559	2.65344				
0.383092	4.99673	2.00243	2.53177	0.383481	5.04287	2.05101	2.5913	2.10439	2.6571	2.16913	2.73803			2.00633	2.53207	2.02629	2.56028	2.1014	2.65304				
0.384573	5.17168	2.00865	2.53225	0.384993	5.22117	2.05713	2.59148	2.11015	2.65664	2.17281	2.7347			2.01255	2.53255	2.03086	2.5586	2.10722	2.65267				
0.386164	5.35939	2.01488	2.53273	0.386613	5.41252	2.06324	2.59165	2.11589	2.65615	2.17653	2.73145			2.01877	2.53303	2.03545	2.55694	2.11305	2.65231				
0.387637	5.53427	2.0211	2.53321	0.388337	5.61813	2.06935	2.5918	2.1216	2.65563	2.18031	2.72829			2.02499	2.5335	2.04004	2.55531	2.1189	2.65196				
0.388952	5.69235	2.02732	2.53367	0.390158	5.8394	2.07545	2.59195	2.12729	2.65508	2.18414	2.72521			2.03121	2.53396	2.04465	2.5537	2.12475	2.65163				
0.390079	5.82977	2.03353	2.53413	0.392068	6.07788	2.08154	2.59209	2.13296	2.6545	2.18802	2.72223			2.03742	2.53441	2.04928	2.55212	2.13061	2.6513				
0.390994	5.94299	2.03974	2.53458	0.39406	6.33539	2.08763	2.59222	2.13859	2.6539	2.19197	2.71933			2.04362	2.53486	2.05392	2.55058	2.13648	2.651				
0.39168	6.02893	2.04594	2.53502	0.396128	6.61398	2.0937	2.59234	2.1442	2.65325	2.19597	2.71652			2.04982	2.53528	2.05859	2.54907	2.14235	2.6507				
0.392321	6.1101	2.05213	2.53544	0.398263	6.91607	2.09977	2.59245	2.14977	2.65257	2.20004	2.71381			2.056	2.53569	2.06328	2.5476	2.14823	2.65041				
0.392772	6.16778	2.0583	2.53583	0.400455	7.24442	2.10583	2.59254	2.1553	2.65185					2.06215	2.53606	2.068	2.54618	2.15412	2.65013				
0.393485	6.25998	2.06444	2.53618	0.402698	7.60233	2.11188	2.59262	2.1608	2.65109					2.06826	2.53637	2.07278	2.54482	2.16001	2.64986				
0.39447	6.38958	2.07052	2.53647	0.404685	7.9413	2.11791	2.59269	2.16626	2.65029					2.07429	2.53659	2.07762	2.54357	2.16591	2.64959				
0.395741	6.56079	2.07652	2.53664	0.406399	8.2525	2.12393	2.59273	2.17168	2.64944					2.08019	2.53666	2.08259	2.54246	2.17181	2.64933				
0.397311	6.77948	2.08235	2.53662	0.407826	8.5269	2.12994	2.59277	2.17706	2.64855					2.08588	2.53646	2.08775	2.5416	2.17772	2.64908				
0.399198	7.05368	2.08794	2.5363	0.408959	8.75577	2.13594	2.59278	2.1824	2.64761					2.09129	2.53592	2.09318	2.54108	2.18363	2.64883				
0.401413	7.39429	2.09325	2.53564	0.409795	8.93123	2.14192	2.59278	2.1877	2.64663					2.09646	2.53509	2.0989	2.5409	2.18954	2.64859				
0.403674	7.76603	2.09835	2.53473	0.410564	9.09834	2.14788	2.59276	2.19296	2.64561					2.10147	2.53408	2.10482	2.54098	2.19545	2.64835				
0.405971	8.17302	2.10332	2.53367	0.4111	9.21794	2.15382	2.59271	2.19818	2.64454					2.1064	2.53297	2.11087	2.5412	2.20137	2.64812				
0.408294	8.62023	2.10823	2.53255	0.411937	9.4106	2.15975	2.59264	2.20336	2.64344					2.11128	2.53182	2.11699	2.54151						
0.410633	9.11358	2.1131	2.53139	0.413075	9.68455	2.16565	2.59254							2.11615	2.53066	2.12315	2.54187						
0.412976	9.66029	2.11797	2.53022	0.414511	10.0523	2.17153	2.59242							2.12101	2.52949	2.12934	2.54225						
0.415313	10.2692	2.12283	2.52906	0.416241	10.532	2.17738	2.59226							2.12588	2.52834	2.13554	2.54265						
0.41763	10.9513	2.12769	2.52791	0.418252	11.1502	2.1832	2.59207							2.13075	2.52719	2.14176	2.54307						
0.419916	11.7204	2.13257	2.52677	0.420527	11.9456	2.18899	2.59185							2.13562	2.52607	2.14798	2.54349						
0.422156	12.5941	2.13745	2.52565	0.422753	12.8512	2.19475	2.59159							2.14051	2.52496	2.15421	2.54391						
0.424339	13.595	2.14234	2.52455	0.424918	13.8914	2.20048	2.59129							2.14542	2.52387	2.16045	2.54434						
0.426449	14.7532	2.14725	2.52347	0.427006	15.0986									2.15033	2.5228	2.16668	2.54477						
0.428473	16.1091	2.15217	2.52241	0.429004	16.5168									2.15526	2.52176	2.17292	2.5452						
0.430396	17.7185	2.1571	2.52138	0.430897	18.2071									2.1602	2.52074	2.17916	2.54563						
0.432203	19.6605	2.16205	2.52036	0.432671	20.2571									2.16516	2.51974	2.18541	2.54607						
0.433881	22.0514	2.16701	2.51937	0.434311	22.7966									2.17013	2.51876	2.19165	2.5465						
0.435416	25.0692	2.17199	2.5184	0.435805	26.0272									2.17512	2.51781	2.1979	2.54693						
0.436793	29.0014	2.17698	2.51746	0.437137	30.2793									2.18012	2.51687	2.20415	2.54736						
0.438001	34.343	2.18199	2.51653	0.438297	36.135									2.18514	2.51597								
0.439028	42.027	2.18702	2.51563	0.439273	44.7232									2.19017	2.51508								
0.439863	54.0443	2.19206	2.51476	0.440056	58.5598									2.19522	2.51422								
0.4405	75.5373	2.19711	2.5139	0.440636	84.6199									2.20029	2.51338								
0.440929	125.116	2.20218	2.51307	0.44101	152.08																		
0.441148	362.561			0.441171	744.652																		
