Sym0		Asym0		Sym1		Sym2		Sym3		Sym4		Sym5		Asym1		Asym2		Asym3		Asym4		Asym5	
396  Points		395  Points		396  Points		388  Points		371  Points		361  Points		160  Points		395  Points		384  Points		378  Points		361  Points		172  Points	
Freq (MHz)	Vph (m/ms)	Freq (MHz)	Vph (m/ms)	Freq (MHz)	Vph (m/ms)	Freq (MHz)	Vph (m/ms)	Freq (MHz)	Vph (m/ms)	Freq (MHz)	Vph (m/ms)	Freq (MHz)	Vph (m/ms)	Freq (MHz)	Vph (m/ms)	Freq (MHz)	Vph (m/ms)	Freq (MHz)	Vph (m/ms)	Freq (MHz)	Vph (m/ms)	Freq (MHz)	Vph (m/ms)
2.20477	2.44679	0.34632	152.649	2.20208	2.44706	0.692326	314.635	1.09109	2119.13	1.38447	931.504	1.81849	3821.05	0.346282	168.909	0.727392	1040.42	1.03833	2148.41	1.45475	660.157	1.73056	1728.21
2.1996	2.44732	0.346966	75.8208	2.19693	2.4476	0.692668	153.66	1.09103	386.579	1.38465	364.988	1.81842	653.331	0.346886	79.6067	0.727316	241.912	1.03846	372.114	1.45463	322.459	1.7307	523.066
2.19445	2.44787	0.34804	50.5614	2.19178	2.44817	0.693243	101.72	1.09089	212.662	1.38497	227.005	1.81826	357.173	0.34792	52.2019	0.727146	136.838	1.03876	203.754	1.45441	213.306	1.73098	308.215
2.18932	2.44845	0.349535	38.0305	2.18666	2.44876	0.694047	76.08	1.09066	146.651	1.38545	164.769	1.818	245.739	0.349376	38.9394	0.726883	95.3749	1.03924	140.333	1.45412	159.341	1.7314	218.514
2.1842	2.44906	0.351437	30.5642	2.18156	2.44938	0.695077	60.8116	1.09035	111.894	1.38608	129.349	1.81766	187.281	0.35124	31.1391	0.726532	73.1748	1.03988	107.062	1.45374	127.15	1.73197	169.288
2.17911	2.44968	0.353732	25.6222	2.17648	2.45002	0.696324	50.6883	1.08996	90.4391	1.38686	106.491	1.81722	151.272	0.353498	26.0172	0.726096	59.3404	1.0407	86.5787	1.45328	105.765	1.73268	138.19
2.17404	2.45034	0.356402	22.1188	2.17142	2.45068	0.697784	43.4897	1.0895	75.8743	1.38778	90.5229	1.8167	126.862	0.356133	22.4061	0.725581	49.8904	1.04168	72.7041	1.45275	90.5251	1.73352	116.769
2.16898	2.45101	0.359426	19.5123	2.16637	2.45137	0.699446	38.1124	1.08897	65.3383	1.38883	78.7405	1.81609	109.221	0.359125	19.7301	0.724993	43.024	1.04282	62.6881	1.45215	79.1128	1.73449	101.118
2.16395	2.45172	0.362785	17.5023	2.16135	2.45209	0.701302	33.9456	1.08838	57.3615	1.39001	69.6908	1.81542	95.8758	0.362453	17.6726	0.72434	37.8081	1.04411	55.1203	1.45149	70.2463	1.73559	89.1853
2.15893	2.45245	0.366455	15.9084	2.15634	2.45283	0.703341	30.624	1.08773	51.1118	1.39133	62.5235	1.81467	85.4263	0.366094	16.045	0.723629	33.711	1.04555	49.2028	1.45077	63.1586	1.73681	79.7877
2.15394	2.4532	0.370412	14.6161	2.15136	2.4536	0.705553	27.9158	1.08704	46.0827	1.39276	56.7078	1.81385	77.0218	0.370025	14.7279	0.722871	30.4071	1.04713	44.4504	1.45	57.3629	1.73815	72.1963
2.14896	2.45398	0.374632	13.549	2.14639	2.4544	0.707926	25.6665	1.0863	41.9482	1.3943	51.8952	1.81298	70.1149	0.374221	13.6421	0.722075	27.6864	1.04884	40.5511	1.44918	52.5351	1.7396	65.937
2.14401	2.45479	0.379091	12.6543	2.14145	2.45522	0.710447	23.7694	1.08553	38.4891	1.39595	47.8475	1.81206	64.338	0.378659	12.7328	0.721253	25.4071	1.05067	37.2948	1.44833	48.4515	1.74115	60.688
2.13907	2.45563	0.383765	11.8942	2.13652	2.45607	0.713105	22.1485	1.08474	35.5524	1.3977	44.3962	1.81109	59.4344	0.383314	11.9613	0.720415	23.4699	1.05262	34.5353	1.44745	44.9522	1.74279	56.2236
2.13415	2.45649	0.388629	11.241	2.13162	2.45695	0.715885	20.7479	1.08393	33.0281	1.39954	41.419	1.81008	55.2201	0.38816	11.299	0.719575	21.8035	1.05467	32.1675	1.44655	41.9204	1.74453	52.3805
2.12926	2.45738	0.393657	10.6741	2.12673	2.45786	0.718775	19.5259	1.08312	30.8354	1.40146	38.8247	1.80905	51.5592	0.393175	10.7246	0.718746	20.3553	1.05682	30.1137	1.44564	39.2682	1.74634	49.0377
2.12438	2.4583	0.398827	10.1775	2.12186	2.45879	0.721761	18.4505	1.08231	28.9131	1.40346	36.5441	1.80799	48.3495	0.398332	10.2219	0.717941	19.0853	1.05905	28.3156	1.44473	36.9289	1.74824	46.1037
2.11953	2.45925	0.404114	9.73898	2.11702	2.45975	0.724829	17.4969	1.08152	27.2144	1.40553	34.5236	1.80692	45.5126	0.403608	9.77832	0.717176	17.9631	1.06136	26.7284	1.44382	34.8502	1.7502	43.5079
2.11469	2.46022	0.409493	9.34875	2.11219	2.46074	0.727965	16.6455	1.08075	25.7028	1.40765	32.7212	1.80585	42.9872	0.40898	9.38388	0.716466	16.9649	1.06373	25.317	1.44293	32.9912	1.75222	41.1952
2.10987	2.46123	0.41494	8.99906	2.10738	2.46176	0.731156	15.8806	1.08002	24.3493	1.40982	31.1035	1.80478	40.7248	0.414422	9.03064	0.715827	16.0717	1.06616	24.0539	1.44206	31.319	1.75429	39.1217
2.10508	2.46226	0.420432	8.68363	2.1026	2.4628	0.734386	15.1895	1.07934	23.1307	1.41203	29.6433	1.80372	38.6866	0.419911	8.7122	0.715276	15.2683	1.06864	22.9168	1.44122	29.8071	1.7564	37.252
2.1003	2.46332	0.425945	8.3973	2.09783	2.46388	0.737643	14.5619	1.07872	22.0281	1.41428	28.3187	1.80267	36.841	0.425423	8.42331	0.714831	14.5426	1.07115	21.8876	1.44043	28.4338	1.75856	35.5576
2.09554	2.46441	0.431455	8.13584	2.09308	2.46498	0.740911	13.9892	1.07817	21.0261	1.41655	27.1115	1.80166	35.1622	0.430226	8.19227	0.71451	13.8843	1.07368	20.9516	1.43968	27.1811	1.76074	34.0147
2.0908	2.46552	0.436938	7.89569	2.08835	2.46612	0.744178	13.4643	1.0777	20.112	1.41884	26.0068	1.80068	33.6286	0.434309	8.00861	0.714332	13.2851	1.07624	20.0965	1.439	26.034	1.76295	32.604
2.08608	2.46667	0.442371	7.67389	2.08364	2.46727	0.74743	12.9812	1.07733	19.275	1.42113	24.9919	1.79974	32.2226	0.437669	7.865	0.714316	12.7382	1.07879	19.3121	1.43838	24.9801	1.76516	31.309
2.08138	2.46784	0.447729	7.46793	2.07895	2.46846	0.750651	12.5348	1.07706	18.5062	1.42342	24.0561	1.79886	30.929	0.440311	7.75629	0.714482	12.2376	1.08134	18.5899	1.43785	24.0087	1.76739	30.1159
2.07669	2.46904	0.45299	7.27567	2.07427	2.46968	0.753831	12.1209	1.07691	17.798	1.42571	23.1904	1.79803	29.7351	0.442245	7.67888	0.71485	11.7784	1.08388	17.9226	1.43739	23.1108	1.76962	29.0131
2.07203	2.47027	0.458131	7.09528	2.06961	2.47091	0.756955	11.7357	1.07688	17.1439	1.42798	22.3871	1.79727	28.6301	0.443478	7.6304	0.71544	11.3564	1.08639	17.3039	1.43704	22.2785	1.77184	27.9906
2.06737	2.47152	0.463129	6.92521	2.06496	2.47217	0.76001	11.3761	1.077	16.5382	1.43023	21.6395	1.79658	27.6045	0.445242	7.56212	0.716273	10.9679	1.08887	16.7286	1.43679	21.5053	1.77404	27.0398
2.06272	2.47278	0.467963	6.76412	2.06032	2.47345	0.762986	11.0394	1.07727	15.9762	1.43244	20.9419	1.79597	26.6503	0.447149	7.48969	0.717368	10.6098	1.09131	16.192	1.43665	20.7854	1.77623	26.1534
2.05808	2.47406	0.472614	6.61085	2.05568	2.47473	0.765869	10.7231	1.07769	15.4537	1.43462	20.2893	1.79545	25.7606	0.449724	7.394	0.718744	10.2794	1.09369	15.6902	1.43662	20.1136	1.77839	25.3248
2.05343	2.47534	0.477062	6.46443	2.05101	2.47599	0.768649	10.4252	1.07829	14.967	1.43675	19.6773	1.79503	24.9292	0.452943	7.27735	0.720419	9.97418	1.09602	15.2198	1.43673	19.4856	1.78051	24.5484
2.04875	2.47658	0.481293	6.32403	2.04629	2.47719	0.771317	10.144	1.07906	14.513	1.43883	19.1022	1.7947	24.1507	0.456776	7.14223	0.722408	9.6921	1.09827	14.7777	1.43696	18.8974	1.7826	23.8194
2.04396	2.47771	0.48529	6.18892	2.04139	2.47819	0.773862	9.87768	1.08003	14.0887	1.44086	18.5605	1.79448	23.4206	0.461174	6.9912	0.724726	9.43124	1.10046	14.3612	1.43734	18.3456	1.78464	23.1335
2.03892	2.47853	0.489045	6.05852	2.03613	2.47874	0.776275	9.62501	1.08118	13.6917	1.44282	18.0493	1.79437	22.7345	0.466076	6.82671	0.727385	9.18988	1.10256	13.968	1.43786	17.8272	1.78664	22.4868
2.03343	2.47881	0.492549	5.93235	2.03042	2.47875	0.778551	9.38474	1.08254	13.3197	1.44471	17.5659	1.79438	22.0889	0.470801	6.67048	0.730392	8.96649	1.10458	13.5961	1.43853	17.3395	1.78858	21.8759
2.02756	2.47862	0.495796	5.81	2.02443	2.47841	0.780682	9.15577	1.08411	12.9707	1.44653	17.1081	1.79451	21.4803	0.475332	6.52147	0.733755	8.75965	1.1065	13.2436	1.43935	16.8799	1.79046	21.2978
2.02149	2.47819	0.498785	5.69114	2.0183	2.47792	0.782663	8.93716	1.08588	12.643	1.44828	16.6738	1.79477	20.9059	0.47965	6.37878	0.737476	8.56805	1.10833	12.909	1.44033	16.4464	1.79228	20.75
2.01533	2.47765	0.501519	5.57554	2.01213	2.47736	0.78449	8.72805	1.08788	12.3348	1.44995	16.261	1.79515	20.3631	0.483741	6.24166	0.741554	8.3905	1.11005	12.5907	1.44147	16.0369	1.79403	20.2299
2.00914	2.47707	0.504001	5.463	2.00593	2.47676	0.78616	8.52772	1.09008	12.0447	1.45153	15.8681	1.79566	19.8494	0.487593	6.10947	0.745396	8.24636	1.11167	12.2875	1.44278	15.6497	1.79572	19.7354
2.00293	2.47646	0.50624	5.35338	1.99971	2.47614	0.787487	8.35977	1.09251	11.7714	1.45303	15.4937	1.79631	19.3627	0.491196	5.98168	0.748879	8.13072	1.11319	11.9982	1.44424	15.2831	1.79733	19.2646
1.99671	2.47583	0.508245	5.24656	1.99349	2.4755	0.788523	8.22117	1.09515	11.5136	1.45445	15.1364	1.79709	18.901	0.494545	5.85786	0.751902	8.03981	1.11459	11.7219	1.44587	14.9356	1.79887	18.8158
1.99049	2.47519	0.510029	5.14249	1.98726	2.47486	0.789313	8.10957	1.098	11.2702	1.45578	14.795	1.79801	18.4626	0.497636	5.73766	0.754382	7.9708	1.11589	11.4575	1.44767	14.606	1.80034	18.3873
1.98426	2.47455	0.511605	5.0411	1.98103	2.47422	0.789896	8.02318	1.10107	11.0402	1.45702	14.4683	1.79907	18.0459	0.50047	5.6208	0.756254	7.92162	1.11708	11.2043	1.44962	14.293	1.80173	17.9779
1.97803	2.47391	0.512989	4.94237	1.97481	2.47357	0.790301	7.96066	1.10434	10.8226	1.45818	14.1555	1.80026	17.6494	0.503051	5.50707	0.757474	7.8908	1.11817	10.9615	1.45174	13.9955	1.80304	17.5861
1.97181	2.47326	0.514196	4.84626	1.96858	2.47292	0.79055	7.92108	1.10782	10.6166	1.45926	13.8556	1.80159	17.2717	0.505385	5.39631	0.759258	7.8474	1.11915	10.7285	1.45401	13.7124	1.80428	17.2108
1.96558	2.4726	0.515242	4.75277	1.96236	2.47227	0.790893	7.86478	1.11149	10.4213	1.46025	13.5678	1.80305	16.9116	0.507481	5.2884	0.761234	7.80139	1.12003	10.5046	1.45644	13.4427	1.80545	16.8511
1.95936	2.47195	0.516145	4.66187	1.95614	2.47161	0.791247	7.80435	1.11534	10.236	1.46117	13.2913	1.80465	16.568	0.50935	5.18325	0.763986	7.74068	1.12082	10.2893	1.45901	13.1857	1.80654	16.5058
1.95314	2.4713	0.516919	4.57354	1.94992	2.47096	0.791698	7.72342	1.11938	10.06	1.46201	13.0256	1.80637	16.2398	0.511007	5.08081	0.767569	7.66688	1.12152	10.0821	1.46173	12.9404	1.80757	16.1742
1.94693	2.47065	0.517581	4.48778	1.94371	2.47031	0.792216	7.62307	1.12358	9.89268	1.46278	12.7699	1.80822	15.9261	0.512464	4.98103	0.772048	7.58181	1.12213	9.88266	1.46458	12.7061	1.80852	15.8554
1.94071	2.47	0.518146	4.40456	1.9375	2.46966	0.792768	7.5046	1.12795	9.73336	1.46348	12.5238	1.81019	15.6259	0.513739	4.88389	0.777498	7.48749	1.12267	9.69047	1.46756	12.4821	1.80942	15.5487
1.93451	2.46935	0.518628	4.32385	1.93129	2.46901	0.793314	7.36949	1.13246	9.58151	1.46413	12.2868	1.81228	15.3384	0.514847	4.78936	0.783999	7.38597	1.12314	9.50522	1.47067	12.2678	1.81025	15.2534
1.9283	2.4687	0.519042	4.24563	1.92509	2.46836	0.793808	7.21934	1.13711	9.43662	1.46473	12.0583	1.81448	15.0628	0.515805	4.69744	0.790745	7.29103	1.12355	9.32657	1.47389	12.0625	1.81103	14.9689
1.9221	2.46805	0.5194	4.16985	1.91889	2.46772	0.794166	7.07415	1.14188	9.29819	1.46528	11.8379	1.81678	14.7985	0.516627	4.6081	0.797717	7.20209	1.12391	9.15424	1.47722	11.8657	1.81175	14.6947
1.9159	2.4674	0.519715	4.0965	1.9127	2.46707	0.794396	6.93368	1.14677	9.16578	1.46579	11.6254	1.81919	14.5447	0.517332	4.52133	0.804896	7.11861	1.12424	8.98798	1.48065	11.6768	1.81244	14.4302
1.90971	2.46676	0.519963	4.03451	1.90651	2.46643	0.794503	6.79772	1.15176	9.03894	1.46628	11.4202	1.82168	14.3009	0.517933	4.43711	0.812262	7.04008	1.12454	8.82754	1.48417	11.4953	1.81308	14.1749
1.90353	2.46612	0.52016	3.98307	1.90032	2.46579	0.794496	6.66605	1.15683	8.91729	1.46675	11.2222	1.82427	14.0664	0.518447	4.35541	0.819795	6.96607	1.12483	8.67273	1.48776	11.3209	1.8137	13.9285
1.89735	2.46548	0.520317	3.94149	1.89415	2.46516	0.79438	6.5385	1.16198	8.80045	1.46721	11.031	1.82693	13.8406	0.518886	4.27621	0.827477	6.89613	1.12509	8.54227	1.49143	11.1529	1.81429	13.6904
1.89117	2.46485	0.520438	3.90922	1.88797	2.46452	0.794164	6.41489	1.16719	8.68807	1.46767	10.8463	1.82966	13.6232	0.519265	4.19948	0.835289	6.8299	1.12532	8.43424	1.49516	10.9912	1.81487	13.4604
1.885	2.46422	0.520527	3.88583	1.88181	2.46389	0.793855	6.29506	1.17244	8.57981	1.46815	10.668	1.83246	13.4136	0.519595	4.12517	0.84321	6.767	1.12552	8.34708	1.49893	10.8351	1.81544	13.2381
1.87884	2.46359	0.520583	3.87101	1.87565	2.46327	0.793461	6.17888	1.17705	8.4886	1.46866	10.4956	1.83531	13.2113	0.519889	4.05325	0.851222	6.70709	1.12569	8.27953	1.50274	10.6845	1.81602	13.0232
1.87268	2.46297	0.520665	3.84991	1.86949	2.46265	0.792989	6.06621	1.18098	8.41299	1.4692	10.3292	1.83821	13.016	0.520158	3.98368	0.859305	6.64988	1.12582	8.23062	1.50658	10.5389	1.8166	12.8153
1.86653	2.46235	0.520753	3.82725	1.86334	2.46203	0.792446	5.95691	1.18424	8.35187	1.4698	10.1684	1.84115	12.8272	0.520411	3.91642	0.867438	6.59506	1.12591	8.19965	1.51043	10.398	1.81721	12.6142
1.86038	2.46174	0.520875	3.79687	1.8572	2.46142	0.79184	5.85087	1.18682	8.30439	1.47046	10.0132	1.84411	12.6446	0.520659	3.8514	0.875602	6.54236	1.12604	8.1556	1.51429	10.2616	1.81784	12.4197
1.85425	2.46113	0.521033	3.75918	1.85107	2.46082	0.791177	5.74797	1.18871	8.26995	1.4712	9.86328	1.84709	12.4678	0.520909	3.78859	0.883775	6.49151	1.1262	8.10833	1.51815	10.1293	1.81851	12.2315
1.84811	2.46053	0.521231	3.71467	1.84494	2.46022	0.790465	5.64812	1.18992	8.2481	1.47204	9.71856	1.85009	12.2965	0.521171	3.72793	0.891934	6.44225	1.12642	8.04504	1.52198	10.0009	1.81924	12.0494
1.84199	2.45993	0.521478	3.66393	1.83882	2.45963	0.78971	5.5512	1.19165	8.21696	1.47299	9.57891	1.85309	12.1304	0.52145	3.66937	0.900056	6.39435	1.12674	7.96666	1.52579	9.87617	1.82003	11.8731
1.83587	2.45934	0.521786	3.6076	1.83271	2.45904	0.788919	5.45712	1.19354	8.18346	1.47407	9.4442	1.85608	11.9692	0.521755	3.61285	0.908115	6.34755	1.12718	7.87433	1.52955	9.75483	1.82088	11.7026
1.82976	2.45876	0.522125	3.55326	1.8266	2.45846	0.788096	5.3658	1.1961	8.13847	1.47529	9.31431	1.85905	11.8126	0.522092	3.55833	0.916084	6.30162	1.12778	7.7694	1.53326	9.63669	1.82182	11.5375
1.82366	2.45818	0.522503	3.50086	1.8205	2.45789	0.78725	5.27713	1.19932	8.08244	1.47666	9.18913	1.862	11.6604	0.522465	3.50574	0.923935	6.25632	1.12861	7.65347	1.53691	9.52153	1.82286	11.3778
1.81757	2.45761	0.522923	3.45033	1.81442	2.45732	0.786384	5.19103	1.20319	8.01594	1.47821	9.06856	1.86492	11.5123	0.522881	3.45504	0.931635	6.21141	1.12962	7.5423	1.54048	9.40916	1.82399	11.2233
1.81149	2.45705	0.523391	3.40163	1.80834	2.45677	0.785504	5.10743	1.20769	7.93955	1.47995	8.9525	1.86779	11.3681	0.523344	3.40617	0.939153	6.16667	1.13085	7.4359	1.54397	9.29939	1.82524	11.0737
1.80541	2.4565	0.523911	3.3547	1.80227	2.45622	0.784616	5.02625	1.21278	7.85388	1.48189	8.84085	1.87062	11.2276	0.523859	3.35907	0.946452	6.12184	1.13231	7.33427	1.54736	9.19206	1.82662	10.9291
1.79935	2.45596	0.524487	3.30949	1.79621	2.45568	0.783724	4.9474	1.21778	7.77015	1.48376	8.74707	1.87338	11.0906	0.52443	3.31371	0.953496	6.07672	1.13406	7.23744	1.55064	9.08702	1.82813	10.7891
1.79329	2.45543	0.525122	3.26595	1.79016	2.45515	0.782833	4.87083	1.22267	7.68816	1.48549	8.66967	1.87608	10.9569	0.525059	3.27001	0.960249	6.03106	1.13613	7.14542	1.55381	8.98411	1.82978	10.6538
1.78724	2.4549	0.525821	3.22403	1.78411	2.45464	0.781947	4.79646	1.22744	7.60774	1.48702	8.60739	1.8787	10.8264	0.525752	3.22794	0.966672	5.98468	1.13856	7.05824	1.55686	8.88321	1.83158	10.5229
1.78121	2.45439	0.526585	3.18368	1.77808	2.45413	0.78107	4.72422	1.23206	7.52872	1.4883	8.55924	1.88125	10.6988	0.52651	3.18743	0.972732	5.93737	1.14137	6.97591	1.5594	8.79682	1.83354	10.3964
1.77518	2.45389	0.527418	3.14484	1.77206	2.45364	0.780207	4.65405	1.23652	7.45095	1.48927	8.52445	1.8837	10.574	0.527336	3.14846	0.978394	5.889	1.14461	6.89844	1.56149	8.72425	1.83566	10.274
1.76917	2.4534	0.528323	3.10748	1.76606	2.45315	0.779362	4.58588	1.24081	7.37428	1.48991	8.50245	1.88607	10.4519	0.528234	3.11096	0.983634	5.83943	1.14831	6.82577	1.56316	8.66495	1.83796	10.1557
1.76317	2.45293	0.5293	3.07154	1.76006	2.45269	0.778537	4.51966	1.24492	7.29858	1.49085	8.47118	1.88833	10.3323	0.529204	3.07489	0.988429	5.78861	1.15247	6.75785	1.56444	8.61851	1.84044	10.0414
1.75717	2.45246	0.530353	3.03699	1.75407	2.45223	0.777736	4.45534	1.24882	7.22375	1.49191	8.43768	1.89049	10.2152	0.53025	3.0402	0.99277	5.73652	1.15712	6.69455	1.56536	8.5846	1.8431	9.93087
1.7512	2.45202	0.531483	3.00377	1.7481	2.45179	0.776963	4.39284	1.25251	7.14968	1.4934	8.39292	1.89255	10.1003	0.531372	3.00686	0.996653	5.68318	1.16227	6.63572	1.56594	8.56301	1.84594	9.82405
1.74523	2.45158	0.532691	2.97184	1.74214	2.45136	0.776221	4.33213	1.25598	7.07628	1.49538	8.3376	1.8945	9.98774	0.532573	2.97481	1.00008	5.62868	1.16789	6.58115	1.56676	8.53211	1.84897	9.72081
1.73928	2.45117	0.53398	2.94117	1.7362	2.45096	0.775512	4.27314	1.25922	7.00349	1.4979	8.2726	1.89633	9.87726	0.533854	2.94403	1.00308	5.57315	1.17399	6.5306	1.56763	8.49871	1.85219	9.62101
1.73334	2.45076	0.53535	2.91171	1.73026	2.45056	0.774839	4.21584	1.26223	6.93125	1.50105	8.19893	1.89806	9.76883	0.535216	2.91445	1.00565	5.51674	1.18054	6.48381	1.56878	8.45359	1.8556	9.52454
1.72741	2.45038	0.536802	2.88343	1.72435	2.45019	0.774205	4.16016	1.26499	6.85952	1.50491	8.11772	1.89967	9.66237	0.536661	2.88606	1.00784	5.45963	1.18752	6.44049	1.57019	8.39703	1.85918	9.43126
1.7215	2.45001	0.538338	2.85628	1.71844	2.44983	0.773613	4.10607	1.26752	6.78827	1.50904	8.03993	1.90116	9.55781	0.538189	2.8588	1.00967	5.40201	1.19488	6.40036	1.57181	8.32935	1.86296	9.34106
1.7156	2.44967	0.539959	2.83023	1.71256	2.4495	0.773065	4.05352	1.2698	6.71748	1.51344	7.96544	1.90255	9.4551	0.539802	2.83265	1.01117	5.34405	1.20262	6.36313	1.5736	8.25093	1.86691	9.2538
1.70972	2.44934	0.541665	2.80524	1.70668	2.44918	0.772563	4.00246	1.27185	6.64717	1.5181	7.8941	1.90383	9.35418	0.5415	2.80756	1.01237	5.28595	1.21068	6.32852	1.57551	8.1622	1.87103	9.16936
1.70386	2.44904	0.543458	2.78129	1.70083	2.44889	0.77211	3.95286	1.27366	6.57732	1.52301	7.82576	1.905	9.25501	0.543284	2.78352	1.01331	5.22787	1.21904	6.29627	1.57727	8.07477	1.87532	9.08762
1.69801	2.44875	0.545338	2.75834	1.69499	2.44862	0.771707	3.90467	1.27524	6.50796	1.52818	7.76028	1.90606	9.15754	0.545156	2.76047	1.01401	5.16996	1.22766	6.26615	1.57887	7.98861	1.87919	9.0185
1.69218	2.44849	0.547307	2.73636	1.68917	2.44837	0.771357	3.85786	1.27661	6.43911	1.53357	7.6975	1.90692	9.07397	0.547116	2.7384	1.01451	5.11236	1.23653	6.23793	1.58032	7.90369	1.88258	8.96106
1.68637	2.44826	0.549365	2.71533	1.68337	2.44814	0.771061	3.81238	1.27777	6.3708	1.5392	7.63729	1.90759	9.00372	0.549167	2.71728	1.01483	5.05518	1.2456	6.21141	1.58163	7.81998	1.88544	8.91456
1.68058	2.44805	0.551516	2.69522	1.67758	2.44795	0.770821	3.76821	1.27872	6.30306	1.54504	7.57949	1.9081	8.94631	0.551308	2.69709	1.01499	4.99853	1.25486	6.18641	1.5828	7.73749	1.88775	8.87841
1.6748	2.44786	0.55376	2.67601	1.67182	2.44778	0.770639	3.7253	1.27949	6.23591	1.55108	7.52395	1.90849	8.90135	0.553544	2.6778	1.01501	4.94248	1.26429	6.16277	1.58383	7.65619	1.88946	8.85217
1.66905	2.44771	0.556102	2.6577	1.66607	2.44764	0.770518	3.68362	1.28008	6.16939	1.55731	7.47055	1.90876	8.86853	0.555876	2.65939	1.01492	4.88712	1.27385	6.14033	1.58474	7.57608	1.89057	8.83552
1.66331	2.44758	0.558545	2.64026	1.66035	2.44752	0.770457	3.64315	1.2805	6.10354	1.56371	7.41914	1.90893	8.84763	0.558309	2.64187	1.01473	4.8325	1.28354	6.11897	1.58554	7.49718	1.89217	8.81179
1.6576	2.44748	0.561098	2.62371	1.65465	2.44744	0.77046	3.60384	1.28076	6.03839	1.57027	7.36959	1.90916	8.81774	0.560851	2.62524	1.01445	4.77867	1.29333	6.09856	1.58622	7.41948	1.89393	8.78627
1.65191	2.44742	0.56377	2.60806	1.64897	2.44739	0.770527	3.56567	1.28088	5.97395	1.57698	7.32178	1.90941	8.78544	0.563511	2.6095	1.0141	4.72566	1.30321	6.07899	1.58682	7.343	1.89635	8.75198
1.64624	2.44738	0.566578	2.59337	1.64331	2.44738	0.77066	3.52861	1.28086	5.91028	1.58382	7.27559	1.90973	8.74184	0.566305	2.59472	1.01369	4.6735	1.31315	6.06016	1.58732	7.26775	1.89945	8.70931
1.64059	2.44738	0.56955	2.57973	1.63768	2.4474	0.770861	3.49263	1.28072	5.84738	1.59077	7.23089	1.91012	8.68724	0.56926	2.58097	1.01323	4.62222	1.32315	6.04198	1.58776	7.19375	1.90326	8.65871
1.63497	2.44742	0.57273	2.5673	1.63207	2.44745	0.77113	3.4577	1.28047	5.78527	1.59783	7.18758	1.91055	8.62199	0.572418	2.56842	1.01274	4.57183	1.33319	6.02434	1.58814	7.12102	1.9078	8.6007
1.62937	2.44749	0.576192	2.55638	1.62648	2.44755	0.77147	3.4238	1.28011	5.72399	1.60497	7.14555	1.91102	8.54657	0.575849	2.55734	1.01221	4.52234	1.34325	6.00717	1.58848	7.0496	1.9131	8.53582
1.6238	2.44761	0.580041	2.54738	1.62092	2.44768	0.771882	3.39091	1.27966	5.66354	1.61219	7.10469	1.91152	8.46148	0.579656	2.54813	1.01166	4.47376	1.35332	5.99037	1.58879	6.97952	1.9185	8.47265
1.61825	2.44776	0.584387	2.54072	1.61539	2.44785	0.772367	3.35899	1.27913	5.60394	1.61946	7.06491	1.91198	8.37795	0.583952	2.54124	1.01109	4.42608	1.36337	5.97386	1.5891	6.91082	1.92397	8.4111
1.61273	2.44795	0.589275	2.53652	1.60988	2.44807	0.772928	3.32803	1.27851	5.54519	1.62678	7.0261	1.91242	8.29599	0.58879	2.53682	1.01051	4.37932	1.3734	5.95755	1.58942	6.84355	1.9295	8.35107
1.60724	2.44819	0.594631	2.53441	1.6044	2.44833	0.773564	3.298	1.27783	5.48731	1.63412	6.98817	1.91285	8.21561	0.594107	2.53453	1.00993	4.33346	1.38337	5.94134	1.58978	6.77777	1.9351	8.29246
1.60177	2.44847	0.600321	2.53374	1.59895	2.44863	0.774278	3.26889	1.27708	5.4303	1.64148	6.95103	1.91327	8.13681	0.599771	2.53376	1.00935	4.28851	1.39327	5.92513	1.59021	6.71356	1.94073	8.23518
1.59633	2.44879	0.606226	2.53398	1.59353	2.44898	0.775071	3.24067	1.27628	5.37416	1.64882	6.91459	1.91372	8.05961	0.60566	2.53393	1.00877	4.24445	1.40307	5.90882	1.59074	6.65098	1.9464	8.17914
1.59093	2.44916	0.612265	2.53478	1.58813	2.44938	0.775945	3.21332	1.27543	5.3189	1.65615	6.87875	1.91419	7.98402	0.611689	2.53469	1.0082	4.20127	1.41273	5.89227	1.59139	6.59015	1.95208	8.12424
1.58555	2.44958	0.61839	2.53591	1.58277	2.44982	0.776902	3.18684	1.27454	5.26452	1.66344	6.84343	1.91471	7.91006	0.617807	2.53579	1.00765	4.15897	1.42223	5.87536	1.59222	6.53119	1.95777	8.07042
1.5802	2.45005	0.62457	2.53725	1.57744	2.45032	0.777943	3.16119	1.27361	5.21101	1.67066	6.80853	1.9153	7.83776	0.623982	2.53711	1.00711	4.11754	1.43153	5.85792	1.59328	6.47422	1.96345	8.01758
1.57488	2.45058	0.630786	2.5387	1.57213	2.45087	0.779071	3.13636	1.27264	5.15837	1.67781	6.77396	1.91596	7.76715	0.630196	2.53856	1.00659	4.07696	1.44057	5.83978	1.5946	6.41942	1.96911	7.96564
1.56959	2.45115	0.637027	2.54023	1.56686	2.45147	0.780287	3.11235	1.27165	5.1066	1.68486	6.73963	1.91673	7.69826	0.636435	2.54008	1.0061	4.03722	1.44931	5.82074	1.59627	6.36698	1.97473	7.91451
1.56434	2.45178	0.643286	2.5418	1.56162	2.45212	0.781594	3.08913	1.27064	5.05568	1.69179	6.70546	1.91762	7.63111	0.642692	2.54165	1.00563	3.99831	1.45767	5.8006	1.59833	6.31708	1.98031	7.86413
1.55911	2.45246	0.649556	2.54339	1.55642	2.45283	0.782995	3.0667	1.26961	5.00562	1.69857	6.67133	1.91866	7.56576	0.648961	2.54324	1.00518	3.96021	1.46561	5.77911	1.60087	6.26993	1.98582	7.81442
1.55392	2.4532	0.655834	2.54498	1.55124	2.4536	0.784491	3.04504	1.26856	4.95641	1.70519	6.63716	1.91986	7.50224	0.655239	2.54483	1.00477	3.92292	1.47304	5.75604	1.60395	6.22574	1.99125	7.76529
1.54876	2.45399	0.662117	2.54656	1.5461	2.45443	0.786086	3.02415	1.2675	4.90803	1.71161	6.60286	1.92125	7.44061	0.661522	2.54641	1.00439	3.88642	1.4799	5.73118	1.60764	6.18468	1.99659	7.71667
1.54364	2.45485	0.668404	2.54813	1.541	2.45531	0.787783	3.00401	1.26644	4.86049	1.71782	6.56834	1.92286	7.38089	0.667808	2.54798	1.00404	3.8507	1.48613	5.70434	1.612	6.14686	2.00182	7.6685
1.53855	2.45576	0.674693	2.54967	1.53592	2.45626	0.789586	2.98462	1.26537	4.81376	1.72378	6.5335	1.92472	7.32314	0.674097	2.54953	1.00373	3.81574	1.49169	5.6754	1.61704	6.11232	2.00693	7.6207
1.53349	2.45673	0.680983	2.55119	1.53088	2.45726	0.791498	2.96598	1.2643	4.76784	1.72948	6.49826	1.92684	7.2674	0.680387	2.55105	1.00346	3.78153	1.49654	5.64432	1.62279	6.081	2.0119	7.57322
1.52846	2.45777	0.687272	2.55269	1.52587	2.45833	0.793524	2.94808	1.26324	4.72272	1.73488	6.46255	1.92925	7.21371	0.686676	2.55255	1.00322	3.74805	1.5007	5.61116	1.62922	6.05276	2.01671	7.52597
1.52347	2.45887	0.693561	2.55416	1.5209	2.45946	0.795668	2.93093	1.26217	4.67839	1.73998	6.4263	1.93197	7.1621	0.692965	2.55402	1.00303	3.7153	1.50418	5.57605	1.63629	6.02737	2.02136	7.47891
1.51852	2.46003	0.699848	2.5556	1.51596	2.46065	0.797936	2.91451	1.26112	4.63483	1.74475	6.38945	1.93502	7.11259	0.699252	2.55546	1.00287	3.68325	1.50702	5.53921	1.64396	6.00458	2.02582	7.43198
1.51359	2.46125	0.706133	2.557	1.51105	2.46191	0.800332	2.89883	1.26007	4.59204	1.74917	6.35196	1.93843	7.06518	0.705538	2.55687	1.00277	3.6519	1.50929	5.5009	1.65216	5.9841	2.03009	7.38514
1.5087	2.46254	0.712416	2.55838	1.50618	2.46323	0.802863	2.88389	1.25903	4.55001	1.75323	6.31381	1.9422	7.01987	0.711821	2.55825	1.0027	3.62124	1.51105	5.46137	1.66082	5.96562	2.03416	7.33833
1.50385	2.46389	0.718696	2.55972	1.50134	2.46462	0.805533	2.8697	1.25801	4.50872	1.75693	6.27499	1.94633	6.97665	0.718101	2.55959	1.00268	3.59124	1.51236	5.4209	1.66989	5.94889	2.03801	7.29152
1.49902	2.46531	0.724974	2.56103	1.49654	2.46607	0.808349	2.85625	1.25701	4.46816	1.76026	6.23552	1.95085	6.93546	0.724379	2.56091	1.00271	3.5619	1.51328	5.37973	1.67931	5.93366	2.04163	7.24468
1.49423	2.4668	0.731248	2.56231	1.49176	2.46759	0.811316	2.84355	1.25602	4.42833	1.76324	6.19542	1.95573	6.89626	0.730654	2.56219	1.00278	3.5332	1.51388	5.33808	1.68902	5.9197	2.04503	7.19779
1.48948	2.46835	0.737518	2.56356	1.48702	2.46918	0.814441	2.8316	1.25505	4.3892	1.76586	6.15473	1.96099	6.85898	0.736925	2.56344	1.0029	3.50514	1.5142	5.29612	1.69898	5.90685	2.04819	7.15083
1.48475	2.46996	0.743785	2.56477	1.48232	2.47083	0.817726	2.8204	1.2541	4.35077	1.76814	6.1135	1.9666	6.82353	0.743192	2.56466	1.00308	3.47769	1.51429	5.25402	1.70915	5.89493	2.05111	7.10381
1.48006	2.47164	0.750049	2.56595	1.47764	2.47254	0.821175	2.80993	1.25317	4.31303	1.77009	6.0718	1.97255	6.78983	0.749455	2.56584	1.0033	3.45086	1.51418	5.21191	1.71951	5.88382	2.05379	7.05671
1.4754	2.47339	0.756307	2.5671	1.47299	2.47432	0.824792	2.8002	1.25227	4.27597	1.77173	6.02971	1.97883	6.75776	0.755715	2.56699	1.00357	3.42461	1.5139	5.16989	1.73001	5.8734	2.05624	7.00954
1.47077	2.4752	0.762562	2.56821	1.46838	2.47616	0.828576	2.79118	1.25139	4.23956	1.77308	5.98729	1.98541	6.72724	0.76197	2.56811	1.00389	3.39896	1.51348	5.12805	1.74065	5.86357	2.05845	6.96234
1.46617	2.47708	0.768812	2.5693	1.46379	2.47807	0.832526	2.78286	1.25054	4.20382	1.77416	5.94462	1.99228	6.69815	0.76822	2.5692	1.00427	3.37388	1.51294	5.08646	1.75139	5.85426	2.06045	6.9151
1.46159	2.47901	0.775058	2.57035	1.45924	2.48004	0.83664	2.7752	1.24971	4.16871	1.77499	5.90177	1.99942	6.67039	0.774466	2.57025	1.0047	3.34936	1.51231	5.04518	1.76223	5.84539	2.06222	6.86788
1.45705	2.48102	0.781298	2.57137	1.4547	2.48208	0.840912	2.76819	1.24892	4.13424	1.77559	5.85881	2.00679	6.64386	0.780707	2.57127	1.00518	3.32539	1.51159	5.00426	1.77313	5.8369	2.06379	6.82068
1.45253	2.48308	0.787534	2.57236	1.4502	2.48417	0.845335	2.76177	1.24815	4.10039	1.77598	5.81582	2.01439	6.61845	0.786943	2.57226	1.00572	3.30196	1.5108	4.96372	1.7841	5.82873	2.06516	6.77356
1.44804	2.4852	0.793764	2.57331	1.44572	2.48632	0.849903	2.75592	1.24742	4.06715	1.77618	5.77285	2.02219	6.59408	0.793174	2.57322	1.00631	3.27906	1.50995	4.92361	1.79512	5.82084	2.06635	6.72655
1.44357	2.48738	0.799989	2.57424	1.44126	2.48853	0.854605	2.75059	1.24672	4.03451	1.7762	5.72996	2.03017	6.57065	0.799399	2.57415	1.00696	3.25669	1.50905	4.88394	1.80617	5.81318	2.06737	6.6797
1.43912	2.48961	0.806208	2.57513	1.43682	2.49079	0.859433	2.74574	1.24605	4.00245	1.77607	5.6872	2.0383	6.54808	0.805619	2.57505	1.00766	3.23482	1.50811	4.84473	1.81724	5.80571	2.06823	6.63305
1.43469	2.49189	0.812421	2.57599	1.4324	2.49309	0.864376	2.74132	1.24541	3.97098	1.7758	5.64462	2.04658	6.5263	0.811833	2.57591	1.00842	3.21346	1.50715	4.806	1.82833	5.79839	2.06896	6.58664
1.43027	2.49422	0.818628	2.57682	1.42799	2.49545	0.869425	2.7373	1.24481	3.94008	1.7754	5.60225	2.05498	6.50522	0.81804	2.57674	1.00924	3.19259	1.50615	4.76775	1.83942	5.79117	2.06957	6.54052
1.42587	2.49659	0.824828	2.57761	1.4236	2.49784	0.87457	2.73364	1.24425	3.90974	1.77488	5.56015	2.06349	6.48478	0.824241	2.57754	1.01012	3.1722	1.50514	4.72999	1.85049	5.78401	2.07007	6.49474
1.42148	2.499	0.831022	2.57837	1.41921	2.50026	0.879801	2.7303	1.24372	3.87995	1.77426	5.51832	2.07208	6.46492	0.830435	2.5783	1.01105	3.15229	1.50411	4.69273	1.86154	5.77688	2.07049	6.44937
1.4171	2.50144	0.837208	2.5791	1.41482	2.50271	0.88511	2.72725	1.24323	3.8507	1.77355	5.47682	2.08075	6.44557	0.836622	2.57904	1.01204	3.13284	1.50307	4.65598	1.87254	5.76971	2.07084	6.40444
1.41271	2.50389	0.843387	2.5798	1.41043	2.50517	0.89049	2.72445	1.24278	3.82198	1.77276	5.43564	2.08948	6.42667	0.842801	2.57974	1.01309	3.11385	1.50203	4.61972	1.88348	5.76246	2.07116	6.36004
1.40831	2.50635	0.849557	2.58046	1.40603	2.50763	0.895932	2.72189	1.24236	3.79378	1.7719	5.39483	2.09825	6.40817	0.848973	2.5804	1.0142	3.0953	1.50098	4.58397	1.89435	5.75506	2.07146	6.31621
1.40391	2.50881	0.85572	2.58109	1.40161	2.51008	0.901431	2.71953	1.24198	3.7661	1.77097	5.35439	2.10705	6.39001	0.855137	2.58103	1.01537	3.0772	1.49994	4.54872	1.9051	5.74744	2.07178	6.27304
1.39948	2.51125	0.861874	2.58169	1.39717	2.51249	0.906979	2.71735	1.24165	3.73892	1.76999	5.31434	2.11586	6.37213	0.861291	2.58163	1.0166	3.05953	1.49889	4.51398	1.91571	5.73952	2.07214	6.23062
1.39501	2.51364	0.868018	2.58224	1.39268	2.51486	0.912574	2.71534	1.24135	3.71223	1.76895	5.27469	2.12466	6.35449	0.867437	2.58219	1.01789	3.04229	1.49786	4.47973	1.92615	5.73117	2.0726	6.18906
1.3905	2.51597	0.874153	2.58277	1.38814	2.51714	0.918208	2.71348	1.2411	3.68604	1.76787	5.23545	2.13344	6.33702	0.873572	2.58272	1.01924	3.02547	1.49683	4.44598	1.93636	5.72227	2.0732	6.14848
1.38592	2.51821	0.880278	2.58325	1.38352	2.51932	0.923879	2.71174	1.24088	3.66032	1.76676	5.19663	2.14218	6.31967	0.879698	2.58321	1.02065	3.00906	1.49581	4.41272	1.94629	5.71265	2.07399	6.10902
1.38127	2.52033	0.886391	2.58369	1.37883	2.52137	0.929582	2.71013	1.24071	3.63507	1.76561	5.15824	2.15087	6.30239	0.885812	2.58365	1.02213	2.99305	1.49481	4.37994	1.95586	5.70211	2.07505	6.07089
1.37653	2.52229	0.892492	2.5841	1.37403	2.52325	0.935313	2.70862	1.24058	3.61029	1.76443	5.12027	2.15947	6.2851	0.891915	2.58406	1.02367	2.97745	1.49382	4.34765	1.96498	5.69041	2.07647	6.0343
1.37168	2.52408	0.898581	2.58446	1.36912	2.52493	0.941071	2.7072	1.2405	3.58596	1.76322	5.08275	2.16797	6.26775	0.898005	2.58443	1.02528	2.96224	1.49285	4.31584	1.97354	5.67728	2.07834	5.99951
1.36672	2.52566	0.904656	2.58478	1.36409	2.52639	0.946852	2.70587	1.24046	3.56208	1.762	5.04565	2.17634	6.25026	0.904081	2.58475	1.02695	2.94742	1.4919	4.2845	1.98143	5.6624	2.08078	5.96682
1.36162	2.52702	0.910717	2.58506	1.35892	2.52762	0.952654	2.70462	1.24046	3.53864	1.76075	5.009	2.18456	6.23257	0.910144	2.58503	1.02869	2.93298	1.49096	4.25362	1.98854	5.64549	2.08392	5.93653
1.35638	2.52813	0.916763	2.58528	1.35362	2.52862	0.958475	2.70344	1.2405	3.51563	1.7595	4.97279	2.1926	6.21458	0.916191	2.58527	1.03049	2.91892	1.49005	4.22322	1.99477	5.6263	2.08786	5.90892
1.35102	2.52901	0.922791	2.58546	1.34819	2.52938	0.964313	2.70231	1.24059	3.49304	1.75823	4.93701	2.20042	6.19622	0.922221	2.58545	1.03236	2.90523	1.48915	4.19326	2.00005	5.60473	2.09269	5.88417
1.34553	2.52967	0.928802	2.58559	1.34264	2.52992	0.970165	2.70125	1.24073	3.47088	1.75696	4.90167			0.928233	2.58558	1.0343	2.89192	1.48828	4.16376	2.00438	5.58078	2.09845	5.86233
1.33993	2.53011	0.934793	2.58566	1.33699	2.53026	0.976032	2.70023	1.24091	3.44912	1.75568	4.86677			0.934227	2.58565	1.03632	2.87897	1.48744	4.1347	2.00781	5.55464	2.10513	5.84331
1.33423	2.53036	0.940763	2.58567	1.33123	2.53042	0.98191	2.69927	1.24114	3.42777	1.75439	4.83231			0.940199	2.58567	1.0384	2.86638	1.48662	4.10609	2.01042	5.52659	2.11265	5.82687
1.32843	2.53045	0.94671	2.58562	1.3254	2.53043	0.987799	2.69834	1.24141	3.40681	1.75311	4.79828			0.946148	2.58562	1.04056	2.85416	1.48582	4.07791	2.01232	5.49695	2.12092	5.81269
1.32256	2.53039	0.952633	2.5855	1.31949	2.5303	0.993698	2.69745	1.24173	3.38624	1.75183	4.76468			0.952073	2.58551	1.04279	2.84229	1.48506	4.05015	2.01363	5.46608	2.12983	5.80042
1.31663	2.5302	0.958528	2.58531	1.31353	2.53006	0.999606	2.6966	1.2421	3.36606	1.75055	4.73151			0.95797	2.58533	1.0451	2.83078	1.48432	4.02282	2.01445	5.43426	2.13927	5.78974
1.31063	2.5299	0.964393	2.58504	1.30751	2.52971	1.00552	2.69577	1.24251	3.34626	1.74928	4.69876			0.963839	2.58507	1.04749	2.81963	1.48361	3.99591	2.01487	5.40177	2.14914	5.78037
1.3046	2.52951	0.970227	2.58469	1.30145	2.52928	1.01144	2.69498	1.24297	3.32683	1.74801	4.66644			0.969675	2.58473	1.04996	2.80884	1.48293	3.9694	2.01497	5.36882	2.15936	5.77204
1.29852	2.52904	0.976025	2.58425	1.29535	2.52877	1.01737	2.69421	1.24348	3.30776	1.74675	4.63453			0.975477	2.5843	1.05251	2.7984	1.48227	3.9433	2.0148	5.33557	2.16987	5.76458
1.2924	2.5285	0.981784	2.58372	1.28922	2.52819	1.0233	2.69346	1.24404	3.28906	1.7455	4.60304			0.981241	2.58377	1.05515	2.78832	1.48165	3.9176	2.01442	5.30217	2.18061	5.75781
1.28626	2.52789	0.987502	2.58308	1.28307	2.52756	1.02924	2.69273	1.24464	3.27071	1.74427	4.57195			0.986963	2.58314	1.05789	2.77859	1.48106	3.8923	2.01387	5.26871	2.19154	5.75163
1.2801	2.52723	0.993175	2.58233	1.27689	2.52687	1.03518	2.69202	1.2453	3.25271	1.74304	4.54128			0.992639	2.58241	1.06071	2.76924	1.48051	3.86738	2.01317	5.23528	2.20262	5.74591
1.27391	2.52653	0.998797	2.58146	1.27069	2.52614	1.04112	2.69133	1.246	3.23505	1.74183	4.511			0.998266	2.58155	1.06364	2.76024	1.47998	3.84285	2.01235	5.20194		
1.2677	2.52578	1.00437	2.58046	1.26448	2.52537	1.04707	2.69065	1.24676	3.21772	1.74063	4.48113			1.00384	2.58056	1.06666	2.75162	1.47949	3.81869	2.01144	5.16874		
1.26148	2.52499	1.00988	2.57933	1.25825	2.52457	1.05301	2.68998	1.24756	3.20074	1.73945	4.45164			1.00936	2.57944	1.0698	2.74337	1.47903	3.79491	2.01044	5.13573		
1.25524	2.52417	1.01532	2.57805	1.25201	2.52373	1.05896	2.68932	1.24841	3.18407	1.73829	4.42255			1.01481	2.57818	1.07304	2.7355	1.47861	3.77149	2.00938	5.10294		
1.249	2.52331	1.0207	2.57661	1.24575	2.52285	1.06491	2.68867	1.24932	3.16774	1.73714	4.39384			1.02019	2.57675	1.07639	2.72801	1.47821	3.74843	2.00826	5.07039		
1.24274	2.52242	1.02601	2.57501	1.23949	2.52196	1.07086	2.68803	1.25027	3.15172	1.73602	4.36551			1.02551	2.57517	1.07987	2.7209	1.47786	3.72573	2.00709	5.03809		
1.23647	2.52151	1.03124	2.57324	1.23322	2.52103	1.0768	2.68739	1.25127	3.13601	1.73491	4.33756			1.03075	2.57341	1.08347	2.71419	1.47754	3.70338	2.00589	5.00608		
1.2302	2.52058	1.03639	2.57129	1.22694	2.52008	1.08275	2.68676	1.25233	3.12061	1.73382	4.30998			1.03591	2.57148	1.08719	2.70787	1.47725	3.68137	2.00466	4.97435		
1.22391	2.51961	1.04146	2.56916	1.22065	2.51911	1.08869	2.68612	1.25344	3.10552	1.73275	4.28276			1.04099	2.56937	1.09105	2.70195	1.47701	3.65971	2.00339	4.94292		
1.21762	2.51863	1.04645	2.56686	1.21436	2.51811	1.09463	2.68549	1.2546	3.09073	1.73171	4.25591			1.04598	2.56708	1.09504	2.69641	1.47679	3.63838	2.00211	4.9118		
1.21133	2.51763	1.05136	2.56437	1.20806	2.5171	1.10057	2.68486	1.25581	3.07623	1.73069	4.22941			1.05089	2.56461	1.09916	2.69127	1.47662	3.61739	2.00082	4.88099		
1.20503	2.5166	1.05618	2.56171	1.20176	2.51606	1.1065	2.68422	1.25708	3.06203	1.72969	4.20327			1.05572	2.56197	1.10341	2.68651	1.47648	3.59672	1.99951	4.85049		
1.19873	2.51556	1.06092	2.55889	1.19546	2.51501	1.11243	2.68358	1.2584	3.04811	1.72872	4.17748			1.06047	2.55916	1.1078	2.68212	1.47638	3.57637	1.99819	4.82031		
1.19242	2.5145	1.06558	2.55591	1.18915	2.51394	1.11835	2.68293	1.25978	3.03449	1.72777	4.15203			1.06514	2.5562	1.11231	2.67809	1.47631	3.55634	1.99687	4.79046		
1.18611	2.51342	1.07017	2.55279	1.18284	2.51285	1.12426	2.68227	1.26121	3.02114	1.72684	4.12693			1.06974	2.55309	1.11695	2.6744	1.47629	3.53662	1.99554	4.76092		
1.17979	2.51232	1.07469	2.54955	1.17652	2.51175	1.13017	2.6816	1.2627	3.00807	1.72594	4.10216			1.07427	2.54986	1.12171	2.67104	1.4763	3.5172	1.99421	4.73171		
1.17348	2.51121	1.07916	2.5462	1.1702	2.51063	1.13607	2.68092	1.26424	2.99528	1.72507	4.07772			1.07874	2.54652	1.12658	2.66798	1.47635	3.49809	1.99289	4.70281		
1.16716	2.51009	1.08357	2.54276	1.16388	2.5095	1.14196	2.68022	1.26584	2.98277	1.72422	4.05361			1.08315	2.54309	1.13156	2.66521	1.47644	3.47929	1.99156	4.67424		
1.16084	2.50895	1.08793	2.53926	1.15756	2.50835	1.14784	2.6795	1.2675	2.97053	1.7234	4.02982			1.08752	2.53959	1.13664	2.66271	1.47657	3.46077	1.99025	4.64599		
1.15452	2.50779	1.09226	2.5357	1.15124	2.50719	1.1537	2.67877	1.26921	2.95855	1.72261	4.00635			1.09185	2.53604	1.14182	2.66045	1.47674	3.44254	1.98894	4.61806		
1.1482	2.50662	1.09656	2.53212	1.14492	2.50601	1.15956	2.67801	1.27099	2.94684	1.72185	3.9832			1.09615	2.53246	1.14707	2.6584	1.47694	3.42461	1.98764	4.59044		
1.14187	2.50544	1.10083	2.52852	1.1386	2.50482	1.16539	2.67723	1.27283	2.93541	1.72111	3.96036			1.10043	2.52886	1.15241	2.65656	1.47719	3.40695	1.98634	4.56314		
1.13555	2.50424	1.10509	2.52492	1.13227	2.50362	1.17122	2.67642	1.27473	2.92423	1.7204	3.93782			1.10469	2.52526	1.15781	2.6549	1.47748	3.38957	1.98506	4.53616		
1.12923	2.50304	1.10934	2.52134	1.12595	2.50241	1.17702	2.67557	1.2767	2.91332	1.71972	3.91559			1.10894	2.52168	1.16328	2.6534	1.4778	3.37247	1.98379	4.50948		
1.12291	2.50182	1.11359	2.51779	1.11963	2.50118	1.1828	2.67469	1.27873	2.90268	1.71908	3.89366			1.11319	2.51812	1.16881	2.65205	1.47817	3.35563	1.98254	4.48311		
1.11658	2.50059	1.11784	2.51428	1.11331	2.49995	1.18857	2.67377	1.28083	2.8923	1.71846	3.87202			1.11744	2.51461	1.17439	2.65082	1.47857	3.33907	1.9813	4.45705		
1.11026	2.49935	1.1221	2.51083	1.10699	2.49871	1.1943	2.6728	1.283	2.88218	1.71787	3.85067			1.12169	2.51115	1.18001	2.64972	1.47902	3.32276	1.98007	4.43129		
1.10395	2.4981	1.12637	2.50743	1.10067	2.49745	1.20001	2.67178	1.28525	2.87233	1.71731	3.82961			1.12596	2.50775	1.18567	2.64871	1.47951	3.30671	1.97886	4.40583		
1.09763	2.49685	1.13066	2.50412	1.09436	2.49619	1.20569	2.67071	1.28756	2.86275	1.71678	3.80884			1.13025	2.50443	1.19138	2.6478	1.48004	3.29092	1.97767	4.38067		
1.09131	2.49558	1.13496	2.50088	1.08804	2.49492	1.21134	2.66957	1.28996	2.85344	1.71629	3.78835			1.13455	2.50118	1.19711	2.64698	1.48061	3.27539	1.97649	4.3558		
1.085	2.49431	1.1393	2.49773	1.08173	2.49365	1.21695	2.66836	1.29244	2.8444	1.71582	3.76813			1.13889	2.49802	1.20288	2.64623	1.48122	3.2601	1.97533	4.33122		
1.07869	2.49303	1.14366	2.49467	1.07543	2.49237	1.22252	2.66708	1.295	2.83564	1.71539	3.74818			1.14324	2.49496	1.20867	2.64554	1.48187	3.24505	1.9742	4.30694		
1.07239	2.49175	1.14805	2.49171	1.06912	2.49108	1.22804	2.66572	1.29765	2.82715	1.71498	3.72851			1.14763	2.49199	1.21449	2.64491	1.48256	3.23025	1.97308	4.28294		
1.06609	2.49046	1.15248	2.48886	1.06283	2.48979	1.23352	2.66426	1.30039	2.81896	1.71462	3.7091			1.15206	2.48912	1.22032	2.64433	1.4833	3.21568	1.97198	4.25922		
1.05979	2.48917	1.15694	2.48611	1.05653	2.4885	1.23894	2.6627	1.30323	2.81105	1.71428	3.68995			1.15652	2.48637	1.22618	2.6438	1.48407	3.20135	1.9709	4.23578		
1.0535	2.48788	1.16145	2.48347	1.05025	2.48721	1.2443	2.66103	1.30617	2.80344	1.71397	3.67106			1.16102	2.48372	1.23205	2.64331	1.48489	3.18725	1.96984	4.21262		
1.04722	2.48659	1.16599	2.48095	1.04397	2.48593	1.2496	2.65924	1.30922	2.79614	1.7137	3.65243			1.16556	2.48118	1.23793	2.64286	1.48575	3.17338	1.96881	4.18974		
1.04094	2.48531	1.17058	2.47854	1.0377	2.48464	1.25483	2.65732	1.31238	2.78914	1.71346	3.63405			1.17014	2.47876	1.24383	2.64243	1.48666	3.15974	1.9678	4.16712		
1.03468	2.48403	1.17521	2.47625	1.03143	2.48336	1.25999	2.65527	1.31565	2.78246	1.71326	3.61591			1.17477	2.47646	1.24974	2.64204	1.4876	3.14632	1.96681	4.14477		
1.02842	2.48275	1.17989	2.47408	1.02518	2.4821	1.26507	2.65307	1.31905	2.7761	1.71308	3.59803			1.17944	2.47428	1.25567	2.64167	1.48859	3.13311	1.96584	4.12269		
1.02217	2.48149	1.18461	2.47203	1.01893	2.48084	1.27006	2.65072	1.32258	2.77006	1.71295	3.58039			1.18416	2.47221	1.26159	2.64132	1.48962	3.12013	1.9649	4.10087		
1.01593	2.48024	1.18939	2.4701	1.0127	2.4796	1.27497	2.64822	1.32623	2.76436	1.71284	3.56298			1.18893	2.47027	1.26753	2.64099	1.49069	3.10736	1.96398	4.07931		
1.0097	2.479	1.19421	2.46829	1.00648	2.47837	1.2798	2.64555	1.33002	2.75899	1.71277	3.54582			1.19375	2.46845	1.27347	2.64068	1.49181	3.0948	1.96309	4.058		
1.00349	2.47779	1.19909	2.4666	1.00028	2.47718	1.28453	2.64273	1.33395	2.75395	1.71273	3.52888			1.19862	2.46676	1.27942	2.64038	1.49297	3.08245	1.96222	4.03695		
0.9973	2.47661	1.20401	2.46503	0.994096	2.47601	1.28917	2.63976	1.33801	2.74924	1.71273	3.51218			1.20355	2.46518	1.28537	2.64009	1.49417	3.0703	1.96137	4.01615		
0.991123	2.47545	1.20899	2.46359	0.98793	2.47487	1.29373	2.63663	1.34221	2.74486	1.71276	3.4957			1.20852	2.46372	1.29133	2.63981	1.49541	3.05836	1.96055	3.99559		
0.984967	2.47434	1.21402	2.46226	0.981786	2.47378	1.29821	2.63337	1.34655	2.74079	1.71283	3.47945			1.21354	2.46238	1.29729	2.63954	1.4967	3.04662	1.95976	3.97528		
0.978835	2.47327	1.2191	2.46105	0.975667	2.47274	1.30261	2.62998	1.35101	2.73703	1.71293	3.46342			1.21862	2.46116	1.30325	2.63928	1.49804	3.03508	1.95899	3.95521		
0.972729	2.47225	1.22424	2.45995	0.969575	2.47175	1.30693	2.62649	1.35561	2.73356	1.71306	3.44761			1.22375	2.46005	1.30921	2.63902	1.49941	3.02374	1.95825	3.93538		
0.966652	2.4713	1.22942	2.45897	0.963516	2.47084	1.3112	2.62289	1.36032	2.73036	1.71323	3.43202			1.22893	2.45906	1.31517	2.63876	1.50084	3.01259	1.95754	3.91579		
0.96061	2.47043	1.23465	2.45809	0.957493	2.47001	1.31541	2.61922	1.36515	2.72742	1.71344	3.41664			1.23416	2.45817	1.32113	2.6385	1.5023	3.00163	1.95685	3.89643		
0.954605	2.46964	1.23994	2.45732	0.95151	2.46927	1.31957	2.6155	1.37008	2.72472	1.71368	3.40147			1.23943	2.45739	1.32709	2.63825	1.50381	2.99086	1.95619	3.8773		
0.948645	2.46896	1.24527	2.45666	0.945574	2.46865	1.3237	2.61174	1.37512	2.72224	1.71396	3.38651			1.24476	2.45671	1.33304	2.63799	1.50537	2.98028	1.95556	3.8584		
0.942733	2.4684	1.25065	2.45609	0.939691	2.46816	1.32781	2.60796	1.38025	2.71997	1.71427	3.37175			1.25014	2.45614	1.339	2.63772	1.50697	2.96988	1.95495	3.83973		
0.936877	2.46797	1.25607	2.45561	0.933866	2.46782	1.3319	2.6042	1.38546	2.71788	1.71462	3.3572			1.25556	2.45566	1.34495	2.63746	1.50862	2.95967	1.95438	3.82128		
0.931084	2.46771	1.26154	2.45523	0.928108	2.46765	1.33599	2.60046	1.39075	2.71596	1.715	3.34284			1.26102	2.45527	1.35089	2.63718	1.51032	2.94965	1.95383	3.80304		
0.925361	2.46764	1.26706	2.45494	0.922425	2.46768	1.34008	2.59677	1.3961	2.71419	1.71542	3.32869			1.26653	2.45496	1.35683	2.6369	1.51206	2.9398	1.95331	3.78503		
0.919715	2.46777	1.27261	2.45473	0.916823	2.46792	1.3442	2.59316	1.40152	2.71256	1.71587	3.31473			1.27208	2.45474	1.36277	2.63661	1.51385	2.93013	1.95281	3.76723		
0.914156	2.46813	1.27821	2.45459	0.911312	2.46842	1.34835	2.58964	1.407	2.71105	1.71636	3.30096			1.27768	2.4546	1.3687	2.63631	1.51568	2.92064	1.95235	3.74965		
0.908691	2.46875	1.28384	2.45454	0.905898	2.46919	1.35256	2.58625	1.41253	2.70966	1.71689	3.28739			1.2833	2.45454	1.37461	2.636	1.51757	2.91133	1.95191	3.73227		
0.903326	2.46966	1.28951	2.45455	0.900588	2.47025	1.35682	2.583	1.4181	2.70836	1.71745	3.274			1.28897	2.45455	1.38053	2.63567	1.5195	2.90219	1.95151	3.7151		
0.898069	2.47087	1.29522	2.45463	0.895388	2.47163	1.36116	2.57993	1.42372	2.70716	1.71805	3.2608			1.29467	2.45462	1.38643	2.63533	1.52148	2.89323	1.95113	3.69814		
0.892923	2.47241	1.30095	2.45477	0.890301	2.47334	1.36559	2.57707	1.42937	2.70604	1.71868	3.24778			1.30041	2.45475	1.39232	2.63497	1.52351	2.88444	1.95078	3.68138		
0.887891	2.47429	1.30673	2.45497	0.885328	2.4754	1.37014	2.57444	1.43506	2.70499	1.71936	3.23494			1.30618	2.45495	1.3982	2.63459	1.5256	2.87582	1.95047	3.66483		
0.882974	2.47651	1.31253	2.45523	0.88047	2.4778	1.37481	2.57206	1.44078	2.704	1.72006	3.22229			1.31198	2.4552	1.40406	2.63419	1.52773	2.86737	1.95018	3.64847		
0.87817	2.47908	1.31836	2.45553	0.875724	2.48055	1.37962	2.56996	1.44652	2.70308	1.72081	3.20981			1.3178	2.4555	1.40992	2.63377	1.52992	2.8591	1.94992	3.6323		
0.873476	2.48199	1.32421	2.45589	0.871085	2.48364	1.38457	2.56815	1.45229	2.70221	1.72159	3.1975			1.32366	2.45585	1.41575	2.63332	1.53217	2.851	1.94969	3.61633		
0.868886	2.48525	1.3301	2.45629	0.866547	2.48706	1.38968	2.56664	1.45808	2.70139	1.72241	3.18537			1.32954	2.45625	1.42157	2.63285	1.53446	2.84307	1.94949	3.60056		
0.864395	2.48883	1.336	2.45673	0.862104	2.49081	1.39493	2.5654	1.46389	2.70061	1.72326	3.17341			1.33544	2.45669	1.42738	2.63235	1.53682	2.83531	1.94932	3.58497		
0.859996	2.49272	1.34194	2.45721	0.857749	2.49486	1.40032	2.56443	1.46972	2.69987	1.72415	3.16162			1.34137	2.45716	1.43316	2.63181	1.53923	2.82772	1.94919	3.56957		
0.855679	2.49691	1.34789	2.45773	0.853472	2.49919	1.40583	2.5637	1.47557	2.69917	1.72508	3.14999			1.34732	2.45768	1.43892	2.63125	1.5417	2.8203	1.94908	3.55435		
0.851438	2.50138	1.35386	2.45828	0.849267	2.50379	1.41146	2.56318	1.48143	2.6985	1.72605	3.13853			1.3533	2.45822	1.44466	2.63064	1.54423	2.81306	1.949	3.53932		
0.847264	2.5061	1.35986	2.45886	0.845125	2.50865	1.41719	2.56284	1.4873	2.69786	1.72705	3.12724			1.35929	2.4588	1.45037	2.62999	1.54683	2.80599	1.94895	3.52446		
0.843149	2.51107	1.36587	2.45946	0.841036	2.51373	1.423	2.56265	1.49319	2.69724	1.72809	3.1161			1.3653	2.45941	1.45606	2.6293	1.54949	2.7991	1.94894	3.50979		
0.839084	2.51625	1.3719	2.4601	0.836994	2.51902	1.42888	2.56259	1.49908	2.69665	1.72917	3.10513			1.37132	2.46004	1.46171	2.62856	1.55221	2.79238	1.94895	3.49529		
0.83506	2.52163	1.37794	2.46076	0.832989	2.52449	1.43482	2.56264	1.50499	2.69609	1.73029	3.09431			1.37737	2.4607	1.46734	2.62777	1.555	2.78584	1.949	3.48097		
0.83107	2.52719	1.384	2.46144	0.829012	2.53014	1.4408	2.56277	1.5109	2.69554	1.73144	3.08365			1.38343	2.46138	1.47292	2.62692	1.55787	2.77949	1.94908	3.46682		
0.827104	2.53291	1.39008	2.46215	0.825056	2.53592	1.44684	2.56298	1.51682	2.69501	1.73263	3.07314			1.3895	2.46208	1.47847	2.62601	1.56081	2.77332	1.94919	3.45284		
0.823154	2.53875	1.39617	2.46287	0.821109	2.54182	1.4529	2.56325	1.52275	2.69449	1.73386	3.06279			1.39559	2.4628	1.48398	2.62504	1.56383	2.76733	1.94933	3.43903		
0.819209	2.54469	1.40228	2.46361	0.817164	2.5478	1.45899	2.56356	1.52869	2.694	1.73513	3.05258			1.4017	2.46354	1.48945	2.624	1.56692	2.76153	1.9495	3.42539		
0.815261	2.55071	1.40839	2.46436	0.81321	2.55384	1.46511	2.56392	1.53463	2.69351	1.73643	3.04253			1.40781	2.46429	1.49487	2.62288	1.5701	2.75593	1.9497	3.41192		
0.811298	2.55677	1.41452	2.46513	0.809236	2.55992	1.47125	2.56431	1.54057	2.69303	1.73778	3.03262			1.41394	2.46506	1.50023	2.62168	1.57336	2.75052	1.94993	3.3986		
0.807312	2.56284	1.42066	2.46592	0.805232	2.56598	1.47741	2.56472	1.54652	2.69257	1.73916	3.02286			1.42008	2.46584	1.50555	2.6204	1.57672	2.7453	1.9502	3.38545		
0.80329	2.56889	1.42681	2.46671	0.801188	2.572	1.48358	2.56516	1.55247	2.69211	1.74058	3.01325			1.42623	2.46664	1.5108	2.61903	1.58016	2.74029	1.95049	3.37245		
0.799223	2.57488	1.43297	2.46752	0.797093	2.57795	1.48976	2.56561	1.55842	2.69167	1.74204	3.00378			1.43239	2.46744	1.516	2.61757	1.5837	2.73548	1.95082	3.35962		
0.795099	2.58078	1.43914	2.46834	0.792936	2.58379	1.49595	2.56608	1.56437	2.69123	1.74354	2.99445			1.43855	2.46826	1.52113	2.61601	1.58734	2.73088	1.95118	3.34694		
0.790909	2.58655	1.44532	2.46916	0.788708	2.58948	1.50215	2.56656	1.57033	2.69079	1.74508	2.98526			1.44473	2.46908	1.5262	2.61435	1.59108	2.72649	1.95158	3.33442		
0.786643	2.59216	1.45151	2.47	0.7844	2.595	1.50836	2.56705	1.57629	2.69036	1.74666	2.97622			1.45092	2.46992	1.5312	2.61259	1.59492	2.72231	1.952	3.32204		
0.782295	2.59758	1.4577	2.47084	0.780005	2.60031	1.51458	2.56754	1.58224	2.68993	1.74828	2.96731			1.45711	2.47076	1.53613	2.61072	1.59886	2.71833	1.95246	3.30982		
0.777856	2.60279	1.4639	2.47169	0.775518	2.60539	1.5208	2.56804	1.5882	2.68951	1.74994	2.95854			1.46332	2.47161	1.54099	2.60875	1.60291	2.71457	1.95294	3.29775		
0.773322	2.60775	1.47012	2.47254	0.770934	2.61022	1.52702	2.56854	1.59415	2.68909	1.75164	2.9499			1.46953	2.47246	1.54577	2.60667	1.60707	2.71101	1.95346	3.28583		
0.76869	2.61246	1.47633	2.4734	0.766251	2.6148	1.53325	2.56904	1.60011	2.68866	1.75338	2.94141			1.47574	2.47332	1.55049	2.60448	1.61133	2.70766	1.95401	3.27405		
0.76396	2.6169	1.48256	2.47426	0.76147	2.6191	1.53947	2.56954	1.60606	2.68824	1.75516	2.93304			1.48197	2.47418	1.55513	2.6022	1.61569	2.70451	1.9546	3.26241		
0.759132	2.62108	1.48879	2.47513	0.756592	2.62314	1.5457	2.57004	1.61201	2.68782	1.75698	2.92481			1.4882	2.47505	1.5597	2.59981	1.62016	2.70155	1.95522	3.25092		
0.754209	2.625	1.49502	2.476	0.75162	2.62692	1.55193	2.57054	1.61795	2.68739	1.75885	2.91672			1.49443	2.47591	1.56421	2.59733	1.62473	2.69879	1.95586	3.23957		
0.749194	2.62865	1.50127	2.47687	0.74656	2.63045	1.55817	2.57104	1.62389	2.68696	1.76076	2.90875			1.50067	2.47679	1.56865	2.59477	1.62939	2.6962	1.95654	3.22836		
0.744091	2.63206	1.50751	2.47774	0.741415	2.63373	1.5644	2.57153	1.62983	2.68652	1.76271	2.90092			1.50692	2.47766	1.57303	2.59212	1.63415	2.69379	1.95726	3.21729		
0.738908	2.63523	1.51376	2.47862	0.736191	2.63679	1.57063	2.57202	1.63576	2.68608	1.76471	2.89322			1.51317	2.47854	1.57736	2.5894	1.639	2.69155	1.958	3.20635		
0.733649	2.63819	1.52002	2.4795	0.730895	2.63963	1.57686	2.5725	1.64168	2.68563	1.76675	2.88566			1.51943	2.47941	1.58163	2.58662	1.64394	2.68946	1.95878	3.19555		
0.728319	2.64093	1.52628	2.48037	0.725532	2.64228	1.58309	2.57298	1.6476	2.68518	1.76884	2.87822			1.52569	2.48029	1.58585	2.58378	1.64895	2.68752	1.95959	3.18489		
0.722926	2.6435	1.53255	2.48125	0.720108	2.64475	1.58932	2.57345	1.65351	2.68471	1.77098	2.87091			1.53195	2.48117	1.59004	2.58089	1.65404	2.68572	1.96044	3.17435		
0.717475	2.64589	1.53882	2.48213	0.714628	2.64706	1.59554	2.57391	1.65941	2.68423	1.77316	2.86374			1.53822	2.48205	1.59418	2.57796	1.6592	2.68404	1.96131	3.16395		
0.71197	2.64812	1.54509	2.48301	0.709098	2.64922	1.60176	2.57437	1.66529	2.68374	1.77539	2.8567			1.5445	2.48292	1.59829	2.575	1.66443	2.68248	1.96222	3.15368		
0.706417	2.65021	1.55137	2.48388	0.703522	2.65124	1.60798	2.57481	1.67117	2.68324	1.77767	2.84979			1.55077	2.4838	1.60237	2.57201	1.66971	2.68103	1.96316	3.14353		
0.700821	2.65217	1.55765	2.48476	0.697905	2.65314	1.6142	2.57525	1.67704	2.68272	1.78	2.84301			1.55705	2.48467	1.60643	2.56901	1.67506	2.67968	1.96414	3.13351		
0.695185	2.65402	1.56393	2.48563	0.69225	2.65494	1.62041	2.57568	1.68289	2.68218	1.78239	2.83637			1.56333	2.48554	1.61047	2.56599	1.68045	2.67842	1.96514	3.12362		
0.689514	2.65577	1.57021	2.4865	0.686562	2.65663	1.62662	2.5761	1.68873	2.68162	1.78483	2.82986			1.56962	2.48641	1.61449	2.56298	1.68589	2.67725	1.96618	3.11385		
0.683811	2.65742	1.5765	2.48736	0.680844	2.65824	1.63282	2.57651	1.69454	2.68103	1.78733	2.82349			1.5759	2.48728	1.6185	2.55997	1.69138	2.67616	1.96725	3.10421		
0.67808	2.65899	1.58279	2.48823	0.675099	2.65977	1.63902	2.57691	1.70035	2.68043	1.78988	2.81725			1.58219	2.48815	1.6225	2.55696	1.6969	2.67513	1.96836	3.09468		
0.672322	2.66048	1.58908	2.48909	0.669329	2.66123	1.64521	2.57729	1.70613	2.67979	1.79249	2.81116			1.58848	2.48901	1.62649	2.55397	1.70246	2.67417	1.9695	3.08528		
0.666541	2.66191	1.59537	2.48994	0.663537	2.66263	1.6514	2.57767	1.71188	2.67912	1.79517	2.80521			1.59477	2.48986	1.63048	2.551	1.70806	2.67327	1.97067	3.076		
0.66074	2.66328	1.60166	2.4908	0.657725	2.66397	1.65758	2.57803	1.71761	2.67842	1.79791	2.7994			1.60107	2.49072	1.63448	2.54805	1.71368	2.67243	1.97187	3.06683		
0.654919	2.6646	1.60796	2.49164	0.651895	2.66527	1.66375	2.57837	1.72332	2.67768	1.80073	2.79374			1.60736	2.49156	1.63848	2.54513	1.71934	2.67163	1.97311	3.05779		
0.649081	2.66588	1.61425	2.49248	0.646049	2.66652	1.66991	2.5787	1.72899	2.6769	1.80361	2.78823			1.61365	2.4924	1.64248	2.54223	1.72502	2.67087	1.97438	3.04885		
0.643228	2.66711	1.62054	2.49331	0.640189	2.66774	1.67607	2.57902	1.73463	2.67608	1.80657	2.78288			1.61994	2.49323	1.64649	2.53938	1.73072	2.67016	1.97569	3.04004		
0.637361	2.66832	1.62683	2.49413	0.634315	2.66893	1.68221	2.57931	1.74024	2.6752	1.80961	2.77769			1.62623	2.49406	1.65052	2.53656	1.73644	2.66948	1.97703	3.03133		
0.631482	2.66949	1.63312	2.49495	0.62843	2.67009	1.68835	2.57959	1.7458	2.67427	1.81273	2.77266			1.63252	2.49487	1.65456	2.53378	1.74218	2.66884	1.9784	3.02274		
0.625591	2.67064	1.6394	2.49574	0.622534	2.67123	1.69447	2.57985	1.75132	2.67328	1.81593	2.76779			1.6388	2.49567	1.65861	2.53105	1.74793	2.66823	1.9798	3.01426		
0.619691	2.67177	1.64567	2.49653	0.616629	2.67235	1.70058	2.58009	1.7568	2.67222	1.81923	2.76311			1.64508	2.49645	1.66269	2.52836	1.75371	2.66764	1.98124	3.00589		
0.613782	2.67288	1.65194	2.49729	0.610716	2.67345	1.70667	2.58031	1.76222	2.6711	1.82263	2.7586			1.65134	2.49722	1.66679	2.52574	1.75949	2.66708	1.98272	2.99764		
0.607865	2.67398	1.65818	2.49802	0.604796	2.67455	1.71276	2.5805	1.76759	2.6699	1.82613	2.75427			1.65759	2.49795	1.67092	2.52317	1.76529	2.66654	1.98422	2.98948		
0.601941	2.67508	1.66441	2.49871	0.598869	2.67564	1.71882	2.58066	1.7729	2.66862	1.82973	2.75014			1.66382	2.49865	1.67508	2.52067	1.7711	2.66603	1.98576	2.98144		
0.596012	2.67617	1.6706	2.49935	0.592937	2.67673	1.72487	2.5808	1.77815	2.66726	1.83345	2.74619			1.67001	2.49929	1.67929	2.51826	1.77691	2.66552	1.98734	2.97351		
0.590077	2.67726	1.67673	2.49989	0.587	2.67783	1.73089	2.58091	1.78334	2.66581	1.83727	2.74245			1.67615	2.49985	1.68356	2.51596	1.78274	2.66504	1.98895	2.96568		
0.584138	2.67835	1.68277	2.50029	0.581059	2.67892	1.7369	2.58098	1.78846	2.66428	1.84122	2.7389			1.6822	2.50027	1.68792	2.5138	1.78857	2.66457	1.99059	2.95795		
0.578196	2.67945	1.68865	2.50046	0.575115	2.68003	1.74288	2.58102	1.79352	2.66265	1.84528	2.73556			1.6881	2.50045	1.69241	2.51186	1.79441	2.66411	1.99227	2.95033		
0.57225	2.68056	1.69427	2.50024	0.569168	2.68114	1.74884	2.58102	1.7985	2.66094	1.84947	2.73242			1.69375	2.50028	1.69711	2.51024	1.80026	2.66366	1.99399	2.94282		
0.566303	2.68169	1.69956	2.49953	0.56322	2.68228	1.75476	2.58098	1.80343	2.65915	1.85377	2.72947			1.69907	2.49962	1.70211	2.50908	1.80611	2.66323	1.99574	2.9354		
0.560354	2.68283	1.70451	2.49833	0.55727	2.68343	1.76066	2.58089	1.80829	2.65728	1.8582	2.72673			1.70405	2.49846	1.70749	2.50848	1.81196	2.6628	1.99752	2.92809		
0.554404	2.684	1.70922	2.4968	0.551321	2.68461	1.76652	2.58075	1.81309	2.65533	1.86274	2.72417			1.70878	2.49695	1.7132	2.50836	1.81782	2.66237	1.99935	2.92088		
0.548455	2.68519	1.71379	2.49507	0.545371	2.68582	1.77234	2.58056	1.81784	2.65333	1.8674	2.7218			1.71336	2.49523	1.71914	2.50858	1.82367	2.66196	2.0012	2.91377		
0.542506	2.68641	1.71829	2.49324	0.539423	2.68706	1.77812	2.5803	1.82255	2.65127	1.87217	2.71961			1.71787	2.49341	1.72522	2.50901	1.82953	2.66154	2.0031	2.90677		
0.536558	2.68767	1.72275	2.49137	0.533477	2.68834	1.78385	2.57998	1.82722	2.64917	1.87705	2.71758			1.72233	2.49155	1.73138	2.50955	1.83539	2.66113	2.00503	2.89986		
0.530613	2.68897	1.7272	2.4895	0.527532	2.68966	1.78953	2.57959	1.83187	2.64705	1.88202	2.71571			1.72678	2.48967	1.7376	2.51016	1.84124	2.66072	2.00699	2.89305		
0.52467	2.69031	1.73165	2.48763	0.521592	2.69103	1.79516	2.57912	1.8365	2.64492	1.88709	2.71398			1.73123	2.48781	1.74384	2.51081	1.8471	2.66031	2.009	2.88634		
0.518732	2.69171	1.7361	2.48579	0.515655	2.69245	1.80072	2.57857	1.84113	2.6428	1.89224	2.71239			1.73568	2.48597	1.75011	2.5115	1.85295	2.6599	2.01104	2.87973		
0.512797	2.69316	1.74057	2.48398	0.509724	2.69394	1.80622	2.57792	1.84576	2.64071	1.89747	2.71092			1.74015	2.48415	1.7564	2.5122	1.8588	2.65948	2.01312	2.87321		
0.506869	2.69468	1.74505	2.48221	0.503798	2.69549	1.81165	2.57719	1.85041	2.63865	1.90278	2.70957			1.74463	2.48237	1.76269	2.51291	1.86464	2.65907	2.01524	2.8668		
0.500946	2.69627	1.74955	2.48047	0.49788	2.69712	1.817	2.57635	1.85509	2.63665	1.90815	2.70832			1.74913	2.48063	1.769	2.51363	1.87048	2.65864	2.0174	2.86048		
0.495031	2.69794	1.75408	2.47877	0.491969	2.69884	1.82228	2.5754	1.85981	2.63472	1.91358	2.70717			1.75365	2.47893	1.77531	2.51435	1.87631	2.65822	2.0196	2.85426		
0.489125	2.6997	1.75862	2.47711	0.486068	2.70065	1.82748	2.57435	1.86458	2.63287	1.91907	2.7061			1.75819	2.47727	1.78163	2.51508	1.88214	2.65778	2.02184	2.84814		
0.483229	2.70156	1.76318	2.4755	0.480177	2.70257	1.83259	2.57318	1.8694	2.63111	1.92461	2.7051			1.76275	2.47565	1.78795	2.51581	1.88796	2.65734	2.02412	2.84211		
0.477343	2.70353	1.76777	2.47392	0.474298	2.7046	1.83761	2.57191	1.87429	2.62945	1.93019	2.70418			1.76733	2.47407	1.79427	2.51653	1.89376	2.65689	2.02645	2.83619		
0.471471	2.70563	1.77238	2.47239	0.468433	2.70677	1.84255	2.57052	1.87925	2.6279	1.93581	2.70332			1.77194	2.47254	1.8006	2.51726	1.89956	2.65642	2.02881	2.83036		
0.465613	2.70787	1.77702	2.4709	0.462584	2.70909	1.8474	2.56902	1.88428	2.62646	1.94147	2.70252			1.77658	2.47104	1.80692	2.51799	1.90535	2.65594	2.03122	2.82463		
0.459772	2.71027	1.78168	2.46946	0.456752	2.71158	1.85217	2.56742	1.88939	2.62514	1.94717	2.70177			1.78123	2.4696	1.81325	2.51871	1.91113	2.65545	2.03368	2.819		
0.45395	2.71285	1.78636	2.46806	0.45094	2.71426	1.85687	2.56571	1.89457	2.62393	1.95289	2.70106			1.78592	2.46819	1.81958	2.51943	1.91689	2.65495	2.03618	2.81347		
0.448148	2.71562	1.79107	2.4667	0.445151	2.71715	1.86148	2.56392	1.89983	2.62283	1.95864	2.7004			1.79062	2.46683	1.82592	2.52014	1.92263	2.65442	2.03873	2.80803		
0.442371	2.71863	1.7958	2.46539	0.439387	2.72028	1.86603	2.56204	1.90516	2.62183	1.96442	2.69977			1.79535	2.46551	1.83225	2.52086	1.92836	2.65388	2.04132	2.8027		
0.436621	2.72188	1.80056	2.46412	0.433652	2.72369	1.87052	2.56009	1.91056	2.62094	1.97022	2.69918			1.80011	2.46424	1.83858	2.52156	1.93408	2.65332	2.04397	2.79747		
0.430902	2.72543	1.80535	2.46289	0.427951	2.7274	1.87494	2.55807	1.91603	2.62015	1.97603	2.69862			1.8049	2.463	1.84492	2.52227	1.93977	2.65273	2.04667	2.79235		
0.425217	2.72931	1.81016	2.4617	0.422287	2.73147	1.87932	2.55599	1.92156	2.61944	1.98187	2.69809			1.8097	2.46181	1.85125	2.52297	1.94544	2.65212	2.04942	2.78733		
0.419573	2.73357	1.815	2.46056	0.416666	2.73595	1.88364	2.55386	1.92714	2.61882	1.98772	2.69758			1.81454	2.46067	1.85758	2.52366	1.95109	2.65147	2.05223	2.78241		
0.413975	2.73827	1.81986	2.45946	0.411094	2.74089	1.88793	2.55169	1.93278	2.61827	1.99359	2.6971			1.8194	2.45956	1.86392	2.52435	1.95671	2.6508	2.05509	2.7776		
0.408429	2.74345	1.82475	2.4584	0.405578	2.74636	1.89218	2.54949	1.93846	2.61779	1.99947	2.69664			1.82428	2.45849	1.87025	2.52504	1.96231	2.6501	2.05801	2.7729		
0.402944	2.74922	1.82966	2.45738	0.400127	2.75246	1.89641	2.54726	1.94419	2.61737	2.00536	2.6962			1.82919	2.45747	1.87658	2.52572	1.96787	2.64936	2.06099	2.76831		
0.397527	2.75564	1.8346	2.4564	0.394749	2.75926	1.90061	2.54501	1.94996	2.61701	2.01127	2.69577			1.83413	2.45649	1.88291	2.5264	1.97341	2.64859	2.06404	2.76384		
0.392188	2.76282	1.83956	2.45546	0.389456	2.76689	1.90479	2.54275	1.95577	2.6167	2.01718	2.69536			1.83909	2.45554	1.88924	2.52707	1.97891	2.64777	2.06715	2.75948		
0.386941	2.7709	1.84455	2.45456	0.384261	2.77547	1.90895	2.54049	1.96161	2.61643	2.0231	2.69496			1.84408	2.45464	1.89557	2.52773	1.98438	2.64691	2.07032	2.75523		
0.381797	2.77999	1.84956	2.45369	0.379177	2.78517	1.9131	2.53822	1.96747	2.61621	2.02903	2.69458			1.84909	2.45377	1.9019	2.52839	1.9898	2.646	2.07357	2.75111		
0.376772	2.79029	1.8546	2.45287	0.374219	2.79615	1.91724	2.53595	1.97337	2.61602	2.03497	2.69421			1.85413	2.45295	1.90823	2.52904	1.99518	2.64505	2.0769	2.74711		
0.371882	2.80195	1.85967	2.45209	0.369407	2.80861	1.92138	2.53369	1.97928	2.61586	2.04091	2.69385			1.85919	2.45216	1.91455	2.52969	2.00052	2.64404	2.0803	2.74323		
0.367146	2.81521	1.86476	2.45134	0.364758	2.82279	1.92551	2.53143	1.98522	2.61573	2.04686	2.6935			1.86427	2.45141	1.92088	2.53033	2.00581	2.64297	2.08377	2.73948		
0.362583	2.8303	1.86987	2.45063	0.360292	2.83892	1.92964	2.52919	1.99118	2.61562	2.05282	2.69315			1.86939	2.4507	1.9272	2.53097	2.01105	2.64184	2.08733	2.73586		
0.358213	2.84747	1.87501	2.44995	0.35603	2.85728	1.93378	2.52697	1.99715	2.61554	2.05877	2.69282			1.87452	2.45002	1.93352	2.5316	2.01624	2.64065	2.09098	2.73238		
0.354055	2.86701	1.88017	2.44932	0.351991	2.87816	1.93791	2.52476	2.00314	2.61548	2.06473	2.69249			1.87968	2.44938	1.93984	2.53222	2.02137	2.6394	2.09471	2.72902		
0.35013	2.88921	1.88536	2.44871	0.348192	2.90185	1.94206	2.52257	2.00914	2.61543	2.0707	2.69217			1.88487	2.44877	1.94615	2.53283	2.02645	2.63807	2.09852	2.7258		
0.346453	2.91435	1.89057	2.44814	0.344649	2.92864	1.9462	2.52041	2.01515	2.6154	2.07666	2.69185			1.89008	2.4482	1.95246	2.53344	2.03146	2.63668	2.10243	2.72272		
0.343037	2.94274	1.8958	2.44761	0.341373	2.95882	1.95036	2.51827	2.02117	2.61538	2.08263	2.69153			1.89531	2.44766	1.95877	2.53404	2.03641	2.63521	2.10643	2.71977		
0.339893	2.97465	1.90106	2.44711	0.338372	2.99266	1.95453	2.51615	2.0272	2.61538	2.0886	2.69122			1.90056	2.44715	1.96508	2.53463	2.0413	2.63368	2.11053	2.71697		
0.337026	3.01035	1.90634	2.44664	0.33565	3.03043	1.95871	2.51406	2.03324	2.61538	2.09457	2.69091			1.90584	2.44668	1.97138	2.53522	2.04612	2.63207	2.11472	2.71429		
0.334438	3.05009	1.91165	2.4462	0.333206	3.07236	1.9629	2.512	2.03928	2.61539	2.10054	2.69061			1.91114	2.44624	1.97768	2.53579	2.05089	2.63038	2.119	2.71176		
0.332126	3.09412	1.91697	2.44579	0.331035	3.1187	1.9671	2.50996	2.04533	2.61541	2.10651	2.6903			1.91647	2.44583	1.98397	2.53636	2.05558	2.62863	2.12337	2.70936		
0.330085	3.14266	1.92232	2.44542	0.329132	3.16967	1.97131	2.50796	2.05138	2.61544	2.11248	2.69			1.92181	2.44545	1.99026	2.53692	2.06022	2.6268	2.12784	2.70708		
0.328308	3.19595	1.92769	2.44507	0.327488	3.22551	1.97554	2.50599	2.05744	2.61547	2.11845	2.68969			1.92718	2.4451	1.99655	2.53746	2.06479	2.62491	2.13239	2.70494		
0.326786	3.25422	1.93308	2.44476	0.326093	3.28647	1.97979	2.50404	2.0635	2.6155	2.12441	2.68939			1.93257	2.44478	2.00283	2.538	2.0693	2.62296	2.13704	2.70292		
0.325508	3.31773	1.93849	2.44447	0.324938	3.3528	1.98405	2.50213	2.06957	2.61554	2.13037	2.68908			1.93798	2.44449	2.0091	2.53853	2.07376	2.62094	2.14177	2.70102		
0.324465	3.38675	1.94393	2.44421	0.324013	3.42478	1.98833	2.50025	2.07563	2.61557	2.13633	2.68877			1.94341	2.44423	2.01537	2.53904	2.07817	2.61887	2.14658	2.69923		
0.323645	3.46157	1.94938	2.44397	0.323306	3.50274	1.99263	2.49841	2.0817	2.61561	2.14229	2.68846			1.94886	2.444	2.02162	2.53954	2.08252	2.61675	2.15146	2.69755		
0.32304	3.54252	1.95486	2.44377	0.322807	3.58701	1.99695	2.4966	2.08776	2.61565	2.14824	2.68815			1.95434	2.44379	2.02787	2.54003	2.08684	2.61459	2.15643	2.69597		
0.322639	3.62997	1.96035	2.44359	0.322507	3.67798	2.00128	2.49482	2.09383	2.61568	2.15419	2.68783			1.95983	2.4436	2.03411	2.5405	2.09111	2.61239	2.16146	2.69449		
0.322431	3.72432	1.96586	2.44343	0.322397	3.77608	2.00564	2.49309	2.09989	2.61572	2.16013	2.6875			1.96534	2.44345	2.04034	2.54096	2.09535	2.61016	2.16656	2.6931		
0.322408	3.82603	1.9714	2.4433	0.322466	3.8818	2.01003	2.49139	2.10595	2.61575	2.16606	2.68717			1.97087	2.44331	2.04656	2.5414	2.09955	2.6079	2.17172	2.69179		
0.322561	3.9356	1.97695	2.4432	0.322706	3.99567	2.01444	2.48973	2.11201	2.61578	2.17199	2.68683			1.97642	2.44321	2.05276	2.54182	2.10373	2.60563	2.17694	2.69057		
0.32288	4.05362	1.98252	2.44311	0.323108	4.1183	2.01888	2.48813	2.11807	2.6158	2.17791	2.68649			1.98199	2.44312	2.05895	2.54222	2.1079	2.60335	2.18221	2.68942		
0.323356	4.1807	1.98811	2.44305	0.323662	4.25037	2.02336	2.48659	2.12412	2.61582	2.18382	2.68613			1.98758	2.44306	2.06512	2.54259	2.11205	2.60106	2.18754	2.68833		
0.323981	4.31758	1.99371	2.44302	0.32436	4.39264	2.02791	2.48513	2.13016	2.61584	2.18972	2.68576			1.99318	2.44302	2.07127	2.54294	2.11619	2.59878	2.19291	2.68732		
0.324745	4.46507	1.99934	2.443	0.325193	4.54598	2.03258	2.48382	2.13621	2.61585	2.1956	2.68539			1.9988	2.443	2.0774	2.54326	2.12033	2.5965	2.19832	2.68635		
0.32564	4.62407	2.00498	2.443	0.326152	4.71135	2.03748	2.48281	2.14224	2.61585	2.20148	2.68499			2.00444	2.443	2.0835	2.54354	2.12447	2.59425	2.20378	2.68545		
0.326657	4.79564	2.01063	2.44303	0.327228	4.88988	2.04282	2.48234	2.14827	2.61584					2.0101	2.44302	2.08957	2.54379	2.12863	2.59202				
0.327635	4.9563	2.01631	2.44307	0.328412	5.08283	2.04861	2.48241	2.15429	2.61582					2.01577	2.44307	2.09561	2.54399	2.13281	2.58983				
0.328531	5.10216	2.022	2.44313	0.329695	5.29165	2.05465	2.48279	2.1603	2.61579					2.02146	2.44313	2.10161	2.54415	2.13701	2.58769				
0.329314	5.22943	2.0277	2.44321	0.331066	5.51801	2.0608	2.4833	2.16631	2.61575					2.02716	2.44321	2.10756	2.54425	2.14125	2.5856				
0.329957	5.33458	2.03342	2.44331	0.332516	5.76386	2.067	2.48387	2.1723	2.6157					2.03288	2.4433	2.11346	2.54428	2.14554	2.58358				
0.330443	5.41458	2.03915	2.44343	0.334036	6.03144	2.07323	2.48447	2.17828	2.61564					2.03861	2.44342	2.1193	2.54424	2.14988	2.58163				
0.330899	5.49026	2.0449	2.44356	0.335616	6.32341	2.07948	2.48509	2.18425	2.61556					2.04436	2.44355	2.12507	2.54412	2.15429	2.57977				
0.331222	5.54413	2.05067	2.44371	0.337032	6.60014	2.08575	2.48572	2.19021	2.61546					2.05012	2.4437	2.13076	2.54391	2.15877	2.57802				
0.331735	5.63037	2.05644	2.44387	0.338264	6.85434	2.09202	2.48635	2.19615	2.61535					2.0559	2.44386	2.13636	2.54359	2.16334	2.57638				
0.332447	5.75187	2.06223	2.44405	0.339296	7.07855	2.09829	2.48699	2.20207	2.61522					2.06168	2.44404	2.14186	2.54315	2.16801	2.57487				
0.333371	5.91287	2.06804	2.44425	0.340119	7.2656	2.10458	2.48763							2.06749	2.44423	2.14725	2.54259	2.1728	2.57349				
0.334521	6.11929	2.07385	2.44446	0.340727	7.40902	2.11086	2.48828							2.0733	2.44444	2.15254	2.5419	2.17769	2.57227				
0.335908	6.37932	2.07968	2.44468	0.341288	7.54562	2.11715	2.48892							2.07913	2.44466	2.1577	2.54108	2.18271	2.57119				
0.337544	6.70417	2.08552	2.44491	0.34168	7.6434	2.12345	2.48957							2.08497	2.44489	2.16275	2.54012	2.18786	2.57026				
0.339217	7.06098	2.09138	2.44516	0.342292	7.80091	2.12974	2.49021							2.09082	2.44514	2.16768	2.53904	2.19313	2.56948				
0.340915	7.45437	2.09724	2.44542	0.343126	8.02489	2.13604	2.49086							2.09668	2.44539	2.17251	2.53783	2.19851	2.56885				
0.342629	7.8899	2.10312	2.44569	0.344181	8.32554	2.14234	2.4915							2.10256	2.44566	2.17724	2.53652	2.204	2.56834				
0.344346	8.37441	2.109	2.44597	0.345453	8.71778	2.14864	2.49214							2.10845	2.44595	2.18188	2.53511						
0.346056	8.91633	2.1149	2.44627	0.346935	9.22318	2.15495	2.49279							2.11434	2.44624	2.18644	2.53362						
0.347747	9.52625	2.12081	2.44657	0.348612	9.87341	2.16126	2.49343							2.12025	2.44654	2.19094	2.53206						
0.349408	10.2176	2.12673	2.44688	0.350253	10.6135	2.16756	2.49407							2.12617	2.44685	2.19538	2.53044						
0.351028	11.0077	2.13265	2.44721	0.351847	11.4633	2.17387	2.4947							2.13209	2.44718	2.19978	2.52879						
0.352595	11.9193	2.13859	2.44754	0.353382	12.4492	2.18019	2.49534							2.13803	2.44751	2.20414	2.52709						
0.354098	12.9828	2.14454	2.44788	0.354848	13.6069	2.1865	2.49597							2.14398	2.44785								
0.355526	14.2398	2.1505	2.44823	0.356234	14.9859	2.19281	2.4966							2.14993	2.4482								
0.356869	15.7491	2.15646	2.44859	0.357528	16.6572	2.19913	2.49723							2.15589	2.44856								
0.358116	17.5959	2.16243	2.44896	0.358722	18.7259	2.20545	2.49786							2.16187	2.44892								
0.359258	19.9091	2.16842	2.44933	0.359806	21.3547									2.16785	2.4493								
0.360286	22.8935	2.17441	2.44971	0.36077	24.8095									2.17384	2.44968								
0.361191	26.8941	2.1804	2.4501	0.361609	29.5571									2.17983	2.45006								
0.361965	32.5429	2.18641	2.45049	0.362313	36.4983									2.18584	2.45046								
0.362603	41.1333	2.19242	2.4509	0.362878	47.6252									2.19185	2.45086								
0.363098	55.7934	2.19844	2.4513	0.363298	68.3913									2.19787	2.45126								
0.363447	86.5245	2.20447	2.45171	0.36357	121.002									2.20389	2.45167								
0.363647	192.089			0.363691	521.604																		
