Sym0		Asym0		Sym1		Sym2		Sym3		Sym4		Sym5		Asym1		Asym2		Asym3		Asym4		Asym5	
388  Points		390  Points		388  Points		379  Points		370  Points		361  Points		153  Points		390  Points		381  Points		367  Points		320  Points		144  Points	
Freq (MHz)	Vph (m/ms)	Freq (MHz)	Vph (m/ms)	Freq (MHz)	Vph (m/ms)	Freq (MHz)	Vph (m/ms)	Freq (MHz)	Vph (m/ms)	Freq (MHz)	Vph (m/ms)	Freq (MHz)	Vph (m/ms)	Freq (MHz)	Vph (m/ms)	Freq (MHz)	Vph (m/ms)	Freq (MHz)	Vph (m/ms)	Freq (MHz)	Vph (m/ms)	Freq (MHz)	Vph (m/ms)
2.20154	2.49928	0.346138	418.859	2.20293	2.49938	0.692223	1699.26	1.25075	794.131	1.38452	908.652	2.07645	3310.15	0.346114	1029.17	0.833875	1731.66	1.03835	1109.94	1.66774	3233.35	1.73091	768.418
2.19539	2.49885	0.346526	110.578	2.19678	2.49895	0.692421	255.058	1.25038	322.066	1.38497	361.506	2.07338	706.506	0.346406	131.031	0.833734	298.943	1.03862	320.274	1.66724	590.552	1.732	379.829
2.18925	2.49842	0.347361	63.8394	2.19064	2.49852	0.69291	137.971	1.24972	201.9	1.38579	225.754	2.0691	394.71	0.347147	70.1151	0.833396	163.528	1.03917	187.228	1.66608	324.735	1.73376	252.465
2.18312	2.498	0.348639	44.9939	2.1845	2.49809	0.693687	94.6424	1.24876	146.962	1.38697	164.219	2.06459	273.474	0.348331	47.9894	0.832864	112.492	1.04001	132.355	1.66434	223.762	1.7361	189.226
2.17698	2.49758	0.350348	34.8398	2.17837	2.49767	0.694747	72.092	1.24754	115.464	1.38851	129.124	2.06	208.991	0.349949	36.583	0.832146	85.69	1.04112	102.421	1.6621	170.553	1.73892	151.446
2.17086	2.49716	0.352475	28.5097	2.17224	2.49725	0.696083	58.2772	1.24607	95.0328	1.39036	106.454	2.05541	168.971	0.351989	29.6455	0.831251	69.1641	1.04251	83.5847	1.65947	137.684	1.74214	126.338
2.16473	2.49674	0.355006	24.1982	2.16612	2.49683	0.697687	48.9545	1.24437	80.7016	1.39253	90.6116	2.05084	141.714	0.354436	24.9943	0.830188	57.9501	1.04415	70.647	1.65653	115.356	1.74566	108.447
2.15861	2.49632	0.357923	21.0814	2.16	2.49642	0.69955	42.2456	1.24247	70.0899	1.39497	78.9211	2.04628	121.955	0.357272	21.6685	0.82897	49.8379	1.04605	61.2178	1.65336	99.1963	1.74944	95.056
2.1525	2.49591	0.361205	18.7293	2.15388	2.49601	0.701662	37.1908	1.24039	61.9137	1.39766	69.9431	2.04176	106.974	0.360478	19.179	0.827611	43.6948	1.04817	54.0444	1.65001	86.9573	1.75342	84.6585
2.14639	2.49551	0.364832	16.8959	2.14777	2.4956	0.70401	33.2489	1.23816	55.4196	1.40059	62.8342	2.03728	95.2273	0.364034	17.2504	0.826124	38.8799	1.05052	48.4065	1.64654	77.3662	1.75757	76.3525
2.14028	2.4951	0.368782	15.43	2.14166	2.49519	0.706582	30.0912	1.2358	50.1361	1.40372	57.0674	2.03283	85.7691	0.367917	15.7161	0.824526	35.0035	1.05308	43.861	1.64297	69.6476	1.76184	69.5651
2.13418	2.4947	0.373034	14.2337	2.13556	2.49479	0.709365	27.5068	1.23334	45.7532	1.40704	52.2966	2.02843	77.9907	0.372107	14.4689	0.822831	31.8151	1.05583	40.1198	1.63934	63.302	1.76622	63.915
2.12809	2.4943	0.377565	13.2408	2.12947	2.49439	0.712346	25.3539	1.23079	42.0586	1.41053	48.2851	2.02408	71.4817	0.37658	13.4373	0.821056	29.1462	1.05875	36.988	1.63568	57.9935	1.77069	59.1387
2.122	2.49391	0.382351	12.4049	2.12338	2.494	0.715512	23.5338	1.22818	38.9021	1.41416	44.8655	2.01977	65.9551	0.381314	12.5712	0.819217	26.8792	1.06185	34.3288	1.632	53.4873	1.77523	55.048
2.11592	2.49352	0.387371	11.6925	2.11729	2.49361	0.718848	21.9758	1.22553	36.1741	1.41791	41.9163	2.01552	61.2046	0.386287	11.8348	0.81733	24.9299	1.06509	32.0433	1.62832	49.6147	1.77982	51.5053
2.10984	2.49314	0.392604	11.0788	2.11121	2.49323	0.72234	20.6275	1.22284	33.7933	1.42178	39.3468	2.01132	57.0778	0.391476	11.2019	0.815411	23.236	1.06847	30.0584	1.62465	46.2512	1.78446	48.4073
2.10377	2.49276	0.398026	10.5452	2.10514	2.49285	0.725976	19.4498	1.22014	31.6976	1.42575	37.0883	2.00718	53.4597	0.396859	10.6526	0.813475	21.7507	1.07197	28.3188	1.62101	43.303	1.78914	45.6752
2.0977	2.49239	0.403618	10.0773	2.09907	2.49247	0.729741	18.4124	1.21745	29.8389	1.4298	35.0877	2.0031	50.2621	0.402417	10.1718	0.81154	20.4381	1.07559	26.7817	1.6174	40.6981	1.79384	43.2477
2.09164	2.49202	0.409357	9.66389	2.09301	2.4921	0.733623	17.492	1.21477	28.1796	1.43393	33.3032	1.99908	47.416	0.408127	9.74761	0.80962	19.2699	1.0793	25.4141	1.61384	38.38	1.79856	41.0765
2.08559	2.49166	0.415225	9.29604	2.08696	2.49174	0.737607	16.6699	1.21212	26.6895	1.43811	31.7015	1.99512	44.8667	0.413211	9.41682	0.807731	18.2241	1.0831	24.1893	1.61032	36.3042	1.8033	39.123
2.07954	2.4913	0.421202	8.96664	2.08091	2.49138	0.74168	15.9312	1.20951	25.3444	1.44235	30.256	1.99124	42.5704	0.417615	9.15939	0.805888	17.2828	1.08697	23.0862	1.60686	34.435	1.80805	37.356
2.0735	2.49095	0.427267	8.66989	2.07487	2.49103	0.745831	15.2638	1.20695	24.1244	1.44663	28.9447	1.98742	40.4914	0.421299	8.9616	0.804107	16.4315	1.09091	22.0874	1.60347	32.7432	1.81279	35.7498
2.06747	2.49061	0.433401	8.40102	2.06883	2.49068	0.750046	14.6579	1.20445	23.0131	1.45094	27.7498	1.98368	38.6006	0.424236	8.81394	0.802404	15.6584	1.09491	21.1788	1.60015	31.2051	1.81754	34.2833
2.06144	2.49027	0.439586	8.15611	2.0628	2.49035	0.754312	14.1052	1.20203	21.997	1.45527	26.6564	1.98002	36.8737	0.426407	8.70993	0.800793	14.9537	1.09894	20.3487	1.59691	29.8009	1.82228	32.9391
2.05542	2.48994	0.445802	7.93187	2.05678	2.49002	0.758619	13.599	1.19969	21.0648	1.45962	25.6519	1.97644	35.2905	0.427802	8.64528	0.799291	14.3091	1.10301	19.5872	1.59374	28.5141	1.827	31.7022
2.04941	2.48962	0.452031	7.72554	2.05077	2.48969	0.762953	13.1335	1.19744	20.2066	1.46398	24.7258	1.97294	33.8341	0.429812	8.55484	0.797913	13.7178	1.10711	18.8861	1.59067	27.3308	1.83171	30.5604
2.04341	2.48931	0.458254	7.53475	2.04477	2.48938	0.767302	12.7038	1.1953	19.4145	1.46834	23.8692	1.96953	32.4899	0.432005	8.45974	0.796676	13.1739	1.11122	18.2383	1.58769	26.2393	1.8364	29.5028
2.03742	2.489	0.464451	7.35752	2.03877	2.48907	0.771657	12.3057	1.19327	18.6814	1.47269	23.0745	1.9662	31.2458	0.434999	8.33543	0.795594	12.6725	1.11534	17.6379	1.58481	25.2296	1.84106	28.5205
2.03143	2.4887	0.470605	7.19212	2.03279	2.48877	0.776003	11.9359	1.19136	18.0012	1.47703	22.335	1.96298	30.0911	0.4388	8.18593	0.794685	12.2093	1.11945	17.0797	1.58203	24.2931	1.8457	27.6055
2.02545	2.48842	0.476697	7.03706	2.02681	2.48848	0.780332	11.5911	1.18957	17.3687	1.48136	21.6452	1.95985	29.0168	0.443414	8.01568	0.793966	11.7806	1.12355	16.5594	1.57937	23.4222	1.8503	26.7512
2.01949	2.48814	0.482706	6.89105	2.02084	2.4882	0.78463	11.2687	1.18793	16.7794	1.48565	21	1.95682	28.0149	0.448839	7.82918	0.793453	11.3833	1.12764	16.073	1.57682	22.6107	1.85486	25.9514
2.01353	2.48787	0.488616	6.75297	2.01488	2.48793	0.788888	10.9664	1.18644	16.2294	1.48992	20.3951	1.95389	27.0785	0.455067	7.6307	0.793163	11.0145	1.1317	15.6172	1.57439	21.8528	1.85938	25.2011
2.00758	2.48761	0.494406	6.62183	2.00893	2.48767	0.793095	10.6823	1.1851	15.715	1.49415	19.8268	1.95107	26.2016	0.46128	7.44675	0.793112	10.6718	1.13572	15.1891	1.57208	21.1436	1.86386	24.4957
2.00164	2.48736	0.500059	6.49677	2.00298	2.48742	0.797239	10.4144	1.18392	15.2333	1.49834	19.2917	1.94837	25.3789	0.467459	7.27549	0.793318	10.3532	1.1397	14.786	1.56991	20.4789	1.86829	23.8312
1.99571	2.48713	0.505557	6.37703	1.99705	2.48718	0.801311	10.1613	1.18292	14.7816	1.50248	18.7869	1.94578	24.6056	0.473584	7.11531	0.793797	10.0566	1.14363	14.4058	1.56787	19.8547	1.87266	23.2041
1.98979	2.4869	0.510883	6.26195	1.99113	2.48695	0.8053	9.92162	1.18209	14.3573	1.50657	18.3097	1.94332	23.8777	0.479638	6.96481	0.794564	9.7804	1.14751	14.0464	1.56598	19.2677	1.87698	22.6111
1.98389	2.48669	0.51602	6.15096	1.98522	2.48674	0.809197	9.69405	1.18146	13.9584	1.5106	17.8579	1.94098	23.1915	0.485601	6.8228	0.795479	9.55517	1.15132	13.7059	1.56423	18.7149	1.88123	22.0494
1.97799	2.48649	0.520954	6.04354	1.97932	2.48653	0.81251	9.50478	1.18102	13.5829	1.51457	17.4294	1.93876	22.5435	0.491455	6.68821	0.796447	9.37381	1.15506	13.3828	1.56263	18.1935	1.88542	21.5166
1.9721	2.4863	0.525671	5.93928	1.97344	2.48634	0.815268	9.34958	1.18078	13.2291	1.51847	17.0223	1.93668	21.9309	0.497181	6.56014	0.797383	9.23084	1.15873	13.0757	1.56119	17.7012	1.88954	21.0104
1.96623	2.48613	0.530159	5.83781	1.96756	2.48617	0.817501	9.22523	1.18075	12.8954	1.52229	16.6348	1.93474	21.351	0.50276	6.43776	0.798212	9.12208	1.16231	12.7833	1.55991	17.2357	1.89358	20.5286
1.96037	2.48597	0.53441	5.73881	1.9617	2.48601	0.819234	9.12933	1.18093	12.5804	1.52604	16.2656	1.93294	20.8015	0.508176	6.32037	0.798872	9.04444	1.1658	12.5044	1.55879	16.7952	1.89755	20.0696
1.95452	2.48583	0.538417	5.64203	1.95584	2.48586	0.820489	9.06011	1.18133	12.2827	1.5297	15.9133	1.93128	20.28	0.513412	6.20735	0.799317	8.99577	1.1692	12.238	1.55785	16.3779	1.90143	19.6316
1.94869	2.4857	0.542174	5.54728	1.95	2.48573	0.821284	9.01638	1.18196	12.0013	1.53327	15.5766	1.92977	19.7848	0.518452	6.09816	0.799988	8.92715	1.1725	11.9831	1.55708	15.9821	1.90523	19.2131
1.94286	2.48559	0.54568	5.45438	1.94418	2.48561	0.822415	8.95427	1.18281	11.735	1.53676	15.2545	1.92841	19.314	0.523282	5.99234	0.80076	8.85434	1.1757	11.739	1.55648	15.6064	1.90894	18.8127
1.93705	2.4855	0.548936	5.36323	1.93837	2.48552	0.823628	8.88773	1.18389	11.4829	1.54015	14.9458	1.92721	18.8659	0.527889	5.88948	0.801881	8.7582	1.17879	11.5048	1.55607	15.2494	1.91256	18.4293
1.93126	2.48542	0.551944	5.27373	1.93257	2.48543	0.82525	8.79882	1.1852	11.2439	1.54344	14.6497	1.92616	18.4392	0.532262	5.78924	0.803417	8.6412	1.18177	11.2798	1.55584	14.91	1.91608	18.0616
1.92548	2.48536	0.554712	5.18585	1.92678	2.48537	0.827254	8.68888	1.18674	11.0174	1.54663	14.3654	1.92528	18.0325	0.536395	5.69136	0.805453	8.50628	1.18463	11.0635	1.5558	14.5871	1.9195	17.7087
1.91971	2.48532	0.557247	5.09954	1.92101	2.48533	0.829606	8.55949	1.18852	10.8025	1.54972	14.0921	1.92456	17.6444	0.54028	5.59559	0.808093	8.3567	1.18738	10.8553	1.55594	14.2795	1.92281	17.3696
1.91396	2.4853	0.559559	5.01481	1.91526	2.4853	0.832262	8.41236	1.19052	10.5984	1.55271	13.829	1.92401	17.2739	0.543915	5.50175	0.811457	8.19593	1.19001	10.6546	1.55628	13.9864	1.92603	17.0434
1.90822	2.48529	0.56166	4.93165	1.90952	2.48529	0.835167	8.24934	1.19275	10.4045	1.55558	13.5757	1.92362	16.9199	0.547299	5.40972	0.815178	8.04599	1.19253	10.461	1.5568	13.7069	1.92913	16.7293
1.9025	2.48531	0.563562	4.85009	1.9038	2.48531	0.837917	8.09207	1.19521	10.2203	1.55835	13.3314	1.92341	16.5815	0.550433	5.31938	0.819251	7.90614	1.19492	10.274	1.55752	13.4401	1.93213	16.4266
1.8968	2.48536	0.565281	4.77016	1.89809	2.48534	0.840507	7.94015	1.19788	10.0449	1.56101	13.0956	1.92336	16.2577	0.553324	5.23068	0.823671	7.77565	1.1972	10.0934	1.55842	13.1854	1.93502	16.1346
1.89111	2.48542	0.566829	4.69187	1.8924	2.4854	0.842935	7.79321	1.20077	9.87802	1.56356	12.8679	1.92349	15.9478	0.555977	5.14357	0.828429	7.65385	1.19937	9.91867	1.55951	12.9419	1.93779	15.8527
1.88544	2.4855	0.568223	4.61526	1.88673	2.48548	0.845199	7.65093	1.20345	9.73903	1.566	12.6478	1.92379	15.6508	0.558401	5.05803	0.833513	7.54008	1.20116	9.77102	1.56078	12.7092	1.94046	15.5804
1.87979	2.48561	0.569477	4.54035	1.88107	2.48559	0.847298	7.51301	1.20587	9.62503	1.56833	12.435	1.92425	15.3662	0.560609	4.97406	0.83891	7.43374	1.20262	9.6484	1.56224	12.4864	1.94301	15.3171
1.87416	2.48575	0.570606	4.46717	1.87543	2.48572	0.849234	7.37919	1.20794	9.53373	1.57057	12.2289	1.92489	15.0932	0.562611	4.89168	0.844606	7.33425	1.20379	9.54917	1.56388	12.2732	1.94545	15.0624
1.86854	2.48591	0.571625	4.39574	1.86981	2.48587	0.851006	7.24924	1.20963	9.46338	1.5727	12.0294	1.92569	14.8311	0.564422	4.81091	0.850584	7.24108	1.20468	9.47206	1.56569	12.0689	1.94778	14.8158
1.86295	2.48609	0.572547	4.32608	1.86421	2.48605	0.852617	7.12296	1.2109	9.41265	1.57473	11.836	1.92666	14.5795	0.566056	4.73178	0.856828	7.15371	1.20533	9.4161	1.56767	11.873	1.95	14.5768
1.85737	2.4863	0.573386	4.25818	1.85863	2.48625	0.85407	7.00017	1.21173	9.38061	1.57667	11.6486	1.92779	14.3377	0.567527	4.6543	0.86332	7.07168	1.20573	9.38061	1.56982	11.685	1.95212	14.3452
1.85181	2.48654	0.574156	4.19206	1.85307	2.48649	0.855369	6.88069	1.21294	9.33515	1.57852	11.4668	1.92908	14.1052	0.568851	4.57852	0.870042	6.99454	1.20631	9.33004	1.57213	11.5046	1.95413	14.1206
1.84627	2.48681	0.574867	4.12771	1.84752	2.48675	0.856519	6.76438	1.21427	9.28649	1.58029	11.2904	1.93053	13.8816	0.570042	4.50445	0.876975	6.92188	1.20692	9.27565	1.57459	11.3313	1.95605	13.9026
1.84075	2.48711	0.575532	4.06513	1.842	2.48704	0.857524	6.65112	1.21611	9.22157	1.58198	11.1192	1.93212	13.6663	0.571116	4.43212	0.884101	6.85331	1.20773	9.20263	1.57719	11.1646	1.95787	13.691
1.83525	2.48744	0.576081	4.01204	1.8365	2.48736	0.858391	6.54079	1.2185	9.14145	1.5836	10.9529	1.93386	13.459	0.572086	4.36155	0.891401	6.78848	1.20873	9.11183	1.57994	11.0043	1.9596	13.4855
1.82978	2.48779	0.576533	3.96782	1.83102	2.48771	0.859126	6.43327	1.22148	9.04741	1.58516	10.7915	1.93574	13.2591	0.572966	4.29275	0.898857	6.72705	1.20989	9.00427	1.58281	10.8499	1.96124	13.2859
1.82432	2.48818	0.576899	3.93198	1.82556	2.48809	0.859734	6.32849	1.22507	8.94089	1.58667	10.6347	1.93776	13.0664	0.573769	4.22572	0.90645	6.66872	1.21121	8.88115	1.5858	10.7012	1.96281	13.0918
1.81889	2.4886	0.577183	3.9041	1.82012	2.48851	0.860224	6.22634	1.22934	8.82341	1.58813	10.4824	1.9399	12.8804	0.574509	4.16046	0.914162	6.61319	1.21265	8.74381	1.58891	10.5578	1.9643	12.9032
1.81348	2.48906	0.577391	3.88385	1.8147	2.48895	0.860602	6.12675	1.23373	8.71072	1.58956	10.3344	1.94216	12.7009	0.575196	4.09698	0.921975	6.56021	1.21404	8.61055	1.59212	10.4194	1.96573	12.7198
1.80809	2.48955	0.577524	3.87101	1.80931	2.48943	0.860875	6.02965	1.23825	8.60248	1.59096	10.1907	1.94453	12.5274	0.575842	4.03526	0.92987	6.50952	1.21538	8.48126	1.59542	10.2857	1.9671	12.5414
1.80272	2.49007	0.577714	3.85271	1.80393	2.48995	0.861052	5.93497	1.24288	8.49841	1.59217	10.0688	1.94701	12.3596	0.576457	3.97529	0.937829	6.46087	1.21669	8.35584	1.59881	10.1564	1.96842	12.3679
1.79738	2.49062	0.57792	3.83302	1.79859	2.49049	0.861138	5.84264	1.24761	8.39824	1.5932	9.96725	1.94959	12.1973	0.577051	3.91706	0.945834	6.41406	1.21797	8.2342	1.60183	10.0473	1.96969	12.199
1.79206	2.49122	0.5782	3.80658	1.79326	2.49108	0.861142	5.75261	1.25242	8.3017	1.59406	9.88493	1.95226	12.0402	0.577632	3.86054	0.953865	6.36886	1.21926	8.11627	1.60444	9.95662	1.97094	12.0348
1.78676	2.49184	0.578556	3.77371	1.78796	2.4917	0.86107	5.66481	1.25731	8.20855	1.59474	9.82088	1.95502	11.888	0.578209	3.80571	0.961903	6.32508	1.22055	8.00199	1.60663	9.88325	1.97215	11.8749
1.78148	2.49251	0.57899	3.73479	1.78268	2.49235	0.86093	5.5792	1.26226	8.11855	1.59524	9.77436	1.95785	11.7405	0.57879	3.75254	0.969927	6.28253	1.22188	7.8913	1.60837	9.82623	1.97336	11.7193
1.77623	2.49321	0.579509	3.69027	1.77742	2.49305	0.860729	5.49572	1.26725	8.03148	1.59556	9.74484	1.96074	11.5974	0.579382	3.70101	0.977917	6.24101	1.22325	7.78418	1.60966	9.78484	1.97455	11.5679
1.77101	2.49395	0.580122	3.64068	1.77219	2.49378	0.860472	5.41431	1.27228	7.94713	1.59602	9.70275	1.9637	11.4585	0.57999	3.65108	0.985852	6.20034	1.2247	7.6806	1.61049	9.75859	1.97575	11.4205
1.7658	2.49473	0.580759	3.59265	1.76698	2.49455	0.860168	5.33494	1.27733	7.86531	1.59653	9.65746	1.9667	11.3236	0.580621	3.60272	0.993708	6.16035	1.22624	7.58054	1.61168	9.72116	1.97696	11.2771
1.76062	2.49555	0.581426	3.54616	1.76179	2.49536	0.859821	5.25755	1.28239	7.78583	1.59723	9.59663	1.96975	11.1925	0.581282	3.55591	1.00146	6.12086	1.22789	7.484	1.61299	9.6809	1.97819	11.1376
1.75547	2.4964	0.582127	3.50116	1.75663	2.49621	0.859438	5.18209	1.28744	7.7085	1.59813	9.52094	1.97284	11.0649	0.581975	3.5106	1.00909	6.08171	1.22968	7.39098	1.61477	9.62683	1.97946	11.0018
1.75034	2.4973	0.582867	3.45763	1.7515	2.4971	0.859025	5.10853	1.29247	7.63318	1.59923	9.43123	1.97595	10.9408	0.582706	3.46676	1.01656	6.04271	1.23164	7.30149	1.61703	9.55953	1.98076	10.8696
1.74523	2.49824	0.58365	3.41553	1.74638	2.49802	0.858586	5.03681	1.29747	7.55969	1.60057	9.32851	1.97907	10.8198	0.58348	3.42435	1.02385	6.00372	1.23379	7.21555	1.61978	9.47972	1.98211	10.741
1.74015	2.49922	0.58448	3.37481	1.74129	2.49899	0.858129	4.96689	1.30242	7.48788	1.60217	9.21392	1.98221	10.702	0.5843	3.38335	1.03094	5.96456	1.23617	7.13319	1.62301	9.38818	1.98353	10.6159
1.73509	2.50024	0.58536	3.33546	1.73623	2.5	0.857657	4.89873	1.30732	7.41761	1.60385	9.10278	1.98536	10.5871	0.585169	3.3437	1.03779	5.92509	1.23879	7.05441	1.62674	9.28579	1.98501	10.4943
1.73005	2.5013	0.586293	3.29742	1.73119	2.50105	0.857175	4.8323	1.31214	7.34876	1.60562	8.99504	1.98849	10.4749	0.58609	3.30539	1.04437	5.88517	1.2417	6.97925	1.63046	9.18606	1.98636	10.3909
1.72504	2.5024	0.587282	3.26067	1.72617	2.50214	0.856688	4.76753	1.31687	7.28119	1.6075	8.89062	1.99122	10.3793	0.587068	3.26837	1.05067	5.84466	1.24491	6.90771	1.63418	9.08884	1.98756	10.3048
1.72005	2.50354	0.58833	3.22517	1.72118	2.50328	0.8562	4.70441	1.32151	7.21478	1.60949	8.78948	1.99353	10.2994	0.588103	3.23261	1.05666	5.80346	1.24845	6.83978	1.63787	8.99398	1.98859	10.235
1.71508	2.50472	0.589439	3.19088	1.7162	2.50445	0.855715	4.64288	1.32604	7.14943	1.61162	8.69156	1.99544	10.2343	0.589198	3.19807	1.0623	5.76146	1.25234	6.77547	1.64155	8.90136	1.98943	10.1806
1.71014	2.50595	0.59061	3.15778	1.71126	2.50567	0.855237	4.58292	1.33044	7.08504	1.61388	8.5968	1.99693	10.1834	0.590356	3.16471	1.0676	5.71861	1.25661	6.71472	1.64518	8.81083	1.99006	10.141
1.70522	2.50721	0.591845	3.12582	1.70633	2.50692	0.854771	4.52447	1.33471	7.0215	1.6163	8.50514	1.99803	10.1464	0.591578	3.13252	1.07253	5.67486	1.26126	6.65748	1.64877	8.72227	1.99047	10.1159
1.70032	2.50852	0.593147	3.09498	1.70142	2.50822	0.854318	4.46751	1.33884	6.95873	1.61888	8.41653	1.99873	10.1228	0.592865	3.10144	1.07708	5.63021	1.2663	6.60367	1.65231	8.63557	1.99107	10.0802
1.69544	2.50987	0.594517	3.06522	1.69654	2.50956	0.853883	4.412	1.34281	6.89666	1.62163	8.33091	1.99973	10.0892	0.59422	3.07146	1.08125	5.58466	1.27174	6.55317	1.65578	8.55062	1.99174	10.0416
1.69058	2.51125	0.595955	3.03651	1.69168	2.51094	0.853469	4.35791	1.34661	6.83521	1.62457	8.24821	2.00082	10.0528	0.595644	3.04253	1.08504	5.53826	1.27757	6.50586	1.65919	8.46733	1.99267	9.98987
1.68575	2.51268	0.597463	3.00882	1.68684	2.51235	0.853078	4.30519	1.35025	6.77433	1.62769	8.16839	2.00229	10.0039	0.597137	3.01462	1.08847	5.49108	1.28378	6.46158	1.66252	8.38559	1.99388	9.92541
1.68093	2.51415	0.599041	2.98212	1.68202	2.51381	0.852714	4.25382	1.35371	6.71396	1.63101	8.09136	2.00413	9.94269	0.5987	2.98771	1.09154	5.44322	1.29037	6.42017	1.66577	8.30532	1.9954	9.84895
1.67613	2.51565	0.600692	2.95638	1.67721	2.51531	0.852379	4.20376	1.35699	6.65406	1.63454	8.01706	2.00634	9.86971	0.600335	2.96177	1.09428	5.39477	1.29731	6.38144	1.66893	8.22644	1.99727	9.7613
1.67135	2.51719	0.602414	2.93156	1.67243	2.51684	0.852075	4.15498	1.36008	6.59459	1.63826	7.94541	2.00889	9.78549	0.602042	2.93676	1.09669	5.34585	1.30458	6.34521	1.672	8.14888	1.99953	9.66337
1.66658	2.51877	0.604209	2.90765	1.66766	2.51841	0.851806	4.10745	1.36297	6.53553	1.64219	7.87634	2.01178	9.69061	0.603822	2.91266	1.0988	5.29658	1.31217	6.3113	1.67497	8.07257	2.00192	9.56822
1.66183	2.52037	0.606077	2.88461	1.6629	2.52001	0.851573	4.06114	1.36568	6.47686	1.64633	7.80976	2.0146	9.59755	0.605674	2.88943	1.10064	5.24707	1.32006	6.27951	1.67784	7.99745	2.00444	9.47576
1.65709	2.52201	0.608019	2.86242	1.65816	2.52164	0.851377	4.01602	1.3682	6.41855	1.65068	7.7456	2.01737	9.50622	0.6076	2.86706	1.10222	5.19745	1.3282	6.24967	1.6806	7.92346	2.0071	9.38594
1.65236	2.52368	0.610035	2.84104	1.65343	2.5233	0.851223	3.97205	1.37052	6.36061	1.65523	7.68377	2.02007	9.41656	0.6096	2.84552	1.10357	5.14782	1.3366	6.22162	1.68325	7.85057	2.00989	9.29867
1.64764	2.52537	0.612124	2.82047	1.64871	2.52499	0.85111	3.92922	1.37266	6.30304	1.65998	7.62417	2.0227	9.32849	0.611674	2.82477	1.10472	5.09828	1.34521	6.19518	1.68579	7.77871	2.01282	9.21389
1.64293	2.52709	0.614288	2.80066	1.644	2.5267	0.851041	3.88749	1.37462	6.24583	1.66493	7.56671	2.02526	9.24195	0.613822	2.8048	1.10568	5.04893	1.35403	6.17021	1.68823	7.70787	2.0159	9.13151
1.63822	2.52882	0.616526	2.7816	1.63929	2.52842	0.851018	3.84684	1.37639	6.189	1.67008	7.51131	2.02775	9.15689	0.616044	2.78559	1.10646	4.99986	1.36302	6.14658	1.69055	7.63801	2.01911	9.05147
1.63351	2.53056	0.618838	2.76327	1.63458	2.53016	0.851042	3.80724	1.37799	6.13256	1.6754	7.45787	2.03016	9.07325	0.618341	2.7671	1.1071	4.95112	1.37218	6.12414	1.69276	7.5691	2.02247	8.9737
1.62879	2.5323	0.621225	2.74564	1.62986	2.53191	0.851114	3.76866	1.37942	6.07652	1.68091	7.4063	2.0325	8.99099	0.620712	2.74932	1.10761	4.9028	1.38148	6.10279	1.69487	7.50112	2.02597	8.8981
1.62407	2.53404	0.623686	2.72869	1.62514	2.53365	0.851237	3.73108	1.38068	6.0209	1.68658	7.3565	2.03477	8.91006	0.623157	2.73223	1.108	4.85495	1.3909	6.08241	1.69687	7.43407	2.0296	8.82462
1.61932	2.53577	0.626222	2.7124	1.6204	2.53538	0.851411	3.69448	1.38179	5.96572	1.69241	7.30837	2.03696	8.83043	0.625677	2.71581	1.10829	4.8076	1.40043	6.0629	1.69877	7.36792	2.03336	8.75318
1.61455	2.53747	0.628833	2.69676	1.61564	2.53709	0.851637	3.65883	1.38276	5.91099	1.69839	7.26184	2.03908	8.75207	0.628273	2.70003	1.10849	4.76082	1.41005	6.04417	1.70058	7.30268	2.03726	8.68369
1.60975	2.53914	0.63152	2.68175	1.61084	2.53876	0.851918	3.62411	1.38358	5.85674	1.70451	7.21681	2.04112	8.67495	0.630943	2.68488	1.10861	4.71462	1.41974	6.02612	1.7023	7.23834	2.04128	8.61609
1.60491	2.54074	0.634284	2.66735	1.60601	2.54039	0.852253	3.5903	1.38427	5.80298	1.71075	7.17318	2.0431	8.59904	0.63369	2.67035	1.10867	4.66904	1.4295	6.00869	1.70394	7.17491	2.04542	8.5503
1.60002	2.54228	0.637125	2.65355	1.60113	2.54194	0.852645	3.55737	1.38483	5.74974	1.71712	7.13088	2.04502	8.52432	0.636515	2.65643	1.10867	4.6241	1.4393	5.99178	1.7055	7.1124	2.04968	8.48624
1.59506	2.54373	0.640047	2.64034	1.59618	2.54341	0.853093	3.5253	1.38528	5.69702	1.72359	7.08981	2.04688	8.45078	0.639419	2.6431	1.10862	4.57982	1.44913	5.97532	1.70701	7.05082	2.05404	8.42384
1.59002	2.54507	0.643051	2.62772	1.59117	2.54477	0.8536	3.49408	1.38562	5.64485	1.73015	7.0499	2.04868	8.3784	0.642406	2.63035	1.10853	4.53621	1.45898	5.95924	1.70846	6.9902	2.05851	8.36303
1.58491	2.54628	0.646144	2.6157	1.58607	2.54602	0.854166	3.46368	1.38586	5.59324	1.7368	7.01107	2.05043	8.30718	0.645479	2.6182	1.10841	4.49329	1.46884	5.94347	1.70987	6.93054	2.06308	8.30373
1.5797	2.54736	0.649333	2.60428	1.58089	2.54713	0.854791	3.43408	1.386	5.5422	1.74352	6.97323	2.05214	8.23711	0.648647	2.60665	1.10826	4.45105	1.47867	5.92792	1.71125	6.87189	2.06773	8.24588
1.57439	2.54828	0.652632	2.59351	1.5756	2.54809	0.855477	3.40527	1.38606	5.49175	1.75029	6.93631	2.05382	8.16818	0.651921	2.59574	1.10809	4.40952	1.48848	5.91253	1.71263	6.81428	2.07246	8.18939
1.56899	2.54905	0.656062	2.58346	1.57022	2.54889	0.856225	3.37723	1.38603	5.4419	1.75711	6.90023	2.05546	8.1004	0.655321	2.58553	1.10791	4.36868	1.49823	5.89722	1.71402	6.75775	2.07726	8.13421
1.56348	2.54967	0.659663	2.57425	1.56474	2.54954	0.857035	3.34994	1.38593	5.39266	1.76396	6.86492	2.05709	8.03377	0.658882	2.57612	1.10772	4.32854	1.50791	5.88191	1.71543	6.70235	2.08213	8.08026
1.55789	2.55014	0.663499	2.56611	1.55916	2.55005	0.857908	3.32338	1.38577	5.34403	1.77083	6.83032	2.05871	7.96829	0.66266	2.56773	1.10752	4.2891	1.5175	5.8665	1.71689	6.64813	2.08705	8.02748
1.55221	2.55048	0.667669	2.55939	1.5535	2.55041	0.858845	3.29753	1.38554	5.29603	1.7777	6.79634	2.06034	7.90398	0.66675	2.56068	1.10733	4.25036	1.52696	5.8509	1.71843	6.59517	2.09202	7.9758
1.54645	2.55069	0.672282	2.55448	1.54776	2.55065	0.859846	3.27239	1.38525	5.24865	1.78456	6.76292	2.06197	7.84085	0.671261	2.55536	1.10713	4.21231	1.53628	5.83502	1.72008	6.54354	2.09702	7.92515
1.54063	2.55079	0.677381	2.55149	1.54195	2.55078	0.860913	3.24792	1.38492	5.20191	1.7914	6.72999	2.06363	7.77891	0.67626	2.55198	1.10694	4.17495	1.54542	5.81874	1.72186	6.49332	2.10205	7.87549
1.53475	2.5508	0.682889	2.55007	1.53608	2.5508	0.862045	3.22413	1.38454	5.15579	1.7982	6.69748	2.06533	7.71818	0.681691	2.55027	1.10677	4.13827	1.55435	5.80194	1.72382	6.44462	2.1071	7.82673
1.52881	2.55072	0.688675	2.54971	1.53016	2.55074	0.863245	3.20099	1.38412	5.11032	1.80495	6.66533	2.06708	7.65867	0.687429	2.54972	1.1066	4.10226	1.56302	5.78449	1.72599	6.39754	2.11215	7.77883
1.52284	2.55056	0.694632	2.54998	1.52419	2.5506	0.864512	3.17849	1.38366	5.06548	1.81163	6.63347	2.06889	7.60041	0.693357	2.54989	1.10646	4.06692	1.57139	5.76624	1.72841	6.35221	2.1172	7.73172
1.51682	2.55035	0.700694	2.55063	1.51818	2.5504	0.865847	3.15662	1.38318	5.02128	1.81822	6.60183	2.07078	7.54342	0.6994	2.55047	1.10633	4.03225	1.57943	5.74707	1.73114	6.30874	2.12224	7.68536
1.51077	2.55007	0.706821	2.5515	1.51214	2.55014	0.86725	3.13537	1.38266	4.97771	1.82471	6.57035	2.07277	7.48773	0.705516	2.5513	1.10622	3.99823	1.58707	5.72681	1.73422	6.26727	2.12725	7.63967
1.5047	2.54975	0.712989	2.5525	1.50608	2.54982	0.868724	3.11471	1.38212	4.93478	1.83108	6.53896	2.07487	7.43336	0.711676	2.55228	1.10613	3.96485	1.59429	5.70533	1.7377	6.22792	2.13223	7.59462
1.4986	2.54938	0.719183	2.55359	1.49998	2.54947	0.870268	3.09465	1.38156	4.89248	1.83731	6.5076	2.0771	7.38033	0.717866	2.55335	1.10607	3.93211	1.60102	5.68251	1.74163	6.1908	2.13716	7.55014
1.49248	2.54898	0.725397	2.55472	1.49387	2.54907	0.871884	3.07516	1.38099	4.85081	1.8434	6.47621	2.07947	7.32867	0.724076	2.55448	1.10603	3.89999	1.60724	5.65825	1.74605	6.156	2.14204	7.50619
1.48634	2.54854	0.731622	2.55588	1.48773	2.54864	0.873572	3.05624	1.3804	4.80976	1.84931	6.44474	2.08201	7.27842	0.730299	2.55563	1.10603	3.86849	1.61292	5.63248	1.75098	6.12358	2.14685	7.46271
1.48019	2.54807	0.737857	2.55704	1.48158	2.54818	0.875334	3.03788	1.3798	4.76933	1.85503	6.41312	2.08472	7.22958	0.736532	2.55679	1.10605	3.8376	1.61804	5.6052	1.75645	6.09354	2.15159	7.41967
1.47402	2.54757	0.744097	2.55821	1.47542	2.54769	0.87717	3.02007	1.3792	4.72952	1.86055	6.3813	2.08763	7.18219	0.742771	2.55796	1.1061	3.80731	1.6226	5.57643	1.76246	6.06584	2.15624	7.37702
1.46785	2.54705	0.750341	2.55938	1.46925	2.54717	0.879082	3.0028	1.37859	4.69031	1.86586	6.34925	2.09074	7.13626	0.749015	2.55913	1.10619	3.77761	1.62662	5.54625	1.76901	6.04041	2.1608	7.33471
1.46166	2.54651	0.756588	2.56053	1.46306	2.54664	0.881071	2.98606	1.37797	4.65171	1.87093	6.31691	2.09408	7.09181	0.755261	2.56029	1.10631	3.74848	1.63011	5.51477	1.77608	6.01713	2.16525	7.2927
1.45546	2.54595	0.762836	2.56167	1.45686	2.54608	0.883139	2.96984	1.37736	4.61371	1.87576	6.28425	2.09766	7.04885	0.761509	2.56143	1.10647	3.71993	1.63311	5.48213	1.78363	5.99583	2.16959	7.25097
1.44925	2.54537	0.769085	2.5628	1.45066	2.5455	0.885287	2.95414	1.37675	4.57631	1.88033	6.25125	2.10149	7.00738	0.767757	2.56256	1.10666	3.69194	1.63566	5.44849	1.79162	5.97636	2.17381	7.20946
1.44304	2.54477	0.775333	2.56391	1.44445	2.5449	0.887516	2.93895	1.37615	4.53948	1.88464	6.21788	2.10557	6.9674	0.774006	2.56367	1.10689	3.66451	1.6378	5.41401	1.80002	5.95852	2.1779	7.16816
1.43682	2.54415	0.781581	2.565	1.43823	2.54429	0.88983	2.92427	1.37555	4.50324	1.88868	6.18413	2.10993	6.92889	0.780254	2.56477	1.10716	3.63761	1.63958	5.37886	1.80879	5.94216	2.18185	7.12704
1.4306	2.54352	0.787829	2.56607	1.43201	2.54367	0.892229	2.91009	1.37497	4.46757	1.89245	6.15001	2.11455	6.89185	0.786502	2.56584	1.10747	3.61125	1.64103	5.34317	1.81789	5.92711	2.18565	7.08607
1.42437	2.54288	0.794074	2.56712	1.42578	2.54302	0.894717	2.8964	1.37439	4.43246	1.89594	6.1155	2.11944	6.85623	0.792748	2.5669	1.10782	3.58541	1.6422	5.3071	1.82726	5.9132	2.18931	7.04522
1.41813	2.54222	0.800319	2.56815	1.41954	2.54237	0.897296	2.88322	1.37383	4.39792	1.89916	6.08063	2.1246	6.82202	0.798993	2.56793	1.10821	3.56008	1.64312	5.27076	1.83689	5.9003	2.19282	7.00449
1.41189	2.54155	0.806561	2.56916	1.41331	2.5417	0.899968	2.87052	1.37328	4.36392	1.90211	6.04541	2.13004	6.78916	0.805236	2.56895	1.10864	3.53526	1.64381	5.23426	1.84674	5.88829	2.19616	6.96386
1.40565	2.54086	0.812802	2.57015	1.40707	2.54102	0.902737	2.85832	1.37274	4.33047	1.9048	6.00987	2.13574	6.75762	0.811477	2.56994	1.10912	3.51094	1.64432	5.19768	1.85678	5.87705	2.19935	6.92332
1.39941	2.54017	0.819041	2.57111	1.40082	2.54033	0.905606	2.8466	1.37222	4.29756	1.90723	5.97405	2.14169	6.72734	0.817716	2.57091	1.10963	3.48711	1.64466	5.16112	1.86698	5.86649	2.20238	6.88286
1.39316	2.53946	0.825277	2.57206	1.39457	2.53962	0.908579	2.83538	1.37173	4.26517	1.90941	5.93797	2.14789	6.69827	0.823953	2.57186	1.11019	3.46375	1.64486	5.12463	1.87732	5.85653		
1.38691	2.53875	0.831511	2.57299	1.38832	2.53891	0.911658	2.82465	1.37125	4.23331	1.91135	5.90167	2.15432	6.67035	0.830187	2.57279	1.1108	3.44087	1.64493	5.08828	1.88778	5.84709		
1.38065	2.53802	0.837742	2.57389	1.38207	2.53819	0.914848	2.81441	1.37079	4.20196	1.91307	5.86519	2.16099	6.64351	0.836419	2.5737	1.11145	3.41845	1.6449	5.05211	1.89835	5.8381		
1.3744	2.53728	0.843971	2.57478	1.37581	2.53745	0.918152	2.80467	1.37035	4.17112	1.91458	5.82858	2.16786	6.61769	0.842649	2.57459	1.11214	3.39648	1.64477	5.01617	1.90901	5.82951		
1.36814	2.53654	0.850197	2.57564	1.36956	2.53671	0.921575	2.79542	1.36994	4.14079	1.91589	5.79187	2.17493	6.59284	0.848875	2.57546	1.11288	3.37496	1.64456	4.98048	1.91975	5.82127		
1.36188	2.53578	0.856421	2.57648	1.3633	2.53595	0.925119	2.78667	1.36955	4.11094	1.917	5.7551	2.18218	6.56888	0.855099	2.57631	1.11367	3.35388	1.64428	4.94507	1.93054	5.81333		
1.35562	2.53502	0.862641	2.57731	1.35704	2.53519	0.928788	2.77841	1.36919	4.08158	1.91794	5.71831	2.18961	6.54577	0.86132	2.57713	1.1145	3.33323	1.64393	4.90997	1.94138	5.80564		
1.34936	2.53424	0.868859	2.57811	1.35078	2.53442	0.932584	2.77064	1.36885	4.0527	1.91872	5.68154	2.19719	6.52344	0.867539	2.57794	1.11538	3.313	1.64354	4.87519	1.95226	5.79817		
1.3431	2.53346	0.875073	2.57889	1.34452	2.53364	0.936508	2.76336	1.36854	4.02429	1.91934	5.64482	2.20491	6.50182	0.873754	2.57873	1.11631	3.29318	1.6431	4.84076	1.96317	5.79088		
1.33684	2.53267	0.881284	2.57966	1.33826	2.53285	0.940563	2.75655	1.36826	3.99635	1.91983	5.60818			0.879966	2.5795	1.11729	3.27377	1.64263	4.80668	1.97409	5.78373		
1.33058	2.53188	0.887492	2.5804	1.33199	2.53206	0.944746	2.75022	1.36801	3.96887	1.92018	5.57166			0.886174	2.58024	1.11831	3.25477	1.64212	4.77297	1.98502	5.77668		
1.32431	2.53107	0.893697	2.58112	1.32573	2.53126	0.949057	2.74433	1.36778	3.94183	1.92041	5.53528			0.89238	2.58097	1.11938	3.23615	1.64158	4.73963	1.99593	5.76971		
1.31805	2.53026	0.899899	2.58183	1.31947	2.53045	0.953494	2.73889	1.36759	3.91524	1.92054	5.49906			0.898582	2.58168	1.1205	3.21792	1.64103	4.70666	2.00683	5.76277		
1.31179	2.52944	0.906096	2.58251	1.3132	2.52963	0.958053	2.73386	1.36743	3.88909	1.92056	5.46303			0.90478	2.58237	1.12167	3.20007	1.64045	4.67408	2.01769	5.75583		
1.30552	2.52862	0.91229	2.58318	1.30694	2.5288	0.962728	2.72923	1.3673	3.86337	1.92049	5.42721			0.910975	2.58304	1.12288	3.18259	1.63986	4.64189	2.0285	5.74883		
1.29926	2.52779	0.918481	2.58383	1.30068	2.52797	0.967514	2.72498	1.3672	3.83807	1.92034	5.39162			0.917166	2.58369	1.12415	3.16548	1.63927	4.61009	2.03925	5.74174		
1.293	2.52695	0.924667	2.58445	1.29442	2.52714	0.972405	2.72107	1.36714	3.81319	1.9201	5.35627			0.923354	2.58432	1.12546	3.14872	1.63866	4.57868	2.04991	5.73449		
1.28674	2.52611	0.93085	2.58506	1.28816	2.5263	0.977395	2.71749	1.36711	3.78872	1.9198	5.32118			0.929537	2.58494	1.12683	3.13232	1.63805	4.54766	2.06045	5.72703		
1.28048	2.52526	0.937028	2.58565	1.2819	2.52545	0.982476	2.7142	1.36711	3.76465	1.91944	5.28636			0.935716	2.58553	1.12824	3.11626	1.63744	4.51703	2.07086	5.71928		
1.27423	2.52441	0.943203	2.58622	1.27564	2.5246	0.987641	2.71119	1.36715	3.74098	1.91901	5.25182			0.941891	2.5861	1.12971	3.10054	1.63683	4.48679	2.0811	5.71116		
1.26797	2.52355	0.949372	2.58677	1.26939	2.52374	0.992883	2.70842	1.36722	3.71771	1.91854	5.21757			0.948062	2.58666	1.13122	3.08516	1.63623	4.45694	2.09113	5.70256		
1.26172	2.52269	0.955537	2.58731	1.26313	2.52288	0.998196	2.70588	1.36733	3.69482	1.91802	5.18362			0.954228	2.5872	1.13279	3.07011	1.63563	4.42747	2.10089	5.69338		
1.25547	2.52182	0.961698	2.58782	1.25688	2.52202	1.00357	2.70355	1.36747	3.67231	1.91745	5.14998			0.96039	2.58771	1.1344	3.05538	1.63503	4.3984	2.11035	5.68346		
1.24922	2.52096	0.967854	2.58831	1.25063	2.52115	1.00901	2.7014	1.36765	3.65017	1.91685	5.11666			0.966547	2.58821	1.13607	3.04096	1.63445	4.3697	2.11943	5.67266		
1.24297	2.52009	0.974004	2.58879	1.24438	2.52028	1.0145	2.69942	1.36787	3.62841	1.91621	5.08365			0.972698	2.58869	1.13778	3.02686	1.63388	4.34139	2.12806	5.6608		
1.23673	2.51921	0.980149	2.58924	1.23814	2.51941	1.02004	2.69759	1.36812	3.607	1.91555	5.05096			0.978844	2.58915	1.13955	3.01307	1.63331	4.31345	2.13616	5.64769		
1.23049	2.51834	0.986289	2.58967	1.2319	2.51854	1.02562	2.6959	1.36841	3.58595	1.91486	5.0186			0.984985	2.58958	1.14137	2.99957	1.63277	4.28589	2.14367	5.63317		
1.22425	2.51747	0.992422	2.59009	1.22567	2.51767	1.03124	2.69433	1.36874	3.56526	1.91414	4.98657			0.99112	2.59	1.14323	2.98637	1.63223	4.25869	2.1505	5.61706		
1.21802	2.5166	0.99855	2.59048	1.21943	2.5168	1.03689	2.69287	1.36911	3.54491	1.91341	4.95487			0.997249	2.5904	1.14515	2.97347	1.63172	4.23187	2.15661	5.59927		
1.2118	2.51573	1.00467	2.59085	1.21321	2.51593	1.04258	2.69151	1.36951	3.5249	1.91265	4.9235			1.00337	2.59077	1.14713	2.96085	1.63122	4.2054	2.16197	5.57976		
1.20558	2.51486	1.01079	2.5912	1.20699	2.51506	1.04829	2.69024	1.36996	3.50522	1.91189	4.89247			1.00949	2.59113	1.14915	2.94851	1.63074	4.1793	2.16658	5.55856		
1.19936	2.514	1.01689	2.59153	1.20077	2.51419	1.05403	2.68905	1.37044	3.48588	1.91111	4.86177			1.0156	2.59146	1.15123	2.93645	1.63027	4.15356	2.17047	5.53577		
1.19316	2.51314	1.02299	2.59183	1.19456	2.51334	1.0598	2.68794	1.37096	3.46686	1.91032	4.83141			1.0217	2.59177	1.15335	2.92467	1.62983	4.12816	2.1737	5.51157		
1.18696	2.51229	1.02908	2.59211	1.18836	2.51248	1.06559	2.68689	1.37152	3.44815	1.90952	4.80137			1.02779	2.59206	1.15553	2.91315	1.62941	4.10311	2.17633	5.48615		
1.18076	2.51145	1.03517	2.59237	1.18216	2.51164	1.07139	2.68591	1.37212	3.42977	1.90872	4.77168			1.03388	2.59232	1.15777	2.9019	1.62901	4.07841	2.17844	5.45971		
1.17458	2.51062	1.04124	2.5926	1.17598	2.51081	1.07722	2.68497	1.37276	3.41169	1.90792	4.74231			1.03995	2.59255	1.16005	2.89091	1.62863	4.05405	2.1801	5.43245		
1.16841	2.5098	1.04731	2.59281	1.1698	2.50999	1.08306	2.68409	1.37344	3.39392	1.90711	4.71328			1.04602	2.59277	1.1624	2.88019	1.62828	4.03002	2.18137	5.40455		
1.16224	2.509	1.05336	2.59299	1.16364	2.50918	1.08891	2.68326	1.37416	3.37645	1.90631	4.68457			1.05208	2.59295	1.16479	2.86971	1.62795	4.00633	2.18232	5.37617		
1.15609	2.50821	1.05941	2.59314	1.15748	2.50839	1.09478	2.68247	1.37492	3.35927	1.9055	4.65619			1.05813	2.59311	1.16724	2.85949	1.62765	3.98297	2.18299	5.34743		
1.14995	2.50745	1.06544	2.59326	1.15134	2.50762	1.10066	2.68171	1.37572	3.34239	1.9047	4.62814			1.06416	2.59324	1.16974	2.84952	1.62737	3.95992	2.18343	5.31845		
1.14383	2.50671	1.07146	2.59335	1.14521	2.50687	1.10655	2.68099	1.37657	3.32579	1.90391	4.60041			1.07019	2.59333	1.1723	2.83979	1.62712	3.9372	2.18368	5.28931		
1.13772	2.50599	1.07747	2.59341	1.1391	2.50615	1.11245	2.6803	1.37745	3.30947	1.90311	4.57301			1.0762	2.5934	1.17492	2.83031	1.62689	3.9148	2.18375	5.2601		
1.13163	2.50531	1.08347	2.59343	1.13301	2.50546	1.11836	2.67964	1.37837	3.29344	1.90233	4.54592			1.08219	2.59343	1.17759	2.82107	1.62669	3.89271	2.18369	5.23087		
1.12556	2.50467	1.08945	2.59342	1.12693	2.50481	1.12428	2.67901	1.37934	3.27767	1.90156	4.51915			1.08818	2.59343	1.18033	2.81207	1.62652	3.87092	2.1835	5.20167		
1.11951	2.50407	1.09541	2.59337	1.12088	2.5042	1.1302	2.6784	1.38034	3.26218	1.90079	4.4927			1.09414	2.59339	1.18312	2.80331	1.62638	3.84944	2.18321	5.17254		
1.11349	2.50351	1.10135	2.59328	1.11485	2.50363	1.13613	2.67782	1.38139	3.24694	1.90004	4.46655			1.10009	2.5933	1.18597	2.79479	1.62626	3.82826	2.18283	5.14352		
1.10749	2.50301	1.10728	2.59315	1.10884	2.50312	1.14207	2.67725	1.38248	3.23198	1.89929	4.44072			1.10602	2.59318	1.18888	2.7865	1.62618	3.80738	2.18237	5.11464		
1.10152	2.50257	1.11319	2.59297	1.10287	2.50267	1.14801	2.6767	1.38361	3.21726	1.89856	4.41519			1.11193	2.59301	1.19186	2.77845	1.62612	3.78679	2.18185	5.08591		
1.09559	2.50221	1.11907	2.59274	1.09693	2.50228	1.15396	2.67617	1.38478	3.20281	1.89785	4.38997			1.11782	2.59279	1.1949	2.77063	1.62609	3.76649	2.18127	5.05736		
1.08969	2.50192	1.12493	2.59246	1.09102	2.50197	1.15991	2.67566	1.386	3.1886	1.89714	4.36505			1.12369	2.59252	1.198	2.76305	1.62609	3.74647	2.18065	5.029		
1.08383	2.50172	1.13077	2.59212	1.08515	2.50175	1.16587	2.67516	1.38725	3.17464	1.89646	4.34042			1.12953	2.5922	1.20117	2.7557	1.62613	3.72673	2.17998	5.00085		
1.07801	2.50162	1.13657	2.59172	1.07932	2.50163	1.17183	2.67467	1.38855	3.16092	1.89579	4.31609			1.13534	2.59181	1.20442	2.74859	1.62619	3.70728	2.17927	4.9729		
1.07225	2.50163	1.14235	2.59126	1.07355	2.50162	1.17779	2.6742	1.38989	3.14743	1.89513	4.29205			1.14112	2.59137	1.20773	2.74171	1.62629	3.68809	2.17853	4.94518		
1.06653	2.50177	1.14809	2.59073	1.06782	2.50172	1.18376	2.67373	1.39127	3.13419	1.89449	4.2683			1.14688	2.59085	1.21112	2.73507	1.62641	3.66918	2.17777	4.91769		
1.06087	2.50204	1.1538	2.59013	1.06215	2.50196	1.18972	2.67328	1.3927	3.12117	1.89387	4.24484			1.15259	2.59026	1.21458	2.72867	1.62657	3.65053	2.17698	4.89044		
1.05528	2.50246	1.15947	2.58944	1.05654	2.50235	1.19569	2.67283	1.39417	3.10839	1.89327	4.22166			1.15827	2.58959	1.21812	2.72252	1.62676	3.63215	2.17618	4.86342		
1.04975	2.50304	1.1651	2.58867	1.05099	2.50289	1.20166	2.67239	1.39568	3.09583	1.89269	4.19876			1.16391	2.58884	1.22174	2.71661	1.62698	3.61403	2.17536	4.83665		
1.04429	2.50379	1.17069	2.58782	1.04552	2.50361	1.20763	2.67196	1.39723	3.08349	1.89213	4.17614			1.1695	2.58801	1.22545	2.71094	1.62724	3.59616	2.17453	4.81012		
1.0389	2.50473	1.17622	2.58686	1.04011	2.5045	1.2136	2.67154	1.39882	3.07137	1.89159	4.15379			1.17505	2.58707	1.22925	2.70553	1.62752	3.57854	2.17368	4.78384		
1.03359	2.50586	1.18171	2.58581	1.03478	2.50559	1.21958	2.67112	1.40046	3.05946	1.89107	4.13171			1.18055	2.58604	1.23313	2.70036	1.62784	3.56118	2.17283	4.75781		
1.02835	2.50719	1.18715	2.58465	1.02953	2.50688	1.22555	2.6707	1.40214	3.04777	1.89057	4.1099			1.186	2.58491	1.23711	2.69545	1.62819	3.54406	2.17198	4.73203		
1.02319	2.50873	1.19253	2.58339	1.02435	2.50837	1.23152	2.67028	1.40386	3.03629	1.89009	4.08835			1.19139	2.58367	1.24118	2.6908	1.62858	3.52718	2.17112	4.7065		
1.01811	2.51048	1.19785	2.58201	1.01925	2.51007	1.23749	2.66987	1.40563	3.02501	1.88963	4.06707			1.19672	2.58231	1.24535	2.6864	1.629	3.51055	2.17026	4.68123		
1.01311	2.51244	1.20311	2.58052	1.01423	2.51198	1.24346	2.66946	1.40744	3.01394	1.8892	4.04604			1.202	2.58085	1.24962	2.68226	1.62945	3.49415	2.16941	4.6562		
1.00818	2.51461	1.20831	2.57891	1.00929	2.5141	1.24943	2.66905	1.40929	3.00307	1.88879	4.02527			1.20721	2.57926	1.25399	2.67837	1.62994	3.47798	2.16855	4.63142		
1.00333	2.51698	1.21345	2.57719	1.00442	2.51643	1.25539	2.66864	1.41119	2.9924	1.8884	4.00476			1.21237	2.57757	1.25846	2.67473	1.63046	3.46204	2.16769	4.6069		
0.998538	2.51956	1.21853	2.57536	0.999616	2.51896	1.26136	2.66823	1.41313	2.98193	1.88804	3.98449			1.21746	2.57576	1.26303	2.67135	1.63101	3.44633	2.16685	4.58262		
0.993816	2.52233	1.22355	2.57342	0.994879	2.52168	1.26732	2.66782	1.41512	2.97165	1.8877	3.96448			1.22249	2.57384	1.2677	2.6682	1.6316	3.43085	2.166	4.5586		
0.989154	2.52528	1.22852	2.57138	0.990204	2.5246	1.27328	2.66741	1.41715	2.96156	1.88739	3.9447			1.22747	2.57183	1.27246	2.66529	1.63222	3.41558	2.16517	4.53481		
0.984548	2.52842	1.23343	2.56925	0.985586	2.52769	1.27923	2.66699	1.41922	2.95166	1.8871	3.92517			1.23239	2.56971	1.27732	2.6626	1.63287	3.40054	2.16434	4.51128		
0.979993	2.53172	1.23828	2.56703	0.981019	2.53096	1.28518	2.66657	1.42134	2.94195	1.88684	3.90588			1.23725	2.5675	1.28227	2.66013	1.63357	3.3857	2.16352	4.48799		
0.975483	2.53518	1.24309	2.56473	0.9765	2.53439	1.29113	2.66614	1.4235	2.93242	1.8866	3.88682			1.24207	2.56522	1.28731	2.65786	1.63429	3.37109	2.16271	4.46494		
0.971012	2.53879	1.24786	2.56236	0.972021	2.53796	1.29707	2.6657	1.42571	2.92308	1.88639	3.868			1.24685	2.56287	1.29243	2.65578	1.63505	3.35668	2.16191	4.44213		
0.966576	2.54253	1.25259	2.55994	0.967577	2.54167	1.303	2.66526	1.42797	2.91392	1.88621	3.84941			1.25158	2.56046	1.29763	2.65388	1.63584	3.34247	2.16113	4.41956		
0.962168	2.54639	1.25728	2.55748	0.963164	2.54551	1.30893	2.66481	1.43027	2.90494	1.88605	3.83104			1.25629	2.55801	1.30291	2.65215	1.63667	3.32848	2.16035	4.39723		
0.957783	2.55036	1.26195	2.55498	0.958774	2.54945	1.31485	2.66435	1.43262	2.89614	1.88592	3.8129			1.26096	2.55551	1.30824	2.65057	1.63754	3.31468	2.15959	4.37513		
0.953414	2.55442	1.26659	2.55246	0.954401	2.55349	1.32077	2.66388	1.43502	2.88751	1.88581	3.79499			1.26561	2.553	1.31365	2.64913	1.63844	3.30108	2.15885	4.35327		
0.949054	2.55855	1.27122	2.54993	0.95004	2.55761	1.32667	2.6634	1.43746	2.87906	1.88573	3.77729			1.27024	2.55047	1.31911	2.64781	1.63937	3.28768	2.15812	4.33164		
0.944697	2.56275	1.27584	2.5474	0.945683	2.5618	1.33257	2.6629	1.43995	2.87079	1.88568	3.75981			1.27486	2.54794	1.32462	2.64662	1.64034	3.27447	2.1574	4.31024		
0.940336	2.56699	1.28044	2.54487	0.941323	2.56602	1.33846	2.66239	1.44249	2.86269	1.88566	3.74254			1.27946	2.54541	1.33018	2.64553	1.64134	3.26145	2.1567	4.28907		
0.935963	2.57124	1.28504	2.54236	0.936954	2.57028	1.34433	2.66186	1.44509	2.85476	1.88566	3.72549			1.28407	2.54289	1.33578	2.64454	1.64238	3.24862	2.15601	4.26812		
0.931571	2.57551	1.28965	2.53987	0.932567	2.57454	1.3502	2.66131	1.44773	2.84701	1.88569	3.70865			1.28867	2.5404	1.34142	2.64363	1.64346	3.23598	2.15535	4.2474		
0.927153	2.57975	1.29425	2.53741	0.928155	2.57879	1.35605	2.66074	1.45043	2.83942	1.88576	3.69201			1.29328	2.53793	1.3471	2.64281	1.64457	3.22352	2.1547	4.2269		
0.9227	2.58395	1.29887	2.53499	0.923711	2.583	1.36188	2.66015	1.45318	2.83201	1.88584	3.67558			1.29789	2.5355	1.35281	2.64206	1.64571	3.21124	2.15406	4.20662		
0.918207	2.58809	1.30349	2.53261	0.919227	2.58716	1.3677	2.65953	1.45598	2.82478	1.88596	3.65936			1.30251	2.53311	1.35856	2.64137	1.64689	3.19914	2.15345	4.18655		
0.913664	2.59214	1.30813	2.53028	0.914697	2.59123	1.37351	2.65889	1.45884	2.81771	1.88611	3.64333			1.30714	2.53077	1.36432	2.64073	1.64811	3.18721	2.15285	4.16671		
0.909067	2.59609	1.31278	2.528	0.910112	2.59521	1.37929	2.65821	1.46176	2.81082	1.88628	3.6275			1.31179	2.52848	1.37012	2.64016	1.64936	3.17546	2.15228	4.14707		
0.904409	2.59992	1.31746	2.52577	0.905469	2.59907	1.38506	2.65751	1.46474	2.8041	1.88649	3.61186			1.31646	2.52624	1.37593	2.63962	1.65065	3.16389	2.15172	4.12765		
0.899686	2.60362	1.32215	2.52361	0.900761	2.60279	1.3908	2.65676	1.46777	2.79756	1.88672	3.59642			1.32115	2.52406	1.38177	2.63913	1.65197	3.15248	2.15118	4.10843		
0.894894	2.60716	1.32687	2.5215	0.895984	2.60637	1.39651	2.65597	1.47088	2.7912	1.88698	3.58117			1.32586	2.52194	1.38762	2.63868	1.65332	3.14124	2.15067	4.08943		
0.89003	2.61054	1.33161	2.51946	0.891137	2.60979	1.4022	2.65514	1.47404	2.78502	1.88727	3.5661			1.3306	2.51989	1.39349	2.63827	1.65472	3.13016	2.15017	4.07062		
0.885094	2.61375	1.33637	2.51749	0.886217	2.61304	1.40786	2.65426	1.47728	2.77902	1.88759	3.55123			1.33536	2.5179	1.39937	2.63788	1.65615	3.11925	2.1497	4.05202		
0.880085	2.61679	1.34117	2.51559	0.881225	2.61611	1.41349	2.65333	1.48059	2.7732	1.88794	3.53653			1.34015	2.51599	1.40527	2.63752	1.65761	3.1085	2.14924	4.03363		
0.875005	2.61965	1.34599	2.51376	0.87616	2.61902	1.41908	2.65234	1.48397	2.76757	1.88832	3.52202			1.34496	2.51414	1.41117	2.63719	1.65911	3.0979	2.14881	4.01543		
0.869854	2.62235	1.35085	2.512	0.871026	2.62175	1.42464	2.65129	1.48743	2.76213	1.88873	3.50769			1.34981	2.51237	1.41709	2.63688	1.66065	3.08747	2.1484	3.99742		
0.864637	2.62488	1.35573	2.51031	0.865823	2.62432	1.43015	2.65017	1.49096	2.75689	1.88917	3.49354			1.35469	2.51066	1.42302	2.63659	1.66222	3.07719	2.14801	3.97962		
0.859356	2.62725	1.36065	2.5087	0.860556	2.62673	1.43562	2.64897	1.49458	2.75185	1.88964	3.47956			1.3596	2.50904	1.42896	2.63632	1.66382	3.06706	2.14765	3.962		
0.854015	2.62947	1.3656	2.50716	0.855228	2.62898	1.44104	2.6477	1.49829	2.747	1.89014	3.46575			1.36455	2.50748	1.4349	2.63606	1.66546	3.05708	2.14731	3.94458		
0.848618	2.63155	1.37059	2.5057	0.849844	2.63109	1.44641	2.64635	1.50209	2.74236	1.89067	3.45212			1.36952	2.50601	1.44085	2.63582	1.66714	3.04726	2.14699	3.92734		
0.843168	2.63349	1.37561	2.50432	0.844406	2.63306	1.45172	2.6449	1.50598	2.73793	1.89123	3.43866			1.37454	2.50461	1.44681	2.63559	1.66886	3.03758	2.14669	3.9103		
0.83767	2.63531	1.38066	2.50301	0.838918	2.63491	1.45698	2.64337	1.50997	2.73372	1.89182	3.42536			1.37959	2.50328	1.45277	2.63538	1.6706	3.02804	2.14642	3.89343		
0.832128	2.63702	1.38575	2.50177	0.833386	2.63664	1.46217	2.64174	1.51406	2.72971	1.89244	3.41223			1.38467	2.50203	1.45874	2.63517	1.67239	3.01865	2.14617	3.87676		
0.826545	2.63862	1.39088	2.50061	0.827812	2.63827	1.46731	2.64001	1.51824	2.72592	1.89309	3.39926			1.38979	2.50085	1.46471	2.63497	1.67421	3.00941	2.14594	3.86026		
0.820925	2.64013	1.39605	2.49953	0.822199	2.63979	1.47238	2.63817	1.52253	2.72234	1.89377	3.38645			1.39495	2.49975	1.47068	2.63478	1.67607	3.0003	2.14574	3.84394		
0.81527	2.64154	1.40125	2.49852	0.816552	2.64123	1.47738	2.63624	1.52692	2.71898	1.89449	3.3738			1.40014	2.49872	1.47666	2.6346	1.67796	2.99133	2.14556	3.8278		
0.809585	2.64288	1.40648	2.49758	0.810874	2.64258	1.48232	2.63421	1.53142	2.71582	1.89523	3.36131			1.40537	2.49777	1.48264	2.63442	1.67989	2.9825	2.14541	3.81183		
0.803871	2.64414	1.41175	2.49671	0.805166	2.64386	1.4872	2.63208	1.53602	2.71287	1.896	3.34898			1.41063	2.49689	1.48862	2.63425	1.68185	2.9738	2.14528	3.79604		
0.798131	2.64534	1.41706	2.49591	0.799432	2.64507	1.49201	2.62986	1.54071	2.71012	1.89681	3.3368			1.41593	2.49607	1.4946	2.63408	1.68385	2.96524	2.14517	3.78042		
0.792368	2.64648	1.4224	2.49518	0.793674	2.64623	1.49676	2.62755	1.5455	2.70756	1.89764	3.32477			1.42127	2.49533	1.50058	2.63391	1.68589	2.95681	2.14509	3.76497		
0.786583	2.64756	1.42778	2.49452	0.787894	2.64732	1.50146	2.62516	1.55039	2.70519	1.8985	3.31289			1.42664	2.49465	1.50657	2.63375	1.68796	2.94852	2.14504	3.74969		
0.780779	2.64859	1.43319	2.49392	0.782094	2.64836	1.50611	2.62271	1.55536	2.70299	1.8994	3.30116			1.43204	2.49404	1.51255	2.63358	1.69007	2.94035	2.14501	3.73457		
0.774957	2.64958	1.43864	2.49338	0.776275	2.64936	1.51071	2.6202	1.56042	2.70095	1.90033	3.28958			1.43748	2.49349	1.51853	2.63342	1.69221	2.93231	2.145	3.71962		
0.769118	2.65053	1.44412	2.49291	0.770441	2.65032	1.51527	2.61764	1.56556	2.69906	1.90128	3.27815			1.44295	2.493	1.52451	2.63326	1.69439	2.92439	2.14502	3.70483		
0.763266	2.65145	1.44963	2.49249	0.764591	2.65124	1.5198	2.61504	1.57077	2.69732	1.90227	3.26685			1.44846	2.49258	1.53049	2.63309	1.69661	2.91661	2.14507	3.6902		
0.757399	2.65233	1.45517	2.49214	0.758728	2.65213	1.52431	2.61241	1.57605	2.6957	1.90329	3.2557			1.45399	2.49221	1.53647	2.63293	1.69886	2.90894	2.14514	3.67574		
0.751521	2.65318	1.46075	2.49184	0.752852	2.65299	1.52879	2.60978	1.5814	2.69421	1.90434	3.24469			1.45956	2.4919	1.54245	2.63276	1.70115	2.9014	2.14524	3.66143		
0.745631	2.65401	1.46635	2.49159	0.746965	2.65382	1.53326	2.60714	1.5868	2.69283	1.90542	3.23382			1.46516	2.49164	1.54842	2.63258	1.70348	2.89398	2.14536	3.64728		
0.739731	2.65481	1.47198	2.49139	0.741067	2.65463	1.53773	2.60452	1.59226	2.69155	1.90653	3.22309			1.47078	2.49143	1.55439	2.63241	1.70585	2.88668	2.14551	3.63328		
0.733822	2.6556	1.47764	2.49124	0.73516	2.65542	1.5422	2.60193	1.59776	2.69036	1.90768	3.21249			1.47644	2.49127	1.56036	2.63223	1.70825	2.87951	2.14569	3.61943		
0.727905	2.65636	1.48333	2.49114	0.729244	2.65619	1.54669	2.59937	1.60331	2.68926	1.90885	3.20202			1.48212	2.49116	1.56632	2.63204	1.71069	2.87245	2.14589	3.60574		
0.721979	2.65711	1.48904	2.49108	0.723321	2.65694	1.55119	2.59687	1.6089	2.68823	1.91006	3.19169			1.48783	2.49109	1.57228	2.63185	1.71317	2.8655	2.14612	3.59219		
0.716048	2.65785	1.49478	2.49106	0.71739	2.65769	1.55572	2.59444	1.61453	2.68727	1.91129	3.18149			1.49356	2.49106	1.57823	2.63165	1.71568	2.85868	2.14637	3.5788		
0.710109	2.65858	1.50054	2.49109	0.711453	2.65842	1.5603	2.59209	1.62019	2.68638	1.91256	3.17141			1.49932	2.49108	1.58418	2.63144	1.71824	2.85197	2.14665	3.56555		
0.704165	2.6593	1.50633	2.49115	0.705511	2.65914	1.56492	2.58984	1.62588	2.68554	1.91386	3.16147			1.5051	2.49113	1.59012	2.63123	1.72083	2.84537	2.14696	3.55244		
0.698217	2.66001	1.51214	2.49125	0.699563	2.65985	1.5696	2.58771	1.6316	2.68475	1.91518	3.15165			1.5109	2.49122	1.59606	2.631	1.72346	2.83889	2.14729	3.53948		
0.692263	2.66072	1.51796	2.49138	0.693611	2.66056	1.57435	2.58571	1.63734	2.68402	1.91654	3.14196			1.51672	2.49135	1.60199	2.63077	1.72613	2.83252	2.14765	3.52666		
0.686306	2.66143	1.52381	2.49154	0.687654	2.66127	1.57919	2.58386	1.64311	2.68332	1.91793	3.13239			1.52257	2.49151	1.60791	2.63053	1.72884	2.82627	2.14804	3.51398		
0.680345	2.66213	1.52968	2.49174	0.681694	2.66197	1.58412	2.58217	1.6489	2.68267	1.91935	3.12294			1.52843	2.4917	1.61382	2.63027	1.73159	2.82013	2.14845	3.50144		
0.674381	2.66284	1.53557	2.49196	0.675731	2.66268	1.58915	2.58067	1.65471	2.68205	1.92081	3.11361			1.53432	2.49191	1.61972	2.63	1.73438	2.8141	2.14889	3.48904		
0.668415	2.66355	1.54148	2.49222	0.669765	2.66338	1.59429	2.57935	1.66053	2.68146	1.92229	3.10441			1.54022	2.49216	1.62561	2.62971	1.73721	2.80818	2.14936	3.47677		
0.662446	2.66426	1.5474	2.49249	0.663797	2.6641	1.59954	2.57822	1.66637	2.6809	1.9238	3.09532			1.54614	2.49243	1.6315	2.62942	1.74008	2.80237	2.14985	3.46464		
0.656476	2.66498	1.55334	2.49279	0.657827	2.66481	1.6049	2.57727	1.67223	2.68037	1.92535	3.08635			1.55207	2.49273	1.63737	2.6291	1.743	2.79668	2.15037	3.45264		
0.650504	2.6657	1.55929	2.49312	0.651855	2.66554	1.61036	2.5765	1.6781	2.67987	1.92693	3.07749			1.55803	2.49305	1.64323	2.62877	1.74596	2.79109	2.15092	3.44077		
0.644531	2.66644	1.56526	2.49346	0.645883	2.66627	1.61593	2.5759	1.68398	2.67939	1.92853	3.06875			1.56399	2.49339	1.64907	2.62842	1.74896	2.78562	2.1515	3.42903		
0.638558	2.66719	1.57124	2.49383	0.63991	2.66702	1.62158	2.57544	1.68987	2.67893	1.93017	3.06012			1.56997	2.49375	1.6549	2.62804	1.75201	2.78026	2.1521	3.41743		
0.632585	2.66795	1.57724	2.49421	0.633936	2.66778	1.62732	2.5751	1.69577	2.67848	1.93184	3.0516			1.57597	2.49413	1.66071	2.62765	1.75511	2.77501	2.15273	3.40595		
0.626612	2.66873	1.58325	2.49461	0.627963	2.66855	1.63312	2.57488	1.70168	2.67806	1.93354	3.0432			1.58197	2.49452	1.66651	2.62723	1.75825	2.76987	2.15338	3.39459		
0.620639	2.66953	1.58927	2.49503	0.62199	2.66935	1.63898	2.57476	1.7076	2.67765	1.93527	3.0349			1.58799	2.49494	1.67229	2.62679	1.76144	2.76484	2.15407	3.38336		
0.614668	2.67035	1.59531	2.49546	0.616019	2.67016	1.64489	2.57472	1.71353	2.67726	1.93703	3.02671			1.59402	2.49537	1.67805	2.62632	1.76468	2.75993	2.15478	3.37226		
0.608698	2.67119	1.60135	2.49591	0.610049	2.671	1.65085	2.57474	1.71946	2.67688	1.93883	3.01863			1.60007	2.49581	1.68379	2.62581	1.76797	2.75513	2.15552	3.36128		
0.60273	2.67206	1.60741	2.49637	0.60408	2.67186	1.65684	2.57482	1.7254	2.67651	1.94065	3.01065			1.60612	2.49627	1.68951	2.62528	1.77131	2.75045	2.15628	3.35041		
0.596765	2.67295	1.61347	2.49684	0.598114	2.67275	1.66287	2.57495	1.73135	2.67615	1.94251	3.00278			1.61218	2.49674	1.6952	2.62472	1.7747	2.74588	2.15708	3.33967		
0.590802	2.67388	1.61955	2.49732	0.592151	2.67367	1.66892	2.57512	1.7373	2.67581	1.94439	2.99502			1.61825	2.49722	1.70087	2.62412	1.77815	2.74143	2.1579	3.32905		
0.584843	2.67484	1.62563	2.49782	0.586191	2.67462	1.67499	2.57532	1.74325	2.67547	1.94631	2.98735			1.62434	2.49771	1.70651	2.62348	1.78166	2.7371	2.15874	3.31854		
0.578887	2.67584	1.63172	2.49832	0.580234	2.67561	1.68108	2.57555	1.74921	2.67514	1.94826	2.97979			1.63043	2.49822	1.71211	2.6228	1.78522	2.73289	2.15962	3.30816		
0.572936	2.67689	1.63783	2.49884	0.574283	2.67665	1.68719	2.57581	1.75517	2.67482	1.95024	2.97233			1.63653	2.49873	1.71769	2.62207	1.78885	2.7288	2.16052	3.29788		
0.566991	2.67798	1.64393	2.49936	0.568336	2.67773	1.69332	2.57608	1.76114	2.67451	1.95225	2.96497			1.64264	2.49925	1.72323	2.6213	1.79254	2.72484	2.16145	3.28772		
0.561051	2.67912	1.65005	2.49989	0.562394	2.67886	1.69945	2.57637	1.76711	2.6742	1.95429	2.9577			1.64875	2.49978	1.72874	2.62048	1.79629	2.721	2.16241	3.27767		
0.555118	2.68032	1.65618	2.50043	0.55646	2.68004	1.70559	2.57667	1.77308	2.6739	1.95637	2.95054			1.65488	2.50032	1.73421	2.6196	1.80011	2.71729	2.16339	3.26774		
0.549192	2.68158	1.66231	2.50098	0.550532	2.68129	1.71175	2.57698	1.77905	2.67361	1.95847	2.94347			1.66101	2.50086	1.73964	2.61868	1.804	2.71371	2.1644	3.25791		
0.543274	2.68292	1.66845	2.50153	0.544613	2.68261	1.71791	2.5773	1.78503	2.67332	1.96061	2.93649			1.66714	2.50141	1.74502	2.61769	1.80796	2.71025	2.16544	3.24819		
0.537366	2.68433	1.67459	2.50208	0.538702	2.684	1.72408	2.57763	1.791	2.67303	1.96277	2.92962			1.67329	2.50197	1.75036	2.61665	1.81199	2.70693	2.16651	3.23858		
0.531468	2.68582	1.68074	2.50265	0.532802	2.68548	1.73025	2.57797	1.79698	2.67275	1.96497	2.92283			1.67944	2.50253	1.75566	2.61554	1.81609	2.70374	2.1676	3.22908		
0.525582	2.68741	1.6869	2.50321	0.526912	2.68704	1.73642	2.57831	1.80296	2.67247	1.9672	2.91614			1.68559	2.50309	1.7609	2.61437	1.82027	2.70069	2.16872	3.21968		
0.519708	2.6891	1.69306	2.50379	0.521036	2.68871	1.74261	2.57865	1.80894	2.67219	1.96947	2.90954			1.69175	2.50366	1.7661	2.61313	1.82453	2.69777	2.16987	3.21039		
0.513849	2.69091	1.69923	2.50436	0.515173	2.69049	1.74879	2.579	1.81492	2.67191	1.97176	2.90304			1.69792	2.50424	1.77124	2.61182	1.82887	2.69499	2.17105	3.2012		
0.508006	2.69286	1.7054	2.50494	0.509327	2.6924	1.75498	2.57934	1.82089	2.67164	1.97409	2.89662			1.70409	2.50482	1.77634	2.61045	1.83328	2.69234	2.17225	3.19212		
0.502181	2.69494	1.71158	2.50552	0.503497	2.69445	1.76117	2.57969	1.82687	2.67136	1.97644	2.8903			1.71027	2.5054	1.78138	2.60901	1.83777	2.68982	2.17348	3.18313		
0.496376	2.69719	1.71776	2.50611	0.497688	2.69666	1.76736	2.58004	1.83285	2.67109	1.97884	2.88406			1.71645	2.50598	1.78637	2.60751	1.84234	2.68743	2.17474	3.17425		
0.490594	2.69962	1.72395	2.50669	0.4919	2.69905	1.77355	2.58039	1.83882	2.67082	1.98126	2.87792			1.72263	2.50657	1.7913	2.60594	1.84699	2.68518	2.17603	3.16547		
0.484838	2.70225	1.73014	2.50728	0.486138	2.70163	1.77974	2.58073	1.8448	2.67054	1.98371	2.87186			1.72882	2.50716	1.79619	2.6043	1.85172	2.68305	2.17734	3.15678		
0.47911	2.70511	1.73633	2.50788	0.480403	2.70444	1.78594	2.58108	1.85077	2.67027	1.9862	2.86589			1.73502	2.50775	1.80102	2.6026	1.85652	2.68104	2.17868	3.14819		
0.473415	2.70824	1.74253	2.50847	0.4747	2.70751	1.79213	2.58142	1.85674	2.66999	1.98872	2.86			1.74122	2.50834	1.80581	2.60085	1.86139	2.67915	2.18005	3.1397		
0.467756	2.71166	1.74874	2.50906	0.469033	2.71086	1.79832	2.58176	1.8627	2.66971	1.99128	2.85421			1.74742	2.50894	1.81055	2.59904	1.86634	2.67738	2.18145	3.13131		
0.462139	2.71542	1.75494	2.50966	0.463406	2.71454	1.80452	2.5821	1.86867	2.66943	1.99387	2.8485			1.75362	2.50953	1.81525	2.59718	1.87135	2.67571	2.18287	3.123		
0.456569	2.71957	1.76115	2.51026	0.457825	2.71859	1.81071	2.58244	1.87462	2.66915	1.99649	2.84287			1.75983	2.51013	1.8199	2.59527	1.87643	2.67415	2.18432	3.1148		
0.451053	2.72415	1.76736	2.51085	0.452296	2.72307	1.81691	2.58277	1.88058	2.66886	1.99915	2.83733			1.76604	2.51073	1.82452	2.59333	1.88157	2.67269	2.1858	3.10668		
0.445598	2.72924	1.77358	2.51145	0.446827	2.72804	1.8231	2.5831	1.88653	2.66857	2.00184	2.83188			1.77226	2.51132	1.8291	2.59134	1.88677	2.67132	2.1873	3.09866		
0.440212	2.7349	1.7798	2.51205	0.441424	2.73357	1.82929	2.58343	1.89248	2.66827	2.00457	2.82651			1.77848	2.51192	1.83366	2.58933	1.89203	2.67004	2.18883	3.09072		
0.434905	2.74123	1.78602	2.51265	0.436099	2.73974	1.83548	2.58375	1.89842	2.66796	2.00733	2.82123			1.7847	2.51252	1.83818	2.58728	1.89734	2.66885	2.19039	3.08288		
0.429688	2.74832	1.79224	2.51325	0.430861	2.74664	1.84167	2.58407	1.90435	2.66765	2.01013	2.81603			1.79092	2.51312	1.84268	2.58521	1.9027	2.66773	2.19198	3.07513		
0.424574	2.75628	1.79847	2.51384	0.425721	2.7544	1.84785	2.58438	1.91028	2.66734	2.01296	2.81091			1.79715	2.51372	1.84715	2.58313	1.9081	2.66668	2.19359	3.06746		
0.419574	2.76524	1.8047	2.51444	0.420694	2.76312	1.85404	2.58469	1.9162	2.66701	2.01583	2.80588			1.80338	2.51431	1.8516	2.58103	1.91355	2.6657	2.19523	3.05988		
0.414704	2.77535	1.81093	2.51503	0.415793	2.77296	1.86022	2.58499	1.92211	2.66667	2.01874	2.80094			1.80961	2.51491	1.85604	2.57892	1.91904	2.66478	2.1969	3.05239		
0.409979	2.78676	1.81716	2.51563	0.411034	2.78406	1.8664	2.58529	1.92802	2.66633	2.02169	2.79608			1.81584	2.5155	1.86047	2.57681	1.92457	2.66392	2.1986	3.04499		
0.405415	2.79965	1.8234	2.51622	0.406433	2.7966	1.87257	2.58558	1.93391	2.66597	2.02468	2.7913			1.82207	2.5161	1.86488	2.57469	1.93013	2.66311	2.20032	3.03766		
0.401028	2.8142	1.82963	2.51682	0.402004	2.81075	1.87875	2.58586	1.93979	2.6656	2.02771	2.78661			1.82831	2.51669	1.86929	2.57258	1.93572	2.66235				
0.396834	2.8306	1.83587	2.51741	0.397765	2.82672	1.88492	2.58614	1.94566	2.66522	2.03078	2.78201			1.83455	2.51728	1.87369	2.57047	1.94134	2.66163				
0.392846	2.84904	1.84211	2.518	0.393729	2.84468	1.89108	2.58642	1.95152	2.66482	2.0339	2.7775			1.84079	2.51787	1.87808	2.56837	1.94699	2.66096				
0.389076	2.86973	1.84835	2.51858	0.389909	2.86484	1.89724	2.58668	1.95737	2.66441	2.03705	2.77307			1.84703	2.51846	1.88247	2.56628	1.95266	2.66032				
0.385534	2.89284	1.85459	2.51917	0.386315	2.88738	1.9034	2.58694	1.9632	2.66398	2.04026	2.76874			1.85327	2.51904	1.88687	2.56421	1.95836	2.65972				
0.382227	2.91855	1.86084	2.51975	0.382955	2.91249	1.90956	2.58719	1.96901	2.66353	2.04351	2.76449			1.85951	2.51963	1.89126	2.56215	1.96407	2.65915				
0.379158	2.94704	1.86708	2.52033	0.379831	2.94034	1.91571	2.58743	1.97481	2.66306	2.0468	2.76034			1.86575	2.52021	1.89566	2.5601	1.96981	2.65861				
0.376328	2.97846	1.87332	2.5209	0.376948	2.97109	1.92185	2.58767	1.98058	2.66256	2.05015	2.75628			1.872	2.52078	1.90007	2.55808	1.97557	2.6581				
0.373737	3.01298	1.87957	2.52148	0.374303	3.00489	1.92799	2.58789	1.98634	2.66204	2.05355	2.75231			1.87824	2.52135	1.90448	2.55608	1.98134	2.65761				
0.371381	3.05073	1.88581	2.52204	0.371893	3.04189	1.93412	2.58811	1.99207	2.66149	2.05701	2.74844			1.88448	2.52192	1.9089	2.5541	1.98712	2.65715				
0.369255	3.09187	1.89205	2.52261	0.369716	3.08225	1.94025	2.58831	1.99778	2.66091	2.06052	2.74467			1.89072	2.52249	1.91333	2.55215	1.99292	2.65671				
0.367354	3.13655	1.89829	2.52316	0.367765	3.12613	1.94637	2.58851	2.00346	2.6603	2.06409	2.741			1.89696	2.52305	1.91777	2.55023	1.99873	2.65629				
0.365673	3.18495	1.90453	2.52371	0.366034	3.17366	1.95248	2.58869	2.00911	2.65966	2.06772	2.73744			1.9032	2.5236	1.92223	2.54834	2.00456	2.65588				
0.364205	3.23722	1.91076	2.52425	0.364519	3.22504	1.95858	2.58886	2.01473	2.65898	2.07142	2.73398			1.90944	2.52414	1.9267	2.54648	2.01039	2.65549				
0.362944	3.29356	1.91699	2.52478	0.363212	3.28045	1.96467	2.58902	2.02031	2.65825	2.07518	2.73063			1.91566	2.52467	1.93119	2.54465	2.01624	2.65512				
0.361885	3.35418	1.9232	2.5253	0.362108	3.34008	1.97076	2.58917	2.02586	2.65748	2.07902	2.72739			1.92188	2.52519	1.9357	2.54286	2.02209	2.65476				
0.361021	3.4193	1.92941	2.52579	0.3612	3.40416	1.97683	2.5893	2.03137	2.65667	2.08292	2.72427			1.92809	2.52569	1.94024	2.54112	2.02795	2.65441				
0.360348	3.48917	1.93559	2.52626	0.360484	3.47293	1.9829	2.58942	2.03684	2.65581	2.08691	2.72127			1.93428	2.52616	1.94481	2.53944	2.03382	2.65408				
0.359858	3.56406	1.94175	2.52668	0.359953	3.54666	1.98895	2.58952	2.04227	2.6549	2.09097	2.71839			1.94044	2.5266	1.94943	2.53782	2.03969	2.65375				
0.359548	3.64427	1.94785	2.52703	0.359603	3.62564	1.99499	2.5896	2.04765	2.65393	2.09511	2.71563			1.94656	2.52696	1.95411	2.53629	2.04557	2.65343				
0.359412	3.73013	1.95385	2.52726	0.359428	3.71019	2.00101	2.58966	2.05299	2.65292	2.09934	2.713			1.95259	2.52722	1.95889	2.5349	2.05145	2.65313				
0.359445	3.82199	1.9597	2.52728	0.359423	3.80066	2.00702	2.58971	2.05827	2.65184	2.10365	2.71049			1.95848	2.5273	1.96383	2.53373	2.05734	2.65283				
0.359641	3.92026	1.96531	2.52699	0.359582	3.89745	2.01302	2.58973	2.06352	2.65072	2.10806	2.70811			1.96414	2.52708	1.96902	2.53289	2.06323	2.65253				
0.359996	4.02538	1.97061	2.52631	0.359902	4.00097	2.01899	2.58973	2.06871	2.64953	2.11255	2.70586			1.96951	2.52649	1.97453	2.53246	2.06913	2.65224				
0.360504	4.13783	1.97566	2.52532	0.360376	4.11171	2.02494	2.5897	2.07386	2.6483	2.11713	2.70374			1.9746	2.52555	1.98032	2.53239	2.07503	2.65196				
0.361161	4.25813	1.98055	2.52413	0.361	4.23019	2.03088	2.58964	2.07896	2.64702	2.1218	2.70174			1.97952	2.52439	1.98629	2.53256	2.08093	2.65168				
0.36196	4.3869	1.98537	2.52284	0.361767	4.35699	2.03678	2.58956	2.08402	2.64569	2.12656	2.69987			1.98435	2.52312	1.99238	2.53286	2.08683	2.65141				
0.362896	4.52478	1.99014	2.52152	0.362673	4.49275	2.04267	2.58944	2.08905	2.64433	2.1314	2.69811			1.98913	2.5218	1.99853	2.53325	2.09273	2.65113				
0.363963	4.67251	1.9949	2.52017	0.363711	4.63818	2.04852	2.58929	2.09404	2.64293	2.13633	2.69647			1.99389	2.52046	2.00471	2.53368	2.09864	2.65086				
0.365156	4.83092	1.99965	2.51883	0.364875	4.7941	2.05435	2.5891	2.09901	2.64151	2.14134	2.69495			1.99864	2.51912	2.01092	2.53413	2.10454	2.6506				
0.366466	5.00092	2.0044	2.5175	0.36616	4.96139	2.06014	2.58887	2.10396	2.64006	2.14643	2.69353			2.00339	2.51778	2.01714	2.53461	2.11044	2.65033				
0.36789	5.18356	2.00916	2.51619	0.367558	5.14107	2.06589	2.5886	2.10889	2.63861	2.15159	2.69221			2.00815	2.51647	2.02338	2.53509	2.11634	2.65006				
0.369216	5.35393	2.01393	2.5149	0.369063	5.33428	2.07161	2.58827	2.11382	2.63717	2.15681	2.69098			2.01292	2.51517	2.02963	2.53559	2.12225	2.6498				
0.370406	5.5081	2.01871	2.51363	0.370669	5.54232	2.07728	2.5879	2.11874	2.63573	2.16211	2.68984			2.0177	2.5139	2.03588	2.53609	2.12815	2.64953				
0.37143	5.64224	2.02351	2.51238	0.372366	5.76665	2.08291	2.58747	2.12368	2.6343	2.16746	2.68878			2.02249	2.51265	2.04213	2.53659	2.13404	2.64926				
0.372263	5.75283	2.02832	2.51116	0.374148	6.00898	2.08848	2.58699	2.12863	2.63291	2.17287	2.6878			2.0273	2.51142	2.04839	2.53709	2.13994	2.64899				
0.372888	5.83683	2.03315	2.50997	0.376007	6.27123	2.09401	2.58644	2.13361	2.63155	2.17833	2.68689			2.03213	2.51022	2.05465	2.53759	2.14583	2.64872				
0.373473	5.91619	2.038	2.50881	0.377935	6.55566	2.09948	2.58583	2.13861	2.63024	2.18384	2.68604			2.03697	2.50905	2.06092	2.5381	2.15172	2.64844				
0.373885	5.97261	2.04286	2.50767	0.379921	6.86488	2.10489	2.58515	2.14365	2.62898	2.18939	2.68525			2.04183	2.50791	2.06718	2.5386	2.1576	2.64816				
0.374536	6.06283	2.04774	2.50656	0.381958	7.20196	2.11025	2.5844	2.14873	2.62777	2.19499	2.68451			2.0467	2.50679	2.07345	2.5391	2.16348	2.64788				
0.375438	6.18972	2.05264	2.50548	0.383767	7.52122	2.11554	2.58358	2.15385	2.62663	2.20061	2.68382			2.0516	2.50571	2.07972	2.5396	2.16935	2.64759				
0.376602	6.35747	2.05755	2.50442	0.385328	7.81432	2.12077	2.58269	2.15903	2.62555					2.05651	2.50464	2.08599	2.5401	2.17522	2.64729				
0.378042	6.57195	2.06248	2.5034	0.38663	8.07277	2.12594	2.58173	2.16426	2.62454					2.06143	2.50361	2.09226	2.5406	2.18108	2.64699				
0.379773	6.84117	2.06743	2.5024	0.387664	8.28831	2.13105	2.58071	2.16954	2.6236					2.06638	2.50261	2.09853	2.5411	2.18693	2.64668				
0.381807	7.17608	2.0724	2.50142	0.388427	8.45355	2.1361	2.57961	2.17487	2.62273					2.07135	2.50163	2.1048	2.54159	2.19277	2.64636				
0.383882	7.54217	2.07739	2.50048	0.389129	8.61092	2.14109	2.57845	2.18026	2.62194					2.07633	2.50068	2.11107	2.54208	2.19861	2.64604				
0.385989	7.94368	2.0824	2.49956	0.389618	8.72356	2.14602	2.57723	2.1857	2.62121					2.08133	2.49976	2.11735	2.54257	2.20443	2.6457				
0.388117	8.38568	2.08742	2.49867	0.390382	8.90497	2.1509	2.57595	2.19119	2.62054					2.08635	2.49886	2.12362	2.54305						
0.390255	8.87431	2.09246	2.49781	0.391421	9.16292	2.15573	2.57462	2.19673	2.61994					2.09139	2.49799	2.12989	2.54354						
0.392393	9.41703	2.09752	2.49697	0.392733	9.50915	2.16051	2.57324	2.20232	2.61939					2.09645	2.49715	2.13617	2.54402						
0.394519	10.0231	2.1026	2.49616	0.394312	9.96077	2.16525	2.57182							2.10152	2.49633	2.14244	2.5445						
0.396621	10.704	2.1077	2.49538	0.396148	10.5426	2.16996	2.57036							2.10661	2.49554	2.14871	2.54497						
0.398686	11.4742	2.11281	2.49462	0.398223	11.2912	2.17463	2.56887							2.11172	2.49478	2.15498	2.54544						
0.400703	12.3526	2.11795	2.49388	0.400252	12.1432	2.17927	2.56736							2.11685	2.49404	2.16125	2.54591						
0.402658	13.3634	2.1231	2.49318	0.402222	13.1215	2.18388	2.56582							2.122	2.49333	2.16753	2.54638						
0.404539	14.5391	2.12827	2.49249	0.40412	14.2566	2.18847	2.56426							2.12717	2.49264	2.1738	2.54684						
0.406331	15.9241	2.13346	2.49184	0.405934	15.5896	2.19305	2.56269							2.13235	2.49197	2.18007	2.5473						
0.408024	17.5802	2.13866	2.4912	0.40765	17.1777	2.1976	2.56111							2.13755	2.49134	2.18634	2.54776						
0.409603	19.5965	2.14388	2.49059	0.409256	19.1027	2.20214	2.55952							2.14277	2.49072	2.1926	2.54821						
0.411057	22.1064	2.14913	2.49001	0.410739	21.486									2.14801	2.49013	2.19887	2.54866						
0.412373	25.319	2.15439	2.48945	0.412088	24.5156									2.15327	2.48956	2.20514	2.54911						
0.41354	29.5815	2.15966	2.48891	0.41329	28.4992									2.15854	2.48902								
0.414549	35.5156	2.16496	2.48839	0.414335	33.9774									2.16383	2.4885								
0.415389	44.3559	2.17027	2.4879	0.415214	41.9959									2.16914	2.488								
0.416054	58.9519	2.17559	2.48743	0.415919	54.8734									2.17446	2.48752								
0.416537	87.6896	2.18094	2.48698	0.416444	78.9882									2.1798	2.48707								
0.416833	170.642	2.1863	2.48655	0.416783	140.575									2.18516	2.48664								
0.416939	3080.7	2.19168	2.48614	0.416932	634.177									2.19054	2.48623								
		2.19708	2.48575											2.19593	2.48584								
		2.20249	2.48539											2.20134	2.48547								
