Sym0		Asym0		Sym1		Sym2		Sym3		Sym4		Sym5		Asym1		Asym2		Asym3		Asym4		Asym5	
388  Points		389  Points		388  Points		377  Points		370  Points		362  Points		152  Points		389  Points		380  Points		366  Points		184  Points		141  Points	
Freq (MHz)	Vph (m/ms)	Freq (MHz)	Vph (m/ms)	Freq (MHz)	Vph (m/ms)	Freq (MHz)	Vph (m/ms)	Freq (MHz)	Vph (m/ms)	Freq (MHz)	Vph (m/ms)	Freq (MHz)	Vph (m/ms)	Freq (MHz)	Vph (m/ms)	Freq (MHz)	Vph (m/ms)	Freq (MHz)	Vph (m/ms)	Freq (MHz)	Vph (m/ms)	Freq (MHz)	Vph (m/ms)
2.20312	2.50026	0.34611	2393.38	2.20377	2.5003	0.692295	420.207	1.26938	6591.4	1.38444	5230.22	2.07659	2693.28	0.346238	198.931	0.846157	382.059	1.03846	482.027	1.69243	1916.96	1.7306	2602.96
2.197	2.49986	0.346365	141.258	2.19765	2.49991	0.692657	175.139	1.26917	507.672	1.38471	538.36	2.07564	674.254	0.346805	85.6756	0.845841	187.045	1.03891	232.847	1.69141	530.178	1.73156	582.575
2.19089	2.49947	0.347071	72.9232	2.19154	2.49951	0.693316	110.713	1.26859	263.884	1.38543	283.929	2.07369	385.028	0.34782	54.7292	0.845314	123.774	1.03965	153.587	1.6894	307.295	1.73359	328.354
2.18478	2.49907	0.348222	49.2758	2.18543	2.49912	0.694267	81.0142	1.26766	178.173	1.38657	192.93	2.071	269.198	0.349274	40.3194	0.844582	92.4363	1.0407	114.658	1.68667	216.099	1.73645	228.87
2.17867	2.49868	0.349809	37.3162	2.17932	2.49873	0.695503	63.942	1.2664	134.406	1.38811	146.205	2.06778	206.765	0.351156	32.0104	0.843655	73.7183	1.04204	91.5356	1.68343	166.471	1.73988	175.845
2.17257	2.4983	0.351821	30.1175	2.17322	2.49834	0.697017	52.8665	1.26484	107.833	1.39003	117.782	2.06421	167.713	0.353453	26.6205	0.842545	61.2684	1.04365	76.227	1.67985	135.256	1.74373	142.907
2.16647	2.49791	0.354242	25.3229	2.16712	2.49795	0.6988	45.1075	1.263	89.9771	1.39229	98.6807	2.06041	140.975	0.356147	22.8521	0.841264	52.3855	1.04553	65.3508	1.67607	113.807	1.74786	120.465
2.16038	2.49754	0.357055	21.9101	2.16103	2.49758	0.700842	39.3747	1.26094	77.1482	1.39487	84.9678	2.05646	121.52	0.35922	20.0768	0.839828	45.7261	1.04766	57.2301	1.67215	98.1618	1.75219	104.194
2.15429	2.49716	0.360241	19.3639	2.15494	2.4972	0.70313	34.97	1.25866	67.4824	1.39773	74.6495	2.05241	106.729	0.362653	17.9534	0.838253	40.5464	1.05003	50.9388	1.66815	86.2448	1.75667	91.8568
2.14821	2.49679	0.363781	17.3965	2.14886	2.49683	0.705652	31.4825	1.25622	59.9366	1.40084	66.6073	2.04831	95.104	0.366424	16.2804	0.836554	36.4015	1.05262	45.9239	1.6641	76.866	1.76126	82.1814
2.14214	2.49642	0.367652	15.8344	2.14278	2.49646	0.708395	28.655	1.25363	53.8813	1.40416	60.1647	2.04417	85.7277	0.370512	14.9313	0.83475	33.0088	1.05541	41.8345	1.66004	69.2929	1.76594	74.3906
2.13607	2.49606	0.371833	14.5668	2.13671	2.4961	0.711346	26.318	1.25093	48.9141	1.40769	54.889	2.04003	78.0054	0.374893	13.8226	0.832857	30.1803	1.0584	38.4373	1.65597	63.0505	1.77069	67.9826
2.13	2.4957	0.3763	13.5198	2.13065	2.49574	0.71449	24.3552	1.24813	44.7658	1.41138	50.4903	2.03588	71.5355	0.379547	12.8969	0.830892	27.7858	1.06156	35.5713	1.65192	57.8168	1.77549	62.6194
2.12395	2.49535	0.381033	12.6418	2.12459	2.49539	0.717814	22.6843	1.24527	41.2494	1.41522	46.7673	2.03175	66.0364	0.38445	12.1138	0.828873	25.7327	1.06488	33.1216	1.64789	53.3661	1.78032	58.0647
2.11789	2.49501	0.386008	11.8962	2.11854	2.49504	0.721305	21.2454	1.24236	38.2309	1.41919	43.5758	2.02764	61.3052	0.38958	11.4434	0.826816	23.953	1.06834	31.0042	1.6439	49.5354	1.78519	54.1486
2.11185	2.49467	0.391204	11.2559	2.11249	2.4947	0.724947	19.9939	1.23942	35.6118	1.42327	40.8097	2.02357	57.192	0.394916	10.8638	0.824739	22.3958	1.07194	29.1562	1.63995	46.2039	1.79008	50.7454
2.10581	2.49433	0.3966	10.7007	2.10645	2.49437	0.728727	18.8957	1.23646	33.3181	1.42744	38.3896	2.01953	53.5835	0.400437	10.3582	0.822656	21.022	1.07565	27.5294	1.63605	43.2805	1.795	47.7606
2.09978	2.494	0.402173	10.2151	2.10042	2.49404	0.732632	17.9245	1.23351	31.2929	1.4317	36.2543	2.01553	50.3923	0.406122	9.91357	0.820583	19.8015	1.07946	26.0865	1.63221	40.6947	1.79992	45.1214
2.09375	2.49368	0.407904	9.7871	2.09439	2.49372	0.736648	17.0597	1.23058	29.4921	1.43602	34.3564	2.01158	47.5504	0.411193	9.56776	0.818538	18.7104	1.08337	24.7982	1.62843	38.3918	1.80485	42.771
2.08774	2.49337	0.413773	9.40711	2.08838	2.4934	0.740762	16.2848	1.22767	27.8807	1.44041	32.6585	2.00768	45.0036	0.415592	9.29924	0.816534	17.7294	1.08736	23.6409	1.62471	36.3279	1.80978	40.6644
2.08173	2.49306	0.419759	9.06753	2.08236	2.49309	0.744961	15.5865	1.22481	26.4307	1.44484	31.1304	2.00384	42.7086	0.419278	9.0933	0.814587	16.8433	1.09142	22.5956	1.62106	34.4681	1.81472	38.7654
2.07572	2.49276	0.425844	8.76224	2.07636	2.49279	0.749233	14.9539	1.222	25.1193	1.44931	29.7478	2.00006	40.6299	0.422218	8.93978	0.812713	16.0393	1.09553	21.6467	1.61749	32.7838	1.81964	37.0447
2.06973	2.49247	0.432008	8.48617	2.07037	2.4925	0.753565	14.3782	1.21925	23.9279	1.45381	28.4908	1.99635	38.7386	0.424394	8.83175	0.810927	15.307	1.0997	20.7815	1.614	31.2515	1.82456	35.4783
2.06374	2.49218	0.438233	8.23519	2.06438	2.49221	0.757945	13.8519	1.21658	22.8411	1.45834	27.343	1.9927	37.0107	0.425793	8.76466	0.809243	14.6377	1.1039	19.9893	1.6106	29.8519	1.82947	34.0462
2.05777	2.49191	0.444501	8.00584	2.0584	2.49194	0.762362	13.3689	1.21398	21.846	1.46287	26.2907	1.98913	35.4262	0.42781	8.67087	0.807677	14.0241	1.10813	19.2611	1.60728	28.5686	1.83436	32.7317
2.0518	2.49164	0.450792	7.7952	2.05243	2.49167	0.766802	12.9238	1.21148	20.9318	1.46742	25.3223	1.98563	33.968	0.430012	8.57232	0.806245	13.4599	1.11238	18.5894	1.60406	27.3881	1.83923	31.5208
2.04584	2.49139	0.457089	7.60081	2.04647	2.49141	0.771256	12.5123	1.20908	20.0894	1.47196	24.428	1.98221	32.6218	0.43302	8.44363	0.804961	12.94	1.11664	17.9678	1.60094	26.2987	1.84408	30.4017
2.03989	2.49114	0.463374	7.42059	2.04052	2.49116	0.775711	12.1305	1.20678	19.3109	1.4765	23.5997	1.97888	31.3755	0.436843	8.28909	0.803842	12.4599	1.1209	17.3907	1.59791	25.2904	1.84891	29.3642
2.03394	2.4909	0.469627	7.25273	2.03457	2.49093	0.780158	11.7751	1.2046	18.5897	1.48102	22.83	1.97563	30.2185	0.44149	8.11338	0.802904	12.0156	1.12516	16.8534	1.595	24.3549	1.8537	28.3996
2.02801	2.49067	0.47583	7.09569	2.02864	2.4907	0.784583	11.4434	1.20255	17.9199	1.48553	22.113	1.97248	29.1418	0.446963	7.92126	0.802162	11.6038	1.1294	16.3519	1.5922	23.4847	1.85846	27.5004
2.02209	2.49046	0.481966	6.94811	2.02272	2.49048	0.788977	11.1328	1.20064	17.2966	1.49002	21.4433	1.96942	28.1374	0.453259	7.71726	0.801634	11.2216	1.13363	15.8824	1.58952	22.6734	1.86318	26.66
2.01618	2.49025	0.488015	6.80883	2.01681	2.49028	0.793329	10.8413	1.19886	16.7154	1.49447	20.8161	1.96646	27.1985	0.459553	7.52865	0.801335	10.8664	1.13782	15.4419	1.58695	21.9156	1.86786	25.8728
2.01028	2.49006	0.49396	6.67682	2.0109	2.49008	0.797629	10.5668	1.19724	16.1725	1.49889	20.2276	1.9636	26.319	0.465827	7.35347	0.801282	10.5361	1.14197	15.0277	1.58452	21.2062	1.8725	25.1338
2.00439	2.48988	0.499782	6.55119	2.00501	2.4899	0.801865	10.3079	1.19577	15.6644	1.50327	19.6741	1.96085	25.4937	0.472063	7.19002	0.80149	10.2285	1.14608	14.6374	1.58221	20.541	1.87709	24.4385
1.99851	2.48972	0.505463	6.43115	1.99913	2.48973	0.806029	10.0629	1.19447	15.1883	1.50761	19.1525	1.95822	24.7179	0.478242	7.03683	0.801977	9.94192	1.15014	14.2688	1.58004	19.9163	1.88163	23.7831
1.99264	2.48956	0.510986	6.316	1.99326	2.48958	0.810109	9.83067	1.19334	14.7415	1.51189	18.6599	1.95569	23.9875	0.484346	6.89264	0.802638	9.70813	1.15415	13.9199	1.57801	19.3285	1.88612	23.1642
1.98679	2.48943	0.516334	6.20513	1.98741	2.48944	0.81359	9.63775	1.1924	14.3216	1.51612	18.194	1.95329	23.2986	0.490357	6.75632	0.803385	9.5198	1.15808	13.5893	1.57613	18.7749	1.89054	22.5787
1.98094	2.4893	0.521492	6.09802	1.98156	2.48931	0.816498	9.4797	1.19164	13.9265	1.52029	17.7525	1.95101	22.6481	0.496256	6.62691	0.804134	9.37128	1.16195	13.2752	1.5744	18.2525	1.89491	22.0239
1.97511	2.48919	0.526445	5.9942	1.97573	2.4892	0.818857	9.35318	1.19108	13.5544	1.52439	17.3334	1.94886	22.033	0.502024	6.50355	0.804812	9.25825	1.16574	12.9764	1.57282	17.7592	1.8992	21.4973
1.9693	2.4891	0.53118	5.89329	1.96991	2.48911	0.820693	9.25566	1.19072	13.2037	1.52843	16.9349	1.94685	21.4506	0.507646	6.3855	0.80536	9.17756	1.16945	12.6917	1.57141	17.2927	1.90343	20.9968
1.96349	2.48902	0.535686	5.79494	1.96411	2.48903	0.822025	9.18532	1.19057	12.8726	1.53238	16.5555	1.94497	20.8986	0.513102	6.2721	0.805732	9.12695	1.17306	12.4199	1.57015	16.851	1.90757	20.5202
1.9577	2.48896	0.539955	5.69887	1.95831	2.48897	0.822869	9.14088	1.19063	12.5599	1.53626	16.1937	1.94322	20.3747	0.518377	6.16276	0.806299	9.0556	1.17659	12.1601	1.56907	16.4324	1.91165	20.066
1.95192	2.48892	0.543979	5.60484	1.95254	2.48892	0.824072	9.0778	1.19091	12.2644	1.54006	15.8482	1.94163	19.8771	0.523457	6.05699	0.806956	8.97987	1.18001	11.9115	1.56816	16.0354	1.91563	19.6323
1.94616	2.48889	0.547755	5.51269	1.94677	2.48889	0.825365	9.01024	1.19141	11.9848	1.54376	15.5179	1.94018	19.4039	0.528326	5.95436	0.80792	8.87985	1.18333	11.6731	1.56742	15.6584	1.91954	19.2179
1.94041	2.48889	0.551281	5.42226	1.94102	2.48889	0.827096	8.92001	1.19214	11.7201	1.54738	15.2017	1.93888	18.9536	0.532973	5.85448	0.809256	8.75809	1.18654	11.4443	1.56686	15.3002	1.92335	18.8213
1.93468	2.4889	0.554558	5.33344	1.93529	2.4889	0.829242	8.8085	1.1931	11.4693	1.5509	14.8985	1.93774	18.5246	0.537387	5.75705	0.811047	8.61762	1.18964	11.2244	1.56649	14.9594	1.92707	18.4413
1.92897	2.48893	0.557589	5.24618	1.92957	2.48893	0.831769	8.67735	1.19429	11.2316	1.55432	14.6076	1.93676	18.1156	0.541561	5.66181	0.813398	8.46181	1.19263	11.0128	1.5663	14.6352	1.93069	18.0768
1.92326	2.48899	0.560381	5.16041	1.92387	2.48898	0.834634	8.52834	1.19571	11.0062	1.55764	14.3281	1.93594	17.7253	0.545488	5.56854	0.816428	8.29424	1.1955	10.809	1.5663	14.3263	1.93421	17.7268
1.91758	2.48907	0.562941	5.07613	1.91818	2.48906	0.837786	8.36336	1.19736	10.7922	1.56085	14.0592	1.93528	17.3527	0.549166	5.47707	0.819817	8.1379	1.19825	10.6125	1.56648	14.0318	1.93763	17.3904
1.91191	2.48916	0.565281	4.99334	1.91251	2.48915	0.840787	8.20434	1.19925	10.5889	1.56396	13.8004	1.93479	16.9966	0.552594	5.38729	0.82356	7.99202	1.20089	10.4229	1.56686	13.751	1.94094	17.0666
1.90626	2.48928	0.56741	4.91203	1.90686	2.48927	0.843632	8.05084	1.20136	10.3958	1.56696	13.551	1.93446	16.6562	0.555774	5.29909	0.827656	7.85585	1.20341	10.2396	1.56743	13.4829	1.94415	16.7549
1.90063	2.48943	0.569343	4.83224	1.90123	2.48941	0.846319	7.90247	1.2037	10.2121	1.56985	13.3103	1.93431	16.3304	0.55871	5.21241	0.832096	7.72873	1.20581	10.0625	1.56818	13.2269	1.94724	16.4544
1.89501	2.4896	0.571093	4.75399	1.89561	2.48958	0.848844	7.75888	1.20626	10.0373	1.57263	13.0781	1.93432	16.0185	0.561411	5.12723	0.836872	7.60999	1.2078	9.91283	1.56913	12.9822	1.95022	16.1644
1.88942	2.48979	0.572675	4.67732	1.89001	2.48977	0.851206	7.61976	1.20867	9.89187	1.5753	12.8536	1.93451	15.7197	0.563883	5.04353	0.841972	7.49902	1.20944	9.78853	1.57026	12.7482	1.95309	15.8844
1.88384	2.49001	0.574103	4.60225	1.88443	2.48999	0.853403	7.48483	1.21085	9.77261	1.57786	12.6366	1.93487	15.4332	0.566139	4.96132	0.847383	7.39524	1.21074	9.68795	1.57158	12.5243	1.95585	15.6138
1.87828	2.49026	0.575392	4.52882	1.87887	2.49023	0.855435	7.35383	1.21273	9.67714	1.58031	12.4266	1.9354	15.1584	0.56819	4.8806	0.85309	7.29808	1.21174	9.60979	1.57308	12.3099	1.95849	15.3521
1.87274	2.49053	0.576557	4.45704	1.87332	2.4905	0.857304	7.22656	1.21428	9.6036	1.58265	12.2232	1.93609	14.8947	0.57005	4.80141	0.859077	7.20704	1.21246	9.55308	1.57476	12.1045	1.96101	15.0988
1.86722	2.49083	0.577612	4.38694	1.8678	2.4908	0.859012	7.1028	1.21545	9.55058	1.58489	12.0262	1.93696	14.6415	0.571732	4.72378	0.865328	7.12162	1.21292	9.51711	1.57661	11.9075	1.96343	14.8535
1.86172	2.49116	0.578571	4.31855	1.8623	2.49113	0.860561	6.98239	1.21621	9.51711	1.58703	11.8353	1.93799	14.3981	0.573252	4.64773	0.871824	7.04137	1.21356	9.46585	1.57863	11.7186	1.96573	14.6158
1.85624	2.49152	0.579448	4.25186	1.85682	2.49148	0.861955	6.86518	1.21732	9.46962	1.58907	11.65	1.93918	14.1642	0.574624	4.5733	0.878548	6.96586	1.21425	9.41072	1.58082	11.5372	1.96792	14.3853
1.85078	2.49191	0.580254	4.18689	1.85135	2.49187	0.863198	6.75101	1.21855	9.4188	1.59103	11.4703	1.94053	13.9391	0.575863	4.50051	0.885481	6.8947	1.21516	9.3367	1.58316	11.3629	1.97001	14.1616
1.84534	2.49233	0.581002	4.12363	1.84591	2.49229	0.864296	6.63977	1.22026	9.35102	1.59289	11.2958	1.94203	13.7225	0.576983	4.42939	0.892605	6.82751	1.21628	9.24465	1.58566	11.1954	1.97199	13.9446
1.83992	2.49278	0.581704	4.06209	1.84049	2.49273	0.865253	6.53135	1.22248	9.26742	1.59467	11.1264	1.94369	13.5138	0.577998	4.35995	0.899902	6.76394	1.2176	9.1356	1.58829	11.0343	1.97387	13.7338
1.83452	2.49327	0.582286	4.00985	1.8351	2.49321	0.866076	6.42565	1.22526	9.16935	1.59638	10.9619	1.94548	13.3128	0.578924	4.29223	0.907352	6.70368	1.21907	9.01075	1.59107	10.8792	1.97566	13.529
1.82915	2.49378	0.582765	3.96633	1.82972	2.49373	0.866772	6.32258	1.22864	9.05834	1.59803	10.802	1.94742	13.1189	0.579771	4.22621	0.914939	6.64642	1.22069	8.87142	1.59397	10.7298	1.97735	13.33
1.8238	2.49433	0.583153	3.93105	1.82436	2.49427	0.867347	6.22204	1.23267	8.93603	1.59961	10.6467	1.9495	12.9318	0.580553	4.16191	0.922643	6.59189	1.22224	8.73618	1.597	10.5857	1.97897	13.1366
1.81847	2.49492	0.583455	3.9036	1.81903	2.49485	0.867808	6.12398	1.23685	8.81882	1.60115	10.4957	1.95169	12.7512	0.581282	4.09933	0.930446	6.53983	1.22373	8.6049	1.60013	10.4467	1.9805	12.9484
1.81316	2.49553	0.583676	3.88366	1.81372	2.49547	0.868162	6.02832	1.24117	8.70638	1.60264	10.349	1.95401	12.5768	0.581969	4.03845	0.93833	6.49	1.22517	8.47747	1.60337	10.3125	1.98196	12.7654
1.80787	2.49619	0.583816	3.87101	1.80843	2.49612	0.868416	5.935	1.24562	8.59841	1.60392	10.2245	1.95645	12.4082	0.582623	3.97928	0.946278	6.44215	1.22657	8.3538	1.60627	10.1992	1.98336	12.5873
1.80261	2.49688	0.584018	3.85298	1.80317	2.4968	0.868579	5.84396	1.25018	8.49461	1.605	10.1207	1.95899	12.2451	0.583255	3.92179	0.95427	6.39609	1.22795	8.23378	1.60879	10.1053	1.9847	12.4141
1.79737	2.4976	0.584237	3.83358	1.79793	2.49752	0.868656	5.75513	1.25485	8.39471	1.60588	10.0366	1.96163	12.0873	0.583873	3.86596	0.962288	6.3516	1.22932	8.11737	1.61091	10.0293	1.98599	12.2454
1.79216	2.49836	0.584534	3.80753	1.79271	2.49828	0.868656	5.66847	1.25961	8.29845	1.60658	9.97111	1.96435	11.9344	0.584486	3.81179	0.970312	6.30849	1.23069	8.0045	1.6126	9.97026	1.98724	12.0813
1.78696	2.49916	0.584912	3.77514	1.78751	2.49908	0.868585	5.58393	1.26445	8.20559	1.60709	9.92353	1.96717	11.7863	0.585101	3.75923	0.978323	6.26656	1.23209	7.89512	1.61386	9.92745	1.98846	11.9214
1.78179	2.5	0.585372	3.73677	1.78234	2.49991	0.86845	5.50145	1.26935	8.1159	1.60742	9.89334	1.97006	11.6426	0.585725	3.70826	0.986301	6.22565	1.23354	7.78919	1.61467	9.9003	1.98966	11.7658
1.77664	2.50087	0.58592	3.69287	1.77719	2.50078	0.868257	5.421	1.27431	8.02915	1.60789	9.85027	1.97301	11.5032	0.586365	3.65887	0.994223	6.18556	1.23504	7.6867	1.61584	9.86162	1.99084	11.6144
1.77152	2.50179	0.586566	3.64394	1.77206	2.50169	0.868014	5.34252	1.27931	7.94515	1.6084	9.80393	1.97603	11.3679	0.587026	3.611	1.00207	6.14613	1.23663	7.58762	1.61711	9.82002	1.99202	11.4669
1.76642	2.50274	0.587236	3.59655	1.76696	2.50263	0.867727	5.26596	1.28434	7.8637	1.6091	9.74165	1.97909	11.2364	0.587715	3.56465	1.00981	6.1072	1.23833	7.49196	1.61886	9.76418	1.9932	11.3233
1.76134	2.50373	0.587934	3.55065	1.76188	2.50362	0.867401	5.19129	1.28939	7.78461	1.61	9.66413	1.9822	11.1085	0.588436	3.51976	1.01743	6.06859	1.24015	7.39971	1.62109	9.69474	1.9944	11.1835
1.75628	2.50476	0.588666	3.50621	1.75682	2.50464	0.867043	5.11846	1.29443	7.7077	1.61109	9.5722	1.98535	10.9841	0.589194	3.47631	1.0249	6.03014	1.24214	7.31089	1.6238	9.61245	1.99561	11.0474
1.75125	2.50582	0.589436	3.4632	1.75179	2.50571	0.866658	5.04744	1.29947	7.63282	1.6124	9.46688	1.98852	10.863	0.589993	3.43427	1.03219	5.99169	1.2443	7.22551	1.62702	9.51817	1.99686	10.9149
1.74624	2.50693	0.590248	3.42159	1.74677	2.50681	0.866251	4.97817	1.30448	7.55979	1.61394	9.34928	1.99171	10.745	0.590836	3.3936	1.03928	5.9531	1.24668	7.14359	1.63073	9.41284	1.99816	10.7859
1.74125	2.50808	0.591106	3.38133	1.74178	2.50795	0.865827	4.91062	1.30946	7.48849	1.61554	9.23511	1.99492	10.6299	0.591727	3.35427	1.04613	5.91422	1.24929	7.06516	1.63447	9.3104	1.9995	10.6604
1.73629	2.50926	0.592013	3.3424	1.73681	2.50914	0.865391	4.84475	1.31438	7.41875	1.61721	9.12432	1.99771	10.532	0.59267	3.31624	1.05273	5.8749	1.25217	6.99022	1.63821	9.21067	2.00072	10.5537
1.73134	2.51049	0.592972	3.30477	1.73187	2.51036	0.864949	4.78051	1.31924	7.35046	1.61897	9.01684	2.0001	10.4501	0.593667	3.27947	1.05905	5.83502	1.25534	6.9188	1.64196	9.11351	2.00179	10.4648
1.72642	2.51175	0.593986	3.26839	1.72694	2.51162	0.864503	4.71789	1.32403	7.28348	1.62082	8.91261	2.00207	10.3835	0.594721	3.24395	1.06507	5.79448	1.25883	6.85089	1.6457	9.01876	2.00272	10.3926
1.72151	2.51306	0.595058	3.23323	1.72203	2.51292	0.864059	4.65682	1.32872	7.2177	1.62278	8.81157	2.00362	10.3315	0.595834	3.20962	1.07075	5.75319	1.26265	6.78649	1.64942	8.92628	2.00347	10.3364
1.71663	2.5144	0.596189	3.19927	1.71715	2.51425	0.86362	4.59729	1.33332	7.15301	1.62485	8.71368	2.00476	10.2936	0.597007	3.17646	1.07609	5.71107	1.26684	6.72557	1.65311	8.83595	2.00403	10.2955
1.71177	2.51577	0.597382	3.16647	1.71228	2.51563	0.86319	4.53924	1.3378	7.0893	1.62706	8.61888	2.00549	10.2696	0.598244	3.14444	1.08107	5.6681	1.27139	6.66807	1.65678	8.74763	2.0044	10.2696
1.70692	2.51719	0.598638	3.13479	1.70744	2.51704	0.862773	4.48266	1.34216	7.02648	1.62942	8.52712	2.00653	10.2352	0.599545	3.11351	1.08568	5.62424	1.27633	6.61392	1.66039	8.66121	2.00493	10.2326
1.70209	2.51864	0.59996	3.1042	1.70261	2.51848	0.862371	4.42749	1.34638	6.96447	1.63192	8.43835	2.00766	10.1981	0.600912	3.08366	1.08992	5.57952	1.28165	6.56303	1.66396	8.57658	2.00552	10.1927
1.69728	2.52013	0.601347	3.07467	1.69779	2.51997	0.861989	4.37371	1.35046	6.90317	1.63459	8.3525	2.0092	10.1481	0.602347	3.05485	1.0938	5.53398	1.28736	6.51529	1.66747	8.49365	2.00635	10.1391
1.69249	2.52164	0.602803	3.04617	1.693	2.52148	0.861628	4.32129	1.35439	6.84253	1.63744	8.26952	2.01113	10.0857	0.603849	3.02705	1.09731	5.48767	1.29345	6.47054	1.67091	8.4123	2.00742	10.0724
1.68771	2.52319	0.604327	3.01868	1.68821	2.52303	0.861292	4.27019	1.35815	6.78247	1.64046	8.18936	2.01346	10.0113	0.605422	3.00023	1.10046	5.44068	1.29991	6.42864	1.67428	8.33246	2.00877	9.99326
1.68294	2.52477	0.60592	2.99215	1.68344	2.52461	0.860984	4.22038	1.36174	6.72295	1.64367	8.11194	2.01616	9.92548	0.607064	2.97436	1.10329	5.39311	1.30672	6.38941	1.67756	8.25404	2.01043	9.90246
1.67818	2.52638	0.607585	2.96657	1.67868	2.52621	0.860706	4.17183	1.36516	6.66391	1.64707	8.03721	2.01922	9.82891	0.608777	2.94941	1.10579	5.34507	1.31387	6.35269	1.68077	8.17697	2.01244	9.80095
1.67343	2.52801	0.609319	2.9419	1.67393	2.52784	0.86046	4.12451	1.3684	6.60531	1.65067	7.9651	2.02224	9.73426	0.610561	2.92535	1.108	5.29666	1.32133	6.31829	1.68388	8.10117	2.01456	9.70227
1.66868	2.52966	0.611126	2.91811	1.66919	2.52949	0.860248	4.07839	1.37145	6.54713	1.65447	7.89553	2.0252	9.64145	0.612418	2.90216	1.10993	5.248	1.32909	6.28604	1.68689	8.02658	2.01681	9.60633
1.66394	2.53133	0.613005	2.89518	1.66444	2.53115	0.860074	4.03344	1.37432	6.48933	1.65848	7.82844	2.02812	9.55041	0.614346	2.87981	1.11161	5.19921	1.33712	6.25575	1.68981	7.95314	2.01918	9.51308
1.6592	2.533	0.614955	2.87308	1.6597	2.53283	0.859938	3.98963	1.377	6.43191	1.66268	7.76373	2.03097	9.46104	0.616347	2.85828	1.11305	5.15038	1.3454	6.22727	1.69263	7.8808	2.02168	9.42244
1.65445	2.53468	0.616979	2.8518	1.65496	2.53451	0.859843	3.94694	1.37949	6.37485	1.66709	7.70134	2.03376	9.37329	0.618421	2.83753	1.11429	5.10162	1.35391	6.20044	1.69534	7.80952	2.02432	9.33434
1.64969	2.53636	0.619075	2.83129	1.6502	2.53618	0.85979	3.90533	1.3818	6.31814	1.6717	7.64117	2.03649	9.28709	0.620568	2.81755	1.11533	5.05303	1.36263	6.17511	1.69794	7.73926	2.02709	9.24872
1.64492	2.53802	0.621244	2.81154	1.64543	2.53785	0.859781	3.86479	1.38392	6.26178	1.6765	7.58315	2.03914	9.20237	0.622787	2.79831	1.1162	5.00467	1.37153	6.15113	1.70044	7.66997	2.03	9.1655
1.64012	2.53966	0.623486	2.79253	1.64063	2.53949	0.859818	3.82528	1.38586	6.20578	1.6815	7.52718	2.04173	9.11908	0.62508	2.77979	1.11693	4.95663	1.3806	6.12838	1.70283	7.60164	2.03305	9.08462
1.63529	2.54127	0.625801	2.77422	1.63581	2.5411	0.859903	3.78678	1.38763	6.15016	1.68667	7.47317	2.04424	9.03718	0.627445	2.76197	1.11751	4.90897	1.38982	6.10675	1.70511	7.53423	2.03623	9.006
1.63042	2.54282	0.62819	2.75661	1.63094	2.54266	0.860035	3.74927	1.38923	6.0949	1.69203	7.42104	2.04668	8.95662	0.629884	2.74483	1.11798	4.86174	1.39916	6.08611	1.70729	7.46773	2.03956	8.92957
1.62551	2.54431	0.630651	2.73967	1.62603	2.54415	0.860218	3.71272	1.39066	6.04005	1.69756	7.37069	2.04905	8.87735	0.632396	2.72834	1.11834	4.815	1.40862	6.06637	1.70938	7.40213	2.04302	8.85526
1.62053	2.54571	0.633185	2.72338	1.62106	2.54556	0.860452	3.67711	1.39194	5.9856	1.70325	7.32204	2.05135	8.79934	0.634981	2.71249	1.11861	4.76879	1.41818	6.04743	1.71136	7.33741	2.04661	8.783
1.61548	2.54701	0.635792	2.70773	1.61602	2.54688	0.860739	3.64242	1.39306	5.93158	1.70909	7.275	2.05358	8.72256	0.637639	2.69726	1.1188	4.72314	1.42782	6.02921	1.71325	7.27357	2.05034	8.71272
1.61035	2.54819	0.638474	2.69269	1.6109	2.54807	0.861079	3.60862	1.39404	5.878	1.71508	7.22948	2.05574	8.64698	0.640371	2.68263	1.11892	4.67808	1.43752	6.01162	1.71506	7.21061	2.05419	8.64434
1.60513	2.54924	0.641229	2.67824	1.60569	2.54914	0.861474	3.5757	1.39488	5.82488	1.7212	7.18539	2.05783	8.57258	0.643178	2.6686	1.11898	4.63363	1.44728	5.99458	1.71679	7.14854	2.05817	8.57778
1.59982	2.55015	0.644059	2.66439	1.60039	2.55006	0.861924	3.54363	1.3956	5.77225	1.72744	7.14264	2.05986	8.49934	0.646061	2.65514	1.11899	4.58982	1.45707	5.97802	1.71845	7.08736	2.06226	8.51299
1.59441	2.55091	0.646966	2.6511	1.59499	2.55084	0.862431	3.5124	1.39619	5.72011	1.73379	7.10117	2.06183	8.42724	0.649021	2.64225	1.11896	4.54666	1.46689	5.96186	1.72005	7.02709	2.06647	8.44988
1.58891	2.55153	0.64995	2.63839	1.5895	2.55147	0.862995	3.48197	1.39667	5.66848	1.74025	7.06087	2.06375	8.35626	0.652062	2.62992	1.11889	4.50415	1.47672	5.94603	1.72161	6.96775	2.07079	8.38839
1.58332	2.55201	0.653016	2.62624	1.58392	2.55196	0.863618	3.45235	1.39704	5.61739	1.74679	7.02168	2.06562	8.28641	0.655187	2.61816	1.1188	4.46232	1.48653	5.93046	1.72312	6.90937	2.07521	8.32843
1.57764	2.55235	0.656168	2.61465	1.57825	2.55232	0.8643	3.42349	1.39731	5.56684	1.75341	6.98352	2.06744	8.21767	0.658403	2.60698	1.11868	4.42117	1.49633	5.91507	1.72462	6.85196	2.07972	8.26996
1.57189	2.55258	0.659415	2.60365	1.57251	2.55256	0.865042	3.3954	1.39749	5.51684	1.7601	6.9463	2.06923	8.15005	0.661723	2.5964	1.11855	4.38069	1.50607	5.8998	1.7261	6.79557	2.08432	8.21288
1.56608	2.55269	0.662769	2.59327	1.5667	2.55269	0.865845	3.36805	1.39759	5.46741	1.76683	6.90996	2.071	8.08353	0.665164	2.58648	1.1184	4.34089	1.51576	5.88456	1.7276	6.74025	2.08899	8.15715
1.5602	2.55272	0.666254	2.58357	1.56083	2.55272	0.866709	3.34142	1.3976	5.41857	1.77361	6.87443	2.07274	8.01813	0.668759	2.57734	1.11825	4.30178	1.52537	5.86926	1.72913	6.68603	2.09374	8.10268
1.55427	2.55266	0.669906	2.5747	1.5549	2.55267	0.867635	3.3155	1.39755	5.3703	1.78041	6.83964	2.07448	7.95385	0.672563	2.56915	1.1181	4.26334	1.53486	5.85383	1.73072	6.63298	2.09855	8.04942
1.5483	2.55252	0.673791	2.56687	1.54894	2.55254	0.868625	3.29026	1.39742	5.32264	1.78723	6.8055	2.07621	7.8907	0.676666	2.56224	1.11794	4.22558	1.54423	5.83817	1.73238	6.58115	2.10342	7.9973
1.54229	2.55233	0.678009	2.56043	1.54293	2.55235	0.869677	3.26571	1.39724	5.27558	1.79405	6.77196	2.07796	7.82868	0.681179	2.55699	1.11779	4.18849	1.55343	5.82217	1.73415	6.53064	2.10832	7.94625
1.53625	2.55208	0.682667	2.55575	1.5369	2.55211	0.870794	3.24182	1.397	5.22912	1.80085	6.73896	2.07973	7.76783	0.686172	2.55362	1.11765	4.15206	1.56243	5.80571	1.73606	6.48152	2.11327	7.89622
1.53019	2.55178	0.687804	2.55293	1.53083	2.55181	0.871976	3.21857	1.39672	5.18328	1.80763	6.70641	2.08154	7.70814	0.691597	2.55189	1.11753	4.1163	1.57121	5.78869	1.73815	6.43388	2.11824	7.84715
1.52409	2.55144	0.693339	2.55162	1.52474	2.55148	0.873223	3.19595	1.39638	5.13805	1.81437	6.67426	2.08339	7.64964	0.69733	2.55132	1.11741	4.08119	1.57971	5.77096	1.74045	6.38784	2.12323	7.79897
1.51798	2.55106	0.699141	2.55131	1.51863	2.5511	0.874537	3.17396	1.39601	5.09344	1.82104	6.64245	2.08531	7.59235	0.703255	2.55146	1.11731	4.04673	1.58791	5.7524	1.74301	6.34351	2.12823	7.75162
1.51185	2.55065	0.705108	2.5516	1.5125	2.5507	0.875917	3.15256	1.3956	5.04944	1.82765	6.6109	2.0873	7.53628	0.709295	2.55201	1.11723	4.01291	1.59574	5.73286	1.74587	6.30101	2.13322	7.70506
1.50571	2.55021	0.711174	2.55224	1.50636	2.55026	0.877365	3.13177	1.39517	5.00607	1.83417	6.57955	2.08938	7.48147	0.715407	2.55281	1.11718	3.97972	1.60317	5.71221	1.74908	6.26046	2.13821	7.65923
1.49955	2.54974	0.717302	2.55309	1.5002	2.54979	0.878881	3.11155	1.3947	4.9633	1.84058	6.54836	2.09157	7.42794	0.721564	2.55375	1.11714	3.94716	1.61016	5.69033	1.75269	6.22198	2.14317	7.61406
1.49338	2.54925	0.723469	2.55406	1.49403	2.5493	0.880466	3.09191	1.39421	4.92115	1.84687	6.51724	2.09388	7.3757	0.727751	2.55478	1.11713	3.91521	1.61666	5.6671	1.75673	6.18567	2.1481	7.56952
1.4872	2.54874	0.729662	2.55511	1.48785	2.54879	0.882121	3.07282	1.3937	4.87962	1.85302	6.48615	2.09632	7.32479	0.733956	2.55587	1.11715	3.88387	1.62265	5.64245	1.76125	6.15161	2.15298	7.52556
1.48101	2.54821	0.735873	2.55621	1.48166	2.54826	0.883847	3.05428	1.39318	4.83869	1.85902	6.45502	2.09893	7.27523	0.740176	2.55698	1.1172	3.85312	1.6281	5.61635	1.76628	6.11984	2.15782	7.48211
1.47481	2.54766	0.742096	2.55733	1.47547	2.54771	0.885644	3.03628	1.39264	4.79837	1.86486	6.4238	2.1017	7.22704	0.746405	2.55811	1.11728	3.82296	1.63301	5.58879	1.77183	6.09038	2.16259	7.43914
1.4686	2.54709	0.748327	2.55845	1.46926	2.54715	0.887514	3.01881	1.39209	4.75864	1.8705	6.39244	2.10466	7.18024	0.75264	2.55924	1.11739	3.79339	1.63737	5.55982	1.7779	6.06317	2.16729	7.3966
1.46239	2.5465	0.754563	2.55959	1.46305	2.54657	0.889458	3.00186	1.39154	4.71952	1.87595	6.36089	2.10782	7.13486	0.758879	2.56036	1.11753	3.76438	1.64121	5.52953	1.7845	6.03816	2.17191	7.35445
1.45617	2.54591	0.760803	2.56071	1.45683	2.54597	0.891476	2.98543	1.39098	4.68099	1.88118	6.3291	2.11119	7.0909	0.765121	2.56148	1.1177	3.73594	1.64455	5.49805	1.7916	6.0152	2.17644	7.31265
1.44995	2.54529	0.767046	2.56183	1.45061	2.54536	0.893571	2.9695	1.39041	4.64304	1.88618	6.29705	2.11479	7.04837	0.771364	2.56259	1.11792	3.70804	1.64743	5.4655	1.79916	5.99418	2.18087	7.27117
1.44372	2.54467	0.77329	2.56293	1.44438	2.54473	0.895743	2.95406	1.38985	4.60568	1.89094	6.26469	2.11864	7.00728	0.777609	2.56368	1.11816	3.68069	1.64988	5.43204	1.80717	5.97491	2.18519	7.22995
1.43749	2.54403	0.779534	2.56402	1.43815	2.5441	0.897994	2.93912	1.38929	4.56889	1.89546	6.23201	2.12272	6.96763	0.783853	2.56476	1.11845	3.65388	1.65194	5.39783	1.81557	5.95724	2.1894	7.18898
1.43125	2.54338	0.785779	2.56509	1.43191	2.54345	0.900326	2.92467	1.38874	4.53267	1.89972	6.19898	2.12707	6.9294	0.790097	2.56582	1.11877	3.62759	1.65366	5.36301	1.82433	5.941	2.19348	7.14822
1.42501	2.54272	0.792023	2.56614	1.42568	2.54279	0.902741	2.91069	1.38819	4.49702	1.90371	6.1656	2.13167	6.89259	0.796341	2.56686	1.11913	3.60182	1.65508	5.32773	1.83341	5.92603	2.19743	7.10765
1.41877	2.54205	0.798266	2.56718	1.41943	2.54212	0.905241	2.8972	1.38765	4.46192	1.90744	6.13186	2.13653	6.85716	0.802583	2.56788	1.11954	3.57655	1.65622	5.29211	1.84276	5.91219	2.20124	7.06723
1.41253	2.54137	0.804508	2.56819	1.41319	2.54144	0.907828	2.88418	1.38712	4.42737	1.91091	6.09776	2.14166	6.82309	0.808824	2.56889	1.11998	3.55178	1.65713	5.25625	1.85237	5.89933		
1.40628	2.54067	0.810748	2.56919	1.40694	2.54075	0.910504	2.87163	1.3866	4.39336	1.91411	6.06333	2.14705	6.79034	0.815063	2.56987	1.12046	3.52751	1.65783	5.22027	1.86219	5.88735		
1.40003	2.53997	0.816987	2.57017	1.40069	2.54005	0.913273	2.85956	1.3861	4.35989	1.91705	6.02858	2.15269	6.75886	0.8213	2.57083	1.12099	3.50371	1.65835	5.18423	1.8722	5.87613		
1.39378	2.53926	0.823223	2.57112	1.39444	2.53934	0.916137	2.84795	1.38561	4.32695	1.91973	5.99353	2.15859	6.72862	0.827536	2.57177	1.12156	3.48039	1.65871	5.14823	1.88237	5.86558		
1.38753	2.53854	0.829458	2.57206	1.38819	2.53862	0.9191	2.83681	1.38514	4.29454	1.92217	5.95821	2.16472	6.69956	0.833769	2.5727	1.12217	3.45753	1.65893	5.11231	1.89269	5.85563		
1.38128	2.53782	0.835691	2.57298	1.38194	2.53789	0.922164	2.82614	1.38469	4.26264	1.92436	5.92266	2.17109	6.67162	0.84	2.5736	1.12282	3.43513	1.65904	5.07653	1.90313	5.84618		
1.37502	2.53708	0.841921	2.57388	1.37568	2.53716	0.925334	2.81594	1.38425	4.23124	1.92633	5.8869	2.17768	6.64475	0.846229	2.57448	1.12352	3.41318	1.65903	5.04094	1.91367	5.8372		
1.36876	2.53634	0.848149	2.57475	1.36943	2.53642	0.928613	2.80622	1.38384	4.20036	1.92808	5.85099	2.18448	6.61889	0.852455	2.57535	1.12427	3.39166	1.65894	5.00557	1.9243	5.8286		
1.36251	2.53558	0.854375	2.57561	1.36317	2.53566	0.932004	2.79696	1.38345	4.16996	1.92962	5.81494	2.19147	6.59398	0.858679	2.57619	1.12506	3.37058	1.65877	4.97045	1.93501	5.82035		
1.35625	2.53483	0.860598	2.57645	1.35692	2.53491	0.935512	2.78818	1.38308	4.14005	1.93096	5.77881	2.19864	6.56996	0.8649	2.57702	1.12589	3.34993	1.65854	4.93561	1.94578	5.8124		
1.34999	2.53406	0.866818	2.57727	1.35066	2.53414	0.939138	2.77987	1.38273	4.11063	1.93212	5.74263	2.20599	6.54677	0.871118	2.57782	1.12678	3.32969	1.65824	4.90107	1.95659	5.80471		
1.34374	2.53329	0.873035	2.57807	1.3444	2.53337	0.942886	2.77203	1.38241	4.08168	1.93311	5.70644			0.877334	2.57861	1.1277	3.30986	1.65789	4.86685	1.96745	5.79723		
1.33748	2.53251	0.87925	2.57885	1.33814	2.53259	0.946758	2.76466	1.38212	4.05319	1.93394	5.67026			0.883546	2.57938	1.12868	3.29044	1.6575	4.83297	1.97833	5.78993		
1.33122	2.53172	0.885462	2.57961	1.33189	2.5318	0.950755	2.75775	1.38185	4.02517	1.93462	5.63413			0.889756	2.58012	1.1297	3.27141	1.65707	4.79943	1.98923	5.78277		
1.32497	2.53093	0.89167	2.58035	1.32563	2.53101	0.954879	2.7513	1.38161	3.9976	1.93516	5.59809			0.895963	2.58085	1.13076	3.25276	1.65661	4.76624	2.00013	5.77573		
1.31871	2.53013	0.897876	2.58107	1.31937	2.53021	0.959127	2.74529	1.3814	3.97048	1.93557	5.56215			0.902166	2.58156	1.13188	3.2345	1.65612	4.73342	2.01103	5.76875		
1.31246	2.52932	0.904078	2.58178	1.31312	2.52941	0.9635	2.73971	1.38121	3.9438	1.93586	5.52636			0.908366	2.58226	1.13304	3.21662	1.65562	4.70097	2.0219	5.76181		
1.3062	2.52852	0.910278	2.58247	1.30687	2.5286	0.967993	2.73455	1.38106	3.91755	1.93605	5.49072			0.914563	2.58293	1.13425	3.1991	1.65509	4.66889	2.03275	5.75487		
1.29995	2.5277	0.916474	2.58313	1.30061	2.52779	0.972603	2.72978	1.38094	3.89173	1.93614	5.45527			0.920757	2.58359	1.13551	3.18194	1.65455	4.63719	2.04354	5.74788		
1.2937	2.52688	0.922666	2.58378	1.29436	2.52697	0.977326	2.72538	1.38084	3.86632	1.93613	5.42001			0.926947	2.58422	1.13682	3.16514	1.654	4.60586	2.05427	5.7408		
1.28745	2.52606	0.928855	2.58442	1.28811	2.52615	0.982156	2.72134	1.38078	3.84134	1.93604	5.38498			0.933133	2.58484	1.13817	3.14868	1.65345	4.57492	2.06491	5.73357		
1.2812	2.52523	0.93504	2.58503	1.28186	2.52532	0.987087	2.71763	1.38076	3.81676	1.93587	5.35017			0.939316	2.58544	1.13958	3.13257	1.65289	4.54436	2.07545	5.72614		
1.27495	2.52441	0.941222	2.58563	1.27562	2.52449	0.992112	2.71422	1.38076	3.79258	1.93564	5.31562			0.945495	2.58603	1.14103	3.11679	1.65233	4.51417	2.08585	5.71843		
1.26871	2.52357	0.947399	2.5862	1.26937	2.52366	0.997224	2.71109	1.3808	3.7688	1.93534	5.28133			0.95167	2.58659	1.14253	3.10135	1.65177	4.48437	2.09608	5.71037		
1.26247	2.52274	0.953573	2.58676	1.26313	2.52283	1.00242	2.70822	1.38087	3.74541	1.93498	5.24731			0.957841	2.58714	1.14408	3.08622	1.65121	4.45495	2.10611	5.70185		
1.25623	2.5219	0.959743	2.5873	1.2569	2.52199	1.00768	2.70558	1.38098	3.7224	1.93457	5.21357			0.964007	2.58767	1.14568	3.07142	1.65065	4.42591	2.1159	5.69277		
1.25	2.52107	0.965908	2.58783	1.25066	2.52116	1.01302	2.70316	1.38112	3.69977	1.93411	5.18013			0.97017	2.58818	1.14733	3.05693	1.65011	4.39724	2.12538	5.683		
1.24377	2.52023	0.972069	2.58833	1.24443	2.52032	1.01842	2.70093	1.38129	3.67751	1.93361	5.14698			0.976327	2.58867	1.14903	3.04275	1.64957	4.36894	2.1345	5.67239		
1.23755	2.5194	0.978225	2.58882	1.23821	2.51949	1.02387	2.69888	1.38151	3.65562	1.93307	5.11413			0.98248	2.58915	1.15078	3.02887	1.64904	4.34102	2.14319	5.66078		
1.23132	2.51856	0.984377	2.58929	1.23199	2.51865	1.02937	2.69699	1.38175	3.63408	1.93249	5.08159			0.988628	2.5896	1.15257	3.01529	1.64853	4.31346	2.15138	5.64799		
1.22511	2.51773	0.990523	2.58974	1.22577	2.51782	1.03492	2.69523	1.38204	3.61291	1.93189	5.04936			0.994771	2.59004	1.15442	3.00201	1.64803	4.28627	2.15899	5.63385		
1.2189	2.51691	0.996665	2.59017	1.21956	2.51699	1.04052	2.69361	1.38236	3.59208	1.93126	5.01745			1.00091	2.59046	1.15632	2.98901	1.64754	4.25943	2.16597	5.61821		
1.2127	2.51609	1.0028	2.59058	1.21335	2.51617	1.04615	2.6921	1.38272	3.57159	1.9306	4.98586			1.00704	2.59085	1.15827	2.97629	1.64706	4.23296	2.17224	5.60097		
1.2065	2.51527	1.00893	2.59097	1.20716	2.51536	1.05181	2.6907	1.38311	3.55145	1.92992	4.95459			1.01317	2.59123	1.16027	2.96385	1.64661	4.20684	2.17779	5.58206		
1.20031	2.51446	1.01506	2.59135	1.20097	2.51455	1.0575	2.68939	1.38355	3.53164	1.92923	4.92364			1.01929	2.59159	1.16231	2.95169	1.64617	4.18107	2.1826	5.56151		
1.19413	2.51367	1.02117	2.5917	1.19479	2.51375	1.06323	2.68817	1.38402	3.51215	1.92852	4.89302			1.0254	2.59193	1.16441	2.93979	1.64575	4.15565	2.18671	5.53941		
1.18796	2.51288	1.02729	2.59203	1.18861	2.51296	1.06897	2.68703	1.38453	3.49299	1.9278	4.86272			1.03151	2.59225	1.16657	2.92817	1.64535	4.13058	2.19016	5.5159		
1.1818	2.51211	1.03339	2.59234	1.18245	2.51219	1.07475	2.68596	1.38507	3.47415	1.92707	4.83274			1.03761	2.59255	1.16877	2.9168	1.64497	4.10584	2.193	5.49116		
1.17565	2.51135	1.03949	2.59263	1.1763	2.51143	1.08054	2.68495	1.38566	3.45562	1.92633	4.80309			1.0437	2.59282	1.17102	2.90569	1.64461	4.08144	2.19532	5.46537		
1.16951	2.51062	1.04558	2.5929	1.17016	2.5107	1.08635	2.684	1.38628	3.4374	1.92558	4.77377			1.04979	2.59307	1.17333	2.89484	1.64428	4.05737	2.19717	5.43874		
1.16339	2.5099	1.05166	2.59315	1.16404	2.50998	1.09218	2.6831	1.38695	3.41948	1.92483	4.74477			1.05586	2.5933	1.17568	2.88423	1.64396	4.03364	2.19863	5.41144		
1.15728	2.50922	1.05773	2.59337	1.15793	2.50929	1.09802	2.68225	1.38765	3.40186	1.92408	4.71609			1.06193	2.59351	1.17809	2.87388	1.64367	4.01022	2.19974	5.38362		
1.15119	2.50856	1.0638	2.59356	1.15183	2.50863	1.10388	2.68145	1.38839	3.38454	1.92332	4.68773			1.06799	2.59368	1.18055	2.86376	1.64341	3.98713	2.20057	5.35541		
1.14511	2.50793	1.06985	2.59373	1.14576	2.508	1.10975	2.68068	1.38918	3.3675	1.92257	4.65969			1.07404	2.59384	1.18307	2.85389	1.64317	3.96435				
1.13906	2.50734	1.0759	2.59388	1.1397	2.50741	1.11563	2.67995	1.39	3.35075	1.92182	4.63197			1.08007	2.59396	1.18564	2.84426	1.64295	3.94189				
1.13303	2.5068	1.08193	2.594	1.13367	2.50686	1.12152	2.67926	1.39086	3.33428	1.92107	4.60456			1.0861	2.59406	1.18826	2.83486	1.64276	3.91974				
1.12702	2.50631	1.08795	2.59408	1.12766	2.50636	1.12742	2.67859	1.39176	3.31809	1.92033	4.57747			1.09211	2.59413	1.19094	2.8257	1.6426	3.89789				
1.12104	2.50587	1.09396	2.59414	1.12168	2.50591	1.13333	2.67796	1.3927	3.30217	1.9196	4.55069			1.09811	2.59416	1.19368	2.81677	1.64247	3.87634				
1.11509	2.5055	1.09996	2.59417	1.11572	2.50553	1.13925	2.67734	1.39369	3.28652	1.91887	4.52422			1.1041	2.59416	1.19647	2.80806	1.64236	3.85509				
1.10918	2.5052	1.10594	2.59416	1.10981	2.50523	1.14518	2.67676	1.39471	3.27114	1.91815	4.49805			1.11007	2.59413	1.19932	2.79959	1.64228	3.83414				
1.1033	2.50498	1.11191	2.59411	1.10393	2.505	1.15111	2.67619	1.39577	3.25601	1.91744	4.47219			1.11603	2.59406	1.20223	2.79134	1.64223	3.81347				
1.09747	2.50485	1.11786	2.59403	1.09808	2.50486	1.15705	2.67564	1.39688	3.24114	1.91675	4.44664			1.12196	2.59395	1.20519	2.78332	1.6422	3.7931				
1.09167	2.50482	1.12379	2.59391	1.09229	2.50482	1.163	2.67512	1.39802	3.22652	1.91606	4.42138			1.12788	2.5938	1.20822	2.77552	1.64221	3.773				
1.08593	2.5049	1.1297	2.59374	1.08654	2.50489	1.16894	2.67461	1.39921	3.21216	1.91539	4.39642			1.13378	2.5936	1.21131	2.76795	1.64224	3.75319				
1.08024	2.50511	1.1356	2.59353	1.08084	2.50508	1.1749	2.67411	1.40044	3.19803	1.91473	4.37175			1.13966	2.59335	1.21446	2.7606	1.64231	3.73365				
1.07461	2.50545	1.14146	2.59326	1.0752	2.50541	1.18086	2.67363	1.4017	3.18415	1.91408	4.34738			1.14551	2.59305	1.21768	2.75347	1.6424	3.71438				
1.06903	2.50594	1.14731	2.59295	1.06962	2.50588	1.18682	2.67316	1.40301	3.1705	1.91345	4.32329			1.15134	2.5927	1.22097	2.74657	1.64253	3.69538				
1.06353	2.50659	1.15313	2.59258	1.06411	2.50651	1.19278	2.6727	1.40436	3.15709	1.91284	4.29949			1.15713	2.59229	1.22432	2.73989	1.64269	3.67664				
1.05809	2.5074	1.15892	2.59215	1.05866	2.50731	1.19875	2.67225	1.40575	3.14391	1.91224	4.27597			1.1629	2.59181	1.22775	2.73344	1.64287	3.65817				
1.05272	2.50839	1.16467	2.59165	1.05328	2.50828	1.20471	2.67182	1.40719	3.13096	1.91166	4.25273			1.16864	2.59127	1.23125	2.72722	1.64309	3.63996				
1.04742	2.50957	1.1704	2.59109	1.04798	2.50944	1.21068	2.67139	1.40866	3.11823	1.9111	4.22977			1.17434	2.59066	1.23482	2.72124	1.64334	3.622				
1.0422	2.51094	1.17609	2.59045	1.04275	2.51079	1.21666	2.67096	1.41018	3.10573	1.91056	4.20708			1.18	2.58996	1.23847	2.71548	1.64362	3.60429				
1.03705	2.51251	1.18174	2.58973	1.0376	2.51234	1.22263	2.67055	1.41173	3.09344	1.91004	4.18467			1.18562	2.58919	1.24221	2.70996	1.64394	3.58682				
1.03198	2.51428	1.18735	2.58893	1.03252	2.51408	1.2286	2.67014	1.41333	3.08136	1.90953	4.16252			1.1912	2.58833	1.24603	2.70467	1.64428	3.56961				
1.02698	2.51625	1.19291	2.58804	1.02751	2.51603	1.23458	2.66973	1.41498	3.0695	1.90905	4.14064			1.19673	2.58737	1.24993	2.69963	1.64466	3.55263				
1.02206	2.51841	1.19843	2.58706	1.02258	2.51817	1.24055	2.66933	1.41666	3.05784	1.90858	4.11902			1.20221	2.58632	1.25393	2.69482	1.64507	3.5359				
1.0172	2.52077	1.20389	2.58598	1.01771	2.52051	1.24653	2.66894	1.41838	3.04639	1.90814	4.09766			1.20764	2.58517	1.25801	2.69026	1.64551	3.51939				
1.0124	2.52332	1.20931	2.5848	1.01291	2.52304	1.2525	2.66854	1.42015	3.03515	1.90772	4.07656			1.21302	2.58392	1.26219	2.68595	1.64599	3.50313				
1.00767	2.52605	1.21467	2.58351	1.00817	2.52575	1.25847	2.66815	1.42196	3.0241	1.90732	4.05571			1.21834	2.58255	1.26646	2.68187	1.6465	3.48708				
1.00299	2.52896	1.21997	2.58211	1.00349	2.52864	1.26444	2.66776	1.42381	3.01325	1.90695	4.03511			1.2236	2.58108	1.27084	2.67805	1.64704	3.47127				
0.99837	2.53203	1.22521	2.58061	0.998858	2.53169	1.27041	2.66737	1.4257	3.0026	1.90659	4.01476			1.2288	2.5795	1.27509	2.674	1.64762	3.45568				
0.993793	2.53526	1.23039	2.57899	0.994277	2.53491	1.27638	2.66698	1.42764	2.99213	1.90627	3.99466			1.23395	2.57782	1.27987	2.67111	1.64823	3.44031				
0.989258	2.53863	1.23552	2.57727	0.989738	2.53827	1.28234	2.66659	1.42962	2.98186	1.90596	3.9748			1.23903	2.57602	1.28453	2.66799	1.64887	3.42515				
0.98476	2.54214	1.24059	2.57545	0.985237	2.54176	1.28831	2.66619	1.43164	2.97178	1.90568	3.95518			1.24406	2.57413	1.28929	2.6651	1.64955	3.41021				
0.980295	2.54578	1.2456	2.57353	0.980767	2.54539	1.29427	2.66579	1.43371	2.96188	1.90542	3.9358			1.24903	2.57214	1.29414	2.66243	1.65026	3.39548				
0.975854	2.54952	1.25056	2.57151	0.976325	2.54912	1.30022	2.66539	1.43581	2.95216	1.90519	3.91665			1.25396	2.57006	1.29908	2.65996	1.651	3.38096				
0.971434	2.55337	1.25546	2.5694	0.971902	2.55296	1.30617	2.66499	1.43797	2.94262	1.90498	3.89773			1.25883	2.5679	1.30411	2.6577	1.65178	3.36665				
0.967028	2.5573	1.26032	2.56722	0.967495	2.55688	1.31212	2.66458	1.44016	2.93327	1.9048	3.87905			1.26366	2.56568	1.30921	2.65562	1.65259	3.35254				
0.962629	2.56129	1.26514	2.56498	0.963096	2.56087	1.31806	2.66416	1.4424	2.92409	1.90464	3.86058			1.26844	2.56339	1.3144	2.65371	1.65344	3.33863				
0.958231	2.56534	1.26991	2.56267	0.958698	2.56491	1.324	2.66374	1.44469	2.91508	1.90451	3.84235			1.2732	2.56105	1.31966	2.65197	1.65432	3.32491				
0.953828	2.56942	1.27465	2.56032	0.954296	2.56899	1.32993	2.66331	1.44702	2.90625	1.9044	3.82433			1.27792	2.55867	1.32498	2.65038	1.65523	3.31139				
0.949411	2.57352	1.27937	2.55793	0.949881	2.57309	1.33585	2.66287	1.44939	2.89759	1.90432	3.80654			1.28261	2.55626	1.33037	2.64893	1.65618	3.29807				
0.944975	2.57762	1.28406	2.55552	0.945447	2.57718	1.34177	2.66241	1.45181	2.8891	1.90427	3.78896			1.28729	2.55384	1.33581	2.64761	1.65716	3.28493				
0.940511	2.58169	1.28873	2.55308	0.940986	2.58126	1.34768	2.66195	1.45428	2.88078	1.90425	3.77159			1.29195	2.5514	1.34131	2.64641	1.65818	3.27199				
0.936012	2.58572	1.29338	2.55065	0.936492	2.5853	1.35358	2.66147	1.45679	2.87263	1.90425	3.75443			1.29659	2.54896	1.34686	2.64531	1.65924	3.25922				
0.931472	2.58969	1.29803	2.54821	0.931956	2.58927	1.35947	2.66098	1.45935	2.86465	1.90428	3.73749			1.30123	2.54653	1.35245	2.64431	1.66032	3.24664				
0.926884	2.59357	1.30266	2.54579	0.927374	2.59316	1.36535	2.66047	1.46196	2.85683	1.90433	3.72075			1.30587	2.54412	1.35808	2.64339	1.66144	3.23424				
0.922242	2.59735	1.3073	2.54338	0.922737	2.59695	1.37122	2.65995	1.46462	2.84917	1.90442	3.70421			1.31051	2.54173	1.36375	2.64256	1.6626	3.22202				
0.91754	2.60101	1.31194	2.541	0.918042	2.60062	1.37707	2.6594	1.46732	2.84168	1.90453	3.68788			1.31515	2.53937	1.36945	2.6418	1.66379	3.20998				
0.912774	2.60453	1.31658	2.53865	0.913283	2.60417	1.38291	2.65883	1.47008	2.83436	1.90467	3.67174			1.3198	2.53704	1.37518	2.6411	1.66502	3.1981				
0.907941	2.60791	1.32124	2.53633	0.908457	2.60756	1.38874	2.65824	1.47289	2.8272	1.90483	3.6558			1.32446	2.53476	1.38094	2.64046	1.66628	3.1864				
0.903038	2.61114	1.3259	2.53406	0.903562	2.6108	1.39455	2.65762	1.47575	2.8202	1.90503	3.64006			1.32913	2.53252	1.38673	2.63987	1.66757	3.17487				
0.898065	2.6142	1.33058	2.53184	0.898597	2.61388	1.40034	2.65698	1.47867	2.81337	1.90525	3.6245			1.33382	2.53033	1.39254	2.63933	1.6689	3.16351				
0.893023	2.6171	1.33527	2.52966	0.893561	2.6168	1.40611	2.6563	1.48164	2.80671	1.9055	3.60914			1.33853	2.52819	1.39836	2.63884	1.67027	3.15231				
0.887911	2.61983	1.33999	2.52754	0.888457	2.61955	1.41186	2.65558	1.48467	2.80021	1.90579	3.59397			1.34326	2.52611	1.40421	2.63838	1.67167	3.14127				
0.882732	2.62241	1.34472	2.52548	0.883285	2.62214	1.41758	2.65483	1.48776	2.79388	1.90609	3.57898			1.34801	2.52409	1.41007	2.63796	1.6731	3.13039				
0.877488	2.62482	1.34948	2.52348	0.878048	2.62457	1.42328	2.65403	1.49091	2.78771	1.90643	3.56417			1.35278	2.52213	1.41595	2.63757	1.67457	3.11967				
0.872183	2.62708	1.35426	2.52154	0.872749	2.62685	1.42895	2.65319	1.49413	2.78172	1.9068	3.54955			1.35758	2.52024	1.42184	2.63721	1.67607	3.10911				
0.866821	2.62921	1.35906	2.51967	0.867393	2.62899	1.43459	2.6523	1.49741	2.7759	1.9072	3.5351			1.36241	2.51841	1.42774	2.63687	1.67761	3.0987				
0.861405	2.63119	1.3639	2.51786	0.861982	2.63099	1.4402	2.65136	1.50076	2.77026	1.90762	3.52083			1.36726	2.51665	1.43366	2.63656	1.67919	3.08844				
0.855938	2.63305	1.36876	2.51612	0.856521	2.63286	1.44577	2.65035	1.50417	2.76479	1.90808	3.50674			1.37214	2.51495	1.43958	2.63627	1.6808	3.07834				
0.850425	2.6348	1.37366	2.51445	0.851013	2.63462	1.4513	2.64929	1.50767	2.75951	1.90856	3.49282			1.37706	2.51333	1.44551	2.63599	1.68244	3.06838				
0.844869	2.63643	1.37858	2.51285	0.845461	2.63626	1.45679	2.64815	1.51124	2.75441	1.90908	3.47907			1.382	2.51178	1.45146	2.63574	1.68412	3.05857				
0.839275	2.63796	1.38353	2.51132	0.83987	2.63781	1.46223	2.64694	1.51488	2.7495	1.90962	3.46548			1.38698	2.5103	1.4574	2.6355	1.68583	3.04891				
0.833644	2.63941	1.38852	2.50986	0.834243	2.63926	1.46762	2.64565	1.51862	2.74478	1.91019	3.45207			1.39199	2.50889	1.46336	2.63527	1.68758	3.03938				
0.82798	2.64077	1.39354	2.50847	0.828583	2.64063	1.47296	2.64428	1.52244	2.74025	1.9108	3.43882			1.39704	2.50755	1.46932	2.63505	1.68936	3.03				
0.822286	2.64205	1.3986	2.50716	0.822892	2.64192	1.47825	2.64282	1.52634	2.73592	1.91143	3.42573			1.40211	2.50629	1.47528	2.63485	1.69118	3.02076				
0.816565	2.64327	1.40369	2.50591	0.817173	2.64314	1.48347	2.64127	1.53034	2.7318	1.91209	3.41281			1.40723	2.50509	1.48125	2.63465	1.69303	3.01166				
0.810818	2.64442	1.40881	2.50474	0.81143	2.6443	1.48864	2.63962	1.53444	2.72787	1.91278	3.40004			1.41237	2.50397	1.48723	2.63446	1.69492	3.0027				
0.80505	2.64551	1.41397	2.50364	0.805663	2.6454	1.49375	2.63788	1.53863	2.72415	1.91351	3.38743			1.41755	2.50292	1.4932	2.63428	1.69684	2.99386				
0.79926	2.64655	1.41916	2.50261	0.799875	2.64644	1.49879	2.63604	1.54292	2.72063	1.91426	3.37498			1.42277	2.50194	1.49918	2.63411	1.6988	2.98517				
0.793451	2.64755	1.42439	2.50165	0.794069	2.64744	1.50377	2.63411	1.54731	2.71732	1.91504	3.36268			1.42802	2.50102	1.50516	2.63394	1.7008	2.9766				
0.787625	2.6485	1.42965	2.50075	0.788245	2.6484	1.50869	2.63209	1.5518	2.7142	1.91585	3.35053			1.43331	2.50018	1.51115	2.63377	1.70282	2.96816				
0.781784	2.64941	1.43494	2.49993	0.782405	2.64932	1.51354	2.62998	1.55639	2.71129	1.9167	3.33853			1.43863	2.4994	1.51713	2.63361	1.70489	2.95986				
0.775928	2.65029	1.44027	2.49917	0.77655	2.6502	1.51834	2.62778	1.56108	2.70856	1.91757	3.32668			1.44398	2.49868	1.52311	2.63345	1.70699	2.95167				
0.770059	2.65114	1.44564	2.49847	0.770682	2.65105	1.52309	2.6255	1.56586	2.70603	1.91847	3.31498			1.44937	2.49803	1.5291	2.6333	1.70912	2.94362				
0.764178	2.65196	1.45104	2.49784	0.764803	2.65187	1.52778	2.62316	1.57073	2.70366	1.91941	3.30342			1.45479	2.49744	1.53508	2.63314	1.71129	2.93569				
0.758286	2.65275	1.45647	2.49727	0.758912	2.65267	1.53243	2.62076	1.57569	2.70147	1.92037	3.292			1.46024	2.49691	1.54107	2.63298	1.71349	2.92788				
0.752384	2.65352	1.46193	2.49676	0.753011	2.65344	1.53704	2.61831	1.58074	2.69944	1.92136	3.28073			1.46573	2.49644	1.54705	2.63283	1.71573	2.9202				
0.746473	2.65428	1.46743	2.49631	0.747101	2.6542	1.54161	2.61582	1.58586	2.69756	1.92239	3.2696			1.47125	2.49603	1.55303	2.63267	1.71801	2.91263				
0.740554	2.65501	1.47295	2.49591	0.741183	2.65494	1.54616	2.61331	1.59106	2.69582	1.92344	3.2586			1.47679	2.49567	1.55902	2.63251	1.72032	2.90518				
0.734627	2.65574	1.47851	2.49557	0.735257	2.65566	1.55069	2.61078	1.59632	2.69421	1.92453	3.24774			1.48237	2.49536	1.56499	2.63235	1.72267	2.89786				
0.728694	2.65644	1.48409	2.49528	0.729324	2.65637	1.5552	2.60824	1.60165	2.69272	1.92564	3.23702			1.48797	2.49511	1.57097	2.63219	1.72505	2.89064				
0.722754	2.65714	1.48971	2.49504	0.723385	2.65707	1.5597	2.60572	1.60704	2.69133	1.92679	3.22643			1.49361	2.4949	1.57694	2.63202	1.72747	2.88355				
0.716809	2.65783	1.49535	2.49485	0.717441	2.65776	1.56421	2.60321	1.61248	2.69005	1.92796	3.21597			1.49927	2.49474	1.58291	2.63185	1.72992	2.87657				
0.710859	2.65851	1.50102	2.4947	0.711491	2.65844	1.56873	2.60074	1.61797	2.68886	1.92917	3.20565			1.50495	2.49463	1.58888	2.63167	1.73242	2.8697				
0.704904	2.65919	1.50671	2.4946	0.705537	2.65912	1.57326	2.59831	1.62351	2.68776	1.9304	3.19545			1.51067	2.49455	1.59484	2.63149	1.73494	2.86294				
0.698946	2.65987	1.51243	2.49454	0.699579	2.6598	1.57782	2.59594	1.62909	2.68673	1.93167	3.18538			1.5164	2.49452	1.6008	2.6313	1.73751	2.8563				
0.692984	2.66054	1.51818	2.49452	0.693617	2.66047	1.58241	2.59365	1.6347	2.68578	1.93297	3.17544			1.52216	2.49453	1.60675	2.63111	1.74011	2.84977				
0.687019	2.66121	1.52394	2.49454	0.687652	2.66114	1.58704	2.59145	1.64036	2.68488	1.93429	3.16562			1.52795	2.49457	1.6127	2.6309	1.74275	2.84335				
0.681051	2.66189	1.52973	2.49459	0.681685	2.66182	1.59173	2.58935	1.64604	2.68404	1.93565	3.15592			1.53375	2.49465	1.61864	2.63069	1.74543	2.83704				
0.675081	2.66257	1.53554	2.49468	0.675715	2.66249	1.59648	2.58737	1.65175	2.68326	1.93704	3.14635			1.53957	2.49476	1.62457	2.63047	1.74814	2.83083				
0.669109	2.66325	1.54138	2.4948	0.669743	2.66318	1.60131	2.58553	1.65748	2.68252	1.93846	3.1369			1.54542	2.49491	1.6305	2.63024	1.7509	2.82474				
0.663135	2.66394	1.54723	2.49496	0.66377	2.66387	1.60623	2.58383	1.66324	2.68183	1.93991	3.12756			1.55128	2.49508	1.63642	2.63	1.75369	2.81875				
0.657161	2.66464	1.5531	2.49514	0.657795	2.66456	1.61124	2.58231	1.66903	2.68118	1.94139	3.11835			1.55717	2.49528	1.64233	2.62975	1.75652	2.81287				
0.651186	2.66535	1.55898	2.49535	0.65182	2.66527	1.61635	2.58096	1.67483	2.68056	1.9429	3.10925			1.56307	2.49551	1.64823	2.62948	1.75939	2.80709				
0.64521	2.66607	1.56489	2.49558	0.645845	2.66599	1.62157	2.57978	1.68065	2.67998	1.94444	3.10027			1.56898	2.49576	1.65412	2.6292	1.7623	2.80142				
0.639235	2.6668	1.57081	2.49584	0.639869	2.66672	1.62689	2.57879	1.68648	2.67942	1.94601	3.0914			1.57491	2.49603	1.66	2.6289	1.76525	2.79586				
0.63326	2.66755	1.57675	2.49612	0.633894	2.66747	1.63232	2.57797	1.69233	2.6789	1.94761	3.08264			1.58086	2.49633	1.66587	2.62859	1.76825	2.79041				
0.627286	2.66832	1.5827	2.49643	0.62792	2.66824	1.63785	2.57731	1.69819	2.6784	1.94924	3.074			1.58683	2.49665	1.67172	2.62826	1.77128	2.78506				
0.621313	2.66911	1.58867	2.49675	0.621947	2.66903	1.64347	2.5768	1.70407	2.67792	1.9509	3.06546			1.5928	2.49699	1.67756	2.62791	1.77436	2.77981				
0.615341	2.66993	1.59465	2.49709	0.615975	2.66984	1.64917	2.57642	1.70996	2.67746	1.95259	3.05704			1.59879	2.49734	1.68339	2.62755	1.77749	2.77468				
0.609372	2.67076	1.60064	2.49746	0.610006	2.67067	1.65495	2.57615	1.71586	2.67702	1.95432	3.04872			1.60479	2.49772	1.68921	2.62716	1.78065	2.76964				
0.603405	2.67163	1.60665	2.49784	0.604038	2.67154	1.66079	2.57598	1.72176	2.6766	1.95607	3.04051			1.61081	2.49811	1.695	2.62674	1.78387	2.76472				
0.597441	2.67253	1.61267	2.49823	0.598074	2.67243	1.66668	2.5759	1.72768	2.6762	1.95785	3.0324			1.61683	2.49851	1.70078	2.62631	1.78713	2.7599				
0.59148	2.67346	1.61869	2.49864	0.592113	2.67336	1.67261	2.57589	1.7336	2.67581	1.95966	3.0244			1.62287	2.49893	1.70654	2.62584	1.79044	2.75519				
0.585524	2.67443	1.62474	2.49906	0.586156	2.67432	1.67859	2.57594	1.73953	2.67544	1.96151	3.01651			1.62892	2.49936	1.71227	2.62535	1.79379	2.7506				
0.579572	2.67544	1.63079	2.4995	0.580204	2.67533	1.68459	2.57604	1.74547	2.67508	1.96338	3.00871			1.63498	2.49981	1.71799	2.62482	1.7972	2.74611				
0.573625	2.67649	1.63685	2.49995	0.574256	2.67638	1.69063	2.57618	1.75141	2.67473	1.96528	3.00102			1.64104	2.50026	1.72368	2.62427	1.80066	2.74173				
0.567684	2.6776	1.64292	2.50041	0.568314	2.67748	1.69669	2.57635	1.75736	2.67439	1.96722	2.99342			1.64712	2.50073	1.72934	2.62367	1.80418	2.73746				
0.561749	2.67876	1.649	2.50088	0.562379	2.67864	1.70277	2.57656	1.76331	2.67406	1.96918	2.98593			1.65321	2.50121	1.73498	2.62304	1.80775	2.73331				
0.555822	2.67999	1.65508	2.50136	0.556451	2.67985	1.70887	2.57679	1.76927	2.67374	1.97118	2.97853			1.6593	2.50169	1.74059	2.62237	1.81137	2.72927				
0.549902	2.68128	1.66118	2.50184	0.550531	2.68114	1.71498	2.57704	1.77523	2.67342	1.9732	2.97124			1.6654	2.50219	1.74616	2.62166	1.81506	2.72535				
0.543992	2.68264	1.66728	2.50234	0.54462	2.68249	1.72111	2.57731	1.7812	2.67312	1.97526	2.96403			1.67151	2.50269	1.75171	2.6209	1.81881	2.72154				
0.538092	2.68409	1.6734	2.50285	0.538718	2.68393	1.72724	2.57759	1.78717	2.67282	1.97735	2.95693			1.67763	2.5032	1.75721	2.6201	1.82262	2.71786				
0.532204	2.68562	1.67951	2.50336	0.532828	2.68546	1.73339	2.57788	1.79314	2.67253	1.97946	2.94991			1.68375	2.50372	1.76268	2.61924	1.82649	2.7143				
0.526328	2.68726	1.68564	2.50388	0.526951	2.68708	1.73954	2.57818	1.79911	2.67224	1.98161	2.94299			1.68988	2.50424	1.76811	2.61833	1.83043	2.71086				
0.520466	2.68901	1.69177	2.5044	0.521088	2.68882	1.7457	2.5785	1.80509	2.67196	1.98379	2.93617			1.69602	2.50477	1.7735	2.61737	1.83444	2.70754				
0.51462	2.69089	1.69791	2.50493	0.51524	2.69068	1.75186	2.57881	1.81106	2.67168	1.986	2.92943			1.70216	2.5053	1.77884	2.61635	1.83852	2.70435				
0.508791	2.6929	1.70406	2.50547	0.509409	2.69268	1.75803	2.57914	1.81704	2.67141	1.98824	2.92279			1.70831	2.50584	1.78414	2.61526	1.84267	2.70129				
0.502982	2.69507	1.71021	2.50601	0.503598	2.69483	1.76421	2.57946	1.82302	2.67113	1.99051	2.91623			1.71446	2.50639	1.7894	2.61412	1.84689	2.69835				
0.497195	2.69741	1.71636	2.50656	0.497809	2.69715	1.77039	2.57979	1.829	2.67087	1.99281	2.90977			1.72062	2.50694	1.7946	2.61291	1.85119	2.69554				
0.491434	2.69995	1.72252	2.50711	0.492044	2.69967	1.77657	2.58012	1.83498	2.6706	1.99514	2.90339			1.72679	2.50749	1.79975	2.61164	1.85556	2.69286				
0.485699	2.70271	1.72869	2.50766	0.486307	2.7024	1.78275	2.58046	1.84096	2.67034	1.9975	2.8971			1.73296	2.50804	1.80486	2.61031	1.86001	2.69031				
0.479997	2.70571	1.73486	2.50822	0.480601	2.70538	1.78894	2.58079	1.84694	2.67008	1.9999	2.8909			1.73913	2.5086	1.80991	2.60891	1.86453	2.68789				
0.47433	2.70901	1.74104	2.50878	0.47493	2.70864	1.79513	2.58113	1.85292	2.66981	2.00232	2.88478			1.74531	2.50916	1.81491	2.60745	1.86914	2.68559				
0.468703	2.71262	1.74722	2.50934	0.469299	2.71222	1.80131	2.58146	1.8589	2.66955	2.00478	2.87875			1.75149	2.50973	1.81987	2.60593	1.87381	2.68341				
0.463122	2.71659	1.7534	2.5099	0.463712	2.71615	1.8075	2.58179	1.86488	2.66929	2.00727	2.8728			1.75768	2.51029	1.82477	2.60434	1.87856	2.68135				
0.457593	2.72099	1.75959	2.51047	0.458177	2.7205	1.81369	2.58213	1.87085	2.66903	2.00979	2.86694			1.76387	2.51086	1.82962	2.6027	1.88339	2.67941				
0.452122	2.72586	1.76578	2.51104	0.4527	2.72532	1.81989	2.58246	1.87683	2.66877	2.01234	2.86116			1.77006	2.51143	1.83443	2.60101	1.88828	2.67759				
0.446719	2.73127	1.77198	2.5116	0.447289	2.73067	1.82608	2.58278	1.8828	2.6685	2.01492	2.85547			1.77626	2.512	1.8392	2.59926	1.89325	2.67587				
0.441391	2.73732	1.77817	2.51218	0.441953	2.73665	1.83227	2.58311	1.88877	2.66824	2.01754	2.84986			1.78246	2.51257	1.84392	2.59746	1.89828	2.67426				
0.43615	2.74408	1.78438	2.51275	0.436702	2.74333	1.83846	2.58343	1.89474	2.66797	2.02019	2.84433			1.78867	2.51314	1.84861	2.59563	1.90337	2.67275				
0.431006	2.75167	1.79058	2.51332	0.431547	2.75082	1.84465	2.58375	1.9007	2.6677	2.02287	2.83888			1.79488	2.51372	1.85325	2.59375	1.90853	2.67133				
0.425974	2.7602	1.79679	2.51389	0.426503	2.75925	1.85083	2.58407	1.90666	2.66743	2.02558	2.83352			1.80109	2.51429	1.85787	2.59184	1.91374	2.67				
0.421066	2.76981	1.803	2.51447	0.421581	2.76874	1.85702	2.58438	1.91261	2.66715	2.02833	2.82823			1.8073	2.51486	1.86245	2.58989	1.91901	2.66876				
0.416298	2.78065	1.80922	2.51504	0.416797	2.77944	1.86321	2.58469	1.91856	2.66687	2.03111	2.82303			1.81352	2.51544	1.86701	2.58793	1.92432	2.6676				
0.411685	2.79288	1.81544	2.51561	0.412167	2.79151	1.86939	2.585	1.92451	2.66658	2.03393	2.81791			1.81974	2.51601	1.87154	2.58594	1.92969	2.66651				
0.407242	2.80668	1.82166	2.51619	0.407705	2.80513	1.87557	2.5853	1.93045	2.66628	2.03678	2.81287			1.82596	2.51658	1.87605	2.58393	1.9351	2.66549				
0.402985	2.82222	1.82788	2.51676	0.403428	2.82048	1.88176	2.58559	1.93638	2.66598	2.03967	2.80791			1.83218	2.51716	1.88054	2.58191	1.94056	2.66453				
0.398928	2.83969	1.8341	2.51733	0.399349	2.83774	1.88793	2.58588	1.94231	2.66567	2.04259	2.80303			1.83841	2.51773	1.88502	2.57988	1.94605	2.66364				
0.395083	2.85928	1.84033	2.5179	0.395481	2.8571	1.89411	2.58617	1.94823	2.66536	2.04555	2.79823			1.84463	2.5183	1.88948	2.57785	1.95158	2.6628				
0.391459	2.88117	1.84656	2.51847	0.391833	2.87873	1.90028	2.58645	1.95414	2.66503	2.04855	2.79351			1.85086	2.51887	1.89393	2.57582	1.95714	2.66201				
0.388064	2.90553	1.85279	2.51904	0.388413	2.90282	1.90645	2.58673	1.96004	2.6647	2.05158	2.78887			1.8571	2.51944	1.89838	2.57378	1.96274	2.66126				
0.384902	2.93251	1.85902	2.51961	0.385227	2.92952	1.91262	2.58699	1.96594	2.66435	2.05466	2.78432			1.86333	2.52	1.90281	2.57175	1.96836	2.66057				
0.381975	2.96229	1.86525	2.52018	0.382275	2.95899	1.91879	2.58726	1.97182	2.66399	2.05777	2.77985			1.86956	2.52057	1.90725	2.56973	1.97401	2.65991				
0.379283	2.99501	1.87149	2.52074	0.379558	2.99139	1.92495	2.58751	1.97769	2.66362	2.06093	2.77546			1.8758	2.52113	1.91168	2.56772	1.97969	2.65929				
0.376823	3.0308	1.87772	2.52131	0.377073	3.02685	1.9311	2.58776	1.98355	2.66323	2.06412	2.77115			1.88203	2.5217	1.91611	2.56573	1.98539	2.6587				
0.37459	3.06982	1.88396	2.52187	0.374817	3.06552	1.93726	2.58801	1.98939	2.66283	2.06736	2.76693			1.88827	2.52225	1.92055	2.56374	1.99111	2.65814				
0.372581	3.1122	1.8902	2.52243	0.372784	3.10754	1.9434	2.58824	1.99522	2.66241	2.07065	2.76279			1.89451	2.52281	1.92499	2.56178	1.99684	2.65762				
0.37079	3.15811	1.89643	2.52298	0.37097	3.15306	1.94955	2.58847	2.00103	2.66197	2.07398	2.75874			1.90075	2.52337	1.92943	2.55983	2.0026	2.65712				
0.369211	3.2077	1.90267	2.52354	0.369369	3.20226	1.95568	2.58869	2.00683	2.66151	2.07735	2.75478			1.90699	2.52392	1.93388	2.5579	2.00837	2.65664				
0.367839	3.26116	1.90891	2.52409	0.367975	3.25529	1.96182	2.5889	2.0126	2.66103	2.08078	2.75091			1.91322	2.52446	1.93834	2.556	2.01416	2.65619				
0.366668	3.31866	1.91515	2.52463	0.366783	3.31236	1.96794	2.5891	2.01836	2.66052	2.08426	2.74713			1.91946	2.52501	1.94281	2.55412	2.01996	2.65576				
0.365692	3.38043	1.92139	2.52517	0.365787	3.37366	1.97406	2.58929	2.02409	2.65998	2.08779	2.74344			1.9257	2.52554	1.94729	2.55227	2.02577	2.65535				
0.364907	3.44668	1.92762	2.52571	0.364981	3.43943	1.98018	2.58947	2.0298	2.65942	2.09138	2.73984			1.93193	2.52607	1.95178	2.55044	2.0316	2.65495				
0.364306	3.51768	1.93385	2.52624	0.364361	3.5099	1.98628	2.58964	2.03548	2.65883	2.09502	2.73635			1.93816	2.5266	1.95629	2.54865	2.03743	2.65457				
0.363886	3.59369	1.94008	2.52676	0.363922	3.58537	1.99238	2.5898	2.04113	2.6582	2.09873	2.73295			1.94439	2.52711	1.96081	2.54689	2.04328	2.65421				
0.363641	3.67501	1.94631	2.52727	0.363659	3.66611	1.99847	2.58994	2.04675	2.65753	2.1025	2.72966			1.95061	2.52762	1.96535	2.54516	2.04913	2.65386				
0.363567	3.76198	1.95252	2.52777	0.363567	3.75247	2.00455	2.59008	2.05234	2.65683	2.10633	2.72647			1.95682	2.5281	1.96992	2.54348	2.05499	2.65352				
0.363658	3.85497	1.95873	2.52825	0.363641	3.8448	2.01061	2.5902	2.05789	2.65608	2.11024	2.72339			1.96301	2.52857	1.97452	2.54184	2.06086	2.65319				
0.363911	3.95437	1.96492	2.52871	0.363877	3.9435	2.01667	2.5903	2.06341	2.65529	2.11421	2.72042			1.96918	2.529	1.97916	2.54027	2.06674	2.65288				
0.36432	4.06062	1.97108	2.52912	0.364269	4.049	2.02272	2.59039	2.06888	2.65445	2.11826	2.71756			1.97532	2.52938	1.98385	2.53877	2.07262	2.65257				
0.36488	4.17422	1.9772	2.52948	0.364813	4.16179	2.02875	2.59046	2.07431	2.65357	2.12239	2.71482			1.98138	2.52968	1.98864	2.5374	2.0785	2.65227				
0.365586	4.29569	1.98324	2.52974	0.365504	4.2824	2.03477	2.59051	2.0797	2.65263	2.1266	2.71219			1.98734	2.52983	1.99356	2.53621	2.08439	2.65198				
0.366433	4.42563	1.98914	2.52984	0.366337	4.41141	2.04077	2.59054	2.08505	2.65164	2.13089	2.70969			1.99311	2.52974	1.99871	2.53532	2.09029	2.6517				
0.367416	4.56471	1.99483	2.52965	0.367306	4.54949	2.04676	2.59056	2.09034	2.6506	2.13526	2.70731			1.9986	2.52931	2.00416	2.53481	2.09619	2.65142				
0.368529	4.71366	2.00023	2.5291	0.368405	4.69736	2.05273	2.59054	2.0956	2.64951	2.13972	2.70505			2.00381	2.52851	2.0099	2.53468	2.10209	2.65114				
0.369766	4.87331	2.00537	2.52821	0.369629	4.85583	2.05867	2.59051	2.1008	2.64837	2.14426	2.70291			2.00881	2.52746	2.01584	2.5348	2.10799	2.65087				
0.371121	5.04458	2.01032	2.52711	0.370972	5.02581	2.0646	2.59044	2.10597	2.64718	2.14889	2.70089			2.01369	2.52627	2.0219	2.53507	2.1139	2.65061				
0.372588	5.22851	2.01518	2.52589	0.372427	5.20834	2.07051	2.59035	2.11109	2.64594	2.15361	2.69899			2.01851	2.52501	2.02804	2.53542	2.1198	2.65035				
0.373953	5.40002	2.01999	2.52461	0.373989	5.40457	2.07638	2.59023	2.11617	2.64466	2.15841	2.69721			2.0233	2.52372	2.03421	2.53583	2.12571	2.65009				
0.375175	5.55518	2.02478	2.52332	0.375649	5.61582	2.08223	2.59007	2.12122	2.64335	2.16329	2.69554			2.02808	2.52242	2.04041	2.53626	2.13162	2.64983				
0.376225	5.69015	2.02956	2.52203	0.377401	5.84358	2.08805	2.58988	2.12624	2.64201	2.16826	2.69398			2.03286	2.52113	2.04663	2.53672	2.13753	2.64957				
0.37708	5.8014	2.03434	2.52074	0.379236	6.08957	2.09384	2.58964	2.13123	2.64064	2.1733	2.69253			2.03765	2.51986	2.05286	2.53718	2.14343	2.64932				
0.377721	5.88589	2.03913	2.51947	0.381148	6.35576	2.09959	2.58936	2.1362	2.63926	2.17842	2.69117			2.04244	2.5186	2.0591	2.53765	2.14934	2.64906				
0.37832	5.9657	2.04392	2.51822	0.383128	6.64443	2.1053	2.58904	2.14116	2.63786	2.18361	2.68991			2.04725	2.51736	2.06534	2.53813	2.15524	2.64881				
0.378742	6.02244	2.04873	2.51699	0.385167	6.95823	2.11097	2.58867	2.14612	2.63647	2.18886	2.68874			2.05207	2.51615	2.07159	2.53861	2.16115	2.64855				
0.379409	6.11316	2.05356	2.51578	0.387256	7.30027	2.1166	2.58824	2.15108	2.63509	2.19417	2.68765			2.0569	2.51496	2.07784	2.53909	2.16705	2.6483				
0.380332	6.24072	2.05839	2.5146	0.38911	7.62422	2.12217	2.58776	2.15604	2.63373	2.19955	2.68664			2.06175	2.51379	2.0841	2.53958	2.17295	2.64804				
0.381523	6.40933	2.06324	2.51344	0.39071	7.92161	2.1277	2.58722	2.16102	2.6324	2.20498	2.6857			2.06661	2.51265	2.09036	2.54006	2.17884	2.64778				
0.382997	6.62485	2.06811	2.51231	0.392043	8.18383	2.13317	2.58662	2.16602	2.63109					2.07149	2.51154	2.09662	2.54055	2.18473	2.64751				
0.384768	6.89531	2.07299	2.5112	0.393102	8.40252	2.13859	2.58595	2.17106	2.62984					2.07638	2.51045	2.10288	2.54103	2.19062	2.64725				
0.386848	7.23161	2.07789	2.51012	0.393883	8.57016	2.14395	2.58522	2.17612	2.62862					2.08129	2.50939	2.10914	2.54151	2.1965	2.64697				
0.38897	7.59906	2.08281	2.50906	0.394602	8.72982	2.14925	2.58442	2.18123	2.62747					2.08622	2.50835	2.11541	2.54199	2.20238	2.6467				
0.391125	8.00187	2.08775	2.50804	0.395103	8.84409	2.15449	2.58356	2.18638	2.62637					2.09117	2.50734	2.12167	2.54247						
0.393303	8.44508	2.0927	2.50704	0.395886	9.02814	2.15967	2.58262	2.19157	2.62534					2.09613	2.50636	2.12794	2.54295						
0.395492	8.93476	2.09767	2.50606	0.39695	9.28984	2.16479	2.58162	2.19682	2.62437					2.10111	2.5054	2.1342	2.54342						
0.397682	9.47831	2.10265	2.50511	0.398293	9.64108	2.16986	2.58056	2.20212	2.62346					2.10611	2.50447	2.14047	2.54389						
0.399861	10.0849	2.10766	2.50419	0.399909	10.0992	2.17486	2.57944							2.11113	2.50357	2.14673	2.54436						
0.402017	10.7657	2.11268	2.50329	0.401789	10.6895	2.17982	2.57826							2.11616	2.50269	2.153	2.54483						
0.404137	11.5353	2.11772	2.50242	0.403914	11.4489	2.18472	2.57702							2.12121	2.50183	2.15927	2.5453						
0.40621	12.4119	2.12277	2.50158	0.405993	12.3131	2.18957	2.57574							2.12628	2.50101	2.16553	2.54576						
0.408222	13.4195	2.12785	2.50076	0.408012	13.3054	2.19439	2.57441							2.13137	2.5002	2.1718	2.54622						
0.41016	14.5898	2.13294	2.49996	0.409958	14.4567	2.19916	2.57304							2.13647	2.49943	2.17807	2.54668						
0.41201	15.9661	2.13805	2.49919	0.411818	15.8086	2.20389	2.57164							2.14159	2.49867	2.18433	2.54713						
0.413759	17.6084	2.14318	2.49845	0.413579	17.4191									2.14673	2.49795	2.1906	2.54758						
0.415395	19.6029	2.14832	2.49773	0.415227	19.371									2.15189	2.49724	2.19687	2.54803						
0.416904	22.0782	2.15348	2.49703	0.41675	21.7873									2.15707	2.49656	2.20313	2.54848						
0.418274	25.2342	2.15866	2.49636	0.418135	24.8584									2.16226	2.49591								
0.419492	29.4003	2.16386	2.49571	0.41937	28.8956									2.16747	2.49527								
0.42055	35.1604	2.16908	2.49508	0.420445	34.4461									2.17269	2.49466								
0.421436	43.6563	2.17431	2.49448	0.42135	42.5671									2.17794	2.49408								
0.422142	57.4648	2.17956	2.4939	0.422076	55.6014									2.1832	2.49351								
0.422663	83.8831	2.18483	2.49334	0.422616	79.9848									2.18848	2.49297								
0.422991	154.867	2.19011	2.49281	0.422966	142.111									2.19377	2.49245								
0.423125	998.128	2.19541	2.4923	0.42312	632.546									2.19908	2.49196								
		2.20073	2.49181											2.20441	2.49148								
