Sym0		Asym0		Sym1		Sym2		Sym3		Sym4		Sym5		Asym1		Asym2		Asym3		Asym4		Asym5		Asym6	
401  Points		399  Points		402  Points		388  Points		378  Points		364  Points		355  Points		399  Points		396  Points		378  Points		362  Points		173  Points		131  Points	
Freq (MHz)	Vph (m/ms)	Freq (MHz)	Vph (m/ms)	Freq (MHz)	Vph (m/ms)	Freq (MHz)	Vph (m/ms)	Freq (MHz)	Vph (m/ms)	Freq (MHz)	Vph (m/ms)	Freq (MHz)	Vph (m/ms)	Freq (MHz)	Vph (m/ms)	Freq (MHz)	Vph (m/ms)	Freq (MHz)	Vph (m/ms)	Freq (MHz)	Vph (m/ms)	Freq (MHz)	Vph (m/ms)	Freq (MHz)	Vph (m/ms)
2.20192	2.41169	0.346115	906.849	2.20358	2.41174	2.20515	2.49976	1.00187	480.849	1.38447	614.068	2.20176	2.72869	0.346111	1910.36	0.667906	422.435	1.03833	2427.99	1.33584	652.429	1.73055	2474.74	2.00376	48023.1
2.19621	2.41152	0.346396	128.817	2.19786	2.41157	2.1989	2.49921	1.00184	228.16	1.38458	303.503	2.19689	2.73046	0.346355	139.178	0.667842	171.749	1.03841	379.668	1.33584	306.744	1.73058	575.578	2.00377	852.988
2.19051	2.41137	0.347098	69.4687	2.19215	2.41141	2.19263	2.49864	1.00179	149.558	1.38475	201.583	2.19213	2.73239	0.34702	72.3567	0.667724	107.769	1.03861	205.973	1.33583	200.507	1.73065	325.673	2.00382	430.325
2.18482	2.41124	0.348213	47.6752	2.18646	2.41127	2.18635	2.49804	1.00172	111.231	1.38499	150.924	2.18749	2.73447	0.348099	49.0049	0.667556	78.5058	1.03892	141.352	1.33583	148.928	1.73076	227.09	2.00389	287.753
2.17915	2.41112	0.349731	36.3877	2.18079	2.41115	2.18005	2.49743	1.00163	88.5369	1.3853	120.627	2.18298	2.73672	0.349584	37.1472	0.667341	61.7298	1.03934	107.623	1.33583	118.456	1.73091	174.331	2.00399	216.15
2.17349	2.41101	0.35164	29.5034	2.17512	2.41104	2.17374	2.4968	1.00153	73.5309	1.38568	100.473	2.1786	2.73915	0.351459	29.9927	0.667082	50.8522	1.03987	86.9122	1.33584	98.3358	1.73109	141.472	2.00413	173.087
2.16784	2.41092	0.353923	24.8785	2.16947	2.41094	2.16742	2.49615	1.00142	62.8719	1.38612	86.0997	2.17435	2.74176	0.353711	25.219	0.666786	43.2263	1.04051	72.9056	1.33585	84.0589	1.73131	119.042	2.00429	144.338
2.16222	2.41085	0.356561	21.5661	2.16384	2.41087	2.16109	2.4955	1.0013	54.9101	1.38661	75.3331	2.17023	2.74455	0.356319	21.8159	0.666458	37.5832	1.04125	62.8038	1.33588	73.4028	1.73156	102.757	2.0045	123.784
2.1566	2.41079	0.359534	19.0827	2.15822	2.4108	2.15475	2.49483	1.00119	48.7369	1.38716	66.9679	2.16624	2.74753	0.359263	19.2734	0.666106	33.2384	1.04209	55.1753	1.33592	65.1455	1.73184	90.3957	2.00473	108.359
2.151	2.41075	0.362818	17.1559	2.15262	2.41076	2.14841	2.49415	1.00108	43.8108	1.38775	60.2817	2.16239	2.75069	0.362521	17.306	0.665739	29.7901	1.04301	49.2121	1.33598	58.5593	1.73215	80.6931	2.00501	96.3564
2.14542	2.41073	0.366388	15.6205	2.14703	2.41073	2.14206	2.49346	1.00098	39.7887	1.3884	54.8155	2.15866	2.75403	0.366067	15.7414	0.665366	26.987	1.04402	44.4234	1.33606	53.184	1.73248	72.875	2.00533	86.7518
2.13986	2.41073	0.370221	14.3702	2.14146	2.41072	2.13571	2.49276	1.00091	36.4432	1.38908	50.2634	2.15506	2.75756	0.369878	14.4696	0.664997	24.6638	1.04511	40.494	1.33617	48.714	1.73282	66.441	2.00569	78.8924
2.13431	2.41074	0.37429	13.334	2.13591	2.41073	2.12936	2.49206	1.00086	33.6172	1.38979	46.4141	2.15158	2.76126	0.373927	13.4169	0.664644	22.7075	1.04627	37.2119	1.33632	44.939	1.73319	61.0535	2.00609	72.3426
2.12878	2.41078	0.378568	12.462	2.13037	2.41076	2.123	2.49135	1.00085	31.1988	1.39054	43.1165	2.14822	2.76513	0.378188	12.5322	0.66432	21.0379	1.04748	34.4297	1.3365	41.7088	1.73357	56.4764	2.00655	66.8006
2.12326	2.41083	0.383028	11.7187	2.12485	2.41081	2.11664	2.49063	1.00088	29.1063	1.39131	40.2599	2.14497	2.76917	0.382634	11.7789	0.664038	19.597	1.04875	32.0414	1.33673	38.914	1.73395	52.5395	2.00706	62.051
2.11776	2.4109	0.387644	11.0779	2.11935	2.41088	2.11028	2.48991	1.00097	27.2784	1.39209	37.7613	2.14182	2.77337	0.387237	11.13	0.663813	18.3414	1.05007	29.969	1.33702	36.4724	1.73434	49.1172	2.00762	57.9354
2.11228	2.411	0.392387	10.5198	2.11387	2.41097	2.10392	2.48917	1.00112	25.6684	1.39288	35.5573	2.13877	2.77772	0.391971	10.5654	0.66366	17.2382	1.05142	28.1535	1.33736	34.3215	1.73473	46.1148	2.00824	54.3353
2.10682	2.41111	0.397231	10.0292	2.1084	2.41108	2.09756	2.48844	1.00134	24.2401	1.39368	33.5986	2.13582	2.78222	0.396807	10.0695	0.663597	16.2619	1.0528	26.55	1.33778	32.4127	1.73511	43.4593	2.00892	51.1599
2.10138	2.41125	0.402148	9.59443	2.10295	2.41121	2.09119	2.4877	1.00165	22.9648	1.39448	31.8463	2.13296	2.78687	0.401719	9.63025	0.66364	15.3926	1.05419	25.1233	1.33826	30.7077	1.73549	41.0938	2.00966	48.3385
2.09595	2.41141	0.407111	9.20605	2.09752	2.41136	2.08482	2.48695	1.00205	21.8198	1.39526	30.2692	2.13018	2.79166	0.406679	9.23815	0.66381	14.6144	1.05559	23.8454	1.33882	29.1759	1.73585	38.973	2.01048	45.8153
2.09055	2.4116	0.412092	8.85657	2.09211	2.41154	2.07846	2.4862	1.00256	20.7865	1.39603	28.8422	2.12748	2.79658	0.411659	8.88555	0.664125	13.9145	1.05699	22.6942	1.33947	27.7926	1.73619	37.0608	2.01136	43.5458
2.08516	2.4118	0.417064	8.53991	2.08672	2.41174	2.07209	2.48544	1.00319	19.8498	1.39678	27.5446	2.12486	2.80163	0.416633	8.56626	0.664605	13.2824	1.05838	21.6514	1.34022	26.5376	1.73651	35.3276	2.01232	41.4937
2.0798	2.41203	0.421998	8.25111	2.08135	2.41196	2.06572	2.48468	1.00394	18.9973	1.39751	26.3595	2.12231	2.8068	0.421571	8.27521	0.665272	12.7097	1.05975	20.7022	1.34107	25.3941	1.73681	33.7494	2.01336	39.6296
2.07445	2.41229	0.426868	7.98605	2.07599	2.41221	2.05936	2.48392	1.00483	18.2187	1.3982	25.2726	2.11983	2.8121	0.426448	8.00823	0.666148	12.1891	1.06109	19.8343	1.34202	24.3483	1.73708	32.3061	2.01448	37.929
2.06912	2.41257	0.431648	7.7413	2.07066	2.41248	2.05299	2.48315	1.00587	17.5052	1.39885	24.272	2.11741	2.81752	0.431237	7.76183	0.667252	11.7147	1.06239	19.0375	1.34309	23.3886	1.73731	30.9809	2.01568	36.3714
2.06382	2.41287	0.436311	7.51398	2.06535	2.41278	2.04662	2.48238	1.00706	16.8494	1.39946	23.3478	2.11506	2.82306	0.435318	7.56161	0.668608	11.2815	1.06365	18.3032	1.34428	22.505	1.73751	29.7599	2.01696	34.9399
2.05853	2.4132	0.440832	7.3017	2.06006	2.4131	2.04026	2.4816	1.00843	16.2451	1.40002	22.4914	2.11276	2.82871	0.438715	7.40029	0.670234	10.8851	1.06485	17.6241	1.34559	21.6891	1.73766	28.631	2.01833	33.6198
2.05327	2.41356	0.445188	7.10241	2.05479	2.41345	2.03389	2.48082	1.00997	15.6868	1.40053	21.6953	2.11053	2.83447	0.44146	7.27272	0.672151	10.522	1.06599	16.994	1.34703	20.9338	1.73778	27.5842	2.01979	32.3989
2.04802	2.41394	0.449357	6.91438	2.04954	2.41383	2.02752	2.48003	1.01169	15.1699	1.40098	20.9534	2.10835	2.84034	0.443586	7.17526	0.674375	10.1888	1.06706	16.4075	1.34861	20.2328	1.73785	26.6107	2.02134	31.2665
2.0428	2.41435	0.453319	6.73619	2.04431	2.41423	2.02116	2.47925	1.0136	14.6903	1.40137	20.2601	2.10622	2.84632	0.445122	7.1054	0.676924	9.88274	1.06806	15.8602	1.35033	19.5807	1.73787	25.7029	2.02299	30.2136
2.0376	2.41479	0.457058	6.56659	2.0391	2.41466	2.0148	2.47845	1.01571	14.2445	1.4017	19.6107	2.10414	2.85241	0.446093	7.06145	0.67981	9.60143	1.06898	15.348	1.35218	18.9729	1.73784	24.8543	2.02472	29.2321
2.03242	2.41526	0.460559	6.40458	2.03392	2.41512	2.00843	2.47766	1.01802	13.8294	1.40197	19.0011	2.10212	2.85861	0.447471	6.99926	0.683042	9.34262	1.06981	14.8674	1.35418	18.4051	1.73777	24.0593	2.02655	28.3152
2.02727	2.41576	0.463813	6.2493	2.02876	2.41561	2.00207	2.47686	1.02054	13.4422	1.40218	18.4276	2.10014	2.86491	0.448944	6.93294	0.686627	9.10432	1.07056	14.4156	1.35633	17.8737	1.73764	23.3128	2.02847	27.4568
2.02213	2.41629	0.466812	6.10006	2.02362	2.41613	1.99571	2.47606	1.02326	13.0805	1.40231	17.887	2.09821	2.87131	0.450906	6.84477	0.690569	8.88476	1.07122	13.9898	1.35863	17.3756	1.73747	22.6105	2.03048	26.6517
2.01702	2.41684	0.469554	5.9563	2.0185	2.41668	1.98935	2.47526	1.02618	12.7421	1.40238	17.3765	2.09632	2.87782	0.453315	6.73639	0.694867	8.68231	1.07179	13.5877	1.36107	16.9079	1.73725	21.9486	2.03258	25.895
2.01194	2.41743	0.472039	5.81755	2.01341	2.41726	1.983	2.47445	1.02932	12.425	1.40239	16.8935	2.09448	2.88443	0.456114	6.60963	0.699517	8.49548	1.07226	13.2074	1.36365	16.468	1.73697	21.3235	2.03477	25.1827
2.00687	2.41805	0.474272	5.68345	2.00833	2.41787	1.97664	2.47364	1.03265	12.1275	1.40233	16.436	2.09268	2.89114	0.459233	6.46642	0.704511	8.3229	1.07264	12.847	1.36638	16.0536	1.73665	20.7323	2.03705	24.5109
2.00183	2.4187	0.47626	5.55371	2.00329	2.41851	1.97029	2.47283	1.03619	11.848	1.40221	16.0018	2.09093	2.89796	0.462584	6.30862	0.709839	8.16331	1.07293	12.5048	1.36926	15.6628	1.73628	20.1723	2.03942	23.8765
1.99681	2.41938	0.478014	5.42811	1.99826	2.41918	1.96393	2.47202	1.03993	11.5851	1.40203	15.5892	2.08922	2.90487	0.465682	6.15712	0.715487	8.01558	1.07313	12.1796	1.37227	15.2936	1.73587	19.641	2.04187	23.2764
1.99182	2.42009	0.479545	5.30646	1.99326	2.41988	1.95758	2.4712	1.04386	11.3374	1.40179	15.1967	2.08755	2.91189	0.468523	6.0113	0.721442	7.87862	1.07324	11.87	1.37541	14.9443	1.73542	19.1362	2.0444	22.7079
1.98685	2.42084	0.480869	5.18863	1.98828	2.42062	1.95124	2.47039	1.04797	11.1038	1.40149	14.8227	2.08592	2.91901	0.471107	5.87066	0.727685	7.75148	1.07326	11.5749	1.37869	14.6136	1.73493	18.6561	2.04701	22.1687
1.9819	2.42162	0.482	5.07449	1.98333	2.42139	1.94489	2.46957	1.05225	10.8831	1.40115	14.466	2.08432	2.92623	0.473438	5.7348	0.7342	7.63326	1.0732	11.2932	1.38209	14.2999	1.7344	18.1989	2.04969	21.6566
1.97698	2.42244	0.482956	4.96397	1.9784	2.4222	1.93855	2.46875	1.05671	10.6745	1.40076	14.1255	2.08277	2.93356	0.475519	5.6034	0.740083	7.53687	1.07307	11.0241	1.38562	14.002	1.73385	17.763	2.05244	21.1695
1.97208	2.42329	0.483752	4.85696	1.97349	2.42304	1.93221	2.46792	1.06133	10.4769	1.40033	13.8001	2.08126	2.94099	0.477362	5.47622	0.74524	7.45918	1.07287	10.7668	1.38925	13.7189	1.73327	17.347	2.05525	20.7058
1.9672	2.42417	0.484406	4.75341	1.96861	2.42391	1.92587	2.4671	1.06609	10.2895	1.39986	13.4888	2.07979	2.94852	0.478978	5.35306	0.749597	7.39784	1.0726	10.5205	1.39299	13.4494	1.73266	16.9495	2.05812	20.2637
1.96235	2.42509	0.484934	4.65323	1.96375	2.42482	1.91954	2.46628	1.07099	10.1117	1.39937	13.1907	2.07835	2.95615	0.48038	5.23377	0.753098	7.35108	1.07227	10.2846	1.39683	13.1925	1.73204	16.5694	2.06105	19.8418
1.95753	2.42604	0.485353	4.55637	1.95892	2.42576	1.91321	2.46545	1.07602	9.94256	1.39886	12.9052	2.07695	2.96388	0.481584	5.11822	0.755702	7.31764	1.0719	10.0584	1.40076	12.9475	1.73141	16.2057	2.06403	19.4386
1.95273	2.42703	0.485678	4.46275	1.95411	2.42674	1.90688	2.46463	1.08117	9.78155	1.39833	12.6315	2.07558	2.97172	0.482606	5.00631	0.757382	7.29664	1.07149	9.8414	1.40477	12.7134	1.73077	15.8573	2.06705	19.053
1.94795	2.42806	0.485924	4.37231	1.94933	2.42776	1.90056	2.46381	1.08641	9.62803	1.3978	12.3689	2.07426	2.97967	0.483462	4.89795	0.759813	7.26699	1.07104	9.63316	1.40885	12.4895	1.73014	15.5233	2.07011	18.6839
1.9432	2.42912	0.486105	4.28497	1.94457	2.42881	1.89425	2.46299	1.09175	9.48145	1.39727	12.1168	2.07297	2.98772	0.484169	4.79307	0.762479	7.23545	1.07058	9.43322	1.413	12.2752	1.72951	15.2029	2.0732	18.33
1.93847	2.43022	0.486234	4.20067	1.93984	2.4299	1.88794	2.46218	1.09717	9.34129	1.39676	11.8747	2.07171	2.99587	0.484744	4.69159	0.766139	7.19368	1.0701	9.24117	1.41719	12.0697	1.7289	14.8954	2.07632	17.9905
1.93377	2.43136	0.486324	4.11934	1.93513	2.43103	1.88165	2.46138	1.10264	9.20705	1.39627	11.6422	2.07049	3.00413	0.485203	4.59346	0.770823	7.14261	1.06963	9.05665	1.42144	11.8725	1.72831	14.6002	2.07945	17.6645
1.92909	2.43254	0.48638	4.05082	1.93044	2.43219	1.87538	2.46061	1.10817	9.07829	1.39581	11.4187	2.06931	3.0125	0.485562	4.49859	0.776564	7.0833	1.06918	8.87936	1.42571	11.6831	1.72776	14.3164	2.08259	17.3511
1.92444	2.43375	0.486416	3.9941	1.92578	2.43339	1.86917	2.4599	1.11373	8.95459	1.39539	11.2038	2.06816	3.02098	0.485837	4.40693	0.783396	7.01692	1.06877	8.70901	1.43001	11.5008	1.72725	14.0437	2.08573	17.0495
1.91981	2.435	0.486441	3.94835	1.92114	2.43464	1.86308	2.45935	1.11931	8.83554	1.39504	10.9972	2.06705	3.02956	0.486042	4.3184	0.791347	6.94461	1.0684	8.54535	1.43431	11.3253	1.72679	13.7814	2.08887	16.7591
1.9152	2.43629	0.48646	3.91291	1.91653	2.43591	1.85739	2.45933	1.12489	8.72077	1.39475	10.7985	2.06597	3.03826	0.486189	4.23293	0.7994	6.87605	1.0681	8.38815	1.43861	11.156	1.72639	13.529	2.092	16.4791
1.91062	2.43762	0.486474	3.88725	1.91195	2.43723	1.85245	2.46031	1.13046	8.60993	1.39455	10.6075	2.06493	3.04706	0.486293	4.15046	0.807534	6.81084	1.06789	8.23724	1.4429	10.9926	1.72605	13.2862	2.0951	16.209
1.90607	2.43899	0.486483	3.87101	1.90738	2.43859	1.84797	2.46191	1.136	8.5027	1.39445	10.4238	2.06392	3.05597	0.486365	4.0709	0.815729	6.74862	1.06779	8.09247	1.44717	10.8346	1.7258	13.0524	2.09818	15.9481
1.90154	2.4404	0.486496	3.8479	1.90285	2.43999	1.84366	2.46374	1.14149	8.39875	1.39446	10.2471	2.06294	3.065	0.486416	3.99419	0.823963	6.68905	1.06784	7.9537	1.45139	10.6817	1.72564	12.8274	2.10122	15.6959
1.89703	2.44184	0.486511	3.82311	1.89833	2.44142	1.83943	2.46569	1.14692	8.29779	1.3946	10.0773	2.062	3.07414	0.486456	3.92024	0.832215	6.63182	1.06801	7.8376	1.45556	10.5335	1.72559	12.6106	2.10421	15.4519
1.89255	2.44333	0.486535	3.78991	1.89384	2.44289	1.83524	2.4677	1.15226	8.19953	1.39489	9.91407	2.06109	3.08339	0.486495	3.84899	0.840461	6.5766	1.06827	7.74214	1.45966	10.3897	1.72564	12.4019	2.10715	15.2157
1.88808	2.44485	0.486569	3.74879	1.88937	2.4444	1.83108	2.46977	1.15749	8.10372	1.39535	9.75727	2.06022	3.09276	0.486542	3.78035	0.848677	6.52311	1.06858	7.66564	1.46369	10.25	1.72582	12.2009	2.11003	14.9868
1.88364	2.44641	0.486621	3.70033	1.88492	2.44595	1.82695	2.4719	1.1626	8.0101	1.39598	9.60671	2.05937	3.10224	0.486605	3.71425	0.856835	6.47105	1.06889	7.60669	1.46762	10.1142	1.72614	12.0073	2.11284	14.7647
1.87922	2.448	0.4867	3.64519	1.8805	2.44754	1.82285	2.47407	1.16757	7.91842	1.39682	9.46222	2.05857	3.11184	0.486691	3.65061	0.864907	6.42014	1.06915	7.56423	1.47145	9.98181	1.72661	11.8208	2.11556	14.5492
1.87481	2.44962	0.48682	3.58415	1.87609	2.44915	1.81877	2.47629	1.17176	7.83995	1.39787	9.32364	2.05779	3.12156	0.486808	3.58936	0.87286	6.37007	1.06934	7.53743	1.47516	9.85276	1.72724	11.6413	2.1182	14.3398
1.87042	2.45127	0.486977	3.52542	1.87169	2.45079	1.81471	2.47855	1.17523	7.77398	1.39917	9.19082	2.05705	3.1314	0.486962	3.53043	0.880661	6.32056	1.06964	7.49945	1.47874	9.72676	1.72805	11.4683	2.12075	14.1362
1.86601	2.45291	0.487177	3.46892	1.86729	2.45244	1.81067	2.48086	1.17801	7.72002	1.40071	9.06361	2.05634	3.14135	0.487158	3.47374	0.888271	6.27133	1.07	7.45888	1.48218	9.60359	1.72904	11.3018	2.12319	13.9381
1.86155	2.45449	0.487426	3.41459	1.86285	2.45405	1.80666	2.48321	1.18016	7.67769	1.40253	8.94187	2.05567	3.15143	0.487402	3.41923	0.89565	6.22206	1.07055	7.40489	1.48546	9.48307	1.73022	11.1415	2.12553	13.7453
1.85685	2.45576	0.487728	3.36236	1.85825	2.45545	1.80266	2.4856	1.1817	7.64676	1.40464	8.82546	2.05503	3.16163	0.4877	3.36682	0.902754	6.17248	1.07137	7.33857	1.48857	9.365	1.73161	10.9872	2.12775	13.5573
1.85151	2.4562	0.488089	3.31216	1.85314	2.45618	1.79869	2.48803	1.18268	7.62703	1.40704	8.71422	2.05442	3.17195	0.488055	3.31644	0.90954	6.12228	1.07254	7.26132	1.49151	9.24923	1.73322	10.8387	2.12985	13.3741
1.84557	2.45584	0.488511	3.26392	1.84732	2.45599	1.79473	2.4905	1.18406	7.59878	1.40975	8.60801	2.05384	3.1824	0.488472	3.26804	0.915962	6.07122	1.07419	7.17481	1.49427	9.1356	1.73505	10.6958	2.13183	13.1953
1.83941	2.45518	0.489	3.21758	1.8412	2.45538	1.79079	2.49301	1.18553	7.5682	1.41278	8.50667	2.0533	3.19297	0.488955	3.22153	0.921976	6.01902	1.07648	7.08104	1.49683	9.02399	1.7371	10.5583	2.13367	13.0208
1.83319	2.45443	0.489558	3.17308	1.83499	2.45465	1.78686	2.49556	1.18748	7.52682	1.41614	8.41001	2.05279	3.20367	0.489507	3.17687	0.927544	5.96551	1.07926	6.99314	1.4992	8.91429	1.7394	10.426	2.13538	12.8502
1.82693	2.45364	0.490189	3.13035	1.82874	2.45387	1.78294	2.49815	1.18987	7.47479	1.41981	8.31787	2.05231	3.2145	0.490131	3.13399	0.932632	5.91052	1.08254	6.91108	1.50138	8.80638	1.74193	10.2988	2.13695	12.6836
1.82067	2.45283	0.490895	3.08934	1.82248	2.45306	1.77904	2.50077	1.19263	7.41231	1.42382	8.23006	2.05186	3.22546	0.490831	3.09284	0.937218	5.85399	1.08636	6.83478	1.50335	8.70019	1.7447	10.1763	2.13839	12.5206
1.8144	2.45201	0.49168	3.04999	1.81622	2.45225	1.77515	2.50342	1.19568	7.33955	1.42813	8.14637	2.05145	3.23655	0.491608	3.05334	0.94129	5.79589	1.09073	6.7641	1.50512	8.59566	1.74771	10.0585	2.13968	12.3612
1.80814	2.45118	0.492545	3.01224	1.80995	2.45142	1.77127	2.5061	1.19893	7.2567	1.43276	8.0666	2.05106	3.24777	0.492467	3.01546	0.944849	5.7363	1.09567	6.69884	1.50669	8.49272	1.75096	9.9452	2.14084	12.2052
1.80187	2.45035	0.493493	2.97604	1.80368	2.45059	1.7674	2.50882	1.20189	7.17447	1.43704	8.00013	2.05071	3.25912	0.493408	2.97913	0.947906	5.67536	1.10115	6.63872	1.50807	8.39134	1.75445	9.83611	2.14186	12.0525
1.7956	2.44952	0.494527	2.94135	1.79742	2.44976	1.76354	2.51155	1.20458	7.09281	1.44087	7.94559	2.05039	3.27061	0.494433	2.9443	0.950485	5.61325	1.10717	6.58343	1.50925	8.29148	1.75818	9.73109	2.14275	11.9029
1.78934	2.44868	0.495647	2.9081	1.79115	2.44892	1.75967	2.51432	1.20698	7.01168	1.44414	7.90191	2.05011	3.28223	0.495546	2.91093	0.952616	5.55021	1.1137	6.5326	1.51025	8.19311	1.76212	9.62996	2.1435	11.7564
1.78309	2.44785	0.496856	2.87625	1.78489	2.44809	1.75581	2.5171	1.2091	6.93109	1.44681	7.86824	2.04985	3.29399	0.496747	2.87897	0.954337	5.48647	1.12069	6.48587	1.51098	8.10861	1.76629	9.53253	2.14413	11.6129
1.77683	2.44701	0.498155	2.84576	1.77864	2.44726	1.75195	2.51989	1.21094	6.85104	1.44881	7.84396	2.04963	3.30589	0.498039	2.84836	0.955686	5.4223	1.12812	6.44284	1.5115	8.03746	1.77067	9.43862	2.14463	11.4722
1.77058	2.44618	0.499547	2.81659	1.77239	2.44642	1.74808	2.5227	1.21252	6.77154	1.45011	7.82863	2.04944	3.31793	0.499422	2.81907	0.956703	5.35793	1.13595	6.40314	1.51186	7.97924	1.77525	9.34805	2.14501	11.3344
1.76434	2.44535	0.501033	2.78869	1.76614	2.44559	1.7442	2.52552	1.21383	6.69263	1.45199	7.80687	2.04928	3.33011	0.5009	2.79106	0.957427	5.29358	1.14412	6.36641	1.5121	7.9336	1.78002	9.26064	2.14528	11.1992
1.7581	2.44452	0.502615	2.76202	1.7599	2.44476	1.74031	2.52833	1.2149	6.61435	1.45407	7.78357	2.04915	3.34244	0.502474	2.76429	0.957895	5.22945	1.15261	6.33235	1.51226	7.90026	1.78496	9.17622	2.14544	11.0668
1.75187	2.4437	0.504295	2.73655	1.75367	2.44393	1.73641	2.53114	1.21572	6.53675	1.45696	7.75249	2.04906	3.35491	0.504145	2.73872	0.958141	5.16572	1.16138	6.30063	1.51235	7.87903	1.79008	9.09464	2.14551	10.937
1.74564	2.44287	0.506076	2.71226	1.74744	2.44311	1.73248	2.53394	1.21633	6.45988	1.46068	7.71412	2.04899	3.36753	0.505917	2.71432	0.958194	5.10253	1.17039	6.27101	1.51247	7.84864	1.79535	9.01572	2.14548	10.8097
1.73942	2.44205	0.507962	2.68911	1.74122	2.44229	1.72852	2.53671	1.21673	6.38377	1.4653	7.66908	2.04896	3.38029	0.507794	2.69108	0.958083	5.04002	1.17961	6.24324	1.51258	7.81578	1.80076	8.93932	2.14537	10.6849
1.7332	2.44123	0.509957	2.66709	1.735	2.44147	1.72453	2.53945	1.21694	6.3085	1.47086	7.61802	2.04896	3.3932	0.509779	2.66896	0.957832	4.97827	1.18902	6.21711	1.5127	7.77141	1.8063	8.8653	2.14519	10.5626
1.727	2.44042	0.512067	2.64619	1.72879	2.44065	1.7205	2.54216	1.21697	6.23409	1.47743	7.56167	2.04899	3.40627	0.511879	2.64797	0.957463	4.91738	1.19858	6.19242	1.51281	7.71579	1.81196	8.79349	2.14495	10.4428
1.72079	2.43961	0.514302	2.62643	1.72259	2.43984	1.71643	2.54481	1.21684	6.16059	1.48417	7.50753	2.04905	3.41948	0.514102	2.6281	0.956993	4.8574	1.20829	6.16903	1.51288	7.64928	1.81773	8.72378	2.14465	10.3254
1.7146	2.43881	0.516675	2.60782	1.71639	2.43904	1.7123	2.5474	1.21656	6.08804	1.49108	7.45546	2.04914	3.43285	0.516463	2.60939	0.956441	4.7984	1.21811	6.14677	1.51289	7.57233	1.82358	8.65602	2.14431	10.2103
1.70841	2.43801	0.51921	2.59044	1.7102	2.43824	1.70811	2.54992	1.21614	6.01648	1.49813	7.40529	2.04926	3.44638	0.518983	2.5919	0.955819	4.74041	1.22803	6.12551	1.5128	7.48545	1.82952	8.59009	2.14394	10.0976
1.70223	2.43721	0.52194	2.57443	1.70402	2.43744	1.70384	2.55235	1.2156	5.94592	1.50531	7.35687	2.04941	3.46006	0.521694	2.57576	0.955142	4.68346	1.23804	6.10513	1.51263	7.40011	1.83551	8.52588	2.14354	9.98716
1.69606	2.43643	0.52492	2.55999	1.69785	2.43665	1.69951	2.55468	1.21494	5.8764	1.51261	7.31008	2.04959	3.47391	0.52465	2.56118	0.954421	4.62756	1.2481	6.08551	1.51238	7.31632	1.84156	8.46325	2.14313	9.87905
1.6899	2.43565	0.528236	2.5475	1.69168	2.43587	1.69508	2.55691	1.21419	5.80794	1.51999	7.26477	2.04981	3.48791	0.527932	2.54849	0.953665	4.57274	1.25821	6.06655	1.51208	7.23412	1.84764	8.4021	2.14272	9.77322
1.68374	2.43488	0.532	2.53741	1.68552	2.4351	1.69057	2.55901	1.21335	5.74054	1.52746	7.22082	2.05005	3.50208	0.531652	2.53818	0.952884	4.519	1.26835	6.04815	1.51174	7.15354	1.85374	8.34232	2.14233	9.66966
1.6776	2.43411	0.536311	2.53013	1.67937	2.43433	1.68596	2.56097	1.21242	5.67422	1.53499	7.17811	2.05033	3.51641	0.535913	2.53065	0.952085	4.46633	1.2785	6.03021	1.51139	7.0746	1.85907	8.29126	2.14196	9.56835
1.67146	2.43335	0.541187	2.52564	1.67324	2.43357	1.68125	2.5628	1.21143	5.609	1.54256	7.13652	2.05063	3.5309	0.540743	2.52593	0.951275	4.41475	1.28865	6.01262	1.51103	6.99734	1.8636	8.24844	2.14163	9.46928
1.66534	2.43261	0.546536	2.52343	1.66711	2.43282	1.67644	2.56449	1.21037	5.54486	1.55016	7.09594	2.05097	3.54557	0.546056	2.52355	0.950461	4.36424	1.29877	5.9953	1.51069	6.92182	1.86735	8.21348	2.14136	9.37245
1.65922	2.43187	0.55222	2.5228	1.66099	2.43208	1.67152	2.56602	1.20925	5.48181	1.55777	7.05626	2.05134	3.5604	0.551716	2.52281	0.949648	4.31479	1.30884	5.97813	1.5104	6.8481	1.8703	8.18611	2.14115	9.27785
1.65311	2.43114	0.558125	2.52318	1.65488	2.43135	1.6665	2.56741	1.20809	5.41985	1.56538	7.01737	2.05173	3.57541	0.557605	2.52311	0.948841	4.26639	1.31884	5.961	1.51019	6.77624	1.87247	8.16614	2.14103	9.18549
1.64702	2.43042	0.56417	2.52417	1.64878	2.43063	1.66138	2.56865	1.20689	5.35898	1.57296	6.97917	2.05216	3.59059	0.563641	2.52407	0.948045	4.21904	1.32875	5.94378	1.51008	6.70633	1.87385	8.15342	2.14101	9.09536
1.64093	2.42972	0.570306	2.52555	1.64269	2.42992	1.65616	2.56975	1.20565	5.29919	1.5805	6.94154	2.05261	3.60594	0.56977	2.52542	0.947264	4.17272	1.33852	5.92633	1.51013	6.6385	1.87583	8.13522	2.14111	9.00748
1.63486	2.42903	0.576501	2.52717	1.63662	2.42923	1.65085	2.57071	1.20438	5.24047	1.58797	6.90437	2.0531	3.62148	0.575961	2.52702	0.946502	4.12741	1.34813	5.90849	1.51036	6.57287	1.87799	8.11555	2.14134	8.92186
1.6288	2.42835	0.582737	2.52892	1.63055	2.42854	1.64545	2.57154	1.20309	5.18281	1.59535	6.86756	2.05361	3.63719	0.582194	2.52877	0.945762	4.0831	1.35751	5.89007	1.51085	6.50961	1.8809	8.08896	2.14173	8.83849
1.62275	2.42768	0.589001	2.53076	1.6245	2.42787	1.63997	2.57225	1.20178	5.1262	1.60262	6.831	2.05416	3.65308	0.588456	2.5306	0.945048	4.03977	1.36663	5.87085	1.51164	6.44891	1.88456	8.05562	2.14229	8.75741
1.61672	2.42703	0.595283	2.53265	1.61846	2.42722	1.63441	2.57285	1.20045	5.07063	1.60974	6.79456	2.05473	3.66916	0.594737	2.53248	0.944361	3.99741	1.37541	5.85059	1.51282	6.39102	1.88895	8.01566	2.14304	8.67862
1.6107	2.4264	0.601579	2.53455	1.61244	2.42658	1.62879	2.57334	1.19911	5.01609	1.61671	6.75812	2.05534	3.68542	0.601032	2.53439	0.943705	3.956	1.38379	5.82901	1.51446	6.33618	1.89404	7.96926	2.144	8.60213
1.60469	2.42578	0.607884	2.53646	1.60643	2.42596	1.6231	2.57374	1.19776	4.96256	1.62347	6.72157	2.05597	3.70187	0.607336	2.53629	0.943083	3.91551	1.39168	5.80579	1.51665	6.28468	1.89979	7.91656	2.14502	8.53737
1.5987	2.42519	0.614194	2.53835	1.60043	2.42536	1.61736	2.57405	1.19642	4.91002	1.63001	6.68479	2.05663	3.71851	0.613646	2.53819	0.942496	3.87595	1.39898	5.78064	1.51948	6.23678	1.9054	7.86435	2.14604	8.48356
1.59272	2.42461	0.620509	2.54022	1.59445	2.42477	1.61156	2.57427	1.19506	4.85848	1.63629	6.64764	2.05732	3.73534	0.61996	2.54006	0.941947	3.83728	1.40563	5.75326	1.52303	6.1927	1.91088	7.81254	2.147	8.44003
1.58676	2.42405	0.626825	2.54207	1.58849	2.42421	1.60572	2.57443	1.19372	4.8079	1.64228	6.61002	2.05804	3.75237	0.626276	2.54191	0.941437	3.79949	1.41155	5.72342	1.52735	6.15257	1.91619	7.76105	2.14782	8.40624
1.58082	2.42351	0.633142	2.54388	1.58254	2.42366	1.59983	2.57452	1.19238	4.75827	1.64796	6.57181	2.05878	3.76959	0.632593	2.54372	0.940969	3.76256	1.41668	5.69099	1.53249	6.1164	1.92132	7.70977	2.14847	8.38174
1.57489	2.42299	0.639458	2.54566	1.57661	2.42314	1.59391	2.57454	1.19104	4.70958	1.65327	6.53291	2.05956	3.78701	0.638909	2.5455	0.940544	3.72648	1.42101	5.65595	1.53842	6.08406	1.92625	7.65864	2.1489	8.36622
1.56898	2.4225	0.645773	2.5474	1.57069	2.42264	1.58795	2.57451	1.18972	4.66182	1.65822	6.49324	2.06036	3.80463	0.645224	2.54725	0.940163	3.69122	1.42456	5.61846	1.54512	6.0553	1.93096	7.60756	2.14955	8.34412
1.56309	2.42204	0.652086	2.5491	1.5648	2.42217	1.58196	2.57443	1.18841	4.61496	1.66276	6.45272	2.0612	3.82245	0.651537	2.54895	0.939829	3.65678	1.42736	5.57877	1.55252	6.02978	1.93542	7.55648	2.1503	8.32038
1.55722	2.4216	0.658396	2.55076	1.55892	2.42172	1.57594	2.57431	1.18711	4.569	1.66688	6.41131	2.06206	3.84048	0.657848	2.55062	0.939543	3.62314	1.4295	5.53719	1.56055	6.00711	1.93964	7.50532	2.15137	8.28858
1.55137	2.42119	0.664703	2.55238	1.55306	2.4213	1.5699	2.57414	1.18584	4.52391	1.67058	6.369	2.06294	3.85871	0.664155	2.55224	0.939305	3.59028	1.43105	5.4941	1.56911	5.98689	1.94358	7.45403	2.15282	8.24914
1.54554	2.42081	0.671006	2.55395	1.54723	2.42091	1.56383	2.57393	1.18458	4.47968	1.67384	6.3258	2.06386	3.87716	0.670459	2.55382	0.939117	3.55818	1.4321	5.44985	1.57813	5.96878	1.94725	7.40258	2.15474	8.20261
1.53973	2.42046	0.677306	2.55549	1.54141	2.42055	1.55775	2.57369	1.18334	4.43629	1.67668	6.28176	2.0648	3.89581	0.676759	2.55535	0.938981	3.52683	1.43273	5.40477	1.58755	5.95243	1.95062	7.35092	2.15721	8.14963
1.53395	2.42014	0.683601	2.55698	1.53562	2.42023	1.55164	2.57341	1.18213	4.39374	1.67911	6.23692	2.06577	3.91468	0.683054	2.55685	0.938897	3.49621	1.433	5.35913	1.59728	5.93756	1.9537	7.29905	2.16034	8.09095
1.52819	2.41986	0.689891	2.55842	1.52985	2.41994	1.54552	2.5731	1.18094	4.352	1.68113	6.19138	2.06677	3.93377	0.689345	2.5583	0.938866	3.46632	1.43297	5.31319	1.60729	5.92396	1.95648	7.24696	2.1638	8.03448
1.52245	2.41961	0.696176	2.55983	1.5241	2.41968	1.53938	2.57277	1.17978	4.31106	1.68278	6.14523	2.06779	3.95308	0.69563	2.55971	0.938891	3.43713	1.4327	5.26712	1.61753	5.9114	1.95896	7.19466	2.16759	7.98017
1.51673	2.4194	0.702456	2.56119	1.51838	2.41946	1.53323	2.57241	1.17865	4.2709	1.68407	6.09857	2.06884	3.97261	0.70191	2.56107	0.93897	3.40862	1.43223	5.2211	1.62795	5.89975	1.96115	7.14217	2.1717	7.92794
1.51105	2.41924	0.70873	2.56251	1.51269	2.41928	1.52706	2.57202	1.17754	4.23151	1.68504	6.05152	2.06991	3.99236	0.708185	2.56239	0.939106	3.3808	1.43159	5.17525	1.63853	5.88885	1.96305	7.08952	2.17612	7.87773
1.50539	2.41911	0.714998	2.56378	1.50702	2.41914	1.52089	2.57161	1.17647	4.19288	1.68572	6.00418	2.07101	4.01235	0.714454	2.56367	0.9393	3.35364	1.43082	5.12966	1.64924	5.87859	1.96468	7.03676	2.18085	7.82945
1.49976	2.41903	0.72126	2.56501	1.50138	2.41905	1.5147	2.57118	1.17542	4.155	1.68612	5.95665	2.07214	4.03256	0.720716	2.56491	0.939552	3.32713	1.42993	5.08442	1.66006	5.86889	1.96604	6.98392	2.18587	7.783
1.49415	2.41899	0.727515	2.5662	1.49577	2.419	1.5085	2.57073	1.17441	4.11784	1.68627	5.90904	2.07329	4.053	0.726971	2.5661	0.939863	3.30126	1.42895	5.0396	1.67097	5.85966	1.96716	6.93108	2.19117	7.7383
1.48858	2.41901	0.733763	2.56734	1.49019	2.419	1.50229	2.57026	1.17343	4.08139	1.68621	5.86142	2.07447	4.07368	0.73322	2.56724	0.940233	3.27601	1.4279	4.99523	1.68195	5.85084	1.96804	6.87827	2.19674	7.69525
1.48303	2.41907	0.740003	2.56844	1.48463	2.41905	1.49608	2.56977	1.17249	4.04565	1.68595	5.81389	2.07568	4.09459	0.739461	2.56835	0.940665	3.25137	1.42678	4.95135	1.693	5.84235	1.96871	6.82558	2.20255	7.65375
1.47752	2.41918	0.746236	2.5695	1.47911	2.41915	1.48986	2.56926	1.17159	4.01059	1.68552	5.76651	2.0769	4.11575	0.745695	2.56941	0.941158	3.22734	1.42561	4.908	1.70408	5.83416	1.96919	6.77305		
1.47204	2.41935	0.752461	2.57051	1.47363	2.4193	1.48363	2.56874	1.17072	3.97621	1.68493	5.71935	2.07816	4.13715	0.75192	2.57042	0.941714	3.20389	1.42441	4.8652	1.7152	5.8262	1.96949	6.72075		
1.4666	2.41958	0.758677	2.57147	1.46817	2.41951	1.4774	2.56821	1.16989	3.94249	1.6842	5.67245	2.07943	4.15879	0.758137	2.57139	0.942333	3.18103	1.42317	4.82296	1.72634	5.81843	1.96964	6.66874		
1.46119	2.41986	0.764884	2.57239	1.46275	2.41978	1.47116	2.56766	1.1691	3.90943	1.68335	5.62588	2.08073	4.18069	0.764345	2.57231	0.943016	3.15873	1.42191	4.7813	1.73748	5.81081	1.96965	6.61708		
1.45581	2.42021	0.771082	2.57327	1.45736	2.4201	1.46491	2.56711	1.16834	3.877	1.6824	5.57966	2.08206	4.20283	0.770544	2.57319	0.943763	3.13699	1.42063	4.74021	1.74863	5.80328	1.96955	6.56584		
1.45047	2.42062	0.777269	2.57409	1.45201	2.42049	1.45867	2.56653	1.16763	3.84519	1.68135	5.53383	2.0834	4.22523	0.776732	2.57402	0.944577	3.11579	1.41933	4.69972	1.75975	5.79581	1.96935	6.51508		
1.44517	2.42109	0.783446	2.57487	1.4467	2.42095	1.45241	2.56595	1.16696	3.814	1.68022	5.48843	2.08477	4.24789	0.782909	2.57481	0.945457	3.09514	1.41803	4.65981	1.77084	5.78834	1.96909	6.46487		
1.4399	2.42163	0.789611	2.5756	1.44142	2.42147	1.44616	2.56536	1.16633	3.78342	1.67901	5.44347	2.08617	4.2708	0.789075	2.57554	0.946405	3.07501	1.41673	4.6205	1.78187	5.78081	1.96878	6.41526		
1.43468	2.42224	0.795764	2.57628	1.43618	2.42205	1.4399	2.56476	1.16575	3.75343	1.67775	5.39897	2.08758	4.29398	0.795229	2.57623	0.947421	3.05541	1.41543	4.58177	1.79283	5.77315	1.96846	6.36634		
1.42949	2.42292	0.801903	2.57691	1.43098	2.42271	1.43365	2.56416	1.16521	3.72402	1.67643	5.35495	2.08902	4.31743	0.80137	2.57686	0.948507	3.03632	1.41413	4.54363	1.80369	5.76529	1.96815	6.31819		
1.42434	2.42367	0.808029	2.57749	1.42582	2.42344	1.42739	2.56354	1.16471	3.69518	1.67506	5.31143	2.09047	4.34114	0.807498	2.57744	0.949663	3.01773	1.41284	4.50608	1.81442	5.75712	1.96789	6.2709		
1.41923	2.4245	0.814141	2.578	1.4207	2.42425	1.42113	2.56292	1.16426	3.6669	1.67364	5.26841	2.09195	4.36512	0.81361	2.57796	0.950892	2.99964	1.41156	4.46911	1.82498	5.74853	1.96772	6.22459		
1.41416	2.4254	0.820236	2.57847	1.41562	2.42513	1.41487	2.5623	1.16385	3.63917	1.6722	5.2259	2.09345	4.38938	0.819707	2.57843	0.952193	2.98204	1.41029	4.43271	1.83531	5.73936	1.96769	6.17939		
1.40914	2.42638	0.826314	2.57887	1.41058	2.42609	1.40862	2.56167	1.16349	3.61198	1.67072	5.18391	2.09497	4.41392	0.825786	2.57883	0.953569	2.96492	1.40904	4.39688	1.84535	5.72943	1.96787	6.13549		
1.40415	2.42744	0.832373	2.5792	1.40559	2.42712	1.40236	2.56105	1.16317	3.58532	1.66923	5.14244	2.09651	4.43874	0.831847	2.57918	0.955021	2.94828	1.4078	4.36162	1.85502	5.71847	1.96832	6.09308		
1.39921	2.42858	0.838412	2.57947	1.40063	2.42824	1.39611	2.56042	1.16291	3.55918	1.66771	5.1015	2.09806	4.46384	0.837888	2.57945	0.95655	2.93212	1.40658	4.32691	1.86421	5.70621	1.96916	6.05245		
1.3943	2.4298	0.84443	2.57968	1.39572	2.42944	1.38987	2.5598	1.16269	3.53356	1.66617	5.06108	2.09964	4.48923	0.843908	2.57966	0.958159	2.91642	1.40538	4.29275	1.87278	5.69226	1.9705	6.01391		
1.38944	2.43111	0.850424	2.5798	1.39084	2.43072	1.38362	2.55918	1.16252	3.50844	1.66462	5.02118	2.10123	4.5149	0.849904	2.57979	0.95985	2.90119	1.40421	4.25914	1.88061	5.67623	1.97248	5.97785		
1.38462	2.4325	0.856392	2.57985	1.38601	2.43209	1.37739	2.55857	1.1624	3.48381	1.66306	4.98181	2.10283	4.54087	0.855875	2.57985	0.961624	2.88643	1.40305	4.22606	1.88753	5.65773	1.97525	5.94468		
1.37985	2.43397	0.862332	2.57981	1.38122	2.43354	1.37117	2.55797	1.16232	3.45967	1.6615	4.94296	2.10446	4.56714	0.861817	2.57982	0.963484	2.87212	1.40192	4.19351	1.89344	5.63645	1.97896	5.91475		
1.37511	2.43553	0.868242	2.57968	1.37648	2.43507	1.36495	2.55738	1.1623	3.436	1.65993	4.90463	2.1061	4.5937	0.86773	2.5797	0.965433	2.85827	1.40082	4.16149	1.89826	5.61226	1.9837	5.88832		
1.37042	2.43718	0.874118	2.57946	1.37177	2.43669	1.35875	2.55681	1.16233	3.41281	1.65837	4.86682	2.10775	4.62056	0.873609	2.57948	0.967474	2.84487	1.39974	4.12998	1.90201	5.58525	1.98951	5.86541		
1.36577	2.43891	0.879957	2.57913	1.36711	2.4384	1.35256	2.55627	1.16241	3.39007	1.6568	4.82952	2.10942	4.64773	0.879451	2.57916	0.96961	2.83194	1.39869	4.09898	1.90478	5.55572	1.99636	5.84583		
1.36115	2.44073	0.885756	2.57869	1.36248	2.4402	1.34639	2.55575	1.16254	3.36779	1.65524	4.79274	2.1111	4.6752	0.885254	2.57873	0.971845	2.81947	1.39767	4.06847	1.90668	5.5241	2.00413	5.82921		
1.35658	2.44264	0.891511	2.57812	1.3579	2.44208	1.34024	2.55528	1.16272	3.34596	1.65368	4.75645	2.1128	4.70299	0.891013	2.57818	0.974183	2.80746	1.39668	4.03847	1.90787	5.49084	2.0127	5.8151		
1.35205	2.44463	0.897218	2.57743	1.35335	2.44405	1.33412	2.55484	1.16296	3.32456	1.65214	4.72067	2.1145	4.73108	0.896724	2.57749	0.976628	2.79591	1.39572	4.00894	1.90849	5.45637	2.02192	5.80304		
1.34755	2.44671	0.902871	2.57659	1.34885	2.4461	1.32803	2.55447	1.16325	3.30359	1.6506	4.68538	2.11622	4.75949	0.902382	2.57667	0.979185	2.78484	1.39479	3.9799	1.90864	5.42105	2.03165	5.79262		
1.3431	2.44888	0.908466	2.5756	1.34438	2.44825	1.32198	2.55416	1.16359	3.28305	1.64907	4.65059	2.11794	4.78821	0.907983	2.57569	0.98186	2.77424	1.3939	3.95133	1.90843	5.38517	2.0418	5.78351		
1.33868	2.45113	0.913998	2.57444	1.33995	2.45047	1.31597	2.55394	1.16398	3.26293	1.64756	4.61628	2.11967	4.81726	0.91352	2.57454	0.984657	2.76412	1.39303	3.92322	1.90794	5.34895	2.05228	5.77545		
1.33429	2.45347	0.919461	2.5731	1.33556	2.45279	1.31002	2.55382	1.16444	3.24321	1.64605	4.58245	2.12141	4.84662	0.918989	2.57322	0.987583	2.75449	1.39221	3.89557	1.90722	5.31256	2.06302	5.76821		
1.32994	2.45589	0.924848	2.57157	1.33119	2.45518	1.30413	2.55384	1.16494	3.2239	1.64457	4.54909	2.12315	4.87631	0.924383	2.57171	0.990642	2.74536	1.39141	3.86837	1.90631	5.27613	2.07396	5.76163		
1.32562	2.45839	0.930155	2.56984	1.32687	2.45766	1.29833	2.55401	1.1655	3.20499	1.6431	4.5162	2.1249	4.90632	0.929698	2.57	0.993842	2.73673	1.39065	3.84161	1.90526	5.23977	2.08507	5.7556		
1.32133	2.46097	0.935376	2.5679	1.32257	2.46022	1.29262	2.55437	1.16612	3.18648	1.64165	4.48377	2.12665	4.93666	0.934926	2.56807	0.997186	2.7286	1.38993	3.81529	1.9041	5.20354	2.09631	5.75001		
1.31708	2.46363	0.940506	2.56572	1.3183	2.46285	1.28702	2.55496	1.1668	3.16835	1.64021	4.4518	2.12839	4.96732	0.940064	2.56592	1.00068	2.72098	1.38924	3.78941	1.90284	5.16752	2.10767	5.74479		
1.31284	2.46635	0.945539	2.56332	1.31406	2.46556	1.28155	2.55581	1.16753	3.1506	1.6388	4.42029	2.13014	4.99831	0.945106	2.56354	1.00433	2.71387	1.38859	3.76394	1.90151	5.13173	2.1191	5.73987		
1.30863	2.46915	0.950474	2.56068	1.30985	2.46833	1.27623	2.55697	1.16833	3.13323	1.63741	4.38921	2.13188	5.02962	0.95005	2.56092	1.00813	2.70727	1.38797	3.73889	1.90011	5.09623	2.13061	5.73519		
1.30444	2.47201	0.955309	2.55781	1.30565	2.47117	1.27108	2.55847	1.16918	3.11623	1.63604	4.35858	2.13361	5.06126	0.954893	2.55807	1.01209	2.70116	1.3874	3.71425	1.89866	5.06103	2.14218	5.73073		
1.30027	2.47492	0.960041	2.5547	1.30148	2.47407	1.2661	2.56034	1.17009	3.0996	1.63469	4.32838	2.13534	5.09323	0.959634	2.55497	1.01621	2.69555	1.38686	3.69002	1.89717	5.02615	2.15379	5.72644		
1.29611	2.47788	0.964675	2.55136	1.29731	2.47702	1.26129	2.56258	1.17106	3.08333	1.63337	4.29861	2.13705	5.12552	0.964276	2.55166	1.02048	2.69041	1.38636	3.66618	1.89566	4.99161	2.16543	5.7223		
1.29195	2.48088	0.969211	2.54781	1.29315	2.48001	1.25666	2.5652	1.1721	3.06743	1.63207	4.26927	2.13874	5.15813	0.968821	2.54813	1.0249	2.68573	1.3859	3.64274	1.89411	4.95743	2.1771	5.71826		
1.2878	2.4839	0.973657	2.54406	1.289	2.48303	1.25219	2.56817	1.1732	3.05187	1.63079	4.24033	2.14042	5.19106	0.973274	2.5444	1.02946	2.68148	1.38548	3.61968	1.89255	4.9236	2.18878	5.71432		
1.28363	2.48694	0.978017	2.54014	1.28484	2.48606	1.24787	2.57148	1.17436	3.03667	1.62954	4.21181	2.14207	5.2243	0.977641	2.54049	1.03417	2.67763	1.3851	3.59701	1.89097	4.89014	2.20047	5.71044		
1.27945	2.48996	0.9823	2.53607	1.28066	2.48909	1.24368	2.57508	1.17559	3.02182	1.62832	4.1837	2.1437	5.25785	0.98193	2.53643	1.039	2.67416	1.38476	3.5747	1.88938	4.85705				
1.27523	2.49296	0.986514	2.53187	1.27646	2.4921	1.23959	2.57895	1.17689	3.00732	1.62712	4.15598	2.14529	5.2917	0.98615	2.53223	1.04395	2.67104	1.38446	3.55277	1.88779	4.82434				
1.27098	2.49589	0.990669	2.52756	1.27221	2.49505	1.2356	2.58303	1.17825	2.99316	1.62595	4.12866	2.14684	5.32584	0.99031	2.52794	1.04901	2.66824	1.3842	3.5312	1.88619	4.792				
1.26666	2.49874	0.994775	2.52318	1.26792	2.49793	1.23167	2.5873	1.17969	2.97935	1.62481	4.10173	2.14834	5.36026	0.99442	2.52357	1.05417	2.66572	1.38399	3.50998	1.88459	4.76003				
1.26227	2.50146	0.99884	2.51875	1.26355	2.50069	1.22779	2.59172	1.1812	2.96588	1.62369	4.07519	2.14979	5.39494	0.998489	2.51914	1.05942	2.66347	1.38381	3.48912	1.883	4.72845				
1.25778	2.50401	1.00288	2.5143	1.25909	2.50329	1.22395	2.59625	1.18278	2.95275	1.62261	4.04902	2.15118	5.42987	1.00253	2.51469	1.06476	2.66145	1.38368	3.46861	1.88141	4.69723				
1.25317	2.50635	1.00689	2.50984	1.25452	2.5057	1.22013	2.60087	1.18445	2.93996	1.62156	4.02322	2.1525	5.46503	1.00654	2.51023	1.07017	2.65963	1.38359	3.44844	1.87982	4.6664				
1.24843	2.50845	1.01089	2.5054	1.24982	2.50787	1.21631	2.60554	1.18619	2.92752	1.62053	3.99779	2.15374	5.50039	1.01054	2.50578	1.07565	2.65801	1.38354	3.4286	1.87824	4.63593				
1.24354	2.51026	1.01488	2.50099	1.24497	2.50977	1.21248	2.61024	1.18801	2.91542	1.61954	3.97272	2.15488	5.53592	1.01453	2.50137	1.08119	2.65654	1.38354	3.40909	1.87668	4.60583				
1.23849	2.51177	1.01888	2.49664	1.23997	2.51137	1.20862	2.61494	1.18992	2.90367	1.61857	3.94802	2.15591	5.57159	1.01853	2.49702	1.08678	2.65523	1.38358	3.38992	1.87512	4.5761				
1.23329	2.51298	1.02288	2.49236	1.23481	2.51266	1.20474	2.6196	1.19193	2.89227	1.61764	3.92366	2.15681	5.60736	1.02253	2.49273	1.09242	2.65404	1.38366	3.37106	1.87358	4.54674				
1.22793	2.51388	1.0269	2.48816	1.2295	2.51365	1.2008	2.6242	1.19402	2.88123	1.61674	3.89965	2.15756	5.64317	1.02655	2.48852	1.0981	2.65297	1.38378	3.35252	1.87205	4.51773				
1.22243	2.5145	1.03094	2.48406	1.22404	2.51435	1.19679	2.62871	1.19622	2.87055	1.61587	3.87599	2.15815	5.67897	1.03058	2.48441	1.10382	2.652	1.38395	3.3343	1.87054	4.48908				
1.21681	2.51487	1.035	2.48006	1.21845	2.51479	1.19272	2.6331	1.19852	2.86023	1.61504	3.85266	2.15854	5.71469	1.03464	2.4804	1.10957	2.65112	1.38417	3.31638	1.86904	4.46079				
1.21107	2.515	1.03909	2.47617	1.21274	2.51499	1.18856	2.63736	1.20093	2.85029	1.61424	3.82967	2.1587	5.75025	1.03873	2.47651	1.11535	2.65032	1.38443	3.29876	1.86757	4.43285				
1.20524	2.51494	1.04322	2.47241	1.20693	2.51498	1.18431	2.64145	1.20346	2.84073	1.61347	3.807	2.1586	5.78556	1.04286	2.47273	1.12115	2.64958	1.38473	3.28145	1.8661	4.40526				
1.19932	2.51471	1.04738	2.46878	1.20104	2.51479	1.17996	2.64537	1.20611	2.83156	1.61273	3.78466	2.15821	5.8205	1.04702	2.46909	1.12698	2.64891	1.38508	3.26443	1.86466	4.37801				
1.19334	2.51433	1.05159	2.46529	1.19508	2.51445	1.17551	2.64909	1.20889	2.82279	1.61203	3.76264	2.15748	5.85497	1.05122	2.46558	1.13283	2.6483	1.38548	3.2477	1.86324	4.3511				
1.1873	2.51383	1.05584	2.46193	1.18905	2.51398	1.17095	2.65261	1.2118	2.81443	1.61136	3.74094	2.15637	5.88883	1.05547	2.46222	1.13869	2.64773	1.38592	3.23125	1.86184	4.32452				
1.18121	2.51321	1.06014	2.45873	1.18298	2.5134	1.16629	2.65592	1.21486	2.80649	1.61073	3.71954	2.15483	5.92194	1.05976	2.459	1.14457	2.6472	1.38641	3.2151	1.86046	4.29828				
1.17509	2.51251	1.06448	2.45567	1.17686	2.51272	1.16151	2.65903	1.21806	2.79897	1.61013	3.69846	2.15282	5.95418	1.0641	2.45593	1.15047	2.6467	1.38694	3.19921	1.8591	4.27237				
1.16892	2.51172	1.06889	2.45277	1.17071	2.51196	1.15664	2.66193	1.22142	2.79189	1.60957	3.67767	2.1503	5.9854	1.0685	2.45302	1.15637	2.64624	1.38752	3.18361	1.85777	4.24678				
1.16273	2.51086	1.07334	2.45003	1.16452	2.51112	1.15167	2.66464	1.22494	2.78523	1.60904	3.65719	2.14723	6.01549	1.07296	2.45026	1.16229	2.6458	1.38815	3.16828	1.85646	4.22152				
1.15651	2.50994	1.07786	2.44745	1.15831	2.51021	1.1466	2.66716	1.22861	2.77901	1.60855	3.63699	2.14359	6.04437	1.07747	2.44766	1.16821	2.64539	1.38882	3.15321	1.85517	4.19657				
1.15027	2.50896	1.08244	2.44502	1.15208	2.50925	1.14145	2.6695	1.23245	2.77322	1.6081	3.61709	2.13937	6.07198	1.08204	2.44523	1.17414	2.645	1.38955	3.13841	1.8539	4.17193				
1.14401	2.50793	1.08707	2.44277	1.14582	2.50824	1.13622	2.67168	1.23645	2.76785	1.60768	3.59748	2.13458	6.09831	1.08667	2.44296	1.18007	2.64462	1.39032	3.12387	1.85267	4.14761				
1.13774	2.50686	1.09177	2.44067	1.13955	2.50718	1.13091	2.67371	1.24061	2.76289	1.60729	3.57814	2.12922	6.12337	1.09136	2.44085	1.18601	2.64425	1.39114	3.10959	1.85145	4.12359				
1.13145	2.50575	1.09653	2.43874	1.13327	2.50607	1.12554	2.6756	1.24493	2.75833	1.60695	3.55909	2.12334	6.14724	1.09612	2.4389	1.19195	2.6439	1.392	3.09556	1.85026	4.09988				
1.12515	2.50459	1.10136	2.43696	1.12697	2.50493	1.1201	2.67736	1.24939	2.75414	1.60664	3.54031	2.11697	6.17001	1.10094	2.43711	1.19789	2.64355	1.39292	3.08178	1.8491	4.07646				
1.11884	2.5034	1.10625	2.43535	1.12067	2.50375	1.11461	2.67901	1.25399	2.7503	1.60636	3.5218	2.11015	6.19179	1.10582	2.43549	1.20383	2.6432	1.39389	3.06826	1.84797	4.05334				
1.11252	2.50218	1.11121	2.4339	1.11435	2.50254	1.10907	2.68055	1.25873	2.74679	1.60613	3.50356	2.10294	6.2127	1.11077	2.43402	1.20978	2.64286	1.3949	3.05498	1.84686	4.03051				
1.10619	2.50093	1.11623	2.4326	1.10802	2.50129	1.10348	2.68201	1.26359	2.74358	1.60593	3.48559	2.09539	6.23287	1.11579	2.43271	1.21572	2.64251	1.39597	3.04194	1.84578	4.00797				
1.09986	2.49964	1.12131	2.43145	1.10169	2.50002	1.09785	2.68338	1.26856	2.74065	1.60577	3.46787	2.08754	6.25243	1.12087	2.43155	1.22165	2.64217	1.39708	3.02914	1.84472	3.98571				
1.09352	2.49833	1.12646	2.43045	1.09535	2.49872	1.09219	2.68467	1.27364	2.73796	1.60565	3.45041	2.07943	6.27149	1.12601	2.43053	1.22759	2.64182	1.39825	3.01658	1.8437	3.96374				
1.08717	2.497	1.13167	2.4296	1.08901	2.49739	1.08649	2.6859	1.27881	2.73551	1.60556	3.43321	2.07111	6.29017	1.13121	2.42967	1.23352	2.64146	1.39947	3.00426	1.8427	3.94204				
1.08082	2.49564	1.13694	2.42888	1.08266	2.49603	1.08076	2.68707	1.28407	2.73326	1.60551	3.41625	2.06261	6.30857	1.13648	2.42894	1.23944	2.64109	1.40074	2.99217	1.84173	3.92061				
1.07446	2.49425	1.14226	2.42829	1.0763	2.49466	1.07501	2.68819	1.2894	2.7312	1.60551	3.39954	2.05397	6.32678	1.1418	2.42834	1.24535	2.64071	1.40207	2.98031	1.84079	3.89946				
1.0681	2.49284	1.14765	2.42783	1.06994	2.49325	1.06923	2.68926	1.2948	2.7293	1.60554	3.38308	2.04521	6.34489	1.14718	2.42787	1.25126	2.64032	1.40345	2.96868	1.83988	3.87857				
1.06174	2.49142	1.15309	2.42749	1.06358	2.49183	1.06343	2.69029	1.30026	2.72755	1.60561	3.36686	2.03636	6.36298	1.15261	2.42752	1.25716	2.63991	1.40488	2.95728	1.839	3.85795				
1.05538	2.48997	1.15858	2.42726	1.05722	2.49039	1.05762	2.69129	1.30578	2.72593	1.60571	3.35087	2.02744	6.38113	1.1581	2.42728	1.26304	2.63948	1.40637	2.94611	1.83815	3.83759				
1.04902	2.4885	1.16413	2.42715	1.05086	2.48892	1.05178	2.69225	1.31135	2.72443	1.60586	3.33512	2.01848	6.39939	1.16364	2.42715	1.26892	2.63904	1.40792	2.93516	1.83733	3.81749				
1.04265	2.48701	1.16972	2.42713	1.04449	2.48744	1.04593	2.69318	1.31696	2.72304	1.60605	3.3196	2.00949	6.41784	1.16923	2.42713	1.27478	2.63856	1.40952	2.92444	1.83654	3.79764				
1.03628	2.4855	1.17536	2.42721	1.03812	2.48594	1.04007	2.69409	1.32261	2.72174	1.60628	3.30431	2.00049	6.43655	1.17487	2.4272	1.28063	2.63807	1.41119	2.91394	1.83578	3.77804				
1.02992	2.48397	1.18104	2.42738	1.03176	2.48442	1.0342	2.69498	1.3283	2.72052	1.60654	3.28925	1.99151	6.45557	1.18054	2.42736	1.28646	2.63754	1.41291	2.90366	1.83505	3.75869				
1.02355	2.48243	1.18676	2.42763	1.02539	2.48288	1.02831	2.69586	1.33402	2.71938	1.60685	3.2744	1.98255	6.47496	1.18626	2.4276	1.29227	2.63698	1.41469	2.89361	1.83436	3.73959				
1.01718	2.48088	1.19253	2.42796	1.01902	2.48133	1.02242	2.69672	1.33977	2.71831	1.60719	3.25978	1.97364	6.4948	1.19202	2.42792	1.29806	2.63639	1.41654	2.88377	1.83369	3.72073				
1.01082	2.4793	1.19833	2.42836	1.01266	2.47976	1.01652	2.69757	1.34554	2.7173	1.60758	3.24538	1.96479	6.51514	1.19782	2.42832	1.30383	2.63575	1.41845	2.87416	1.83305	3.70211				
1.00445	2.47772	1.20416	2.42882	1.00629	2.47818	1.01061	2.69841	1.35133	2.71635	1.60801	3.23119	1.95602	6.53606	1.20365	2.42878	1.30958	2.63508	1.42043	2.86478	1.83245	3.68372				
0.998091	2.47612	1.21003	2.42935	0.999931	2.47658	1.00469	2.69925	1.35715	2.71544	1.60848	3.21721	1.94734	6.55762	1.20952	2.4293	1.3153	2.63436	1.42247	2.85561	1.83188	3.66557				
0.991732	2.47451	1.21593	2.42994	0.993571	2.47498	0.998772	2.70008	1.36298	2.71458	1.60898	3.20344	1.93878	6.57992	1.21541	2.42988	1.32099	2.63358	1.42459	2.84667	1.83134	3.64765				
0.985377	2.47289	1.22185	2.43058	0.987215	2.47336	0.992849	2.70092	1.36883	2.71375	1.60953	3.18988	1.93035	6.60303	1.22134	2.43052	1.32665	2.63276	1.42678	2.83796	1.83083	3.62995				
0.979026	2.47126	1.22781	2.43126	0.980862	2.47173	0.986923	2.70175	1.37469	2.71297	1.61012	3.17653	1.92208	6.62704	1.22729	2.4312	1.33227	2.63187	1.42904	2.82948	1.83036	3.61249				
0.972679	2.46962	1.23379	2.43199	0.974514	2.4701	0.980995	2.7026	1.38057	2.71221	1.61076	3.16337	1.91398	6.65205	1.23327	2.43193	1.33786	2.63091	1.43138	2.82122	1.82991	3.59524				
0.966338	2.46798	1.23979	2.43276	0.968171	2.46846	0.975066	2.70345	1.38645	2.71149	1.61143	3.15042	1.90609	6.67818	1.23927	2.43269	1.34341	2.62989	1.4338	2.8132	1.8295	3.57821				
0.960003	2.46634	1.24582	2.43357	0.961834	2.46681	0.969137	2.70431	1.39235	2.71079	1.61214	3.13766	1.89843	6.70553	1.2453	2.4335	1.34891	2.62879	1.43631	2.80542	1.82913	3.5614				
0.953675	2.46469	1.25187	2.43441	0.955504	2.46517	0.963209	2.70519	1.39826	2.71011	1.6129	3.1251	1.89102	6.73424	1.25134	2.43434	1.35436	2.6276	1.4389	2.79788	1.82878	3.54481				
0.947356	2.46305	1.25794	2.43529	0.949183	2.46352	0.957282	2.70608	1.40417	2.70946	1.6137	3.11274	1.88389	6.76443	1.25741	2.43521	1.35977	2.62632	1.44159	2.79058	1.82847	3.52842				
0.941046	2.46141	1.26403	2.43619	0.94287	2.46188	0.951358	2.70699	1.41009	2.70882	1.61455	3.10056	1.87707	6.79626	1.2635	2.43611	1.36511	2.62495	1.44437	2.78352	1.82819	3.51225				
0.934747	2.45978	1.27013	2.43712	0.936568	2.46025	0.945437	2.70792	1.41601	2.7082	1.61543	3.08858	1.87059	6.82986	1.2696	2.43703	1.3704	2.62347	1.44725	2.77672	1.82795	3.49628				
0.928461	2.45816	1.27625	2.43807	0.930278	2.45863	0.939521	2.70888	1.42194	2.70759	1.61636	3.07678	1.86448	6.86539	1.27572	2.43798	1.37562	2.62189	1.45023	2.77018	1.82774	3.48052				
0.922189	2.45656	1.28239	2.43904	0.924001	2.45702	0.93361	2.70986	1.42788	2.70699	1.61733	3.06517	1.85876	6.90298	1.28185	2.43895	1.38077	2.62018	1.45332	2.7639	1.82756	3.46496				
0.915933	2.45499	1.28854	2.44003	0.91774	2.45544	0.927706	2.71088	1.43381	2.70641	1.61835	3.05374	1.85346	6.94279	1.288	2.43994	1.38585	2.61836	1.45652	2.75788	1.82742	3.44959				
0.909695	2.45344	1.2947	2.44104	0.911497	2.45388	0.921809	2.71194	1.43975	2.70583	1.61941	3.0425	1.84859	6.98492	1.29417	2.44095	1.39085	2.6164	1.45983	2.75213	1.82731	3.43443				
0.903479	2.45193	1.30088	2.44206	0.905274	2.45236	0.915921	2.71303	1.44569	2.70526	1.62052	3.03143	1.84417	7.02949	1.30034	2.44197	1.39578	2.61431	1.46326	2.74666	1.82723	3.41946				
0.897286	2.45047	1.30707	2.4431	0.899074	2.45089	0.910044	2.71417	1.45163	2.7047	1.62167	3.02055	1.84019	7.07658	1.30653	2.44301	1.40061	2.61209	1.46682	2.74145	1.82719	3.40468				
0.891122	2.44907	1.31327	2.44415	0.892901	2.44947	0.904178	2.71536	1.45757	2.70414	1.62286	3.00984	1.83666	7.12624	1.31273	2.44406	1.40537	2.60972	1.4705	2.73653	1.82719	3.39009				
0.884989	2.44774	1.31949	2.44521	0.886759	2.44812	0.898326	2.71661	1.46351	2.70358	1.62411	2.99931	1.83357	7.17852	1.31895	2.44512	1.41004	2.60722	1.4743	2.73187	1.82722	3.3757				
0.878894	2.44649	1.32571	2.44628	0.880653	2.44684	0.892488	2.71792	1.46944	2.70302	1.6254	2.98896	1.8309	7.23342	1.32517	2.44619	1.41462	2.60458	1.47823	2.72749	1.82728	3.36148				
0.872842	2.44535	1.33194	2.44736	0.874587	2.44567	0.886667	2.71931	1.47537	2.70246	1.62673	2.97878	1.82863	7.29091	1.3314	2.44727	1.41911	2.6018	1.48228	2.72337	1.82738	3.34745				
0.866838	2.44433	1.33818	2.44845	0.868569	2.44461	0.880866	2.72077	1.4813	2.7019	1.62812	2.96877	1.82674	7.35097	1.33764	2.44836	1.42352	2.59889	1.48646	2.71952	1.82751	3.33361				
0.860892	2.44347	1.34443	2.44954	0.862605	2.4437	0.875085	2.72231	1.48723	2.70134	1.62955	2.95894	1.82518	7.41355	1.34389	2.44945	1.42785	2.59585	1.49075	2.71592	1.82768	3.31994				
0.855012	2.44277	1.35069	2.45064	0.856705	2.44295	0.869329	2.72396	1.49314	2.70077	1.63104	2.94927	1.82394	7.47859	1.35015	2.45055	1.43209	2.5927	1.49517	2.71256	1.82788	3.30645				
0.849207	2.44229	1.35695	2.45175	0.850877	2.44241	0.8636	2.72571	1.49905	2.70019	1.63257	2.93978	1.82297	7.54603	1.35641	2.45165	1.43627	2.58944	1.4997	2.70944	1.82812	3.29313				
0.843488	2.44205	1.36323	2.45285	0.845133	2.44209	0.8579	2.72759	1.50496	2.6996	1.63416	2.93046	1.82226	7.61581	1.36268	2.45276	1.44037	2.58608	1.50435	2.70655	1.82839	3.27999				
0.837868	2.44209	1.3695	2.45396	0.839482	2.44205	0.852235	2.7296	1.51085	2.699	1.6358	2.92132	1.82176	7.68787	1.36896	2.45387	1.44441	2.58263	1.50909	2.70386	1.8287	3.26702				
0.832357	2.44245	1.37579	2.45507	0.833939	2.44231	0.846608	2.73177	1.51673	2.69839	1.63749	2.91234	1.82145	7.76215	1.37524	2.45498	1.44839	2.57911	1.51394	2.70138	1.82904	3.25422				
0.826967	2.44318	1.38208	2.45619	0.828513	2.44293	0.841024	2.73411	1.52261	2.69776	1.63924	2.90353	1.82131	7.83861	1.38153	2.45609	1.45232	2.57552	1.51888	2.69907	1.82942	3.24159				
0.821709	2.44431	1.38838	2.4573	0.823216	2.44394	0.835489	2.73664	1.52846	2.69711	1.64104	2.8949	1.82129	7.90696	1.38783	2.4572	1.4562	2.57188	1.5239	2.69694	1.82984	3.22912				
0.816591	2.44587	1.39468	2.45841	0.818056	2.44537	0.830007	2.73939	1.53431	2.69645	1.64291	2.88644	1.82135	7.96649	1.39413	2.45831	1.46004	2.5682	1.529	2.69497	1.83029	3.21682				
0.811618	2.44789	1.40098	2.45952	0.813041	2.44726	0.824587	2.74238	1.54013	2.69576	1.64483	2.87815	1.82144	8.01658	1.40044	2.45943	1.46385	2.56449	1.53418	2.69314	1.83077	3.20468				
0.806791	2.45039	1.40729	2.46063	0.808172	2.44962	0.819235	2.74566	1.54594	2.69504	1.64682	2.87004	1.82153	8.05673	1.40675	2.46054	1.46763	2.56076	1.53943	2.69145	1.8313	3.1927				
0.80211	2.45337	1.41361	2.46174	0.803449	2.45246	0.813961	2.74924	1.55173	2.69429	1.64887	2.86211	1.82161	8.08655	1.41306	2.46165	1.47139	2.55702	1.54474	2.68988	1.83186	3.18088				
0.79757	2.45682	1.41993	2.46285	0.798869	2.45577	0.808773	2.75317	1.5575	2.69351	1.65099	2.85435	1.82169	8.11422	1.41938	2.46275	1.47512	2.55327	1.5501	2.68842	1.83245	3.16921				
0.793162	2.46073	1.42625	2.46395	0.794424	2.45955	0.803682	2.7575	1.56324	2.69269	1.65318	2.84678	1.82175	8.1336	1.4257	2.46385	1.47885	2.54954	1.55552	2.68706	1.83309	3.15771				
0.788878	2.46508	1.43257	2.46505	0.790105	2.46378	0.798699	2.76227	1.56895	2.69183	1.65544	2.8394	1.82185	8.16409	1.43202	2.46495	1.48256	2.54581	1.56098	2.68579	1.83375	3.14635				
0.784707	2.46986	1.43889	2.46614	0.785902	2.46844	0.793834	2.76753	1.57463	2.69092	1.65778	2.8322	1.822	8.20596	1.43835	2.46604	1.48627	2.54211	1.56649	2.68461	1.83446	3.13515				
0.780637	2.47502	1.44522	2.46723	0.781804	2.47349	0.789101	2.77334	1.58027	2.68997	1.6602	2.8252	1.8222	8.25959	1.44467	2.46713	1.48998	2.53844	1.57203	2.6835	1.8352	3.1241				
0.776657	2.48055	1.45155	2.46831	0.777799	2.47892	0.784511	2.77975	1.58588	2.68895	1.66271	2.81839	1.82246	8.32544	1.451	2.46821	1.49369	2.5348	1.57761	2.68246	1.83598	3.1132				
0.772756	2.48642	1.45788	2.46938	0.773877	2.48469	0.780077	2.78683	1.59145	2.68787	1.6653	2.8118	1.82277	8.40408	1.45733	2.46929	1.49741	2.5312	1.58323	2.68149	1.8368	3.10244				
0.768924	2.49259	1.46421	2.47044	0.770026	2.49078	0.775809	2.79461	1.59696	2.68672	1.66799	2.80541	1.82314	8.49617	1.46366	2.47035	1.50114	2.52765	1.58887	2.68056	1.83765	3.09184				
0.765148	2.49904	1.47053	2.4715	0.766235	2.49715	0.771717	2.80317	1.60243	2.68549	1.67078	2.79924	1.8235	8.59021	1.46998	2.4714	1.50488	2.52414	1.59453	2.67969	1.83854	3.08138				
0.761419	2.50575	1.47686	2.47254	0.762493	2.50378	0.767808	2.81255	1.60784	2.68418	1.67368	2.79329	1.82384	8.68622	1.47631	2.47245	1.50864	2.52069	1.60022	2.67887	1.83947	3.07106				
0.757726	2.51267	1.48318	2.47356	0.758791	2.51065	0.76409	2.82279	1.61319	2.68278	1.67668	2.78757	1.82414	8.78419	1.48263	2.47347	1.51242	2.5173	1.60593	2.67808	1.84044	3.06088				
0.754058	2.51979	1.48949	2.47457	0.755116	2.51771	0.760564	2.83392	1.61848	2.68128	1.67981	2.78209	1.82439	8.88412	1.48894	2.47448	1.51623	2.51398	1.61166	2.67733	1.84145	3.05084				
0.750403	2.52706	1.49579	2.47555	0.751459	2.52495	0.757232	2.84597	1.62369	2.67967	1.68305	2.77686	1.82459	8.98603	1.49525	2.47546	1.52006	2.51073	1.61741	2.67662	1.84249	3.04095				
0.746752	2.53446	1.50208	2.4765	0.747808	2.53231	0.754093	2.85897	1.62883	2.67796	1.68643	2.77188	1.82471	9.08992	1.50154	2.47642	1.52394	2.50757	1.62317	2.67593	1.84357	3.03119				
0.743091	2.54194	1.50835	2.47741	0.744152	2.53977	0.751142	2.87291	1.6339	2.67613	1.68994	2.76716	1.82474	9.1958	1.50781	2.47733	1.52786	2.50451	1.62894	2.67527	1.84469	3.02157				
0.739409	2.54947	1.51459	2.47826	0.740477	2.54729	0.748376	2.88782	1.63888	2.67419	1.69359	2.76269	1.82469	9.30369	1.51405	2.47819	1.53184	2.50158	1.63472	2.67463	1.84585	3.01209				
0.735692	2.557	1.52077	2.47903	0.736771	2.55482	0.745787	2.90368	1.64378	2.67212	1.69738	2.7585	1.82452	9.41362	1.52024	2.47896	1.53591	2.49881	1.64051	2.67401	1.84705	3.00274				
0.731928	2.56448	1.52688	2.47966	0.733023	2.56233	0.743369	2.9205	1.6486	2.66994	1.70132	2.75457	1.82425	9.52561	1.52636	2.47961	1.5401	2.49625	1.64632	2.67341	1.84829	2.99352				
0.728104	2.57188	1.53287	2.48008	0.729217	2.56975	0.741115	2.93828	1.65334	2.66765	1.7054	2.7509	1.82385	9.63967	1.53235	2.48005	1.54448	2.49403	1.65212	2.67283	1.84957	2.98444				
0.724207	2.57913	1.53864	2.48016	0.725343	2.57705	0.739016	2.95701	1.658	2.66525	1.70963	2.74749	1.82332	9.75586	1.53815	2.48017	1.54914	2.49228	1.65793	2.67226	1.85089	2.97549				
0.720225	2.5862	1.54411	2.47975	0.721386	2.58418	0.737066	2.97669	1.6626	2.66276	1.714	2.74433	1.82266	9.87421	1.54365	2.47981	1.55419	2.49115	1.66375	2.67169	1.85225	2.96668				
0.716148	2.59304	1.54919	2.47873	0.717337	2.59109	0.735257	2.99732	1.66713	2.66019	1.7185	2.74141	1.82185	9.99476	1.54876	2.47884	1.55965	2.49068	1.66957	2.67114	1.85365	2.95799				
0.711965	2.59962	1.55393	2.47717	0.713186	2.59775	0.733584	3.01889	1.67162	2.65757	1.72313	2.73872	1.82089	10.1176	1.55353	2.47732	1.56542	2.49072	1.67539	2.67059	1.8551	2.94944				
0.707672	2.6059	1.55843	2.47524	0.708925	2.60412	0.732039	3.04141	1.67606	2.65489	1.72789	2.73625	1.81978	10.2427	1.55805	2.47541	1.57141	2.4911	1.68121	2.67005	1.85658	2.94101				
0.703262	2.61185	1.56279	2.47309	0.70455	2.61017	0.730617	3.06489	1.68048	2.6522	1.73277	2.73398	1.8185	10.3702	1.56241	2.47328	1.57752	2.49168	1.68703	2.66951	1.85811	2.93271				
0.698735	2.61747	1.56707	2.47085	0.700057	2.61588	0.729313	3.08932	1.68489	2.64951	1.73775	2.7319	1.81707	10.5002	1.5667	2.47104	1.58372	2.49239	1.69285	2.66897	1.85968	2.92454				
0.69409	2.62274	1.57131	2.46856	0.695445	2.62125	0.728123	3.11472	1.6893	2.64684	1.74284	2.72999	1.81548	10.6328	1.57095	2.46876	1.58997	2.49318	1.69866	2.66843	1.8613	2.9165				
0.689331	2.62767	1.57555	2.46627	0.690719	2.62628	0.727041	3.1411	1.69372	2.64421	1.74801	2.72824	1.81372	10.768	1.57518	2.46647	1.59626	2.49401	1.70447	2.66789	1.86296	2.90858				
0.684461	2.63225	1.57978	2.464	0.68588	2.63096	0.726065	3.16847	1.69818	2.64165	1.75327	2.72662	1.81181	10.9061	1.57941	2.4642	1.60257	2.49487	1.71027	2.66734	1.86467	2.9008				
0.679486	2.63652	1.58403	2.46176	0.680935	2.63532	0.72519	3.19684	1.70268	2.63918	1.7586	2.72514	1.80974	11.047	1.58366	2.46195	1.60889	2.49576	1.71607	2.66678	1.86642	2.89314				
0.674414	2.64048	1.58829	2.45956	0.675891	2.63936	0.724414	3.22623	1.70724	2.63681	1.764	2.72377	1.80751	11.1911	1.58791	2.45975	1.61523	2.49665	1.72186	2.66622	1.86822	2.88561				
0.669251	2.64415	1.59256	2.4574	0.670753	2.64312	0.723732	3.25667	1.71186	2.63457	1.76947	2.72251	1.80514	11.3384	1.59219	2.45759	1.62158	2.49756	1.72764	2.66565	1.87006	2.8782				
0.664005	2.64756	1.59686	2.4553	0.665531	2.6466	0.723143	3.28816	1.71656	2.63245	1.77499	2.72134	1.80263	11.4891	1.59649	2.45548	1.62794	2.49846	1.73341	2.66506	1.87196	2.87093				
0.658684	2.65073	1.60119	2.45325	0.66023	2.64984	0.722644	3.32073	1.72134	2.63048	1.78056	2.72025	1.79997	11.6434	1.60081	2.45342	1.6343	2.49938	1.73917	2.66446	1.87391	2.86378				
0.653293	2.65368	1.60554	2.45125	0.654859	2.65285	0.722232	3.3544	1.72622	2.62866	1.78617	2.71924	1.79719	11.8016	1.60516	2.45142	1.64066	2.50029	1.74491	2.66384	1.87591	2.85676				
0.647841	2.65643	1.60992	2.4493	0.649424	2.65565	0.721905	3.3892	1.73118	2.62699	1.79182	2.7183	1.79429	11.9638	1.60954	2.44947	1.64703	2.5012	1.75064	2.6632	1.87796	2.84987				
0.642332	2.659	1.61433	2.44741	0.643931	2.65827	0.721661	3.42516	1.73624	2.62547	1.79751	2.71742	1.79128	12.1303	1.61394	2.44758	1.6534	2.50211	1.75635	2.66254	1.88007	2.84311				
0.636774	2.66141	1.61876	2.44558	0.638386	2.66073	0.721497	3.4623	1.74139	2.6241	1.80323	2.71659	1.78817	12.3015	1.61837	2.44574	1.65978	2.50301	1.76204	2.66186	1.88223	2.83648				
0.63117	2.66368	1.62322	2.44381	0.632795	2.66304	0.721411	3.50065	1.74663	2.62287	1.80898	2.71581	1.78496	12.4775	1.62284	2.44396	1.66615	2.50391	1.76771	2.66115	1.88445	2.82999				
0.625527	2.66582	1.62772	2.44209	0.627163	2.66521	0.721403	3.54025	1.75195	2.62178	1.81476	2.71508	1.78167	12.6586	1.62733	2.44224	1.67253	2.50481	1.77335	2.66041	1.88673	2.82363				
0.619847	2.66785	1.63224	2.44043	0.621493	2.66727	0.721468	3.58112	1.75735	2.62081	1.82056	2.71439	1.77831	12.8453	1.63185	2.44057	1.6789	2.5057	1.77898	2.65963	1.88907	2.81741				
0.614135	2.66978	1.6368	2.43883	0.61579	2.66923	0.721606	3.6233	1.76283	2.61996	1.82638	2.71373	1.77489	13.0379	1.6364	2.43896	1.68528	2.50659	1.78457	2.65882	1.89148	2.81132				
0.608394	2.67162	1.64138	2.43728	0.610057	2.67109	0.721815	3.66683	1.76837	2.61922	1.83222	2.7131	1.77141	13.2368	1.64098	2.43741	1.69166	2.50747	1.79013	2.65798	1.89395	2.80538				
0.602627	2.67338	1.646	2.43579	0.604297	2.67288	0.722092	3.71175	1.77397	2.61857	1.83807	2.7125	1.7679	13.4423	1.6456	2.43592	1.69804	2.50834	1.79566	2.65708	1.8965	2.79958				
0.596837	2.67508	1.65065	2.43435	0.598514	2.6746	0.722435	3.75809	1.77964	2.61802	1.84394	2.71193	1.76435	13.6548	1.65024	2.43448	1.70441	2.50921	1.80116	2.65615	1.89911	2.79392				
0.591027	2.67672	1.65533	2.43297	0.592709	2.67625	0.722843	3.80589	1.78535	2.61753	1.84982	2.71138	1.76078	13.875	1.65492	2.43309	1.71079	2.51007	1.80662	2.65516	1.9018	2.78842				
0.585198	2.67831	1.66004	2.43165	0.586886	2.67785	0.723313	3.8552	1.79111	2.61712	1.85572	2.71085	1.7572	14.1032	1.65962	2.43176	1.71717	2.51093	1.81203	2.65412	1.90457	2.78306				
0.579353	2.67986	1.66478	2.43038	0.581045	2.67941	0.723844	3.90607	1.79691	2.61678	1.86162	2.71035	1.75361	14.34	1.66436	2.43049	1.72354	2.51177	1.8174	2.65301	1.90742	2.77786				
0.573493	2.68137	1.66955	2.42916	0.575189	2.68094	0.724432	3.95853	1.80274	2.61648	1.86754	2.70985	1.75004	14.586	1.66913	2.42927	1.72992	2.51261	1.82272	2.65185	1.91036	2.77282				
0.567621	2.68286	1.67435	2.428	0.56932	2.68243	0.725077	4.01265	1.80861	2.61624	1.87346	2.70938	1.74648	14.8417	1.67393	2.4281	1.73629	2.51344	1.82799	2.65061	1.91339	2.76794				
0.561737	2.68432	1.67919	2.42689	0.56344	2.6839	0.725775	4.06846	1.81451	2.61604	1.87939	2.70891	1.74294	15.1079	1.67877	2.42699	1.74266	2.51427	1.8332	2.64931	1.91651	2.76323				
0.555844	2.68578	1.68405	2.42584	0.557549	2.68536	0.726524	4.12603	1.82043	2.61588	1.88533	2.70846	1.73944	15.3853	1.68363	2.42593	1.74903	2.51508	1.83835	2.64792	1.91972	2.75869				
0.549941	2.68722	1.68895	2.42483	0.551649	2.6868	0.727322	4.1854	1.82638	2.61575	1.89127	2.70802	1.73597	15.6745	1.68852	2.42492	1.75539	2.51589	1.84344	2.64646	1.92303	2.75432				
0.544032	2.68866	1.69388	2.42388	0.545742	2.68824	0.728166	4.24665	1.83234	2.61565	1.89722	2.70759	1.73256	15.9766	1.69345	2.42396	1.76176	2.51669	1.84846	2.64491	1.92645	2.75012				
0.538116	2.6901	1.69884	2.42297	0.539828	2.68968	0.729053	4.30982	1.83833	2.61557	1.90317	2.70717	1.7292	16.2923	1.69841	2.42305	1.76812	2.51747	1.85342	2.64327	1.92997	2.7461				
0.532196	2.69154	1.70383	2.42212	0.533908	2.69112	0.729981	4.37498	1.84433	2.61552	1.90912	2.70675	1.72591	16.6226	1.70339	2.42219	1.77447	2.51825	1.8583	2.64153	1.9336	2.74226				
0.526271	2.69301	1.70885	2.42131	0.527985	2.69258	0.730947	4.4422	1.85034	2.61549	1.91507	2.70634	1.72268	16.9686	1.70841	2.42138	1.78083	2.51902	1.8631	2.63971	1.93734	2.7386				
0.520343	2.69449	1.7139	2.42055	0.522057	2.69406	0.731948	4.51155	1.85636	2.61547	1.92103	2.70593	1.71953	17.3315	1.71346	2.42062	1.78718	2.51978	1.86783	2.63779	1.94119	2.73512				
0.514413	2.69599	1.71898	2.41984	0.516128	2.69555	0.73298	4.58309	1.86239	2.61546	1.92698	2.70552	1.71647	17.7126	1.71854	2.4199	1.79352	2.52053	1.87248	2.63577	1.94515	2.73182				
0.508482	2.69753	1.72409	2.41918	0.510198	2.69708	0.734041	4.65691	1.86843	2.61547	1.93294	2.70512	1.71349	18.1131	1.72364	2.41923	1.79986	2.52126	1.87706	2.63365	1.94922	2.7287				
0.502552	2.69911	1.72923	2.41856	0.504267	2.69865	0.735127	4.73309	1.87448	2.61549	1.93889	2.70472	1.7106	18.5347	1.72878	2.41861	1.8062	2.52198	1.88156	2.63145	1.9534	2.72575				
0.496622	2.70073	1.73439	2.41798	0.498337	2.70025	0.736234	4.8117	1.88053	2.61552	1.94484	2.70432	1.70781	18.9789	1.73394	2.41803	1.81253	2.52269	1.88598	2.62915	1.9577	2.72298				
0.490694	2.7024	1.73959	2.41745	0.492408	2.70191	0.737359	4.89284	1.88659	2.61555	1.95079	2.70391	1.70512	19.4477	1.73914	2.41749	1.81885	2.52339	1.89033	2.62676	1.9621	2.72037				
0.484769	2.70413	1.74481	2.41696	0.486482	2.70363	0.738498	4.97659	1.89265	2.61558	1.95674	2.70351	1.70254	19.9431	1.74436	2.417	1.82517	2.52407	1.89461	2.62429	1.9666	2.71791				
0.478848	2.70594	1.75007	2.41651	0.48056	2.70541	0.739646	5.06305	1.89872	2.61562	1.96268	2.7031	1.70006	20.4672	1.74961	2.41655	1.83147	2.52474	1.89882	2.62175	1.9712	2.71562				
0.472933	2.70782	1.75535	2.4161	0.474643	2.70726	0.7408	5.15233	1.90478	2.61566	1.96862	2.70269	1.69769	21.0227	1.75489	2.41614	1.83777	2.52539	1.90297	2.61913	1.9759	2.71346				
0.467024	2.70978	1.76065	2.41574	0.468732	2.7092	0.741954	5.24452	1.91085	2.6157	1.97455	2.70227	1.69543	21.6122	1.76019	2.41577	1.84406	2.52602	1.90706	2.61646	1.98069	2.71145				
0.461123	2.71185	1.76598	2.41541	0.462829	2.71124	0.743105	5.33975	1.91691	2.61574	1.98047	2.70184	1.69328	22.239	1.76552	2.41543	1.85034	2.52663	1.91111	2.61373	1.98557	2.70957				
0.455231	2.71403	1.77134	2.41511	0.456934	2.71339	0.744247	5.43812	1.92297	2.61578	1.98638	2.70141	1.69125	22.9065	1.77088	2.41514	1.8566	2.52722	1.9151	2.61096	1.99053	2.7078				
0.44935	2.71634	1.77673	2.41486	0.45105	2.71566	0.745375	5.53976	1.92903	2.61581	1.99229	2.70097	1.68933	23.6186	1.77626	2.41488	1.86285	2.52779	1.91906	2.60815	1.99556	2.70616				
0.443482	2.71879	1.78214	2.41464	0.445178	2.71806	0.746483	5.6448	1.93509	2.61584	1.99819	2.70051	1.68752	24.3798	1.78167	2.41466	1.86908	2.52833	1.92299	2.60532	2.00066	2.70461				
0.437629	2.72139	1.78757	2.41445	0.43932	2.72062	0.747567	5.75338	1.94114	2.61586	2.00407	2.70004	1.68583	25.1952	1.7871	2.41447	1.87529	2.52884	1.92689	2.60247	2.00583	2.70317				
0.431792	2.72419	1.79303	2.4143	0.433478	2.72336	0.74862	5.86565	1.94719	2.61587	2.00994	2.69956	1.68425	26.0706	1.79256	2.41431	1.88149	2.52932	1.93078	2.59961	2.01106	2.70182				
0.425974	2.72718	1.79851	2.41418	0.427654	2.72629	0.749637	5.98176	1.95323	2.61588	2.01579	2.69906	1.68277	27.0125	1.79804	2.41419	1.88766	2.52977	1.93465	2.59676	2.01635	2.70055				
0.420178	2.73041	1.80402	2.4141	0.421852	2.72945	0.75061	6.10187	1.95926	2.61588	2.02163	2.69854	1.6814	28.0287	1.80354	2.4141	1.8938	2.53017	1.93852	2.59393	2.02168	2.69935				
0.414407	2.7339	1.80955	2.41404	0.416073	2.73286	0.751534	6.22617	1.96528	2.61586	2.02746	2.698	1.68013	29.128	1.80907	2.41404	1.8999	2.53053	1.9424	2.59111	2.02707	2.69823				
0.408665	2.73769	1.8151	2.41402	0.410322	2.73656	0.752402	6.35484	1.9713	2.61583	2.03326	2.69744	1.67897	30.3206	1.81462	2.41402	1.90597	2.53084	1.94629	2.58834	2.0325	2.69717				
0.402956	2.74183	1.82067	2.41402	0.404603	2.74059	0.753206	6.48807	1.9773	2.61579	2.03903	2.69685	1.67789	31.6188	1.82019	2.41402	1.912	2.53108	1.95021	2.58561	2.03796	2.69617				
0.397284	2.74635	1.82627	2.41405	0.39892	2.745	0.753941	6.6261	1.98329	2.61573	2.04479	2.69623	1.67692	33.0369	1.82578	2.41405	1.91797	2.53126	1.95415	2.58294	2.04347	2.69522				
0.391655	2.75133	1.83188	2.41411	0.393278	2.74984	0.754598	6.76914	1.98927	2.61565	2.05052	2.69558	1.67602	34.5918	1.83139	2.4141	1.92389	2.53136	1.95815	2.58035	2.049	2.69432				
0.386075	2.75682	1.83751	2.41419	0.387683	2.75517	0.755102	6.89809	1.99523	2.61556	2.05621	2.69489	1.67522	36.304	1.83702	2.41418	1.92974	2.53137	1.96219	2.57784	2.05457	2.69347				
0.380553	2.7629	1.84317	2.4143	0.382143	2.76108	0.755477	7.01131	2.00118	2.61544	2.06188	2.69417	1.67449	38.1983	1.84268	2.41429	1.93551	2.53127	1.96631	2.57544	2.06016	2.69266				
0.375095	2.76968	1.84884	2.41444	0.376666	2.76764	0.755748	7.10731	2.0071	2.6153	2.0675	2.6934	1.67383	40.3048	1.84835	2.41442	1.94118	2.53106	1.97051	2.57317	2.06578	2.69188				
0.369713	2.77726	1.85454	2.4146	0.371261	2.77498	0.755935	7.1848	2.01301	2.61514	2.07309	2.69259	1.67325	42.661	1.85404	2.41458	1.94676	2.53071	1.9748	2.57103	2.07142	2.69114				
0.364418	2.78577	1.86025	2.41478	0.36594	2.7832	0.756057	7.24269	2.0189	2.61494	2.07864	2.69173	1.67273	45.3135	1.85975	2.41476	1.95221	2.53022	1.97921	2.56904	2.07708	2.69043				
0.359223	2.79536	1.86597	2.41498	0.360714	2.79246	0.756158	7.29664	2.02476	2.61472	2.08414	2.69081	1.67227	48.3214	1.86548	2.41496	1.95755	2.52957	1.98373	2.56723	2.08276	2.68974				
0.354143	2.80621	1.87172	2.4152	0.355599	2.80293	0.756221	7.33457	2.03059	2.61447	2.08959	2.68983	1.67186	51.7608	1.87122	2.41518	1.96274	2.52874	1.9884	2.56561	2.08845	2.68908				
0.349195	2.81854	1.87748	2.41545	0.350612	2.81481	0.756307	7.39452	2.0364	2.61418	2.09499	2.6888	1.6715	55.731	1.87698	2.41543	1.9678	2.52774	1.99321	2.56418	2.09416	2.68845				
0.3444	2.83259	1.88326	2.41571	0.34577	2.82834	0.756402	7.47738	2.04218	2.61385	2.10033	2.68769	1.67119	60.3647	1.88276	2.41569	1.97272	2.52657	1.99816	2.56295	2.09988	2.68783				
0.339776	2.84862	1.88906	2.416	0.341094	2.84377	0.756483	7.58445	2.04792	2.61348	2.10562	2.68653	1.67093	65.8427	1.88855	2.41597	1.97749	2.52523	2.00327	2.56191	2.10561	2.68723				
0.335347	2.86695	1.89487	2.4163	0.336607	2.8614	0.75652	7.71744	2.05362	2.61306	2.11084	2.68529	1.6707	72.4181	1.89436	2.41627	1.98214	2.52373	2.00852	2.56107	2.11135	2.68664				
0.331135	2.88791	1.9007	2.41662	0.33233	2.88156	0.756475	7.87859	2.05928	2.61259	2.11601	2.68398	1.6705	80.4565	1.90019	2.41659	1.98668	2.52209	2.0139	2.56039	2.1171	2.68607				
0.327162	2.91186	1.90654	2.41695	0.328286	2.90461	0.756303	8.07075	2.0649	2.61207	2.12112	2.68261	1.67034	90.5067	1.90603	2.41692	1.99111	2.52033	2.0194	2.55988	2.12286	2.68551				
0.323449	2.93917	1.91239	2.4173	0.324495	2.9309	0.755997	8.27114	2.07046	2.61149	2.12617	2.68118	1.6702	103.431	1.91188	2.41727	1.99545	2.51847	2.02501	2.55951	2.12862	2.68496				
0.320012	2.97022	1.91826	2.41767	0.320977	2.96083	0.755551	8.48034	2.07598	2.61085	2.13117	2.67969	1.67008	120.666	1.91775	2.41764	1.99971	2.51652	2.03072	2.55926	2.13438	2.68442				
0.316866	3.00538	1.92414	2.41805	0.317745	2.99477	0.754962	8.69903	2.08143	2.61014	2.13612	2.67814	1.66999	144.799	1.92363	2.41802	2.00391	2.51451	2.03651	2.55912	2.14015	2.68389				
0.314017	3.045	1.93004	2.41845	0.31481	3.03306	0.754229	8.92794	2.08683	2.60935	2.14103	2.67656	1.66992	181.005	1.92953	2.41841	2.00806	2.51244	2.04238	2.55907	2.14592	2.68336				
0.31147	3.08942	1.93595	2.41886	0.312175	3.07606	0.753348	9.16793	2.09216	2.60849	2.14591	2.67494	1.66986	241.366	1.93543	2.41882	2.01217	2.51033	2.0483	2.55909	2.15169	2.68283				
0.309222	3.13896	1.94187	2.41928	0.309841	3.12409	0.752321	9.41993	2.09742	2.60755	2.15077	2.67331	1.66983	362.14	1.94135	2.41924	2.01624	2.50819	2.05428	2.55918	2.15746	2.68231				
0.307267	3.19394	1.9478	2.41972	0.307803	3.17746	0.751147	9.68505	2.10261	2.60652	2.15562	2.67167	1.6698	724.866	1.94728	2.41968	2.02029	2.50604	2.0603	2.55933	2.16323	2.68179				
0.305598	3.25464	1.95375	2.42016	0.306052	3.23648	0.749828	9.9645	2.10772	2.6054	2.16046	2.67003			1.95323	2.42012	2.02432	2.50387	2.06636	2.55952	2.16899	2.68126				
0.304201	3.32139	1.9597	2.42062	0.304578	3.30145	0.74837	10.2597	2.11275	2.60419	2.16531	2.66842			1.95918	2.42058	2.02834	2.5017	2.07245	2.55975	2.17475	2.68074				
0.303065	3.3945	1.96567	2.42109	0.303368	3.37268	0.746774	10.5723	2.11769	2.60288	2.17018	2.66683			1.96515	2.42105	2.03235	2.49953	2.07857	2.56001	2.1805	2.68021				
0.302176	3.47433	1.97164	2.42157	0.302408	3.45053	0.74505	10.9041	2.12255	2.60147	2.17507	2.66529			1.97112	2.42153	2.03636	2.49737	2.08471	2.5603	2.18625	2.67967				
0.30152	3.56127	1.97763	2.42206	0.301687	3.53538	0.743203	11.2572	2.12732	2.59997	2.18	2.6638			1.97711	2.42202	2.04036	2.49523	2.09087	2.56061	2.19199	2.67913				
0.301084	3.65576	1.98363	2.42256	0.301189	3.62763	0.741242	11.6341	2.13201	2.59837	2.18498	2.66238			1.98311	2.42252	2.04437	2.49309	2.09705	2.56094	2.19772	2.67858				
0.300855	3.75827	1.98964	2.42307	0.300901	3.72777	0.739177	12.0376	2.1366	2.59667	2.19	2.66101			1.98911	2.42302	2.04838	2.49098	2.10325	2.56128	2.20344	2.67802				
0.30082	3.86936	1.99565	2.42359	0.300811	3.83631	0.73702	12.4711	2.14112	2.59488	2.19508	2.65972			1.99513	2.42354	2.0524	2.48888	2.10945	2.56164						
0.300966	3.98964	2.00168	2.42411	0.300906	3.95387	0.734781	12.9384	2.14555	2.593	2.20021	2.65851			2.00115	2.42406	2.05643	2.48681	2.11567	2.56201						
0.301281	4.11983	2.00771	2.42464	0.301173	4.08112	0.732473	13.444	2.1499	2.59104					2.00719	2.42459	2.06047	2.48476	2.12189	2.56239						
0.301753	4.26073	2.01375	2.42518	0.301601	4.21883	0.73011	13.9932	2.15418	2.58899					2.01323	2.42513	2.06452	2.48274	2.12812	2.56277						
0.302372	4.41324	2.0198	2.42572	0.302179	4.36788	0.727705	14.5924	2.15839	2.58688					2.01928	2.42568	2.06859	2.48074	2.13436	2.56316						
0.303124	4.57842	2.02586	2.42627	0.302893	4.52928	0.725273	15.2492	2.16253	2.58469					2.02533	2.42623	2.07267	2.47878	2.1406	2.56355						
0.303881	4.73361	2.03192	2.42683	0.303735	4.70417	0.722828	15.9727	2.16662	2.58245					2.03139	2.42678	2.07676	2.47684	2.14685	2.56395						
0.304594	4.87488	2.03799	2.42739	0.304691	4.89388	0.720385	16.774	2.17064	2.58016					2.03746	2.42734	2.08087	2.47493	2.15309	2.56434						
0.305228	4.99841	2.04407	2.42796	0.305752	5.09992	0.717958	17.6667	2.17462	2.57782					2.04354	2.42791	2.085	2.47305	2.15934	2.56474						
0.305756	5.10067	2.05015	2.42852	0.306906	5.32407	0.715563	18.6677	2.17856	2.57544					2.04962	2.42847	2.08915	2.47121	2.1656	2.56514						
0.306158	5.17857	2.05624	2.4291	0.308141	5.56839	0.713215	19.7982	2.18246	2.57303					2.05571	2.42905	2.09332	2.4694	2.17185	2.56553						
0.306538	5.25235	2.06233	2.42967	0.309447	5.8353	0.710927	21.0852	2.18632	2.57059					2.0618	2.42962	2.09751	2.46762	2.1781	2.56592						
0.306808	5.30491	2.06843	2.43025	0.310634	6.08854	0.708715	22.5637	2.19016	2.56814					2.0679	2.4302	2.10171	2.46588	2.18435	2.56631						
0.307238	5.38913	2.07453	2.43082	0.311675	6.32133	0.706592	24.2798	2.19397	2.56567					2.074	2.43077	2.10594	2.46417	2.1906	2.56669						
0.307838	5.50795	2.08063	2.4314	0.312554	6.52679	0.704572	26.2952	2.19777	2.56319					2.0801	2.43135	2.1102	2.4625	2.19685	2.56707						
0.308623	5.66567	2.08673	2.43197	0.313258	6.69825	0.702667	28.6952	2.20154	2.5607					2.0862	2.43192	2.11448	2.46087	2.20309	2.56745						
0.309605	5.86836	2.09283	2.43254	0.313781	6.82976	0.70089	31.6003							2.0923	2.43249	2.11878	2.45928								
0.310797	6.12437	2.09893	2.43311	0.314264	6.95505	0.699252	35.187							2.0984	2.43306	2.12312	2.45773								
0.31221	6.44526	2.10503	2.43366	0.314601	7.04474	0.697765	39.7245							2.1045	2.43361	2.12749	2.45622								
0.31366	6.79906	2.11111	2.43421	0.31513	7.18925	0.696438	45.645							2.11059	2.43416	2.13189	2.45476								
0.315135	7.19069	2.11719	2.43474	0.315853	7.3948	0.69528	53.6883							2.11666	2.43469	2.13633	2.45336								
0.316625	7.62619	2.12325	2.43524	0.316769	7.67081	0.694298	65.2358							2.12272	2.4352	2.14081	2.45201								
0.318117	8.11302	2.12929	2.43572	0.317878	8.03101	0.6935	83.1983							2.12876	2.43568	2.14536	2.45074								
0.319601	8.6605	2.13529	2.43615	0.319173	8.4953	0.692891	114.943							2.13477	2.43612	2.14997	2.44955								
0.321065	9.28044	2.14123	2.43652	0.320644	9.09289	0.692476	186.113							2.14072	2.43649	2.15466	2.44846								
0.322498	9.98802	2.14711	2.43681	0.322087	9.77332	0.692256	489.807							2.1466	2.43679	2.15947	2.44751								
0.323889	10.8031	2.15289	2.43699	0.323492	10.5549									2.15239	2.43698	2.16442	2.44672								
0.325228	11.7522	2.15854	2.43702	0.324847	11.4621									2.15805	2.43702	2.16954	2.44613								
0.326504	12.8716	2.16402	2.43686	0.326142	12.5277									2.16355	2.43688	2.17486	2.44576								
0.327707	14.2117	2.16934	2.43652	0.327367	13.7977									2.16888	2.43655	2.18037	2.44561								
0.328827	15.8459	2.17449	2.43599	0.328512	15.3375									2.17405	2.43604	2.18605	2.44565								
0.329856	17.884	2.17951	2.43532	0.329568	17.2446									2.17908	2.43538	2.19187	2.44585								
0.330784	20.4989	2.18444	2.43455	0.330526	19.6695									2.18401	2.43462	2.1978	2.44617								
0.331606	23.9784	2.1893	2.4337	0.33138	22.8591									2.18887	2.43378	2.2038	2.44657								
0.332313	28.8417	2.19411	2.43282	0.33212	27.247									2.19369	2.43289										
0.332899	36.1276	2.1989	2.43191	0.332742	33.6721									2.19849	2.43199										
0.333361	48.2632	2.20368	2.43099	0.33324	43.9954									2.20327	2.43107										
0.333693	72.5459			0.33361	63.3392																				
0.333893	145.655			0.333849	112.8																				
				0.333954	512.002																				
