Sym0		Asym0		Sym1		Sym2		Sym3		Sym4		Sym5		Asym1		Asym2		Asym3		Asym4		Asym5	
386  Points		381  Points		386  Points		374  Points		365  Points		345  Points		136  Points		381  Points		380  Points		366  Points		174  Points		128  Points	
Freq (MHz)	Vph (m/ms)	Freq (MHz)	Vph (m/ms)	Freq (MHz)	Vph (m/ms)	Freq (MHz)	Vph (m/ms)	Freq (MHz)	Vph (m/ms)	Freq (MHz)	Vph (m/ms)	Freq (MHz)	Vph (m/ms)	Freq (MHz)	Vph (m/ms)	Freq (MHz)	Vph (m/ms)	Freq (MHz)	Vph (m/ms)	Freq (MHz)	Vph (m/ms)	Freq (MHz)	Vph (m/ms)
2.2045	2.51013	0.346179	272.022	2.20042	2.51005	0.692291	466.016	1.38284	752.979	1.39402	781.82	2.07664	1863.91	0.346165	305.864	2.20099	2.54867	1.0385	549.228	1.73049	1348.7	1.85664	5924.26
2.19861	2.51002	0.346662	96.8328	2.19454	2.50994	0.692688	182.625	1.37875	332.72	1.39818	341.816	2.07647	606.884	0.34662	100.786	2.19581	2.54948	1.03919	247.53	1.73012	481.864	1.8569	708.528
2.19273	2.50991	0.347601	59.0415	2.18867	2.50985	0.69343	113.671	1.37418	213.009	1.40292	219.279	2.07613	362.395	0.347531	60.4764	2.19079	2.55048	1.04038	159.919	1.72941	293.226	1.85757	376.928
2.18686	2.50982	0.348988	42.5866	2.1828	2.50977	0.694509	82.6035	1.3695	156.36	1.40783	161.723	2.07563	258.281	0.348891	43.3193	2.18586	2.5516	1.04204	118.238	1.72837	210.641	1.85863	256.874
2.181	2.50974	0.350814	33.4038	2.17695	2.50969	0.695918	64.9472	1.36481	123.333	1.41284	128.293	2.07496	200.601	0.35069	33.846	2.181	2.5528	1.04414	93.8939	1.72702	164.28	1.86007	194.915
2.17515	2.50967	0.353064	27.5624	2.1711	2.50963	0.697646	53.5722	1.36014	101.704	1.41791	106.449	2.07414	163.949	0.352914	27.8571	2.17617	2.55404	1.04664	77.9457	1.72538	134.584	1.86187	157.115
2.16931	2.50961	0.355722	23.5313	2.16527	2.50958	0.69968	45.6414	1.3555	86.4428	1.42302	91.059	2.07316	138.594	0.355549	23.741	2.17137	2.55533	1.0495	66.6976	1.72349	113.931	1.86399	131.659
2.16348	2.50957	0.358772	20.5902	2.15945	2.50954	0.702006	39.8023	1.3509	75.0989	1.42816	79.6306	2.07203	120.007	0.358575	20.7466	2.1666	2.55666	1.05268	58.3442	1.72136	98.7311	1.86642	113.356
2.15766	2.50953	0.362194	18.3559	2.15363	2.50952	0.704609	35.3281	1.34635	66.3367	1.43333	70.809	2.07076	105.795	0.361975	18.4767	2.16184	2.55801	1.05614	51.8988	1.71903	87.0738	1.86912	99.5667
2.15185	2.50951	0.365967	16.6053	2.14783	2.50951	0.707472	31.7935	1.34185	59.3657	1.43853	63.7938	2.06936	94.5747	0.365727	16.7011	2.1571	2.55938	1.05985	46.7771	1.71653	77.8483	1.87207	88.8082
2.14605	2.5095	0.37007	15.2001	2.14204	2.50951	0.71058	28.933	1.3374	53.6885	1.44374	58.0819	2.06783	85.4898	0.36981	15.2778	2.15237	2.56078	1.06377	42.6107	1.71387	70.3644	1.87525	80.1821
2.14026	2.50951	0.374482	14.0498	2.13627	2.50952	0.713915	26.5723	1.33302	48.9759	1.44897	53.3409	2.06619	77.9828	0.374204	14.1139	2.14765	2.56221	1.06787	39.1561	1.71108	64.171	1.87862	73.1129
2.13449	2.50953	0.37918	13.0926	2.1305	2.50955	0.717462	24.5923	1.3287	45.0021	1.45422	49.3429	2.06444	71.6748	0.378885	13.1464	2.14295	2.56365	1.07214	36.246	1.70819	58.9604	1.88217	67.215
2.12873	2.50956	0.384143	12.2852	2.12475	2.50959	0.721203	22.9086	1.32444	41.6064	1.45948	45.9258	2.06259	66.2994	0.383833	12.3308	2.13825	2.56511	1.07655	33.7615	1.70521	54.5157	1.88587	62.2203
2.12298	2.50961	0.389351	11.5961	2.119	2.50965	0.725123	21.4603	1.32025	38.6717	1.46476	42.9716	2.06065	61.6635	0.389027	11.6352	2.13356	2.56659	1.08108	31.6158	1.70216	50.6797	1.88971	57.9365
2.11724	2.50967	0.394782	11.0017	2.11328	2.50973	0.729206	20.2016	1.31614	36.1106	1.47003	40.3922	2.05863	57.6242	0.394444	11.0357	2.12888	2.56808	1.08572	29.7443	1.69906	47.3354	1.89368	54.2223
2.11152	2.50975	0.400416	10.4846	2.10756	2.50982	0.733437	19.098	1.3121	33.8563	1.47532	38.1205	2.05653	54.0731	0.399333	10.5774	2.1242	2.5696	1.09044	28.0976	1.69591	44.394	1.89775	50.9712
2.1058	2.50985	0.406233	10.0309	2.10186	2.50992	0.737803	18.1228	1.30813	31.8574	1.4806	36.1046	2.05437	50.9267	0.403613	10.2265	2.11953	2.57112	1.09525	26.6376	1.69275	41.7871	1.90191	48.102
2.10011	2.50996	0.412215	9.62991	2.09617	2.51005	0.742288	17.255	1.30425	30.073	1.48589	34.3034	2.05216	48.1194	0.407224	9.96027	2.11487	2.57266	1.10011	25.3343	1.68956	39.4608	1.90616	45.5511
2.09442	2.51009	0.418344	9.27321	2.0905	2.51019	0.74688	16.4779	1.30046	28.4708	1.49118	32.6843	2.0499	45.5992	0.410124	9.76354	2.1102	2.57421	1.10504	24.1636	1.68638	37.3724	1.91047	43.2685
2.08875	2.51023	0.4246	8.95393	2.08483	2.51034	0.751566	15.7781	1.29675	27.0245	1.49646	31.2211	2.04759	43.3243	0.412278	9.62599	2.10554	2.57578	1.11	23.1064	1.6832	35.4872	1.91485	41.2139
2.0831	2.5104	0.430968	8.66651	2.07919	2.51052	0.756335	15.1446	1.29314	25.7128	1.50173	29.8921	2.04526	41.2605	0.413667	9.54093	2.10088	2.57735	1.11501	22.1468	1.68003	33.7773	1.91928	39.3547
2.07745	2.51058	0.437429	8.40639	2.07356	2.51072	0.761174	14.5684	1.28962	24.5179	1.50699	28.6796	2.0429	39.3799	0.415676	9.42251	2.09621	2.57893	1.12004	21.2719	1.67689	32.2195	1.92375	37.6644
2.07183	2.51078	0.443969	8.16979	2.06794	2.51093	0.766071	14.042	1.28621	23.4254	1.51224	27.5689	2.04053	37.6591	0.417877	9.2987	2.09155	2.58051	1.12509	20.4708	1.67378	30.7945	1.92826	36.1209
2.06621	2.511	0.45057	7.95355	2.06234	2.51116	0.771017	13.5592	1.2829	22.4228	1.51748	26.5476	2.03815	36.0788	0.420897	9.138	2.08687	2.5821	1.13016	19.7345	1.67071	29.4863	1.9328	34.7058
2.06062	2.51124	0.457216	7.75501	2.05675	2.51142	0.776001	13.1147	1.27969	21.4997	1.52269	25.6053	2.03577	34.6225	0.424756	8.94648	2.0822	2.58369	1.13524	19.0553	1.66769	28.2812	1.93736	33.4037
2.05504	2.5115	0.463892	7.5719	2.05118	2.51169	0.781012	12.704	1.2766	20.6474	1.52789	24.733	2.03339	33.2762	0.429478	8.73074	2.07751	2.58528	1.14031	18.4268	1.66472	27.1678	1.94193	32.2015
2.04947	2.51178	0.470582	7.40231	2.04563	2.51199	0.786041	12.3232	1.27363	19.8583	1.53306	23.9232	2.03102	32.0281	0.435086	8.49741	2.07282	2.58686	1.14538	17.8434	1.6618	26.1361	1.94652	31.0881
2.04392	2.51209	0.477271	7.24458	2.04009	2.51231	0.791077	11.9692	1.27078	19.1258	1.53821	23.1692	2.02868	30.8679	0.4416	8.25271	2.06811	2.58845	1.15044	17.3004	1.65896	25.1776	1.95111	30.0538
2.03839	2.51241	0.483942	7.09727	2.03457	2.51265	0.796111	11.6391	1.26806	18.4443	1.54332	22.4655	2.02636	29.7868	0.44818	8.02945	2.06339	2.59002	1.15548	16.7935	1.65618	24.2851	1.9557	29.0906
2.03287	2.51276	0.49058	6.95913	2.02906	2.51301	0.801135	11.3303	1.26548	17.809	1.54841	21.807	2.02407	28.7771	0.454812	7.8248	2.05866	2.59158	1.1605	16.3191	1.65348	23.452	1.96028	28.1912
2.02737	2.51313	0.49717	6.82908	2.02357	2.51339	0.806138	11.0407	1.26303	17.2155	1.55345	21.1895	2.02182	27.8321	0.461479	7.63636	2.05391	2.59313	1.16549	15.8743	1.65087	22.6729	1.96485	27.3494
2.02189	2.51352	0.503695	6.70616	2.0181	2.5138	0.811111	10.7686	1.26072	16.6601	1.55846	20.6091	2.01961	26.9458	0.468166	7.46209	2.04913	2.59466	1.17045	15.456	1.64834	21.9428	1.96941	26.5597
2.01642	2.51393	0.510139	6.58953	2.01265	2.51424	0.815414	10.5442	1.25856	16.1395	1.56342	20.0626	2.01745	26.1131	0.474857	7.30026	2.04434	2.59618	1.17536	15.062	1.6459	21.2574	1.97394	25.8175
2.01097	2.51437	0.516487	6.47843	2.00721	2.51469	0.819055	10.3616	1.25656	15.6507	1.56833	19.5469	2.01535	25.3295	0.481536	7.14933	2.03952	2.59767	1.18024	14.6901	1.64357	20.613	1.97844	25.1184
2.00554	2.51484	0.522723	6.37222	2.00179	2.51517	0.822044	10.2162	1.25472	15.1912	1.5732	19.0594	2.01332	24.5907	0.488188	7.00802	2.03467	2.59913	1.18506	14.3384	1.64134	20.0061	1.98292	24.4587
2.00013	2.51533	0.52883	6.2703	1.99639	2.51568	0.824392	10.1047	1.25304	14.7586	1.57801	18.5978	2.01135	23.8933	0.494797	6.87516	2.02979	2.60057	1.18983	14.0051	1.63921	19.4336	1.98736	23.835
1.99473	2.51584	0.534793	6.17215	1.99101	2.51621	0.826109	10.0245	1.25154	14.3508	1.58276	18.1599	2.00945	23.234	0.501347	6.74977	2.02489	2.60197	1.19454	13.6887	1.63721	18.893	1.99175	23.2445
1.98935	2.51638	0.540598	6.0773	1.98564	2.51677	0.827203	9.97392	1.25021	13.9661	1.58745	17.744	2.00764	22.6098	0.507823	6.63096	2.01995	2.60334	1.19918	13.3879	1.63532	18.3818	1.9961	22.6844
1.98399	2.51694	0.546229	5.98535	1.98029	2.51735	0.82877	9.9023	1.24907	13.6027	1.59207	17.3482	2.00591	22.0182	0.514207	6.51795	2.01497	2.60468	1.20375	13.1015	1.63356	17.8978	2.0004	22.1524
1.97865	2.51754	0.551672	5.89592	1.97496	2.51796	0.830465	9.8258	1.24811	13.2591	1.59662	16.9711	2.00427	21.4567	0.520485	6.41004	2.00996	2.60597	1.20825	12.8283	1.63193	17.4391	2.00464	21.6462
1.97332	2.51815	0.556916	5.80872	1.96965	2.5186	0.832755	9.72395	1.24735	12.934	1.6011	16.6113	2.00273	20.9234	0.526641	6.30664	2.00491	2.60722	1.21267	12.5673	1.63044	17.0039	2.00882	21.1641
1.96802	2.5188	0.561948	5.72346	1.96436	2.51926	0.835625	9.5986	1.24679	12.6261	1.6055	16.2675	2.0013	20.4162	0.532658	6.20718	1.99982	2.60843	1.217	12.3176	1.62909	16.5906	2.01294	20.7041
1.96273	2.51947	0.566759	5.63992	1.95908	2.51995	0.839053	9.45188	1.24644	12.3343	1.60982	15.9387	1.99997	19.9335	0.538521	6.11119	1.99469	2.6096	1.22124	12.0785	1.62788	16.1976	2.01698	20.2648
1.95746	2.52017	0.57134	5.55789	1.95382	2.52067	0.843013	9.28615	1.24629	12.0576	1.61406	15.6237	1.99875	19.4735	0.544217	6.01823	1.98952	2.61072	1.22539	11.8491	1.62682	15.8238	2.02095	19.8446
1.95221	2.5209	0.575685	5.47721	1.94858	2.52142	0.847466	9.10381	1.24636	11.7949	1.6182	15.3216	1.99765	19.0349	0.549729	5.92794	1.98431	2.61179	1.22943	11.6288	1.62592	15.4679	2.02484	19.4423
1.94697	2.52165	0.57979	5.39777	1.94336	2.52219	0.851816	8.92922	1.24665	11.5455	1.62225	15.0315	1.99668	18.6163	0.555047	5.83997	1.97907	2.61281	1.23338	11.4169	1.62518	15.1288	2.02864	19.0566
1.94176	2.52243	0.583652	5.31946	1.93816	2.52299	0.856055	8.76173	1.24715	11.3085	1.6262	14.7527	1.99584	18.2166	0.560156	5.75404	1.97378	2.61379	1.23722	11.213	1.6246	14.8053	2.03235	18.6864
1.93656	2.52325	0.587273	5.24222	1.93297	2.52382	0.860175	8.60078	1.24788	11.0833	1.63006	14.4845	1.99513	17.8345	0.565048	5.66989	1.96845	2.61473	1.24095	11.0164	1.62419	14.4968	2.03597	18.3308
1.93138	2.52409	0.590656	5.16601	1.92781	2.52468	0.86417	8.44586	1.2487	10.8959	1.63381	14.2261	1.99455	17.469	0.569713	5.58734	1.96308	2.61562	1.24411	10.8507	1.62395	14.2021	2.03949	17.9888
1.92622	2.52495	0.593803	5.0908	1.92266	2.52557	0.868033	8.29652	1.24953	10.7425	1.63745	13.977	1.99412	17.1193	0.574143	5.50619	1.95768	2.61646	1.24673	10.7135	1.62388	13.9206	2.04291	17.6595
1.92107	2.52585	0.596723	5.0166	1.91752	2.52649	0.871757	8.15233	1.25031	10.6199	1.64098	13.7366	1.99384	16.7844	0.578335	5.42632	1.95224	2.61726	1.24886	10.6026	1.62398	13.6515	2.04622	17.3422
1.91595	2.52678	0.599424	4.94341	1.91241	2.52743	0.875338	8.01292	1.25099	10.5254	1.64441	13.5045	1.9937	16.4635	0.582286	5.34761	1.94676	2.61802	1.2505	10.5165	1.62427	13.3941	2.04942	17.0362
1.91084	2.52773	0.601915	4.87126	1.90731	2.52841	0.878771	7.87794	1.25153	10.4574	1.64772	13.28	1.99372	16.1558	0.585994	5.26999	1.94125	2.61873	1.2517	10.4541	1.62473	13.1477	2.05251	16.7408
1.90575	2.52871	0.604209	4.80018	1.90223	2.52941	0.882051	7.74709	1.25188	10.4145	1.65091	13.0628	1.99389	15.8606	0.589462	5.19341	1.93571	2.61941	1.25245	10.4145	1.62538	12.9119	2.05548	16.4553
1.90067	2.52972	0.606317	4.73022	1.89717	2.53044	0.885175	7.6201	1.25242	10.3536	1.65399	12.8526	1.99423	15.5773	0.592693	5.11784	1.93014	2.62005	1.25353	10.3581	1.6262	12.6859	2.05833	16.1793
1.89561	2.53076	0.608252	4.66141	1.89212	2.53149	0.88814	7.49672	1.25303	10.2886	1.65696	12.6488	1.99472	15.3053	0.595695	5.04327	1.92454	2.62066	1.25468	10.2976	1.62721	12.4693	2.06106	15.9122
1.89057	2.53182	0.610028	4.59379	1.88708	2.53258	0.890944	7.37672	1.2539	10.2018	1.65981	12.4512	1.99537	15.044	0.598473	4.96971	1.91891	2.62123	1.25623	10.2163	1.6284	12.2616	2.06367	15.6535
1.88554	2.53292	0.611659	4.5274	1.88206	2.53369	0.893587	7.2599	1.25508	10.095	1.66254	12.2595	1.99618	14.7928	0.601039	4.89719	1.91326	2.62177	1.25814	10.1152	1.62976	12.0623	2.06616	15.4028
1.88052	2.53403	0.613158	4.46228	1.87706	2.53482	0.896067	7.14608	1.25661	9.96993	1.66516	12.0734	1.99716	14.5512	0.603403	4.82572	1.90758	2.62228	1.2604	9.99563	1.63131	11.871	2.06853	15.1596
1.87552	2.53518	0.614538	4.39847	1.87207	2.53599	0.898385	7.03512	1.25857	9.82866	1.66767	11.8927	1.9983	14.3188	0.605576	4.75535	1.90188	2.62277	1.26296	9.85875	1.63302	11.6873	2.07078	14.9237
1.87054	2.53635	0.615814	4.33599	1.86709	2.53717	0.900543	6.92686	1.26102	9.67347	1.67007	11.717	1.99959	14.095	0.607572	4.68612	1.89616	2.62322	1.26579	9.70603	1.63491	11.5107	2.0729	14.6947
1.86556	2.53754	0.616998	4.27488	1.86213	2.53839	0.902543	6.82118	1.26368	9.52527	1.67237	11.5462	2.00105	13.8795	0.609404	4.61806	1.89041	2.62365	1.26851	9.55775	1.63697	11.3409	2.07491	14.4722
1.8606	2.53876	0.618101	4.21514	1.85717	2.53962	0.904388	6.71796	1.26654	9.38367	1.67456	11.38	2.00266	13.6719	0.611086	4.55122	1.88465	2.62406	1.27111	9.4137	1.63889	11.1983	2.0768	14.2559
1.85565	2.54	0.619137	4.15679	1.85222	2.54087	0.90608	6.61712	1.26961	9.24829	1.67639	11.2389	2.00443	13.4718	0.612631	4.48564	1.87887	2.62444	1.2736	9.27371	1.64063	11.0804	2.07857	14.0457
1.8507	2.54126	0.620116	4.09985	1.84729	2.54214	0.907625	6.51856	1.27287	9.11876	1.6779	11.1212	2.00635	13.2787	0.614053	4.42136	1.87308	2.62481	1.27599	9.13759	1.64213	10.9853	2.08024	13.8411
1.84577	2.54254	0.621048	4.04431	1.84235	2.54343	0.909027	6.4222	1.27632	8.99476	1.67911	11.0257	2.00841	13.0925	0.615365	4.3584	1.86726	2.62515	1.27829	9.00519	1.64335	10.9117	2.0818	13.6421
1.84084	2.54383	0.621829	3.99707	1.83742	2.54473	0.910292	6.32798	1.27994	8.87596	1.68004	10.9512	2.01062	12.9126	0.61658	4.29678	1.86144	2.62548	1.28048	8.87639	1.64428	10.8584	2.08326	13.4483
1.83591	2.54514	0.622478	3.95763	1.8325	2.54605	0.911424	6.23583	1.28373	8.76205	1.68072	10.8971	2.01296	12.7389	0.617711	4.23654	1.8556	2.62578	1.2826	8.75106	1.64488	10.8247	2.08463	13.2596
1.83098	2.54645	0.623006	3.92561	1.82757	2.54736	0.912431	6.1457	1.28768	8.65274	1.68115	10.8627	2.01544	12.571	0.61877	4.17769	1.84974	2.62608	1.28463	8.62909	1.64576	10.7767	2.08591	13.0759
1.82605	2.54777	0.623418	3.90066	1.82263	2.54868	0.913318	6.05753	1.29178	8.54776	1.68175	10.8136	2.01804	12.4087	0.619768	4.12024	1.84388	2.62635	1.2866	8.51039	1.64673	10.7252	2.08711	12.8968
1.82111	2.54909	0.623719	3.88253	1.81769	2.55	0.914092	5.97128	1.29602	8.44685	1.6824	10.7608	2.02077	12.2516	0.620716	4.0642	1.838	2.62662	1.2885	8.39488	1.64808	10.6562	2.08823	12.7224
1.81617	2.5504	0.623911	3.87101	1.81274	2.55131	0.91476	5.88691	1.30039	8.34976	1.68327	10.6897	2.02361	12.0995	0.621623	4.00957	1.83212	2.62687	1.29036	8.28248	1.64983	10.5707	2.08928	12.5523
1.81121	2.55171	0.624186	3.85459	1.80776	2.5526	0.915328	5.80437	1.30488	8.25625	1.68434	10.6011	2.02655	11.9523	0.6225	3.95634	1.82622	2.6271	1.29218	8.17313	1.65201	10.4697	2.09028	12.3866
1.80623	2.55299	0.624484	3.8369	1.80277	2.55386	0.915804	5.72364	1.30947	8.16611	1.68561	10.4959	2.0296	11.8095	0.623354	3.90451	1.82032	2.62733	1.29398	8.06678	1.65467	10.3545	2.09122	12.225
1.80122	2.55424	0.624889	3.81314	1.79774	2.55509	0.916193	5.64468	1.31416	8.07911	1.68706	10.375	2.03274	11.6711	0.624195	3.85407	1.8144	2.62755	1.29577	7.96339	1.65783	10.2266	2.09211	12.0675
1.79618	2.55546	0.625401	3.78354	1.79267	2.55627	0.916504	5.56745	1.31894	7.99507	1.68867	10.2396	2.03555	11.5539	0.625029	3.80501	1.80848	2.62775	1.29757	7.86293	1.6611	10.103	2.09297	11.9139
1.7911	2.55662	0.626022	3.74842	1.78755	2.55739	0.916742	5.49191	1.32379	7.91379	1.69025	10.1077	2.038	11.4563	0.625864	3.75731	1.80255	2.62795	1.29939	7.76536	1.66447	9.98345	2.0938	11.7641
1.78597	2.55772	0.626757	3.70818	1.78238	2.55844	0.916915	5.41805	1.32871	7.83509	1.69179	9.97923	2.04005	11.3772	0.626705	3.71096	1.79662	2.62814	1.30124	7.67067	1.66795	9.86772	2.09451	11.6366
1.78078	2.55875	0.627613	3.66323	1.77715	2.55941	0.917027	5.34583	1.33367	7.75881	1.6933	9.85406	2.0417	11.3156	0.62756	3.66594	1.79068	2.62831	1.30315	7.57886	1.67151	9.75562	2.0951	11.5301
1.77553	2.55969	0.628488	3.61959	1.77185	2.56028	0.917087	5.27522	1.33868	7.68477	1.69481	9.73213	2.04291	11.2709	0.628434	3.62222	1.78473	2.62849	1.30514	7.4899	1.67515	9.64698	2.09559	11.4435
1.77021	2.56053	0.629386	3.57723	1.76648	2.56106	0.917099	5.20619	1.34371	7.61283	1.69631	9.61338	2.0437	11.2425	0.629331	3.57978	1.77877	2.62865	1.30722	7.40381	1.67887	9.54159	2.09598	11.376
1.76481	2.56127	0.630314	3.53612	1.76103	2.56172	0.917069	5.13871	1.34876	7.54284	1.69782	9.49773	2.04483	11.202	0.630256	3.5386	1.77282	2.62881	1.30942	7.3206	1.68265	9.43928	2.09626	11.3269
1.75933	2.56191	0.631273	3.49625	1.7555	2.56228	0.917003	5.07276	1.35382	7.47466	1.69935	9.38514	2.04607	11.1584	0.631214	3.49865	1.76685	2.62896	1.31176	7.24026	1.68648	9.3399	2.09645	11.2957
1.75378	2.56243	0.632269	3.45758	1.7499	2.56273	0.916907	5.0083	1.35887	7.40816	1.7009	9.27554	2.04777	11.0998	0.632207	3.45991	1.76089	2.62911	1.31426	7.16283	1.69037	9.24328	2.09671	11.2511
1.74816	2.56285	0.633305	3.42009	1.74422	2.56309	0.916784	4.9453	1.3639	7.34322	1.7025	9.16887	2.04993	11.0268	0.633241	3.42235	1.75491	2.62925	1.31694	7.0883	1.69429	9.14928	2.09699	11.2031
1.74246	2.56318	0.634385	3.38376	1.73848	2.56334	0.916641	4.88374	1.3689	7.27971	1.70415	9.0651	2.05257	10.9402	0.634317	3.38594	1.74894	2.62939	1.31983	7.01671	1.69824	9.05775	2.09739	11.1385
1.7367	2.5634	0.63551	3.34855	1.73268	2.56351	0.916482	4.8236	1.37386	7.21754	1.70586	8.96416	2.0557	10.8407	0.63544	3.35066	1.74296	2.62952	1.32294	6.94805	1.70221	8.96855	2.09789	11.058
1.73089	2.56355	0.636684	3.31443	1.72683	2.56361	0.916311	4.76483	1.37877	7.15658	1.70764	8.86602	2.05934	10.7293	0.636611	3.31649	1.73698	2.62965	1.32631	6.88234	1.70619	8.88157	2.09851	10.9622
1.72502	2.56362	0.637909	3.2814	1.72093	2.56363	0.916133	4.70742	1.38362	7.09675	1.7095	8.77063	2.063	10.6207	0.637832	3.28338	1.73099	2.62978	1.32995	6.81958	1.71018	8.79668	2.09925	10.8521
1.71911	2.56363	0.639187	3.2494	1.71499	2.56359	0.915951	4.65134	1.3884	7.03794	1.71146	8.67795	2.06669	10.5148	0.639107	3.25133	1.72501	2.6299	1.33389	6.75976	1.71417	8.71377	2.10014	10.7287
1.71316	2.56357	0.64052	3.21843	1.70902	2.56351	0.915769	4.59656	1.39309	6.98008	1.71352	8.58793	2.07039	10.4114	0.640437	3.22029	1.71902	2.63003	1.33812	6.70287	1.71814	8.63273	2.10108	10.6084
1.70717	2.56347	0.641909	3.18844	1.70301	2.56337	0.915592	4.54305	1.39768	6.92307	1.7157	8.50054	2.07411	10.3105	0.641823	3.19024	1.71303	2.63014	1.34268	6.64886	1.7221	8.55345	2.10206	10.4912
1.70116	2.56332	0.643357	3.15942	1.69698	2.56319	0.915422	4.49079	1.40218	6.86684	1.718	8.41573	2.07784	10.2119	0.643267	3.16117	1.70704	2.63026	1.34757	6.59768	1.72604	8.47584	2.1031	10.3769
1.69512	2.56313	0.644865	3.13135	1.69092	2.56298	0.915262	4.43975	1.40656	6.81132	1.72043	8.33345	2.08156	10.1154	0.644771	3.13303	1.70104	2.63038	1.3528	6.54928	1.72993	8.39982	2.10421	10.2655
1.68906	2.5629	0.646433	3.10418	1.68485	2.56273	0.915116	4.38991	1.41081	6.75645	1.72301	8.25367	2.08527	10.0211	0.646336	3.10581	1.69505	2.6305	1.35836	6.50358	1.73379	8.32528	2.10539	10.1569
1.68298	2.56265	0.648063	3.07791	1.67876	2.56246	0.914987	4.34124	1.41494	6.70216	1.72573	8.17634	2.08898	9.92883	0.647962	3.07948	1.68905	2.63061	1.36427	6.46046	1.73761	8.25216	2.10666	10.0511
1.67688	2.56237	0.649756	3.05249	1.67265	2.56216	0.914877	4.29371	1.41893	6.6484	1.72861	8.10142	2.09266	9.83844	0.649651	3.05402	1.68306	2.63073	1.3705	6.41983	1.74137	8.18037	2.108	9.94803
1.67077	2.56206	0.651512	3.02792	1.66653	2.56184	0.914788	4.2473	1.42278	6.59513	1.73165	8.02884	2.09632	9.74987	0.651403	3.0294	1.67706	2.63084	1.37705	6.38156	1.74507	8.10986	2.10944	9.8476
1.66464	2.56173	0.653333	3.00417	1.66039	2.56149	0.914724	4.20199	1.42648	6.5423	1.73486	7.95858	2.09994	9.66304	0.65322	3.00559	1.67106	2.63096	1.38392	6.34553	1.7487	8.04054	2.11098	9.74976
1.6585	2.56138	0.655218	2.9812	1.65425	2.56113	0.914687	4.15774	1.43002	6.48987	1.73824	7.89056	2.10354	9.57788	0.655101	2.98258	1.66507	2.63108	1.39108	6.3116	1.75227	7.97236	2.11263	9.65446
1.65236	2.56102	0.657168	2.95901	1.6481	2.56076	0.914678	4.11455	1.43341	6.43782	1.7418	7.82475	2.10709	9.49432	0.657047	2.96034	1.65907	2.6312	1.39853	6.27963	1.75577	7.90527	2.11438	9.56164
1.6462	2.56064	0.659183	2.93756	1.64194	2.56036	0.9147	4.07238	1.43663	6.38611	1.74553	7.76108	2.1106	9.41227	0.659058	2.93885	1.65308	2.63132	1.40623	6.24948	1.75918	7.83921	2.11624	9.47125
1.64004	2.56024	0.661264	2.91685	1.63577	2.55996	0.914756	4.03121	1.43969	6.33473	1.74944	7.69949	2.11406	9.33169	0.661135	2.91809	1.64709	2.63145	1.41419	6.22103	1.76252	7.77413	2.11822	9.38322
1.63387	2.55983	0.663411	2.89683	1.6296	2.55954	0.914845	3.99103	1.44258	6.28367	1.75354	7.63992	2.11747	9.25251	0.663277	2.89803	1.64109	2.63157	1.42236	6.19414	1.76577	7.71	2.12033	9.29751
1.62769	2.55941	0.665623	2.8775	1.62342	2.5591	0.914971	3.9518	1.44531	6.2329	1.75781	7.58231	2.12083	9.17466	0.665486	2.87866	1.63511	2.63171	1.43075	6.16868	1.76893	7.64678	2.12256	9.21406
1.62151	2.55897	0.667901	2.85883	1.61723	2.55866	0.915135	3.9135	1.44787	6.18244	1.76226	7.52659	2.12413	9.09811	0.66776	2.85995	1.62912	2.63185	1.43933	6.14454	1.77201	7.58442	2.12491	9.1328
1.61533	2.55852	0.670245	2.84081	1.61104	2.55821	0.915338	3.87613	1.45027	6.13227	1.76688	7.47269	2.12736	9.0228	0.6701	2.84189	1.62313	2.63199	1.44808	6.1216	1.77499	7.52291	2.1274	9.05369
1.60914	2.55807	0.672654	2.82341	1.60485	2.55774	0.915582	3.83964	1.45251	6.08239	1.77168	7.42055	2.13054	8.94869	0.672505	2.82445	1.61715	2.63214	1.45699	6.09975	1.77789	7.46221	2.13001	8.97666
1.60294	2.5576	0.675129	2.80661	1.59865	2.55727	0.915868	3.80403	1.45459	6.03281	1.77663	7.3701	2.13365	8.87574	0.674977	2.80762	1.61117	2.63229	1.46604	6.0789	1.7807	7.40231	2.13275	8.90166
1.59674	2.55712	0.67767	2.79041	1.59245	2.55679	0.916198	3.76928	1.45652	5.98354	1.78176	7.32126	2.13669	8.80391	0.677513	2.79138	1.6052	2.63246	1.4752	6.05895	1.78342	7.3432	2.13563	8.82864
1.59054	2.55664	0.680275	2.77477	1.58625	2.5563	0.916572	3.73536	1.4583	5.93459	1.78703	7.27396	2.13968	8.73316	0.680114	2.77571	1.59923	2.63263	1.48448	6.03982	1.78606	7.28485	2.13863	8.75752
1.58434	2.55615	0.682945	2.75969	1.58004	2.5558	0.916993	3.70226	1.45993	5.88596	1.79245	7.22814	2.14259	8.66347	0.682781	2.7606	1.59327	2.63281	1.49385	6.02141	1.78862	7.22725	2.14177	8.68826
1.57813	2.55564	0.68568	2.74515	1.57383	2.55529	0.917459	3.66995	1.46142	5.83767	1.79801	7.18372	2.14544	8.59481	0.685511	2.74602	1.58731	2.633	1.5033	6.00366	1.7911	7.17042	2.14503	8.6208
1.57192	2.55514	0.688479	2.73112	1.56762	2.55478	0.917974	3.63843	1.46278	5.78973	1.8037	7.14064	2.14823	8.52716	0.688307	2.73197	1.58135	2.63321	1.51281	5.98649	1.7935	7.11434	2.14841	8.55508
1.56571	2.55462	0.691343	2.71761	1.5614	2.55426	0.918538	3.60767	1.46401	5.74215	1.80952	7.09881	2.15096	8.4605	0.691166	2.71842	1.57541	2.63342	1.52238	5.96982	1.79584	7.05901	2.15192	8.49103
1.55949	2.5541	0.69427	2.70458	1.55519	2.55373	0.919151	3.57766	1.46511	5.69495	1.81545	7.05818	2.15363	8.3948	0.694089	2.70536	1.56947	2.63365	1.53198	5.9536	1.79813	7.00446	2.15555	8.4286
1.55328	2.55357	0.697261	2.69204	1.54897	2.55319	0.919814	3.54837	1.4661	5.64814	1.82148	7.01867	2.15624	8.33006	0.697076	2.69279	1.56354	2.6339	1.5416	5.93774	1.80036	6.95068	2.15929	8.36774
1.54706	2.55303	0.700315	2.67995	1.54275	2.55265	0.920529	3.5198	1.46698	5.60173	1.82761	6.98023	2.1588	8.26626	0.700127	2.68068	1.55762	2.63416	1.55123	5.9222	1.80255	6.8977	2.16314	8.30838
1.54084	2.55249	0.703434	2.66833	1.53653	2.55211	0.921295	3.49192	1.46776	5.55574	1.83382	6.94277	2.16131	8.2034	0.703242	2.66902	1.55171	2.63445	1.56085	5.9069	1.80472	6.84554	2.1671	8.25047
1.53462	2.55194	0.706616	2.65714	1.53031	2.55155	0.922114	3.46472	1.46844	5.51019	1.84011	6.90624	2.16378	8.14146	0.70642	2.65781	1.5458	2.63475	1.57045	5.89179	1.80686	6.79422	2.17116	8.19394
1.5284	2.55138	0.709864	2.64639	1.52409	2.55099	0.922986	3.43819	1.46902	5.46507	1.84646	6.87057	2.16621	8.08045	0.709664	2.64704	1.53992	2.63508	1.58001	5.87678	1.80901	6.74377	2.17532	8.13874
1.52218	2.55082	0.713177	2.63607	1.51787	2.55043	0.923912	3.41231	1.46952	5.4204	1.85286	6.83571	2.16861	8.02037	0.712973	2.63669	1.53404	2.63543	1.58952	5.86182	1.81116	6.69423	2.17956	8.08482
1.51595	2.55025	0.716558	2.62617	1.51165	2.54986	0.924892	3.38706	1.46994	5.3762	1.8593	6.80158	2.17098	7.96121	0.71635	2.62676	1.52818	2.63581	1.59894	5.84684	1.81335	6.64564	2.18388	8.03211
1.50973	2.54968	0.720011	2.61669	1.50542	2.54928	0.925927	3.36244	1.47029	5.33246	1.86578	6.76814	2.17334	7.90299	0.719798	2.61726	1.52233	2.63622	1.60827	5.83176	1.81559	6.59804	2.18828	7.98057
1.50351	2.5491	0.723539	2.60765	1.4992	2.5487	0.927017	3.33843	1.47057	5.28921	1.87227	6.73533	2.17568	7.84569	0.723321	2.60819	1.5165	2.63666	1.61749	5.8165	1.8179	6.5515	2.19275	7.93014
1.49728	2.54852	0.727152	2.59906	1.49297	2.54811	0.928163	3.31501	1.47078	5.24643	1.87878	6.70308	2.17803	7.78934	0.726929	2.59957	1.5107	2.63714	1.62656	5.80098	1.82031	6.50607	2.19728	7.88076
1.49106	2.54793	0.730864	2.59096	1.48675	2.54752	0.929366	3.29217	1.47094	5.20416	1.88527	6.67133	2.18039	7.73394	0.730634	2.59144	1.50491	2.63766	1.63546	5.78511	1.82284	6.46182	2.20187	7.83239
1.48483	2.54734	0.734699	2.58342	1.48052	2.54693	0.930624	3.2699	1.47104	5.16237	1.89175	6.64005	2.18276	7.6795	0.734461	2.58386	1.49914	2.63822	1.64416	5.76881	1.82552	6.41883		
1.47861	2.54674	0.738702	2.57659	1.4743	2.54633	0.93194	3.24819	1.47109	5.12109	1.8982	6.60917	2.18516	7.62604	0.738451	2.57698	1.4934	2.63884	1.65263	5.75196	1.82838	6.37716		
1.47238	2.54614	0.742945	2.5707	1.46808	2.54572	0.933313	3.22703	1.4711	5.08031	1.90461	6.57863	2.1876	7.57357	0.742677	2.57103	1.48769	2.6395	1.66084	5.73448	1.83146	6.33691		
1.46616	2.54553	0.747533	2.56609	1.46185	2.54511	0.934744	3.20639	1.47107	5.04004	1.91097	6.54839	2.19009	7.5221	0.747241	2.56633	1.48201	2.64023	1.66875	5.71626	1.8348	6.29817		
1.45994	2.54492	0.752552	2.56302	1.45563	2.5445	0.936233	3.18628	1.471	5.00027	1.91726	6.5184	2.19264	7.47165	0.752233	2.56316	1.47636	2.64102	1.67633	5.6972	1.83842	6.26101		
1.45371	2.54431	0.757983	2.56139	1.44941	2.54388	0.93778	3.16668	1.4709	4.96102	1.92347	6.48861	2.19526	7.42223	0.757642	2.56145	1.47074	2.64188	1.68355	5.67721	1.84237	6.22552		
1.44749	2.54369	0.763716	2.56079	1.44319	2.54326	0.939385	3.14757	1.47077	4.92228	1.92958	6.45896	2.19797	7.37387	0.76336	2.56081	1.46517	2.64282	1.69037	5.65621	1.84667	6.19178		
1.44127	2.54307	0.769636	2.56083	1.43696	2.54264	0.94105	3.12896	1.47061	4.88404	1.93559	6.42941	2.20078	7.32658	0.769271	2.56081	1.45963	2.64384	1.69677	5.63412	1.85136	6.15985		
1.43505	2.54245	0.775667	2.56123	1.43074	2.54201	0.942774	3.11083	1.47044	4.84632	1.94148	6.39992			0.775297	2.5612	1.45415	2.64496	1.70273	5.61092	1.85646	6.12975		
1.42883	2.54182	0.781765	2.56185	1.42453	2.54138	0.944559	3.09317	1.47024	4.8091	1.94723	6.37044			0.781392	2.56181	1.44871	2.64617	1.70823	5.58657	1.86198	6.10152		
1.42261	2.54119	0.787905	2.56259	1.41831	2.54075	0.946403	3.07596	1.47003	4.77239	1.95285	6.34094			0.787529	2.56254	1.44332	2.6475	1.71327	5.56108	1.86795	6.07513		
1.4164	2.54056	0.794071	2.56341	1.41209	2.54012	0.948307	3.05921	1.4698	4.73618	1.9583	6.31137			0.793694	2.56336	1.438	2.64894	1.71785	5.53449	1.87435	6.05055		
1.41018	2.53992	0.800256	2.56427	1.40588	2.53948	0.950272	3.0429	1.46957	4.70048	1.96359	6.2817			0.799878	2.56422	1.43273	2.6505	1.72198	5.50685	1.88119	6.02772		
1.40397	2.53928	0.806452	2.56516	1.39967	2.53884	0.952299	3.02702	1.46933	4.66527	1.9687	6.2519			0.806074	2.56511	1.42753	2.6522	1.72567	5.47825	1.88844	6.00655		
1.39776	2.53864	0.812657	2.56607	1.39346	2.5382	0.954387	3.01157	1.46908	4.63056	1.97362	6.22194			0.812278	2.56601	1.42239	2.65403	1.72896	5.44878	1.89609	5.98694		
1.39155	2.53801	0.818867	2.56697	1.38725	2.53756	0.956538	2.99654	1.46883	4.59633	1.97835	6.19179			0.818488	2.56692	1.41733	2.65602	1.73187	5.41854	1.90411	5.96877		
1.38534	2.53737	0.825082	2.56788	1.38105	2.53692	0.958751	2.98192	1.46857	4.5626	1.98287	6.16145			0.824702	2.56783	1.41234	2.65816	1.73443	5.38765	1.91247	5.95193		
1.37914	2.53672	0.831299	2.56878	1.37485	2.53628	0.961027	2.9677	1.46832	4.52935	1.98718	6.13089			0.830919	2.56873	1.40742	2.66046	1.73666	5.3562	1.92114	5.9363		
1.37294	2.53608	0.837517	2.56968	1.36865	2.53564	0.963367	2.95388	1.46807	4.49658	1.99128	6.1001			0.837137	2.56962	1.40258	2.66293	1.73861	5.32431	1.9301	5.92176		
1.36675	2.53545	0.843736	2.57056	1.36246	2.535	0.965772	2.94045	1.46783	4.46428	1.99516	6.06909			0.843357	2.57051	1.39782	2.66557	1.74029	5.29207	1.93931	5.9082		
1.36055	2.53481	0.849956	2.57143	1.35627	2.53437	0.968243	2.92741	1.46759	4.43245	1.99882	6.03784			0.849576	2.57138	1.39314	2.66838	1.74174	5.25957	1.94876	5.89552		
1.35436	2.53417	0.856175	2.57229	1.35008	2.53373	0.970779	2.91474	1.46736	4.40109	2.00226	6.00637			0.855796	2.57224	1.38854	2.67138	1.74298	5.2269	1.9584	5.88363		
1.34818	2.53354	0.862394	2.57314	1.3439	2.5331	0.973383	2.90245	1.46714	4.37019	2.00548	5.97468			0.862014	2.57309	1.38402	2.67455	1.74403	5.19411	1.96823	5.87244		
1.342	2.53291	0.868612	2.57397	1.33773	2.53247	0.976055	2.89053	1.46694	4.33974	2.00849	5.94279			0.868233	2.57392	1.37957	2.6779	1.74492	5.16128	1.97821	5.86188		
1.33583	2.53228	0.874829	2.57479	1.33156	2.53185	0.978797	2.87898	1.46674	4.30974	2.01129	5.91071			0.87445	2.57474	1.37521	2.68143	1.74565	5.12846	1.98833	5.85186		
1.32966	2.53166	0.881045	2.57559	1.32539	2.53124	0.981609	2.86779	1.46656	4.28019	2.01388	5.87846			0.880666	2.57554	1.37091	2.68515	1.74626	5.09569	1.99858	5.84234		
1.32349	2.53105	0.88726	2.57638	1.31923	2.53063	0.984493	2.85696	1.46639	4.25107	2.01627	5.84607			0.88688	2.57633	1.3667	2.68904	1.74675	5.06303	2.00893	5.83325		
1.31734	2.53044	0.893473	2.57715	1.31308	2.53003	0.987452	2.84648	1.46624	4.22239	2.01846	5.81354			0.893094	2.57711	1.36255	2.69311	1.74714	5.03051	2.01937	5.82454		
1.31119	2.52984	0.899685	2.57791	1.30694	2.52944	0.990486	2.83636	1.46611	4.19414	2.02047	5.78092			0.899305	2.57787	1.35848	2.69736	1.74743	4.99816	2.02989	5.81617		
1.30505	2.52926	0.905894	2.57866	1.3008	2.52886	0.993597	2.82659	1.46599	4.16631	2.02231	5.74822			0.905515	2.57861	1.35447	2.70178	1.74765	4.966	2.04047	5.80809		
1.29892	2.52868	0.912102	2.57939	1.29468	2.52829	0.996788	2.81718	1.4659	4.1389	2.02397	5.71546			0.911723	2.57934	1.35053	2.70637	1.74779	4.93406	2.05111	5.80027		
1.2928	2.52812	0.918309	2.5801	1.28856	2.52774	1.00006	2.80812	1.46582	4.1119	2.02548	5.68268			0.91793	2.58006	1.34665	2.71114	1.74788	4.90236	2.06178	5.79267		
1.28668	2.52757	0.924513	2.5808	1.28246	2.5272	1.00342	2.7994	1.46577	4.08531	2.02683	5.6499			0.924134	2.58076	1.34284	2.71608	1.7479	4.87092	2.07249	5.78524		
1.28058	2.52704	0.930715	2.58149	1.27637	2.52669	1.00686	2.79104	1.46574	4.05912	2.02803	5.61713			0.930337	2.58145	1.33908	2.72118	1.74788	4.83974	2.08322	5.77797		
1.27449	2.52653	0.936916	2.58216	1.27029	2.52619	1.01039	2.78304	1.46573	4.03332	2.02911	5.58441			0.936537	2.58212	1.33539	2.72646	1.74782	4.80884	2.09395	5.77081		
1.26842	2.52604	0.943114	2.58282	1.26422	2.52572	1.01402	2.77538	1.46575	4.00792	2.03005	5.55176			0.942735	2.58278	1.33175	2.7319	1.74772	4.77823	2.10468	5.76373		
1.26236	2.52558	0.94931	2.58346	1.25817	2.52528	1.01774	2.76808	1.46579	3.9829	2.03088	5.51919			0.948932	2.58342	1.32817	2.73751	1.74759	4.74792	2.1154	5.75671		
1.25632	2.52514	0.955504	2.58409	1.25214	2.52486	1.02155	2.76113	1.46585	3.95827	2.03159	5.48672			0.955126	2.58406	1.32464	2.74329	1.74743	4.71791	2.12609	5.74969		
1.25029	2.52474	0.961696	2.58471	1.24613	2.52448	1.02547	2.75453	1.46595	3.934	2.0322	5.45439			0.961318	2.58467	1.32117	2.74923	1.74725	4.68822	2.13674	5.74265		
1.24428	2.52437	0.967885	2.58531	1.24014	2.52414	1.02948	2.74828	1.46607	3.91011	2.03272	5.42219			0.967507	2.58528	1.31775	2.75534	1.74705	4.65884	2.14733	5.73555		
1.2383	2.52404	0.974072	2.5859	1.23417	2.52384	1.0336	2.74238	1.46621	3.88658	2.03314	5.39015			0.973695	2.58586	1.31438	2.76162	1.74683	4.62977	2.15784	5.72834		
1.23233	2.52376	0.980257	2.58648	1.22822	2.52359	1.03782	2.73683	1.46639	3.86342	2.03348	5.35827			0.97988	2.58644	1.31106	2.76806	1.7466	4.60103	2.16827	5.72097		
1.2264	2.52352	0.986439	2.58704	1.2223	2.52339	1.04215	2.73162	1.46659	3.8406	2.03375	5.32659			0.986062	2.587	1.30779	2.77468	1.74636	4.5726	2.17858	5.71339		
1.22049	2.52334	0.992619	2.58759	1.21641	2.52325	1.04658	2.72674	1.46682	3.81814	2.03394	5.29509			0.992242	2.58755	1.30456	2.78146	1.74612	4.5445	2.18875	5.70554		
1.21461	2.52322	0.998797	2.58812	1.21055	2.52318	1.05111	2.72218	1.46708	3.79602	2.03407	5.26381			0.998419	2.58809	1.30139	2.78841	1.74587	4.51672	2.19875	5.69734		
1.20876	2.52317	1.00497	2.58865	1.20473	2.52317	1.05574	2.71794	1.46737	3.77424	2.03414	5.23273			1.00459	2.58861	1.29827	2.79554	1.74561	4.48927	2.20855	5.68872		
1.20294	2.52319	1.01114	2.58916	1.19894	2.52325	1.06048	2.714	1.4677	3.75279	2.03415	5.20189			1.01077	2.58912	1.29519	2.80283	1.74536	4.46214				
1.19717	2.52329	1.01731	2.58965	1.19319	2.5234	1.0653	2.71035	1.46805	3.73168	2.03411	5.17127			1.01694	2.58962	1.29216	2.81031	1.74511	4.43533				
1.19143	2.52347	1.02348	2.59014	1.18749	2.52366	1.07022	2.70697	1.46843	3.71089	2.03402	5.1409			1.0231	2.59011	1.28917	2.81795	1.74486	4.40884				
1.18574	2.52375	1.02964	2.59061	1.18183	2.52401	1.07522	2.70384	1.46885	3.69042	2.03389	5.11077			1.02927	2.59058	1.28623	2.82578	1.74461	4.38267				
1.1801	2.52413	1.0358	2.59107	1.17622	2.52446	1.08031	2.70096	1.46929	3.67026	2.03373	5.08089			1.03543	2.59104	1.28334	2.83379	1.74438	4.35682				
1.1745	2.52463	1.04196	2.59151	1.17066	2.52503	1.08547	2.6983	1.46977	3.65042	2.03352	5.05126			1.04159	2.59149	1.28049	2.84198	1.74415	4.33128				
1.16896	2.52523	1.04812	2.59195	1.16515	2.52572	1.0907	2.69584	1.47028	3.63088	2.03329	5.02189			1.04774	2.59192	1.27768	2.85035	1.74392	4.30606				
1.16347	2.52596	1.05427	2.59237	1.1597	2.52654	1.096	2.69358	1.47083	3.61165	2.03303	4.99279			1.05389	2.59234	1.27492	2.85891	1.74371	4.28115				
1.15803	2.52682	1.06042	2.59278	1.1543	2.52749	1.10136	2.69149	1.47141	3.59271	2.03274	4.96395			1.06004	2.59275	1.27221	2.86766	1.74352	4.25655				
1.15265	2.52781	1.06656	2.59317	1.14897	2.52858	1.10678	2.68956	1.47202	3.57406	2.03242	4.93537			1.06619	2.59315	1.26954	2.8766	1.74333	4.23226				
1.14733	2.52894	1.0727	2.59355	1.14368	2.5298	1.11225	2.68777	1.47266	3.55571	2.03209	4.90707			1.07233	2.59353	1.26691	2.88574	1.74316	4.20827				
1.14207	2.53021	1.07884	2.59392	1.13846	2.53117	1.11776	2.68612	1.47334	3.53764	2.03174	4.87904			1.07847	2.5939	1.26433	2.89507	1.743	4.18458				
1.13687	2.53162	1.08498	2.59428	1.1333	2.53268	1.12332	2.68459	1.47405	3.51985	2.03137	4.85128			1.0846	2.59426	1.26179	2.90461	1.74286	4.16119				
1.13172	2.53317	1.09111	2.59462	1.12819	2.53433	1.12891	2.68317	1.4748	3.50234	2.03099	4.82379			1.09073	2.5946	1.2593	2.91435	1.74274	4.1381				
1.12663	2.53486	1.09723	2.59496	1.12313	2.53612	1.13454	2.68184	1.47558	3.4851	2.0306	4.79657			1.09686	2.59494	1.25685	2.92429	1.74263	4.1153				
1.12159	2.53669	1.10336	2.59527	1.11813	2.53804	1.14021	2.68061	1.4764	3.46813	2.0302	4.76963			1.10298	2.59525	1.25444	2.93445	1.74254	4.09278				
1.1166	2.53866	1.10948	2.59558	1.11318	2.54011	1.1459	2.67946	1.47725	3.45142	2.02979	4.74296			1.1091	2.59556	1.25208	2.94482	1.74247	4.07056				
1.11166	2.54077	1.11559	2.59587	1.10827	2.5423	1.15162	2.67839	1.47814	3.43497	2.02938	4.71656			1.11522	2.59585	1.24976	2.9554	1.74242	4.04862				
1.10677	2.543	1.1217	2.59615	1.10341	2.54462	1.15737	2.67738	1.47906	3.41878	2.02896	4.69044			1.12133	2.59613	1.24749	2.96621	1.74239	4.02696				
1.10192	2.54535	1.1278	2.59641	1.09859	2.54706	1.16314	2.67644	1.48001	3.40284	2.02854	4.66458			1.12743	2.59639	1.24526	2.97724	1.74238	4.00558				
1.09712	2.54783	1.1339	2.59666	1.09381	2.54961	1.16892	2.67555	1.48101	3.38716	2.02812	4.639			1.13353	2.59664	1.24307	2.98849	1.7424	3.98447				
1.09234	2.55041	1.14	2.59689	1.08906	2.55226	1.17473	2.67471	1.48204	3.37171	2.0277	4.61368			1.13962	2.59688	1.24092	2.99998	1.74243	3.96364				
1.0876	2.5531	1.14609	2.59711	1.08434	2.55502	1.18055	2.67392	1.4831	3.35652	2.02728	4.58864			1.14571	2.59709	1.23882	3.0117	1.74249	3.94307				
1.08289	2.55589	1.15217	2.59731	1.07965	2.55787	1.18639	2.67317	1.4842	3.34155	2.02686	4.56386			1.1518	2.5973	1.23677	3.02367	1.74257	3.92277				
1.07821	2.55876	1.15824	2.5975	1.07497	2.5608	1.19224	2.67247	1.48533	3.32683	2.02644	4.53934			1.15787	2.59749	1.23475	3.03587	1.74267	3.90273				
1.07354	2.56171	1.16431	2.59767	1.07032	2.5638	1.19811	2.6718	1.48651	3.31233	2.02604	4.51509			1.16394	2.59766	1.23279	3.04832	1.7428	3.88295				
1.06889	2.56474	1.17038	2.59782	1.06568	2.56687	1.20399	2.67116	1.48771	3.29807	2.02563	4.4911			1.17001	2.59781	1.23086	3.06103	1.74295	3.86343				
1.06425	2.56782	1.17643	2.59796	1.06104	2.56998	1.20987	2.67055	1.48896	3.28403	2.02524	4.46737			1.17606	2.59795	1.22898	3.07399	1.74313	3.84416				
1.05961	2.57095	1.18248	2.59807	1.05641	2.57314	1.21577	2.66997	1.49024	3.27021	2.02485	4.4439			1.18211	2.59807	1.22714	3.0872	1.74333	3.82514				
1.05498	2.57412	1.18852	2.59817	1.05177	2.57633	1.22168	2.66942	1.49155	3.2566	2.02447	4.42068			1.18815	2.59817	1.22535	3.10069	1.74356	3.80637				
1.05034	2.57731	1.19455	2.59825	1.04713	2.57953	1.22759	2.66889	1.49291	3.24322	2.02411	4.39772			1.19418	2.59825	1.22359	3.11444	1.74381	3.78785				
1.04569	2.58052	1.20057	2.59831	1.04247	2.58273	1.23352	2.66838	1.49429	3.23004	2.02375	4.37501			1.20021	2.59831	1.22189	3.12847	1.74409	3.76956				
1.04103	2.58372	1.20659	2.59835	1.03779	2.58593	1.23945	2.66789	1.49572	3.21708	2.0234	4.35255			1.20622	2.59834	1.22022	3.14277	1.7444	3.75151				
1.03634	2.5869	1.21259	2.59836	1.03309	2.58909	1.24538	2.66742	1.49718	3.20432	2.02307	4.33034			1.21222	2.59836	1.2186	3.15736	1.74473	3.7337				
1.03163	2.59006	1.21858	2.59835	1.02835	2.59222	1.25133	2.66697	1.49868	3.19176	2.02275	4.30837			1.21821	2.59835	1.21702	3.17224	1.74509	3.71613				
1.02689	2.59317	1.22456	2.59831	1.02358	2.59529	1.25727	2.66653	1.50021	3.17941	2.02244	4.28665			1.22419	2.59831	1.21549	3.18741	1.74548	3.69878				
1.02211	2.59623	1.23052	2.59825	1.01877	2.5983	1.26323	2.66611	1.50178	3.16725	2.02215	4.26517			1.23016	2.59825	1.214	3.20288	1.7459	3.68166				
1.01728	2.59921	1.23647	2.59816	1.01392	2.60122	1.26918	2.6657	1.50339	3.15528	2.02187	4.24393			1.23611	2.59816	1.21255	3.21865	1.74634	3.66476				
1.01241	2.6021	1.24241	2.59804	1.00901	2.60406	1.27515	2.6653	1.50504	3.14351	2.02161	4.22292			1.24205	2.59805	1.21114	3.23473	1.74681	3.64808				
1.00749	2.60491	1.24833	2.59788	1.00406	2.60679	1.28111	2.66492	1.50672	3.13193	2.02136	4.20216			1.24797	2.59789	1.20978	3.25113	1.74731	3.63163				
1.00252	2.60761	1.25424	2.5977	0.999046	2.60941	1.28708	2.66454	1.50843	3.12053	2.02113	4.18162			1.25388	2.59771	1.20846	3.26784	1.74784	3.61539				
0.997493	2.6102	1.26012	2.59747	0.99398	2.61192	1.29305	2.66418	1.51019	3.10931	2.02092	4.16131			1.25976	2.59749	1.20718	3.28488	1.74839	3.59936				
0.992409	2.61267	1.26599	2.59721	0.988856	2.61431	1.29902	2.66383	1.51198	3.09828	2.02072	4.14123			1.26563	2.59723	1.20595	3.30225	1.74898	3.58354				
0.987268	2.61502	1.27183	2.59691	0.983677	2.61658	1.305	2.66348	1.5138	3.08743	2.02054	4.12138			1.27148	2.59693	1.20475	3.31996	1.7496	3.56793				
0.982072	2.61725	1.27765	2.59656	0.978442	2.61872	1.31098	2.66314	1.51567	3.07675	2.02038	4.10175			1.2773	2.59659	1.2036	3.33802	1.75024	3.55253				
0.97682	2.61936	1.28345	2.59617	0.973153	2.62075	1.31696	2.66281	1.51756	3.06624	2.02024	4.08234			1.2831	2.5962	1.20249	3.35642	1.75091	3.53733				
0.971514	2.62135	1.28922	2.59573	0.967811	2.62266	1.32294	2.66248	1.5195	3.0559	2.02012	4.06315			1.28887	2.59576	1.20142	3.37517	1.75162	3.52233				
0.966157	2.62323	1.29496	2.59524	0.96242	2.62446	1.32893	2.66216	1.52147	3.04574	2.02002	4.04418			1.29462	2.59527	1.2004	3.39429	1.75235	3.50753				
0.960751	2.625	1.30068	2.59468	0.956981	2.62616	1.33491	2.66184	1.52348	3.03574	2.01994	4.02542			1.30033	2.59472	1.19941	3.41377	1.75311	3.49292				
0.955298	2.62666	1.30636	2.59407	0.951498	2.62775	1.3409	2.66153	1.52553	3.0259	2.01988	4.00688			1.30601	2.59411	1.19846	3.43363	1.7539	3.47851				
0.949802	2.62822	1.312	2.5934	0.945973	2.62925	1.34688	2.66123	1.52761	3.01623	2.01984	3.98854			1.31166	2.59344	1.19756	3.45387	1.75472	3.46429				
0.944265	2.62969	1.31761	2.59266	0.94041	2.63065	1.35287	2.66092	1.52973	3.00671	2.01982	3.97041			1.31727	2.59271	1.19669	3.47449	1.75558	3.45025				
0.93869	2.63107	1.32318	2.59185	0.93481	2.63198	1.35885	2.66062	1.53188	2.99735	2.01982	3.95249			1.32284	2.5919	1.19586	3.49551	1.75646	3.4364				
0.93308	2.63237	1.32871	2.59097	0.929177	2.63322	1.36484	2.66033	1.53407	2.98815	2.01985	3.93477			1.32837	2.59103	1.19508	3.51693	1.75737	3.42274				
0.927437	2.63359	1.33419	2.59001	0.923513	2.6344	1.37083	2.66003	1.5363	2.9791	2.01989	3.91725			1.33386	2.59007	1.19433	3.53875	1.75831	3.40925				
0.921764	2.63475	1.33963	2.58898	0.917821	2.63551	1.37681	2.65974	1.53857	2.9702	2.01996	3.89994			1.3393	2.58905	1.19362	3.56099	1.75929	3.39595				
0.916064	2.63584	1.34503	2.58787	0.912103	2.63656	1.3828	2.65944	1.54087	2.96145	2.02005	3.88281			1.3447	2.58794	1.19294	3.58364	1.76029	3.38282				
0.910338	2.63687	1.35038	2.58668	0.906361	2.63755	1.38878	2.65915	1.54321	2.95285	2.02017	3.86589			1.35005	2.58675	1.1923	3.60673	1.76133	3.36986				
0.904589	2.63785	1.35568	2.58541	0.900597	2.6385	1.39476	2.65886	1.54558	2.9444	2.0203	3.84915			1.35536	2.58549	1.1917	3.63025	1.76239	3.35708				
0.898818	2.63878	1.36094	2.58406	0.894812	2.63939	1.40074	2.65857	1.54799	2.93609	2.02046	3.83261			1.36062	2.58414	1.19114	3.65421	1.76349	3.34447				
0.893028	2.63966	1.36615	2.58263	0.889009	2.64024	1.40672	2.65827	1.55044	2.92791	2.02065	3.81626			1.36583	2.58272	1.19061	3.67862	1.76461	3.33202				
0.88722	2.6405	1.37131	2.58114	0.88319	2.64106	1.4127	2.65798	1.55293	2.91988	2.02085	3.80009			1.371	2.58123	1.19011	3.70349	1.76577	3.31974				
0.881395	2.6413	1.37643	2.57957	0.877354	2.64184	1.41867	2.65768	1.55545	2.91199	2.02109	3.7841			1.37612	2.57967	1.18964	3.72882	1.76696	3.30763				
0.875555	2.64207	1.38151	2.57794	0.871505	2.64258	1.42465	2.65738	1.55801	2.90424	2.02134	3.7683			1.3812	2.57804	1.18921	3.75462	1.76817	3.29567				
0.869702	2.64281	1.38655	2.57625	0.865642	2.6433	1.43062	2.65708	1.5606	2.89662	2.02162	3.75268			1.38624	2.57636	1.18881	3.7809	1.76942	3.28388				
0.863835	2.64352	1.39155	2.57451	0.859767	2.64399	1.43658	2.65678	1.56324	2.88914	2.02193	3.73724			1.39125	2.57462	1.18844	3.80766	1.7707	3.27224				
0.857957	2.6442	1.39652	2.57273	0.853881	2.64465	1.44254	2.65647	1.56591	2.88178	2.02225	3.72197			1.39622	2.57284	1.1881	3.83491	1.77202	3.26076				
0.852067	2.64485	1.40147	2.5709	0.847985	2.6453	1.4485	2.65615	1.56862	2.87456	2.02261	3.70688			1.40117	2.57102	1.18779	3.86267	1.77336	3.24943				
0.846168	2.64549	1.40638	2.56905	0.842079	2.64592	1.45446	2.65584	1.57137	2.86747	2.02299	3.69196			1.40608	2.56916	1.1875	3.89093	1.77473	3.23826				
0.84026	2.64611	1.41128	2.56717	0.836165	2.64653	1.46041	2.65551	1.57415	2.86051	2.02339	3.67721			1.41098	2.56729	1.18724	3.9197	1.77613	3.22723				
0.834343	2.64671	1.41616	2.56528	0.830243	2.64711	1.46635	2.65518	1.57697	2.85367	2.02382	3.66263			1.41586	2.56539	1.187	3.949	1.77757	3.21635				
0.828419	2.64729	1.42102	2.56337	0.824314	2.64769	1.47229	2.65484	1.57984	2.84697	2.02427	3.64822			1.42072	2.56349	1.18678	3.97882	1.77903	3.20562				
0.822488	2.64786	1.42587	2.56146	0.818378	2.64825	1.47822	2.6545	1.58274	2.84038	2.02475	3.63397			1.42558	2.56158	1.18658	4.00918	1.78053	3.19503				
0.81655	2.64842	1.43072	2.55956	0.812436	2.6488	1.48415	2.65414	1.58568	2.83392	2.02526	3.61989			1.43042	2.55967	1.18641	4.04007	1.78206	3.18459				
0.810606	2.64897	1.43556	2.55766	0.806488	2.64934	1.49007	2.65378	1.58866	2.82759	2.02579	3.60596			1.43526	2.55778	1.18624	4.07151	1.78362	3.17428				
0.804657	2.6495	1.4404	2.55578	0.800536	2.64987	1.49598	2.6534	1.59168	2.82138	2.02634	3.5922			1.4401	2.55589	1.1861	4.10351	1.78521	3.16412				
0.798703	2.65003	1.44524	2.55391	0.794578	2.65039	1.50188	2.65301	1.59474	2.81529	2.02693	3.5786			1.44494	2.55402	1.18596	4.13606	1.78683	3.15409				
0.792744	2.65055	1.45008	2.55207	0.788616	2.65091	1.50778	2.65261	1.59784	2.80932	2.02753	3.56515			1.44979	2.55218	1.18584	4.16917	1.78848	3.1442				
0.786781	2.65107	1.45493	2.55025	0.782651	2.65142	1.51366	2.6522	1.60099	2.80348	2.02817	3.55185			1.45464	2.55036	1.18572	4.20285	1.79016	3.13444				
0.780814	2.65158	1.4598	2.54846	0.776682	2.65193	1.51953	2.65176	1.60417	2.79776	2.02883	3.53871			1.4595	2.54857	1.1856	4.2371	1.79187	3.12482				
0.774844	2.65208	1.46467	2.54671	0.77071	2.65243	1.52539	2.65132	1.6074	2.79216	2.02952	3.52572			1.46437	2.54681	1.18549	4.27192	1.79361	3.11532				
0.768871	2.65259	1.46955	2.54499	0.764735	2.65294	1.53124	2.65085	1.61068	2.78668	2.03023	3.51288			1.46925	2.54509	1.18537	4.30731	1.79539	3.10595				
0.762895	2.65309	1.47445	2.54331	0.758757	2.65344	1.53708	2.65036	1.614	2.78132	2.03097	3.50018			1.47415	2.54341	1.18525	4.34328	1.79719	3.09671				
0.756917	2.6536	1.47936	2.54167	0.752777	2.65394	1.5429	2.64985	1.61737	2.77608	2.03174	3.48763			1.47906	2.54177	1.18512	4.37982	1.79903	3.0876				
0.750937	2.6541	1.4843	2.54008	0.746796	2.65445	1.5487	2.64932	1.62078	2.77097	2.03253	3.47523			1.484	2.54017	1.18497	4.41694	1.80089	3.07861				
0.744954	2.6546	1.48925	2.53853	0.740812	2.65496	1.55448	2.64876	1.62425	2.76598	2.03335	3.46297			1.48895	2.53862	1.1848	4.45463	1.80279	3.06975				
0.738971	2.65511	1.49422	2.53702	0.734828	2.65547	1.56025	2.64817	1.62776	2.76112	2.0342	3.45085			1.49392	2.53711	1.18461	4.49288	1.80472	3.061				
0.732985	2.65562	1.49921	2.53556	0.728842	2.65598	1.56599	2.64756	1.63133	2.75638	2.03507	3.43887			1.49891	2.53565	1.18439	4.5317	1.80668	3.05238				
0.726999	2.65614	1.50423	2.53416	0.722855	2.6565	1.57172	2.6469	1.63495	2.75176	2.03597	3.42703			1.50392	2.53424	1.18413	4.57106	1.80867	3.04387				
0.721012	2.65666	1.50926	2.5328	0.716868	2.65703	1.57741	2.64621	1.63862	2.74728	2.03689	3.41532			1.50896	2.53288	1.18383	4.61097	1.81069	3.03548				
0.715025	2.65719	1.51433	2.53149	0.71088	2.65757	1.58308	2.64549	1.64236	2.74293	2.03785	3.40375			1.51402	2.53157	1.18347	4.6514	1.81273	3.02721				
0.709037	2.65773	1.51941	2.53023	0.704893	2.65811	1.58872	2.64472	1.64615	2.73871	2.03883	3.39231			1.5191	2.53031	1.18306	4.69234	1.81481	3.01905				
0.70305	2.65828	1.52452	2.52902	0.698905	2.65867	1.59433	2.6439	1.65	2.73462	2.03983	3.38101			1.52421	2.5291	1.18258	4.73376	1.81693	3.011				
0.697062	2.65884	1.52966	2.52787	0.692918	2.65923	1.59991	2.64303	1.65392	2.73067	2.04087	3.36984			1.52934	2.52794	1.18203	4.77565	1.81907	3.00307				
0.691076	2.65941	1.53482	2.52677	0.686932	2.65981	1.60545	2.64212	1.6579	2.72686	2.04193	3.35879			1.53451	2.52683	1.18139	4.81798	1.82124	2.99524				
0.68509	2.65999	1.54001	2.52571	0.680946	2.6604	1.61095	2.64114	1.66196	2.72319	2.04302	3.34787			1.53969	2.52578	1.18065	4.8607	1.82344	2.98753				
0.679105	2.66059	1.54523	2.52471	0.674962	2.66101	1.61642	2.64011	1.66608	2.71967	2.04413	3.33708			1.54491	2.52477	1.1798	4.90379	1.82567	2.97992				
0.673121	2.6612	1.55047	2.52376	0.66898	2.66164	1.62184	2.63902	1.67028	2.71629	2.04527	3.32642			1.55015	2.52382	1.17883	4.94719	1.82793	2.97241				
0.667139	2.66184	1.55574	2.52287	0.662999	2.66229	1.62721	2.63786	1.67455	2.71306	2.04644	3.31587			1.55542	2.52292	1.17772	4.99086	1.83023	2.96502				
0.661159	2.66249	1.56104	2.52202	0.657021	2.66295	1.63254	2.63663	1.6789	2.70997	2.04764	3.30545			1.56071	2.52207	1.17645	5.03475	1.83255	2.95772				
0.655181	2.66316	1.56636	2.52122	0.651045	2.66364	1.63782	2.63534	1.68333	2.70704	2.04886	3.29515			1.56603	2.52127	1.17503	5.07878	1.8349	2.95053				
0.649206	2.66386	1.57171	2.52048	0.645072	2.66436	1.64305	2.63397	1.68784	2.70426	2.05011	3.28497			1.57138	2.52052	1.17341	5.12289	1.83728	2.94344				
0.643234	2.66458	1.57709	2.51978	0.639102	2.6651	1.64822	2.63254	1.69243	2.70162	2.05139	3.27491			1.57676	2.51982	1.17159	5.16701	1.8397	2.93645				
0.637265	2.66533	1.5825	2.51913	0.633136	2.66587	1.65335	2.63103	1.6971	2.69913	2.05269	3.26497			1.58216	2.51917	1.16956	5.21106	1.84214	2.92956				
0.6313	2.66611	1.58793	2.51852	0.627174	2.66667	1.65843	2.62946	1.70185	2.69679	2.05402	3.25514			1.5876	2.51856	1.16729	5.25496	1.84461	2.92277				
0.62534	2.66693	1.59339	2.51797	0.621216	2.66751	1.66346	2.62782	1.70668	2.69459	2.05538	3.24542			1.59305	2.518	1.16476	5.29862	1.84712	2.91608				
0.619384	2.66778	1.59887	2.51745	0.615264	2.66839	1.66845	2.62612	1.71158	2.69253	2.05677	3.23582			1.59854	2.51748	1.16196	5.34195	1.84965	2.90948				
0.613433	2.66867	1.60438	2.51699	0.609317	2.66931	1.67339	2.62437	1.71657	2.6906	2.05818	3.22633			1.60404	2.51701	1.15887	5.38488	1.85221	2.90298				
0.607488	2.66961	1.60992	2.51656	0.603376	2.67028	1.67828	2.62256	1.72162	2.6888	2.05962	3.21695			1.60958	2.51658	1.15548	5.42732	1.85481	2.89657				
0.601549	2.67059	1.61548	2.51618	0.597443	2.6713	1.68314	2.6207	1.72675	2.68712	2.06109	3.20768			1.61514	2.5162	1.15178	5.46921	1.85743	2.89025				
0.595618	2.67162	1.62106	2.51583	0.591517	2.67237	1.68797	2.61881	1.73194	2.68556	2.06258	3.19852			1.62072	2.51585	1.14776	5.51048	1.86009	2.88402				
0.589695	2.67272	1.62667	2.51553	0.585599	2.67351	1.69277	2.61688	1.73719	2.68411	2.0641	3.18947			1.62633	2.51555	1.14341	5.5511	1.86277	2.87789				
0.58378	2.67387	1.6323	2.51526	0.579691	2.67471	1.69754	2.61493	1.74251	2.68275	2.06565	3.18052			1.63196	2.51528	1.13873	5.59102	1.86548	2.87185				
0.577875	2.6751	1.63796	2.51503	0.573793	2.67599	1.70229	2.61297	1.74788	2.6815	2.06722	3.17167			1.63761	2.51505	1.13373	5.63024	1.86823	2.86589				
0.57198	2.6764	1.64363	2.51484	0.567906	2.67735	1.70703	2.61099	1.7533	2.68032	2.06882	3.16293			1.64328	2.51485	1.1284	5.66877	1.871	2.86002				
0.566097	2.67778	1.64933	2.51468	0.562033	2.67879	1.71176	2.60902	1.75877	2.67923	2.07045	3.1543			1.64898	2.51469	1.12277	5.70662	1.87381	2.85425				
0.560228	2.67926	1.65505	2.51455	0.556173	2.68034	1.71648	2.60705	1.76428	2.67822	2.07211	3.14576			1.6547	2.51456	1.11684	5.74386	1.87664	2.84855				
0.554373	2.68084	1.66079	2.51445	0.550329	2.682	1.72121	2.6051	1.76984	2.67727	2.07379	3.13732			1.66043	2.51446	1.11064	5.78053	1.87951	2.84295				
0.548534	2.68254	1.66654	2.51439	0.544502	2.68378	1.72594	2.60317	1.77543	2.67639	2.0755	3.12898			1.66619	2.51439	1.10417	5.81671	1.88241	2.83742				
0.542713	2.68436	1.67232	2.51435	0.538695	2.6857	1.73069	2.60128	1.78105	2.67557	2.07723	3.12075			1.67197	2.51435	1.09745	5.85249	1.88534	2.83199				
0.536912	2.68633	1.67811	2.51434	0.532909	2.68778	1.73546	2.59943	1.78671	2.67479	2.079	3.1126			1.67776	2.51434	1.09052	5.88797	1.88829	2.82663				
0.531133	2.68845	1.68393	2.51436	0.527147	2.69002	1.74025	2.59763	1.7924	2.67407	2.08078	3.10456			1.68357	2.51435	1.08339	5.92327	1.89128	2.82136				
0.525379	2.69075	1.68976	2.5144	0.521412	2.69246	1.74508	2.5959	1.79811	2.67339	2.0826	3.09661			1.6894	2.51439	1.07609	5.95849	1.8943	2.81618				
0.519653	2.69326	1.6956	2.51446	0.515708	2.69512	1.74995	2.59424	1.80385	2.67275	2.08444	3.08875			1.69525	2.51446	1.06863	5.99376	1.89735	2.81107				
0.513959	2.69598	1.70146	2.51455	0.510038	2.69802	1.75488	2.59267	1.80961	2.67215	2.08631	3.08098			1.70111	2.51454	1.06103	6.02921	1.90044	2.80604				
0.5083	2.69897	1.70734	2.51466	0.504406	2.7012	1.75986	2.5912	1.81539	2.67159	2.08821	3.07331			1.70698	2.51465	1.05333	6.06496	1.90355	2.8011				
0.502681	2.70224	1.71323	2.51479	0.498818	2.70469	1.7649	2.58983	1.82119	2.67105	2.09013	3.06573			1.71287	2.51478	1.04554	6.10116	1.9067	2.79624				
0.497107	2.70584	1.71914	2.51494	0.493278	2.70854	1.77002	2.58858	1.82701	2.67054	2.09208	3.05824			1.71878	2.51493	1.03768	6.13793	1.90988	2.79145				
0.491584	2.70981	1.72506	2.51511	0.487794	2.7128	1.77523	2.58745	1.83284	2.67006	2.09405	3.05084			1.72469	2.5151	1.02977	6.17542	1.91309	2.78675				
0.486118	2.7142	1.73099	2.5153	0.482372	2.71752	1.78051	2.58646	1.83869	2.66961	2.09606	3.04352			1.73062	2.51528	1.02183	6.21377	1.91633	2.78212				
0.480717	2.71908	1.73693	2.5155	0.477021	2.72277	1.78588	2.5856	1.84455	2.66917	2.09809	3.03629			1.73657	2.51549	1.01387	6.25315	1.91961	2.77757				
0.47539	2.7245	1.74289	2.51572	0.47175	2.72862	1.79134	2.58486	1.85042	2.66876	2.10014	3.02915			1.74252	2.5157	1.00592	6.2937	1.92292	2.7731				
0.470145	2.73055	1.74885	2.51595	0.466568	2.73515	1.79688	2.58426	1.8563	2.66837	2.10222	3.0221			1.74849	2.51594	0.998001	6.33558	1.92626	2.76871				
0.464993	2.73731	1.75483	2.5162	0.461487	2.74246	1.8025	2.58377	1.8622	2.66799	2.10433	3.01512			1.75447	2.51619	0.990118	6.37898	1.92964	2.7644				
0.459945	2.74488	1.76082	2.51646	0.456518	2.75065	1.8082	2.58338	1.8681	2.66763	2.10646	3.00824			1.76046	2.51645	0.982293	6.42406	1.93305	2.76017				
0.455013	2.75336	1.76682	2.51674	0.451675	2.75983	1.81395	2.58309	1.87401	2.66728	2.10862	3.00143			1.76645	2.51672	0.974543	6.47103	1.9365	2.75601				
0.450211	2.76288	1.77283	2.51702	0.44697	2.77014	1.81977	2.58288	1.87993	2.66695	2.11081	2.99471			1.77246	2.517	0.966886	6.52008	1.93999	2.75193				
0.445551	2.77356	1.77885	2.51732	0.442415	2.78169	1.82563	2.58275	1.88586	2.66663	2.11302	2.98807			1.77848	2.5173	0.959339	6.57144	1.94351	2.74794				
0.441046	2.78552	1.78487	2.51763	0.438025	2.79463	1.83154	2.58268	1.8918	2.66632	2.11526	2.9815			1.78451	2.51761	0.951918	6.62532	1.94707	2.74401				
0.436708	2.79891	1.79091	2.51795	0.433809	2.80909	1.83749	2.58266	1.89774	2.66603	2.11753	2.97502			1.79054	2.51793	0.94464	6.68198	1.95066	2.74017				
0.432549	2.81387	1.79695	2.51827	0.42978	2.82521	1.84346	2.58268	1.90368	2.66574	2.11982	2.96862			1.79658	2.51825	0.937525	6.74168	1.9543	2.73641				
0.428578	2.83052	1.80301	2.51861	0.425944	2.84312	1.84947	2.58275	1.90963	2.66546	2.12213	2.96229			1.80264	2.51859	0.930587	6.8047	1.95798	2.73273				
0.424803	2.84901	1.80906	2.51896	0.422308	2.86294	1.8555	2.58284	1.91559	2.66519	2.12448	2.95604			1.80869	2.51893	0.923847	6.87134	1.96169	2.72913				
0.42123	2.86945	1.81513	2.51931	0.418877	2.88481	1.86154	2.58297	1.92155	2.66493	2.12685	2.94987			1.81476	2.51929	0.91732	6.94194	1.96545	2.7256				
0.417863	2.89197	1.8212	2.51967	0.415653	2.90883	1.86761	2.58311	1.92752	2.66467	2.12924	2.94377			1.82083	2.51965	0.911023	7.01681	1.96925	2.72216				
0.414703	2.91667	1.82728	2.52003	0.412637	2.93512	1.87369	2.58328	1.93349	2.66443	2.13166	2.93774			1.82691	2.52001	0.904975	7.09634	1.97309	2.71881				
0.41175	2.94368	1.83337	2.52041	0.409827	2.96378	1.87979	2.58346	1.93946	2.66419	2.13411	2.93179			1.833	2.52039	0.899192	7.18092	1.97698	2.71553				
0.409004	2.97309	1.83946	2.52079	0.407223	2.99491	1.88589	2.58366	1.94543	2.66395	2.13659	2.92592			1.83909	2.52076	0.893688	7.27095	1.98092	2.71234				
0.406462	3.00501	1.84556	2.52117	0.40482	3.02864	1.892	2.58387	1.95141	2.66372	2.13909	2.92011			1.84519	2.52115	0.888479	7.36687	1.9849	2.70924				
0.40412	3.03955	1.85167	2.52156	0.402615	3.06506	1.89813	2.58409	1.95739	2.66349	2.14161	2.91438			1.85129	2.52154	0.883579	7.46914	1.98894	2.70622				
0.401976	3.07682	1.85777	2.52196	0.400606	3.10429	1.90426	2.58431	1.96337	2.66327	2.14416	2.90872			1.8574	2.52193	0.878999	7.57824	1.99302	2.70329				
0.400026	3.11695	1.86389	2.52236	0.398788	3.14646	1.91039	2.58455	1.96936	2.66305	2.14674	2.90313			1.86352	2.52233	0.87475	7.69467	1.99715	2.70044				
0.398266	3.16005	1.87001	2.52276	0.397158	3.1917	1.91654	2.58479	1.97534	2.66284	2.14934	2.89761			1.86964	2.52274	0.870841	7.81898	2.00134	2.69769				
0.396693	3.20627	1.87613	2.52317	0.395712	3.24017	1.92268	2.58503	1.98133	2.66263	2.15197	2.89215			1.87576	2.52315	0.867276	7.95171	2.00558	2.69502				
0.395304	3.25576	1.88226	2.52358	0.394448	3.29201	1.92883	2.58528	1.98732	2.66242	2.15463	2.88677			1.88189	2.52356	0.864061	8.09346	2.00988	2.69245				
0.394094	3.30867	1.8884	2.524	0.393361	3.3474	1.93499	2.58553	1.99331	2.66222	2.15731	2.88146			1.88802	2.52397	0.861197	8.24483	2.01424	2.68997				
0.393062	3.36519	1.89453	2.52442	0.392449	3.40653	1.94114	2.58579	1.9993	2.66201	2.16002	2.87621			1.89416	2.52439	0.858684	8.40647	2.01865	2.68759				
0.392203	3.42552	1.90068	2.52484	0.39171	3.46961	1.9473	2.58605	2.00529	2.66181	2.16275	2.87103			1.9003	2.52481	0.856518	8.57906	2.02312	2.68529				
0.391516	3.48984	1.90682	2.52526	0.391139	3.53684	1.95347	2.5863	2.01128	2.66162	2.16551	2.86591			1.90645	2.52524	0.854696	8.76334	2.02766	2.68309				
0.390997	3.55841	1.91297	2.52569	0.390736	3.60848	1.95963	2.58656	2.01727	2.66142	2.16829	2.86086			1.9126	2.52566	0.85321	8.96009	2.03225	2.68099				
0.390645	3.63145	1.91912	2.52612	0.390496	3.68478	1.96579	2.58682	2.02327	2.66122	2.1711	2.85588			1.91875	2.52609	0.852052	9.17013	2.03691	2.67897				
0.390454	3.70925	1.92528	2.52655	0.390417	3.76604	1.97196	2.58708	2.02926	2.66103	2.17394	2.85095			1.9249	2.52652	0.851303	9.36472	2.04163	2.67705				
0.390425	3.79209	1.93144	2.52698	0.390496	3.85255	1.97813	2.58734	2.03525	2.66083	2.17681	2.8461			1.93106	2.52695	0.85085	9.53961	2.04641	2.67523				
0.390552	3.88029	1.9376	2.52741	0.390731	3.94467	1.9843	2.5876	2.04124	2.66063	2.1797	2.84131			1.93723	2.52739	0.850601	9.69082	2.05125	2.67349				
0.390834	3.9742	1.94377	2.52785	0.391119	4.04275	1.99046	2.58786	2.04723	2.66044	2.18261	2.83658			1.94339	2.52782	0.850482	9.81479	2.05615	2.67184				
0.391268	4.0742	1.94994	2.52828	0.391656	4.14721	1.99663	2.58811	2.05321	2.66024	2.18556	2.83191			1.94956	2.52826	0.850438	9.90851	2.06111	2.67028				
0.39185	4.18071	1.95611	2.52872	0.392339	4.25849	2.0028	2.58837	2.0592	2.66005	2.18853	2.8273			1.95574	2.52869	0.850429	9.99671	2.06612	2.6688				
0.392578	4.29419	1.96229	2.52916	0.393164	4.37708	2.00897	2.58862	2.06519	2.65985	2.19152	2.82276			1.96191	2.52913	0.850441	10.0592	2.0712	2.66741				
0.393447	4.41513	1.96846	2.5296	0.394129	4.5035	2.01514	2.58887	2.07117	2.65965	2.19455	2.81828			1.96809	2.52957	0.850487	10.1588	2.07633	2.66609				
0.394453	4.54408	1.97464	2.53004	0.395229	4.63837	2.02131	2.58912	2.07715	2.65945	2.1976	2.81386			1.97427	2.53001	0.850607	10.2981	2.08151	2.66485				
0.395594	4.68167	1.98083	2.53048	0.396461	4.78232	2.02748	2.58937	2.08313	2.65925	2.20067	2.8095			1.98045	2.53045	0.850846	10.4808	2.08674	2.66368				
0.396865	4.82856	1.98701	2.53092	0.397819	4.93609	2.03365	2.58962	2.0891	2.65905					1.98663	2.53089	0.851265	10.7121	2.09202	2.66258				
0.398262	4.98551	1.9932	2.53136	0.3993	5.10049	2.03981	2.58986	2.09508	2.65884					1.99282	2.53133	0.851929	10.9988	2.09735	2.66154				
0.399779	5.15336	1.99939	2.5318	0.400898	5.27642	2.04598	2.5901	2.10105	2.65863					1.99901	2.53177	0.85291	11.3496	2.10272	2.66057				
0.401413	5.33304	2.00558	2.53224	0.402609	5.4649	2.05214	2.59034	2.10701	2.65842					2.0052	2.53222	0.854112	11.7256	2.10813	2.65965				
0.403157	5.5256	2.01177	2.53268	0.404426	5.66707	2.05831	2.59057	2.11297	2.6582					2.01139	2.53266	0.855524	12.1292	2.11359	2.65879				
0.404763	5.70484	2.01797	2.53312	0.406346	5.88421	2.06447	2.5908	2.11893	2.65798					2.01759	2.5331	0.857132	12.563	2.11908	2.65798				
0.406192	5.86671	2.02416	2.53356	0.40836	6.11779	2.07063	2.59103	2.12489	2.65776					2.02379	2.53354	0.858924	13.0299	2.1246	2.65722				
0.407415	6.00735	2.03036	2.534	0.410463	6.36948	2.07679	2.59126	2.13083	2.65753					2.02998	2.53398	0.860888	13.5334	2.13016	2.6565				
0.408405	6.12314	2.03656	2.53444	0.412649	6.64119	2.08294	2.59148	2.13678	2.65729					2.03618	2.53442	0.863013	14.0774	2.13574	2.65583				
0.409147	6.21101	2.04276	2.53488	0.414909	6.9351	2.0891	2.59169	2.14271	2.65705					2.04239	2.53486	0.865286	14.6665	2.14136	2.65519				
0.40984	6.29395	2.04897	2.53532	0.417236	7.25377	2.09525	2.59191	2.14864	2.6568					2.04859	2.53529	0.867696	15.306	2.147	2.65459				
0.410327	6.35289	2.05517	2.53576	0.419623	7.60014	2.1014	2.59212	2.15456	2.65654					2.05479	2.53573	0.870233	16.0021	2.15266	2.65402				
0.411096	6.44706	2.06138	2.53619	0.42206	7.97768	2.10755	2.59232	2.16048	2.65628					2.061	2.53617	0.872885	16.762	2.15835	2.65348				
0.412159	6.57937	2.06758	2.53663	0.424219	8.33527	2.1137	2.59252	2.16638	2.65601					2.0672	2.5366	0.875641	17.5946	2.16406	2.65298				
0.41353	6.75406	2.07379	2.53706	0.426079	8.66359	2.11984	2.59272	2.17228	2.65572					2.07341	2.53704	0.87849	18.51	2.16978	2.65249				
0.415222	6.97703	2.08	2.53749	0.427627	8.95312	2.12598	2.59291	2.17817	2.65543					2.07962	2.53747	0.88142	19.5208	2.17553	2.65204				
0.417255	7.25635	2.08621	2.53793	0.428857	9.19461	2.13211	2.5931	2.18405	2.65513					2.08583	2.5379	0.884418	20.642	2.18129	2.65161				
0.419642	7.60294	2.09242	2.53835	0.429764	9.37977	2.13825	2.59328	2.18991	2.65481					2.09204	2.53833	0.887474	21.8923	2.18707	2.65119				
0.42208	7.98074	2.09863	2.53878	0.430599	9.55612	2.14438	2.59346	2.19577	2.65448					2.09825	2.53876	0.890572	23.2946	2.19287	2.6508				
0.424559	8.39383	2.10484	2.53921	0.431181	9.68235	2.1505	2.59363	2.20161	2.65414					2.10446	2.53918	0.8937	24.8779	2.19867	2.65043				
0.42707	8.84707	2.11105	2.53963	0.43209	9.8857	2.15662	2.59379							2.11067	2.5396	0.89684	26.679	2.20449	2.65007				
0.429602	9.34628	2.11726	2.54005	0.433325	10.1749	2.16274	2.59395							2.11688	2.54002	0.899977	28.7454						
0.432146	9.8985	2.12347	2.54047	0.434886	10.5631	2.16885	2.5941							2.12309	2.54044	0.903092	31.1398						
0.434688	10.5123	2.12968	2.54088	0.436766	11.0696	2.17496	2.59425							2.1293	2.54085	0.906162	33.9466						
0.437218	11.1984	2.13588	2.54129	0.438955	11.7225	2.18106	2.59438							2.1355	2.54126	0.909166	37.2817						
0.439722	11.97	2.14209	2.54169	0.441433	12.5628	2.18716	2.59451							2.14171	2.54167	0.912075	41.3096						
0.442187	12.8438	2.14829	2.54209	0.443863	13.5197	2.19325	2.59464							2.14791	2.54207	0.91486	46.2714						
0.444598	13.8415	2.15448	2.54248	0.446228	14.6192	2.19933	2.59475							2.15411	2.54246	0.917489	52.5354						
0.446941	14.9913	2.16067	2.54286	0.448516	15.8958	2.2054	2.59485							2.1603	2.54284	0.919924	60.6937						
0.449201	16.3311	2.16685	2.54322	0.450708	17.3961									2.16647	2.5432	0.922125	71.764						
0.451361	17.9122	2.17301	2.54357	0.45279	19.185									2.17264	2.54355	0.924053	87.6543						
0.453406	19.8071	2.17914	2.54387	0.454745	21.3557									2.17877	2.54386	0.925666	112.411						
0.455318	22.1203	2.18523	2.54413	0.456556	24.0464									2.18486	2.54411	0.926923	156.384						
0.457082	25.0095	2.19123	2.54428	0.458208	27.472									2.19087	2.54428	0.927793	256.308						
0.458682	28.7234	2.19709	2.54427	0.459685	31.9855									2.19674	2.54427	0.92825	707.271						
0.460102	33.6786	2.20272	2.54399	0.460972	38.2097									2.20239	2.54401								
0.461327	40.6308			0.462055	47.3569																		
0.462346	51.1064			0.462924	62.1418																		
0.463147	68.7228			0.463568	90.1518																		
0.463719	104.631			0.463979	163.679																		
0.464058	218.427			0.464153	880.26																		
