Sym0		Asym0		Sym1		Sym2		Sym3		Sym4		Sym5		Asym1		Asym2		Asym3		Asym4		Asym5	
388  Points		391  Points		388  Points		383  Points		370  Points		362  Points		155  Points		391  Points		380  Points		367  Points		338  Points		161  Points	
Freq (MHz)	Vph (m/ms)	Freq (MHz)	Vph (m/ms)	Freq (MHz)	Vph (m/ms)	Freq (MHz)	Vph (m/ms)	Freq (MHz)	Vph (m/ms)	Freq (MHz)	Vph (m/ms)	Freq (MHz)	Vph (m/ms)	Freq (MHz)	Vph (m/ms)	Freq (MHz)	Vph (m/ms)	Freq (MHz)	Vph (m/ms)	Freq (MHz)	Vph (m/ms)	Freq (MHz)	Vph (m/ms)
2.20474	2.49813	0.346289	167.899	2.20171	2.49789	0.692222	2049.39	1.21274	545.195	1.38452	818.425	2.02139	4434.17	0.346315	156.771	0.808512	456.218	1.03835	1150.25	1.61696	732.697	1.73059	1625.63
2.19856	2.49765	0.346913	79.3872	2.19552	2.49741	0.692402	261.761	1.21241	267.534	1.38489	346.301	2.02085	731.328	0.346967	76.8232	0.808299	198.132	1.03858	323.533	1.61644	358.075	1.73099	513.349
2.19237	2.49717	0.347979	52.1139	2.18934	2.49693	0.69286	139.899	1.21187	177.194	1.38555	219.702	2.01958	398.289	0.348061	51.0067	0.807923	126.495	1.03907	188.322	1.61559	236.832	1.73181	304.93
2.18619	2.49669	0.349479	38.8973	2.18315	2.49645	0.693594	95.5369	1.21111	132.411	1.3865	160.961	2.01769	273.472	0.349589	38.285	0.807386	92.8629	1.03981	132.884	1.61441	176.843	1.73301	216.986
2.18001	2.49621	0.351401	31.1193	2.17698	2.49597	0.694597	72.6008	1.21016	105.654	1.38773	127.066	2.01528	208.073	0.351537	30.7325	0.806695	73.324	1.0408	102.721	1.61293	141.034	1.73459	168.503
2.17383	2.49573	0.353731	26.0106	2.1708	2.49549	0.695866	58.6005	1.20901	87.8555	1.38922	105.016	2.01247	167.806	0.353892	25.7451	0.805857	60.5489	1.04203	83.7666	1.61119	117.23	1.73652	137.802
2.16765	2.49525	0.356451	22.4086	2.16462	2.49501	0.697391	49.1739	1.20769	75.1578	1.39097	89.5319	2.00936	140.512	0.356637	22.2156	0.804882	51.5402	1.0435	70.7596	1.60921	100.254	1.73876	116.625
2.16148	2.49477	0.359543	19.7397	2.15845	2.49453	0.699164	42.4005	1.20621	65.6401	1.39296	78.0659	2.00602	120.789	0.359752	19.5934	0.803779	44.8438	1.04519	61.2854	1.60702	87.5348	1.74129	101.142
2.15531	2.49429	0.362986	17.688	2.15229	2.49406	0.701176	37.3027	1.20459	58.239	1.39518	69.2369	2.00253	105.87	0.363216	17.5737	0.802562	39.6692	1.0471	54.0804	1.60465	77.6469	1.74407	89.3308
2.14915	2.49381	0.366759	16.0655	2.14612	2.49358	0.703415	33.3304	1.20284	52.3179	1.39761	62.2314	1.99892	94.1888	0.36701	15.9739	0.801241	35.5495	1.04921	48.4192	1.60214	69.7388	1.74708	80.027
2.14298	2.49334	0.37084	14.7531	2.13996	2.49311	0.70587	30.1503	1.20098	47.4725	1.40023	56.5392	1.99522	84.7956	0.371109	14.6782	0.79983	32.1913	1.05151	43.8557	1.5995	63.2693	1.75029	72.5102
2.13683	2.49287	0.375205	13.6717	2.1338	2.49263	0.708529	27.5487	1.19902	43.4337	1.40303	51.8238	1.99148	77.078	0.375491	13.6095	0.798343	29.4011	1.054	40.1003	1.59676	57.8784	1.75368	66.3118
2.13067	2.49239	0.379832	12.7669	2.12765	2.49216	0.711378	25.3823	1.19698	40.0153	1.40599	47.8546	1.98771	70.6249	0.380134	12.7145	0.796794	27.0458	1.05665	36.9569	1.59395	53.3171	1.75722	61.1135
2.12452	2.49192	0.384698	11.9998	2.1215	2.4917	0.714406	23.5514	1.19489	37.0846	1.4091	44.4681	1.98393	65.1493	0.385015	11.9551	0.795198	25.0312	1.05946	34.2881	1.59107	49.4076	1.76089	56.6918
2.11837	2.49146	0.389781	11.3421	2.11536	2.49123	0.717597	21.9843	1.19274	34.5443	1.41234	41.5452	1.98015	60.4451	0.390111	11.3034	0.793569	23.2884	1.06242	31.9945	1.58816	46.0198	1.76468	52.8852
2.11223	2.49099	0.395058	10.7723	2.10922	2.49077	0.720939	20.6285	1.19057	32.3213	1.4157	38.9972	1.97638	56.3604	0.3954	10.7387	0.791923	21.7662	1.0655	30.0026	1.58522	43.0559	1.76857	49.5737
2.10609	2.49053	0.400508	10.2745	2.10308	2.49031	0.724419	19.4443	1.18837	30.36	1.41917	36.7565	1.97264	52.7807	0.40086	10.245	0.790274	20.4255	1.06871	28.257	1.58228	40.4414	1.77254	46.6668
2.09996	2.49007	0.406108	9.83594	2.09695	2.48985	0.728023	18.4014	1.18618	28.617	1.42273	34.7708	1.96892	49.6181	0.406469	9.80985	0.788637	19.236	1.07202	26.7148	1.57934	38.1182	1.77658	44.0946
2.09383	2.48962	0.411839	9.44679	2.09082	2.48939	0.731737	17.476	1.18399	27.058	1.42638	32.999	1.96525	46.804	0.412207	9.42355	0.787029	18.174	1.07543	25.3425	1.57641	36.0404	1.78069	41.8025
2.0877	2.48916	0.417678	9.09914	2.0847	2.48894	0.735548	16.6495	1.18183	25.6556	1.43009	31.4083	1.96163	44.2842	0.417295	9.12063	0.785464	17.2203	1.07893	24.1137	1.57351	34.1715	1.78484	39.747
2.08159	2.48871	0.423606	8.7866	2.07858	2.4885	0.739444	15.9069	1.1797	24.3878	1.43387	29.9724	1.95806	42.015	0.421687	8.88381	0.783959	16.3597	1.08249	23.007	1.57064	32.4816	1.78904	37.8933
2.07547	2.48827	0.429602	8.50397	2.07247	2.48805	0.74341	15.236	1.17761	23.2364	1.43769	28.6696	1.95455	39.9611	0.425351	8.70116	0.782529	15.5797	1.08612	22.005	1.56782	30.9467	1.79326	36.213
2.06936	2.48783	0.435646	8.24694	2.06637	2.48761	0.747435	14.6268	1.17559	22.1863	1.44156	27.4821	1.9511	38.0936	0.428264	8.56442	0.78119	14.8699	1.08981	21.0935	1.56506	29.5464	1.79751	34.6827
2.06326	2.48739	0.441719	8.01194	2.06027	2.48718	0.751505	14.0711	1.17364	21.2252	1.44546	26.3954	1.94772	36.3883	0.430415	8.46787	0.779959	14.2219	1.09353	20.2608	1.56236	28.2643	1.80178	33.2832
2.05716	2.48696	0.4478	7.79596	2.05417	2.48675	0.755608	13.562	1.17176	20.3424	1.44938	25.3969	1.94441	34.8253	0.431794	8.40777	0.778852	13.6283	1.09729	19.4969	1.55974	27.0861	1.80605	31.9983
2.05107	2.48653	0.45387	7.59648	2.04808	2.48632	0.759732	13.0937	1.16998	19.5292	1.45331	24.4762	1.94119	33.3878	0.433781	8.32358	0.777887	13.0832	1.10107	18.7935	1.55719	26.0001	1.81032	30.8143
2.04499	2.48611	0.459908	7.41133	2.042	2.4859	0.763863	12.6614	1.1683	18.778	1.45726	23.6246	1.93805	32.0613	0.435944	8.23488	0.77708	12.5813	1.10486	18.1437	1.55473	24.996	1.81459	29.7197
2.03891	2.48569	0.465896	7.23866	2.03593	2.48549	0.767991	12.2609	1.16674	18.0822	1.4612	22.8343	1.93499	30.8338	0.438892	8.11869	0.776448	12.1184	1.10866	17.5413	1.55236	24.0652	1.81885	28.7047
2.03283	2.48528	0.471813	7.07689	2.02986	2.48508	0.772104	11.8886	1.16529	17.4363	1.46513	22.0989	1.93203	29.6948	0.442626	7.97856	0.77601	11.6905	1.11245	16.9814	1.5501	23.2003	1.82309	27.7607
2.02677	2.48487	0.477639	6.92462	2.02379	2.48467	0.776188	11.5415	1.16398	16.8354	1.46905	21.4128	1.92917	28.6353	0.447144	7.81843	0.775783	11.2945	1.11622	16.4593	1.54795	22.3946	1.82731	26.8805
2.02071	2.48447	0.483355	6.78066	2.01774	2.48428	0.780234	11.2168	1.16282	16.2754	1.47294	20.771	1.92641	27.6474	0.452436	7.64229	0.775785	10.9275	1.11997	15.9712	1.5459	21.6426	1.8315	26.0577
2.01466	2.48408	0.488941	6.64397	2.01169	2.48389	0.784229	10.9122	1.1618	15.7524	1.47681	20.1692	1.92375	26.7243	0.458484	7.45392	0.776034	10.5869	1.1237	15.5138	1.54399	20.9393	1.83566	25.2867
2.00861	2.48369	0.494379	6.51363	2.00565	2.4835	0.788162	10.6258	1.16094	15.2633	1.48064	19.6038	1.92121	25.8601	0.464486	7.27846	0.776546	10.2706	1.12738	15.0842	1.5422	20.2804	1.83978	24.5627
2.00258	2.48331	0.49965	6.38885	1.99962	2.48313	0.792022	10.3557	1.16026	14.8052	1.48443	19.0713	1.91878	25.0494	0.470421	7.11424	0.77734	9.9766	1.13102	14.6796	1.54054	19.662	1.84386	23.8815
1.99655	2.48294	0.504737	6.26894	1.99359	2.48276	0.7958	10.1004	1.15975	14.3754	1.48817	18.5689	1.91647	24.2876	0.476271	6.95984	0.77843	9.70324	1.1346	14.2979	1.53902	19.0808	1.84788	23.2391
1.99053	2.48258	0.509624	6.1533	1.98757	2.4824	0.799484	9.85841	1.15943	13.9719	1.49186	18.094	1.91429	23.5707	0.482014	6.81401	0.779831	9.44894	1.13812	13.937	1.53765	18.5336	1.85186	22.6324
1.98451	2.48222	0.514297	6.0414	1.98157	2.48205	0.803064	9.6286	1.15931	13.5924	1.49548	17.6442	1.91223	22.8949	0.487633	6.67569	0.781317	9.24178	1.14157	13.5951	1.53643	18.0178	1.85578	22.0582
1.97851	2.48187	0.518743	5.93282	1.97557	2.48171	0.806532	9.40985	1.15938	13.2353	1.49905	17.2175	1.91031	22.257	0.493107	6.54392	0.782784	9.07514	1.14494	13.2706	1.53537	17.531	1.85963	21.514
1.97252	2.48154	0.522952	5.82718	1.96958	2.48137	0.809455	9.22749	1.15967	12.8987	1.50254	16.812	1.90853	21.6541	0.498419	6.41789	0.784139	8.94388	1.14823	12.9621	1.53447	17.0709	1.86342	20.9973
1.96653	2.48121	0.526915	5.72417	1.96359	2.48105	0.81187	9.07764	1.16016	12.5814	1.50595	16.4262	1.90688	21.0835	0.503551	6.29689	0.785304	8.84411	1.15143	12.6683	1.53374	16.6358	1.86714	20.506
1.96055	2.48089	0.530628	5.62355	1.95762	2.48074	0.813811	8.95739	1.16088	12.2818	1.50929	16.0584	1.90538	20.5429	0.508487	6.18029	0.786213	8.77293	1.15454	12.388	1.53318	16.2236	1.87078	20.0382
1.95459	2.48058	0.534088	5.52511	1.95166	2.48043	0.815309	8.86453	1.16182	11.9989	1.51254	15.7073	1.90404	20.03	0.513212	6.06755	0.786819	8.72832	1.15755	12.1202	1.53279	15.8329	1.87434	19.5921
1.94863	2.48029	0.537296	5.42871	1.94571	2.48014	0.816389	8.79745	1.16299	11.7313	1.5157	15.3718	1.90284	19.5431	0.517713	5.95822	0.787721	8.66546	1.16045	11.864	1.53258	15.4623	1.87781	19.1662
1.94268	2.48	0.540253	5.33423	1.93977	2.47986	0.817071	8.75503	1.16438	11.4782	1.51877	15.0507	1.9018	19.0802	0.521978	5.85192	0.788746	8.59878	1.16325	11.6185	1.53255	15.1102	1.8812	18.759
1.93675	2.47973	0.542967	5.24161	1.93384	2.4796	0.818037	8.69476	1.166	11.2386	1.52174	14.7431	1.90092	18.6399	0.526	5.74831	0.790213	8.51079	1.16594	11.383	1.53271	14.7756	1.8845	18.3693
1.93082	2.47947	0.545444	5.15079	1.92792	2.47934	0.81907	8.63014	1.16786	11.0116	1.52461	14.448	1.9002	18.2206	0.529773	5.64714	0.79219	8.40379	1.16851	11.1568	1.53305	14.4573	1.88771	17.9957
1.92491	2.47922	0.547696	5.06176	1.92201	2.4791	0.820443	8.54372	1.16994	10.7963	1.52739	14.1645	1.89964	17.8209	0.533293	5.5482	0.79476	8.28049	1.17097	10.9392	1.53358	14.1543	1.89081	17.6374
1.91901	2.47898	0.549733	4.97451	1.91611	2.47887	0.822129	8.43675	1.17225	10.5921	1.53006	13.892	1.89925	17.4398	0.53656	5.45133	0.798028	8.14392	1.17331	10.7298	1.5343	13.8656	1.89382	17.2933
1.91312	2.47876	0.551569	4.88904	1.91023	2.47866	0.824089	8.31068	1.17478	10.3982	1.53262	13.6298	1.89903	17.0759	0.539576	5.3564	0.802108	7.99725	1.17553	10.528	1.5352	13.5904	1.89673	16.9624
1.90724	2.47856	0.553218	4.80538	1.90436	2.47847	0.826277	8.16714	1.17753	10.2139	1.53508	13.3771	1.89897	16.7284	0.542347	5.26335	0.806537	7.86058	1.17764	10.3333	1.53629	13.3278	1.89953	16.644
1.90138	2.47837	0.554696	4.72354	1.8985	2.47828	0.828638	8.00783	1.18049	10.0387	1.53744	13.1336	1.89909	16.3961	0.544879	5.17211	0.811306	7.73315	1.17963	10.1454	1.53756	13.0771	1.90223	16.3373
1.89553	2.4782	0.556016	4.64354	1.89266	2.47812	0.830835	7.85394	1.18366	9.87192	1.53969	12.8986	1.89937	16.0782	0.547183	5.08265	0.816404	7.61428	1.18151	9.96387	1.53901	12.8375	1.90482	16.0417
1.88969	2.47804	0.557195	4.56541	1.88683	2.47797	0.832869	7.70511	1.18703	9.71309	1.54184	12.6716	1.89982	15.7739	0.54927	4.99498	0.821818	7.5033	1.18329	9.78835	1.54064	12.6084	1.90731	15.7565
1.88386	2.4779	0.558248	4.48917	1.88101	2.47784	0.834738	7.561	1.19059	9.56169	1.54389	12.4523	1.90044	15.4825	0.551152	4.90909	0.827533	7.39959	1.18495	9.61855	1.54245	12.3893	1.90969	15.4811
1.87806	2.47778	0.559189	4.41482	1.87521	2.47773	0.836445	7.42135	1.19384	9.43544	1.54584	12.2403	1.90122	15.203	0.552844	4.825	0.833532	7.30257	1.18633	9.47504	1.54443	12.1794	1.91197	15.2149
1.87226	2.47768	0.560033	4.34238	1.86942	2.47764	0.837989	7.28589	1.19671	9.33175	1.54769	12.0351	1.90217	14.935	0.554361	4.74272	0.8398	7.21169	1.18744	9.35585	1.54657	11.9783	1.91414	14.9576
1.86648	2.4776	0.560794	4.27185	1.86365	2.47757	0.839375	7.15441	1.19916	9.24862	1.54946	11.8364	1.90327	14.6778	0.555717	4.66229	0.846318	7.12645	1.18832	9.2594	1.54887	11.7855	1.91621	14.7085
1.86072	2.47754	0.561485	4.20324	1.8579	2.47751	0.840605	7.0267	1.20114	9.18449	1.55114	11.644	1.90453	14.4307	0.556928	4.58372	0.853067	7.04638	1.189	9.18447	1.55132	11.6005	1.91818	14.4675
1.85497	2.4775	0.562118	4.13652	1.85216	2.47748	0.841684	6.90259	1.20262	9.13821	1.55274	11.4576	1.90594	14.1933	0.558009	4.50703	0.860029	6.97103	1.18948	9.1301	1.55391	11.4228	1.92006	14.2339
1.84924	2.47748	0.562705	4.0717	1.84644	2.47748	0.842618	6.78191	1.20358	9.10898	1.55427	11.2769	1.9075	13.965	0.558976	4.43223	0.867185	6.89998	1.18979	9.09562	1.55665	11.2521	1.92185	14.0075
1.84353	2.47748	0.563187	4.01675	1.84073	2.47749	0.843411	6.66453	1.20496	9.06745	1.55573	11.1017	1.90921	13.7452	0.559842	4.35934	0.874517	6.83287	1.19022	9.04649	1.55951	11.0879	1.92355	13.788
1.83783	2.47751	0.563582	3.97102	1.83504	2.47753	0.844071	6.55031	1.20649	9.02299	1.55714	10.9317	1.91105	13.5336	0.560621	4.28836	0.882006	6.76934	1.19068	8.99366	1.5625	10.9298	1.92516	13.5751
1.83216	2.47756	0.5639	3.93398	1.82938	2.4776	0.844603	6.43914	1.2086	8.9636	1.5585	10.7668	1.91302	13.3298	0.561327	4.21929	0.889632	6.70906	1.1913	8.92276	1.5656	10.7775	1.92671	13.3685
1.8265	2.47764	0.564148	3.90517	1.82373	2.47769	0.845014	6.3309	1.2113	8.89023	1.55981	10.6068	1.91511	13.1332	0.561973	4.15213	0.897378	6.65173	1.19205	8.83463	1.5688	10.6307	1.92818	13.1679
1.82086	2.47774	0.564329	3.88427	1.81809	2.47781	0.845312	6.22552	1.21464	8.80397	1.5611	10.4516	1.91732	12.9436	0.56257	4.08686	0.905224	6.59706	1.19294	8.73028	1.5721	10.489	1.92958	12.973
1.81523	2.47788	0.564445	3.87101	1.81248	2.47795	0.845505	6.12288	1.21864	8.70608	1.56236	10.3009	1.91964	12.7605	0.563128	4.02348	0.913153	6.54479	1.19394	8.61092	1.57548	10.3522	1.93094	12.7838
1.80963	2.47803	0.56461	3.85212	1.80689	2.47812	0.845598	6.02292	1.22333	8.59785	1.56362	10.1547	1.92207	12.5836	0.56366	3.96196	0.921145	6.49466	1.19506	8.47791	1.57893	10.22	1.93224	12.6
1.80405	2.47822	0.56479	3.8318	1.80132	2.47832	0.845601	5.92555	1.22812	8.49375	1.56488	10.0128	1.92459	12.4126	0.564173	3.90228	0.929182	6.44645	1.19616	8.34903	1.58245	10.092	1.9335	12.4213
1.79849	2.47844	0.565034	3.80453	1.79577	2.47856	0.845519	5.83071	1.23299	8.39348	1.56615	9.87518	1.92719	12.2471	0.564678	3.84441	0.937243	6.39993	1.19725	8.22418	1.58603	9.96815	1.93473	12.2476
1.79295	2.47869	0.565345	3.77064	1.79024	2.47882	0.845361	5.73831	1.23792	8.29678	1.56728	9.75858	1.92988	12.087	0.565182	3.78833	0.94531	6.35488	1.19835	8.10329	1.58965	9.84809	1.93594	12.0789
1.78744	2.47897	0.565726	3.73053	1.78473	2.47912	0.845134	5.6483	1.24292	8.2034	1.56826	9.66159	1.93264	11.9318	0.565693	3.73401	0.95336	6.31111	1.19947	7.98628	1.59283	9.7464	1.93713	11.9148
1.78194	2.47928	0.566184	3.68469	1.77925	2.47944	0.844844	5.56061	1.24796	8.1131	1.5691	9.58305	1.93546	11.7814	0.566217	3.6814	0.961373	6.2684	1.20064	7.87311	1.59556	9.66177	1.93831	11.7552
1.77647	2.47962	0.566727	3.63366	1.77379	2.47981	0.844499	5.47519	1.25303	8.02566	1.56977	9.52198	1.93833	11.6355	0.566762	3.63048	0.969326	6.22658	1.20187	7.76374	1.59783	9.59315	1.93951	11.6001
1.77102	2.48	0.567296	3.58429	1.76835	2.4802	0.844105	5.39197	1.25811	7.94087	1.57027	9.47767	1.94125	11.4938	0.567334	3.58121	0.977195	6.18545	1.2032	7.65815	1.59962	9.53973	1.94071	11.4493
1.76559	2.48042	0.567897	3.53652	1.76293	2.48063	0.843668	5.31091	1.2632	7.85853	1.5706	9.44956	1.94421	11.3562	0.567936	3.53354	0.984955	6.14482	1.20463	7.55631	1.60094	9.50092	1.94194	11.3027
1.76018	2.48087	0.568534	3.49034	1.75754	2.4811	0.843195	5.23193	1.26827	7.77844	1.57108	9.40951	1.9472	11.2224	0.568576	3.48746	0.992579	6.10451	1.20621	7.45823	1.60179	9.47627	1.9432	11.1602
1.7548	2.48135	0.569212	3.44569	1.75217	2.48161	0.842692	5.155	1.27332	7.70044	1.57161	9.36643	1.9502	11.0922	0.569257	3.44291	1.00004	6.06434	1.20794	7.36391	1.603	9.44112	1.9445	11.0216
1.74945	2.48188	0.569935	3.40254	1.74683	2.48215	0.842163	5.08006	1.27833	7.62434	1.57234	9.30863	1.95323	10.9655	0.569983	3.39985	1.00731	6.02413	1.20987	7.27337	1.60433	9.40326	1.94586	10.8869
1.74412	2.48244	0.570707	3.36085	1.74151	2.48273	0.841615	5.00707	1.28329	7.55	1.57329	9.23677	1.95625	10.842	0.570757	3.35825	1.01436	5.98372	1.21203	7.18662	1.60612	9.35235	1.94728	10.756
1.73881	2.48304	0.571531	3.32058	1.73621	2.48335	0.841052	4.93596	1.28818	7.47725	1.5745	9.15173	1.95927	10.7216	0.571585	3.31807	1.02116	5.94293	1.21443	7.1037	1.60839	9.28888	1.94877	10.6288
1.73353	2.48368	0.57241	3.2817	1.73094	2.48401	0.84048	4.8667	1.29298	7.40595	1.57598	9.05453	1.96229	10.6042	0.572468	3.27927	1.02767	5.90161	1.21712	7.02461	1.61112	9.21345	1.95034	10.5051
1.72827	2.48436	0.573347	3.24416	1.7257	2.48471	0.839903	4.79924	1.29769	7.33598	1.57779	8.94633	1.96528	10.4896	0.573409	3.24182	1.03389	5.85963	1.22012	6.94938	1.61431	9.12674	1.952	10.385
1.72304	2.48509	0.574346	3.20792	1.72048	2.48546	0.839326	4.73353	1.30229	7.2672	1.57972	8.84163	1.96825	10.3776	0.574411	3.20567	1.03976	5.81687	1.22346	6.87802	1.61794	9.02947	1.95375	10.2683
1.71783	2.48585	0.575407	3.17296	1.71529	2.48624	0.838752	4.66953	1.30677	7.19949	1.5818	8.74038	1.97118	10.2682	0.575476	3.17078	1.04528	5.77323	1.22717	6.8105	1.62152	8.93444	1.95561	10.1549
1.71265	2.48666	0.576533	3.13923	1.71012	2.48707	0.838186	4.60719	1.31112	7.13276	1.58403	8.64251	1.97408	10.1612	0.576607	3.13712	1.05043	5.72865	1.23126	6.7468	1.62506	8.84152	1.95733	10.0588
1.7075	2.48751	0.577726	3.10669	1.70498	2.48794	0.837631	4.54648	1.31532	7.0669	1.58642	8.54796	1.97657	10.0697	0.577804	3.10466	1.05519	5.68309	1.23575	6.68686	1.62854	8.75058	1.95886	9.97874
1.70237	2.4884	0.578988	3.07532	1.69986	2.48886	0.837091	4.48735	1.31936	7.00181	1.58899	8.45666	1.97866	9.99313	0.57907	3.07336	1.05955	5.63655	1.24065	6.63059	1.63195	8.66152	1.96018	9.91387
1.69727	2.48934	0.580319	3.04507	1.69477	2.48982	0.83657	4.42976	1.32324	6.93743	1.59175	8.36856	1.98037	9.93066	0.580406	3.04318	1.06352	5.58907	1.24596	6.57788	1.63528	8.57421	1.96125	9.86341
1.69219	2.49032	0.581722	3.01591	1.68971	2.49082	0.83607	4.37368	1.32693	6.87367	1.5947	8.28357	1.9817	9.88181	0.581813	3.0141	1.0671	5.5407	1.25169	6.52859	1.63853	8.48856	1.96206	9.82676
1.68714	2.49135	0.583196	2.98782	1.68467	2.49187	0.835595	4.31906	1.33045	6.81048	1.59785	8.20164	1.98267	9.8462	0.583293	2.98607	1.07031	5.49153	1.25782	6.48256	1.64169	8.40447	1.96259	9.8035
1.68212	2.49242	0.584745	2.96075	1.67966	2.49297	0.835147	4.26587	1.33378	6.74781	1.60121	8.12268	1.98329	9.82354	0.584845	2.95906	1.07315	5.44168	1.26434	6.43959	1.64476	8.32186	1.96336	9.77035
1.67712	2.49354	0.586367	2.93468	1.67467	2.49411	0.834729	4.21407	1.33691	6.6856	1.60478	8.04662	1.98417	9.79114	0.586472	2.93305	1.07564	5.39125	1.27124	6.3995	1.64772	8.24064	1.96421	9.73468
1.67214	2.4947	0.588063	2.90957	1.66971	2.49529	0.834345	4.16363	1.33984	6.62384	1.60857	7.97337	1.98512	9.75616	0.588174	2.908	1.07782	5.34039	1.27848	6.36208	1.65058	8.16075	1.9654	9.68677
1.6672	2.49591	0.589835	2.88539	1.66478	2.49652	0.833995	4.1145	1.34257	6.56249	1.61258	7.90284	1.9864	9.70897	0.58995	2.88389	1.07969	5.28922	1.28606	6.32712	1.65332	8.08212	1.96695	9.62715
1.66227	2.49717	0.591683	2.86213	1.65986	2.4978	0.833683	4.06667	1.34511	6.50154	1.6168	7.83496	1.988	9.64992	0.591803	2.86068	1.0813	5.23787	1.29394	6.29443	1.65595	8.00469	1.9689	9.55651
1.65737	2.49847	0.593607	2.83974	1.65498	2.49913	0.83341	4.02009	1.34744	6.44097	1.62125	7.76961	1.98989	9.57942	0.593732	2.83834	1.08265	5.18647	1.30209	6.2638	1.65847	7.92842	1.97128	9.47559
1.6525	2.49982	0.595607	2.8182	1.65011	2.50049	0.833179	3.97474	1.34957	6.38079	1.6259	7.70672	1.99206	9.49793	0.595737	2.81686	1.08379	5.13513	1.3105	6.23505	1.66086	7.85324	1.97415	9.38529
1.64765	2.50121	0.597684	2.79748	1.64528	2.50191	0.832992	3.93058	1.35151	6.321	1.63077	7.64616	1.99449	9.406	0.597819	2.7962	1.08472	5.08396	1.31914	6.20801	1.66314	7.77914	1.97717	9.29765
1.64282	2.50265	0.599838	2.77757	1.64046	2.50337	0.83285	3.88758	1.35326	6.26161	1.63585	7.58786	1.99683	9.31568	0.599978	2.77633	1.08547	5.03306	1.32799	6.18251	1.6653	7.70607	1.98033	9.21256
1.63802	2.50413	0.60207	2.75843	1.63567	2.50487	0.832755	3.84572	1.35483	6.20263	1.64112	7.53169	1.9991	9.22693	0.602214	2.75724	1.08606	4.9825	1.33702	6.1584	1.66734	7.63401	1.98364	9.12996
1.63323	2.50566	0.604379	2.74004	1.63089	2.50642	0.832709	3.80496	1.35621	6.14408	1.64658	7.47757	2.00128	9.13968	0.604528	2.7389	1.08651	4.93236	1.34622	6.13555	1.66927	7.56294	1.9871	9.04977
1.62847	2.50723	0.606765	2.72238	1.62614	2.50801	0.832714	3.76529	1.35743	6.08598	1.65222	7.42538	2.00339	9.05388	0.60692	2.72129	1.08684	4.88271	1.35556	6.11383	1.67109	7.49284	1.99071	8.9719
1.62373	2.50884	0.60923	2.70543	1.62141	2.50965	0.83277	3.72666	1.35848	6.02834	1.65803	7.37503	2.00541	8.9695	0.609389	2.70438	1.08706	4.83359	1.36503	6.09312	1.6728	7.42371	1.99445	8.89626
1.61901	2.51049	0.611774	2.68918	1.6167	2.51132	0.83288	3.68906	1.35938	5.97119	1.66401	7.32642	2.00736	8.8865	0.611938	2.68817	1.08719	4.78506	1.37461	6.07332	1.67441	7.35553	1.99833	8.82278
1.6143	2.51218	0.614398	2.67359	1.612	2.51303	0.833044	3.65246	1.36013	5.91454	1.67013	7.27944	2.00923	8.80483	0.614567	2.67263	1.08723	4.73714	1.38428	6.05433	1.67592	7.28831	2.00235	8.75137
1.60961	2.51391	0.617104	2.65867	1.60732	2.51478	0.833264	3.61683	1.36075	5.85842	1.6764	7.234	2.01102	8.72448	0.617278	2.65774	1.08721	4.68988	1.39403	6.03605	1.67735	7.22205	2.0065	8.68194
1.60494	2.51568	0.619893	2.6444	1.60265	2.51656	0.833541	3.58216	1.36123	5.80286	1.68279	7.19	2.01275	8.64543	0.620073	2.64351	1.08712	4.6433	1.40384	6.01839	1.6787	7.15677	2.01077	8.61443
1.60028	2.51748	0.622769	2.63077	1.59799	2.51837	0.833876	3.54841	1.36159	5.74786	1.6893	7.14735	2.0144	8.56763	0.622954	2.62993	1.08699	4.59742	1.41369	6.00129	1.67999	7.09247	2.01516	8.54873
1.59562	2.5193	0.625737	2.6178	1.59334	2.52021	0.834271	3.51557	1.36184	5.69345	1.69592	7.10597	2.016	8.4911	0.625929	2.61699	1.08681	4.55225	1.42358	5.98465	1.68121	7.02918	2.01967	8.48479
1.59098	2.52115	0.628807	2.60549	1.5887	2.52207	0.834726	3.48362	1.36198	5.63964	1.70263	7.06576	2.01754	8.4158	0.629005	2.60473	1.0866	4.50781	1.43349	5.9684	1.6824	6.96692	2.02428	8.4225
1.58634	2.52302	0.631991	2.59388	1.58406	2.52394	0.835242	3.45253	1.36202	5.58645	1.70941	7.02663	2.01903	8.34173	0.632197	2.59317	1.08637	4.4641	1.4434	5.95246	1.68355	6.90571	2.02898	8.3618
1.58169	2.5249	0.635312	2.58305	1.57941	2.52583	0.835821	3.42228	1.36198	5.53389	1.71626	6.98852	2.02048	8.26889	0.635528	2.58239	1.08611	4.42112	1.45329	5.93677	1.68469	6.8456	2.03378	8.30261
1.57705	2.52679	0.638809	2.57313	1.57476	2.52772	0.836463	3.39285	1.36185	5.48197	1.72317	6.95132	2.0219	8.19727	0.639039	2.57254	1.08584	4.37889	1.46315	5.92123	1.68584	6.78663	2.03865	8.24485
1.57239	2.52868	0.642547	2.56435	1.5701	2.5296	0.837169	3.36423	1.36165	5.43071	1.73011	6.91497	2.02329	8.12688	0.642795	2.56384	1.08556	4.3374	1.47295	5.90577	1.68701	6.72884	2.0436	8.18844
1.56771	2.53055	0.646625	2.55708	1.56541	2.53146	0.83794	3.33639	1.36137	5.38011	1.73709	6.8794	2.02466	8.05772	0.646898	2.55668	1.08527	4.29665	1.48269	5.8903	1.68823	6.6723	2.04861	8.13332
1.56301	2.53239	0.651155	2.55171	1.56069	2.53328	0.838777	3.30932	1.36104	5.33017	1.74407	6.84451	2.02603	7.9898	0.651459	2.55144	1.08499	4.25664	1.49232	5.87474	1.68952	6.61707	2.05367	8.07941
1.55828	2.53419	0.656184	2.54837	1.55594	2.53506	0.839681	3.283	1.36064	5.28091	1.75105	6.81024	2.02741	7.92313	0.656519	2.54823	1.08471	4.21736	1.50184	5.85897	1.69092	6.56324	2.05878	8.02664
1.5535	2.53594	0.661642	2.54675	1.55113	2.53676	0.840652	3.25741	1.3602	5.23233	1.75802	6.77651	2.0288	7.85772	0.662	2.54669	1.08444	4.17881	1.5112	5.84289	1.69246	6.51089	2.06392	7.97494
1.54866	2.5376	0.667397	2.54629	1.54626	2.53838	0.841692	3.23254	1.35971	5.18443	1.76495	6.74326	2.03022	7.79359	0.667769	2.54628	1.08417	4.14098	1.52037	5.82638	1.69417	6.46013	2.06908	7.92425
1.54376	2.53916	0.673337	2.54653	1.54132	2.53989	0.842801	3.20837	1.35918	5.13721	1.77183	6.71041	2.03169	7.73075	0.673719	2.54656	1.08392	4.10386	1.52932	5.80931	1.6961	6.41107	2.07426	7.87449
1.53877	2.54061	0.679391	2.5472	1.53629	2.54127	0.843981	3.18488	1.35861	5.09068	1.77865	6.67788	2.03322	7.66923	0.679778	2.54725	1.08369	4.06744	1.538	5.79153	1.69829	6.36385	2.07944	7.82561
1.5337	2.54192	0.685515	2.54812	1.53117	2.5425	0.845231	3.16207	1.35802	5.04482	1.78539	6.64561	2.03483	7.60906	0.685906	2.54818	1.08348	4.03173	1.54638	5.77289	1.70079	6.3186	2.08461	7.77753
1.52853	2.54307	0.691684	2.54918	1.52595	2.54357	0.846554	3.13991	1.35739	4.99964	1.79203	6.61352	2.03652	7.55025	0.692077	2.54925	1.08329	3.9967	1.55438	5.75323	1.70366	6.27547	2.08977	7.73021
1.52325	2.54405	0.697883	2.55034	1.52062	2.54448	0.84795	3.1184	1.35674	4.95515	1.79855	6.58155	2.03832	7.49284	0.698277	2.55042	1.08312	3.96235	1.56198	5.73239	1.70695	6.23459	2.09489	7.68358
1.51786	2.54487	0.704102	2.55155	1.51518	2.54521	0.84942	3.09752	1.35608	4.91132	1.80494	6.54963	2.04025	7.43685	0.704497	2.55163	1.08298	3.92867	1.56911	5.71021	1.71071	6.19611	2.09997	7.63758
1.51238	2.54552	0.710334	2.55279	1.50965	2.54578	0.850966	3.07727	1.35539	4.86816	1.81118	6.51768	2.04233	7.38232	0.71073	2.55287	1.08286	3.89565	1.57573	5.68655	1.71499	6.1601	2.105	7.59216
1.50679	2.546	0.716576	2.55404	1.50402	2.54619	0.852588	3.05762	1.3547	4.82568	1.81724	6.48565	2.04456	7.32926	0.716973	2.55412	1.08278	3.86328	1.5818	5.66132	1.71981	6.12665	2.10997	7.54726
1.50112	2.54634	0.722824	2.5553	1.4983	2.54646	0.854288	3.03857	1.35399	4.78384	1.82311	6.45346	2.04698	7.27773	0.723221	2.55538	1.08273	3.83155	1.5873	5.63446	1.7252	6.09576	2.11486	7.50282
1.49536	2.54655	0.729077	2.55655	1.49251	2.5466	0.856067	3.02011	1.35328	4.74267	1.82878	6.42107	2.04959	7.22773	0.729474	2.55663	1.08271	3.80045	1.59221	5.60596	1.73117	6.06739	2.11966	7.45881
1.48953	2.54663	0.735332	2.55779	1.48665	2.54663	0.857926	3.00223	1.35257	4.70214	1.83422	6.38841	2.05242	7.17929	0.735729	2.55787	1.08272	3.76997	1.59652	5.57587	1.73771	6.04144	2.12437	7.41516
1.48365	2.54661	0.741589	2.55901	1.48074	2.54657	0.859868	2.98493	1.35185	4.66226	1.83942	6.35544	2.05548	7.13244	0.741986	2.55909	1.08277	3.74009	1.60027	5.54428	1.74479	6.01778	2.12897	7.37185
1.47771	2.5465	0.747847	2.56022	1.47477	2.54642	0.861895	2.96819	1.35114	4.623	1.84436	6.32211	2.0588	7.08719	0.748244	2.5603	1.08286	3.71082	1.60348	5.51135	1.75238	5.99623	2.13345	7.32881
1.47172	2.54631	0.754104	2.56141	1.46877	2.54619	0.864008	2.95201	1.35043	4.58438	1.84903	6.2884	2.06237	7.04354	0.754502	2.56149	1.08299	3.68213	1.6062	5.47723	1.76043	5.9766	2.1378	7.28601
1.4657	2.54605	0.760361	2.56258	1.46273	2.5459	0.866209	2.93638	1.34972	4.54638	1.85343	6.25426	2.06622	7.00151	0.760758	2.56265	1.08315	3.65402	1.60846	5.44211	1.7689	5.95869	2.14202	7.24342
1.45964	2.54573	0.766617	2.56373	1.45665	2.54555	0.868501	2.9213	1.34903	4.50899	1.85754	6.2197	2.07035	6.96108	0.767014	2.5638	1.08335	3.62648	1.61031	5.40618	1.77775	5.9423	2.14609	7.201
1.45355	2.54536	0.772871	2.56485	1.45056	2.54516	0.870887	2.90677	1.34834	4.47221	1.86135	6.1847	2.07477	6.92223	0.773269	2.56492	1.0836	3.5995	1.6118	5.3696	1.78693	5.92725	2.15001	7.15872
1.44744	2.54494	0.779125	2.56596	1.44443	2.54472	0.87337	2.89277	1.34767	4.43603	1.86488	6.14927	2.07948	6.88495	0.779522	2.56602	1.08389	3.57307	1.61298	5.33253	1.79639	5.91339	2.15377	7.11656
1.44131	2.54448	0.785376	2.56704	1.43829	2.54425	0.875953	2.87932	1.34701	4.40043	1.86811	6.11342	2.08448	6.84919	0.785772	2.5671	1.08422	3.54717	1.61388	5.29512	1.8061	5.90055	2.15736	7.0745
1.43516	2.54399	0.791624	2.56809	1.43214	2.54374	0.878639	2.86641	1.34636	4.36542	1.87106	6.07717	2.08978	6.81492	0.792021	2.56816	1.08459	3.52181	1.61455	5.2575	1.81603	5.8886	2.16078	7.03252
1.42899	2.54346	0.797871	2.56913	1.42596	2.5432	0.881432	2.85404	1.34574	4.33098	1.87372	6.04055	2.09536	6.78209	0.798268	2.56919	1.085	3.49696	1.615	5.21977	1.82615	5.87744	2.16403	6.9906
1.42282	2.54291	0.804115	2.57014	1.41978	2.54263	0.884336	2.84221	1.34513	4.29711	1.87611	6.00359	2.10122	6.75063	0.804512	2.5702	1.08547	3.47262	1.61528	5.18202	1.83643	5.86696	2.16711	6.94875
1.41662	2.54233	0.810357	2.57112	1.41358	2.54203	0.887355	2.83092	1.34454	4.2638	1.87824	5.96634	2.10734	6.72049	0.810753	2.57119	1.08597	3.44879	1.61541	5.14434	1.84685	5.85707	2.17001	6.90695
1.41042	2.54172	0.816595	2.57209	1.40737	2.54142	0.890493	2.82017	1.34397	4.23104	1.88011	5.92884	2.11372	6.6916	0.816992	2.57215	1.08653	3.42544	1.6154	5.10679	1.85739	5.8477	2.17274	6.86521
1.40421	2.5411	0.822831	2.57303	1.40116	2.54078	0.893755	2.80996	1.34342	4.19882	1.88175	5.89113	2.12035	6.66389	0.823227	2.57309	1.08713	3.40258	1.61527	5.06941	1.86803	5.83878	2.1753	6.82354
1.39799	2.54045	0.829064	2.57395	1.39494	2.54013	0.897143	2.8003	1.3429	4.16713	1.88316	5.85326	2.1272	6.6373	0.82946	2.57401	1.08777	3.38019	1.61505	5.03227	1.87876	5.83026	2.17768	6.78194
1.39177	2.53978	0.835294	2.57484	1.38871	2.53945	0.900663	2.79119	1.3424	4.13597	1.88435	5.81528	2.13427	6.61175	0.83569	2.5749	1.08847	3.35827	1.61474	4.99539	1.88955	5.82207	2.1799	6.74042
1.38553	2.5391	0.841521	2.57572	1.38247	2.53876	0.904316	2.78261	1.34193	4.10533	1.88536	5.77723	2.14153	6.58717	0.841916	2.57577	1.08921	3.33681	1.61436	4.95882	1.90041	5.81418	2.18197	6.69901
1.37929	2.5384	0.847744	2.57657	1.37623	2.53805	0.908106	2.77457	1.34148	4.0752	1.88617	5.73916	2.14898	6.5635	0.848139	2.57662	1.09	3.31579	1.61391	4.92256	1.91131	5.80653	2.18388	6.65772
1.37305	2.53769	0.853964	2.5774	1.36998	2.53733	0.912033	2.76706	1.34107	4.04557	1.88682	5.70111	2.1566	6.54067	0.854359	2.57745	1.09084	3.29521	1.61342	4.88665	1.92224	5.7991	2.18566	6.61658
1.3668	2.53696	0.860181	2.57821	1.36373	2.53659	0.916097	2.76007	1.34068	4.01644	1.88731	5.66311	2.16436	6.51861	0.860575	2.57826	1.09173	3.27507	1.61287	4.8511	1.9332	5.79184	2.1873	6.57562
1.36055	2.53621	0.866393	2.57899	1.35748	2.53584	0.920298	2.75359	1.34032	3.9878	1.88766	5.6252	2.17227	6.49727	0.866788	2.57904	1.09267	3.25535	1.61229	4.81593	1.94417	5.78471	2.18882	6.53486
1.35429	2.53546	0.872602	2.57976	1.35122	2.53508	0.924634	2.74759	1.33999	3.95963	1.88787	5.58741	2.1803	6.47658	0.872997	2.5798	1.09365	3.23604	1.61168	4.78114	1.95513	5.77768	2.19023	6.49433
1.34803	2.53469	0.878808	2.5805	1.34496	2.5343	0.929099	2.74206	1.33969	3.93194	1.88796	5.54978	2.18844	6.4565	0.879202	2.58054	1.09469	3.21715	1.61104	4.74675	1.96609	5.77071	2.19154	6.45407
1.34177	2.5339	0.885009	2.58122	1.33869	2.53352	0.93369	2.73697	1.33942	3.90471	1.88794	5.51233	2.19666	6.43696	0.885403	2.58126	1.09578	3.19866	1.61037	4.71276	1.97702	5.76376	2.19278	6.41413
1.3355	2.53311	0.891206	2.58192	1.33243	2.53272	0.938401	2.7323	1.33919	3.87795	1.88782	5.47509	2.20497	6.41791	0.891599	2.58196	1.09692	3.18056	1.60969	4.67917	1.98791	5.75679	2.19395	6.37454
1.32924	2.53231	0.897399	2.58259	1.32616	2.53191	0.943224	2.72801	1.33899	3.85163	1.8876	5.43808			0.897792	2.58264	1.09811	3.16285	1.609	4.646	1.99875	5.74975	2.19508	6.33534
1.32297	2.53149	0.903587	2.58325	1.31989	2.53109	0.948154	2.72409	1.33882	3.82575	1.88731	5.40131			0.90398	2.58329	1.09935	3.14552	1.6083	4.61324	2.00951	5.74258	2.19619	6.29661
1.3167	2.53067	0.909771	2.58388	1.31362	2.53026	0.953181	2.7205	1.33868	3.80031	1.88693	5.36481			0.910164	2.58392	1.10064	3.12856	1.60759	4.58089	2.02018	5.73524	2.1973	6.25838
1.31043	2.52983	0.915951	2.5845	1.30735	2.52942	0.9583	2.71722	1.33859	3.7753	1.88649	5.32859			0.916343	2.58454	1.10198	3.11197	1.60688	4.54896	2.03072	5.72765	2.19843	6.22074
1.30415	2.52899	0.922125	2.58509	1.30107	2.52857	0.963501	2.71421	1.33852	3.75072	1.88598	5.29266			0.922517	2.58513	1.10338	3.09574	1.60617	4.51744	2.04111	5.71973	2.19964	6.18377
1.29788	2.52813	0.928294	2.58566	1.2948	2.52771	0.968778	2.71145	1.3385	3.72655	1.88541	5.25704			0.928686	2.58569	1.10483	3.07986	1.60546	4.48633	2.0513	5.71138	2.20094	6.14755
1.2916	2.52727	0.934458	2.58621	1.28852	2.52684	0.974125	2.70892	1.33851	3.70279	1.8848	5.22173			0.93485	2.58624	1.10633	3.06434	1.60476	4.45564	2.06127	5.70248		
1.28533	2.5264	0.940617	2.58673	1.28225	2.52596	0.979533	2.70659	1.33855	3.67943	1.88414	5.18675			0.941008	2.58677	1.10788	3.04915	1.60406	4.42535	2.07094	5.6929		
1.27905	2.52552	0.94677	2.58724	1.27597	2.52508	0.984999	2.70445	1.33864	3.65647	1.88344	5.15209			0.947161	2.58727	1.10949	3.0343	1.60337	4.39547	2.08026	5.68247		
1.27278	2.52463	0.952917	2.58772	1.2697	2.52419	0.990515	2.70248	1.33876	3.6339	1.8827	5.11778			0.953307	2.58775	1.11115	3.01978	1.60269	4.36599	2.08915	5.67102		
1.2665	2.52373	0.959057	2.58818	1.26342	2.52329	0.996077	2.70065	1.33892	3.61171	1.88194	5.0838			0.959447	2.5882	1.11286	3.00558	1.60203	4.33691	2.09753	5.65834		
1.26023	2.52283	0.965191	2.58861	1.25715	2.52238	1.00168	2.69896	1.33912	3.5899	1.88114	5.05017			0.965581	2.58864	1.11462	2.99171	1.60137	4.30823	2.10533	5.64422		
1.25395	2.52192	0.971318	2.58902	1.25088	2.52147	1.00732	2.69739	1.33935	3.56846	1.88032	5.01689			0.971707	2.58905	1.11644	2.97815	1.60074	4.27994	2.11244	5.62848		
1.24768	2.521	0.977438	2.58941	1.2446	2.52055	1.013	2.69593	1.33963	3.54739	1.87948	4.98396			0.977827	2.58943	1.11832	2.9649	1.60011	4.25205	2.11881	5.61097		
1.24141	2.52008	0.98355	2.58977	1.23833	2.51962	1.0187	2.69457	1.33994	3.52668	1.87862	4.95139			0.983938	2.58979	1.12024	2.95195	1.59951	4.22453	2.1244	5.5916		
1.23514	2.51915	0.989655	2.5901	1.23206	2.51869	1.02444	2.69329	1.3403	3.50632	1.87774	4.91916			0.990042	2.59013	1.12223	2.9393	1.59892	4.1974	2.12919	5.57038		
1.22887	2.51821	0.99575	2.59041	1.2258	2.51775	1.03019	2.6921	1.3407	3.48631	1.87685	4.8873			0.996137	2.59043	1.12426	2.92695	1.59835	4.17065	2.13321	5.54741		
1.22261	2.51728	1.00184	2.5907	1.21953	2.51681	1.03597	2.69098	1.34113	3.46665	1.87596	4.85578			1.00222	2.59071	1.12636	2.91489	1.59781	4.14427	2.13651	5.52285		
1.21634	2.51633	1.00791	2.59095	1.21327	2.51587	1.04178	2.68992	1.34161	3.44732	1.87505	4.82463			1.0083	2.59097	1.12851	2.90311	1.59728	4.11826	2.13917	5.49693		
1.21008	2.51539	1.01398	2.59118	1.20701	2.51492	1.04759	2.68893	1.34213	3.42833	1.87414	4.79382			1.01436	2.59119	1.13071	2.89162	1.59678	4.09262	2.14126	5.46986		
1.20382	2.51444	1.02004	2.59137	1.20075	2.51397	1.05343	2.68799	1.34269	3.40966	1.87323	4.76337			1.02042	2.59138	1.13297	2.88041	1.5963	4.06734	2.14286	5.44188		
1.19757	2.51349	1.02608	2.59154	1.1945	2.51302	1.05928	2.68709	1.34329	3.39131	1.87231	4.73327			1.02646	2.59154	1.13529	2.86948	1.59584	4.04241	2.14405	5.41319		
1.19131	2.51253	1.03211	2.59167	1.18825	2.51207	1.06514	2.68625	1.34393	3.37328	1.8714	4.70352			1.03249	2.59167	1.13767	2.85882	1.59541	4.01783	2.1449	5.38397		
1.18507	2.51158	1.03813	2.59176	1.182	2.51111	1.07102	2.68544	1.34461	3.35557	1.87048	4.67412			1.03851	2.59176	1.14011	2.84842	1.59501	3.99361	2.14546	5.35435		
1.17883	2.51063	1.04413	2.59182	1.17576	2.51016	1.07691	2.68467	1.34534	3.33816	1.86957	4.64506			1.04451	2.59182	1.1426	2.8383	1.59463	3.96972	2.14577	5.32448		
1.17259	2.50968	1.05012	2.59184	1.16953	2.50921	1.08281	2.68394	1.34611	3.32105	1.86867	4.61635			1.0505	2.59184	1.14516	2.82844	1.59427	3.94617	2.14588	5.29444		
1.16636	2.50873	1.05609	2.59182	1.1633	2.50827	1.08871	2.68323	1.34692	3.30424	1.86777	4.58798			1.05647	2.59181	1.14778	2.81884	1.59395	3.92296	2.14582	5.26433		
1.16013	2.50779	1.06205	2.59175	1.15708	2.50733	1.09463	2.68255	1.34777	3.28772	1.86688	4.55995			1.06242	2.59175	1.15046	2.80951	1.59365	3.90008	2.14562	5.2342		
1.15391	2.50685	1.06798	2.59164	1.15086	2.50639	1.10055	2.6819	1.34867	3.27149	1.866	4.53225			1.06836	2.59163	1.15321	2.80043	1.59338	3.87753	2.14529	5.20411		
1.1477	2.50592	1.07389	2.59148	1.14466	2.50547	1.10648	2.68128	1.34961	3.25555	1.86513	4.50489			1.07427	2.59147	1.15602	2.79162	1.59314	3.8553	2.14486	5.1741		
1.1415	2.505	1.07978	2.59126	1.13846	2.50455	1.11242	2.68067	1.35059	3.23988	1.86427	4.47785			1.08016	2.59125	1.1589	2.78306	1.59293	3.83338	2.14435	5.14422		
1.13531	2.50409	1.08565	2.59099	1.13228	2.50365	1.11836	2.68009	1.35161	3.2245	1.86342	4.45115			1.08602	2.59098	1.16184	2.77476	1.59275	3.81178	2.14375	5.11448		
1.12913	2.5032	1.09149	2.59066	1.1261	2.50277	1.1243	2.67952	1.35268	3.20938	1.86258	4.42476			1.09186	2.59064	1.16486	2.76672	1.5926	3.79048	2.14309	5.08492		
1.12296	2.50232	1.0973	2.59027	1.11994	2.5019	1.13025	2.67897	1.35379	3.19453	1.86176	4.3987			1.09767	2.59024	1.16795	2.75894	1.59248	3.7695	2.14238	5.05555		
1.11681	2.50147	1.10308	2.5898	1.11379	2.50105	1.13621	2.67843	1.35495	3.17994	1.86096	4.37296			1.10344	2.58977	1.17112	2.75142	1.59239	3.74881	2.14162	5.02638		
1.11066	2.50063	1.10882	2.58926	1.10765	2.50024	1.14216	2.67791	1.35615	3.16561	1.86017	4.34753			1.10919	2.58923	1.17436	2.74416	1.59233	3.72842	2.14082	4.99744		
1.10454	2.49983	1.11453	2.58864	1.10154	2.49945	1.14812	2.6774	1.35739	3.15154	1.85939	4.32241			1.11489	2.5886	1.17768	2.73716	1.5923	3.70832	2.13998	4.96872		
1.09843	2.49906	1.1202	2.58794	1.09544	2.49869	1.15409	2.6769	1.35868	3.13771	1.85864	4.29761			1.12056	2.58789	1.18109	2.73044	1.59231	3.68851	2.13912	4.94025		
1.09234	2.49832	1.12582	2.58714	1.08936	2.49798	1.16005	2.67641	1.36001	3.12414	1.8579	4.2731			1.12618	2.58709	1.18458	2.72397	1.59234	3.66899	2.13823	4.91202		
1.08628	2.49763	1.1314	2.58625	1.08331	2.49731	1.16602	2.67592	1.36138	3.11081	1.85718	4.2489			1.13175	2.58619	1.18816	2.71779	1.59242	3.64975	2.13732	4.88405		
1.08024	2.49699	1.13693	2.58525	1.07728	2.4967	1.17198	2.67545	1.3628	3.09772	1.85648	4.225			1.13728	2.58518	1.19183	2.71187	1.59252	3.63078	2.13639	4.85632		
1.07422	2.49641	1.14241	2.58414	1.07128	2.49614	1.17795	2.67498	1.36427	3.08487	1.8558	4.20139			1.14275	2.58407	1.19559	2.70623	1.59266	3.61209	2.13545	4.82886		
1.06824	2.49589	1.14782	2.58292	1.06532	2.49566	1.18392	2.67452	1.36578	3.07225	1.85514	4.17807			1.14817	2.58284	1.19946	2.70087	1.59282	3.59367	2.13451	4.80166		
1.06229	2.49544	1.15319	2.58158	1.05939	2.49526	1.18988	2.67406	1.36733	3.05986	1.85451	4.15504			1.15352	2.58149	1.20342	2.6958	1.59303	3.57552	2.13355	4.77473		
1.05638	2.49508	1.15848	2.58011	1.0535	2.49494	1.19585	2.6736	1.36893	3.0477	1.85389	4.1323			1.15882	2.58002	1.20749	2.691	1.59327	3.55763	2.13259	4.74805		
1.05052	2.49482	1.16372	2.57852	1.04765	2.49473	1.20181	2.67315	1.37057	3.03577	1.8533	4.10984			1.16405	2.57842	1.21167	2.68649	1.59354	3.53999	2.13162	4.72165		
1.04469	2.49466	1.16889	2.57681	1.04185	2.49463	1.20778	2.6727	1.37226	3.02406	1.85273	4.08766			1.16922	2.57669	1.21595	2.68226	1.59384	3.52262	2.13065	4.6955		
1.03892	2.49463	1.17399	2.57496	1.03611	2.49466	1.21374	2.67224	1.374	3.01256	1.85218	4.06576			1.17432	2.57484	1.22034	2.67831	1.59418	3.50549	2.12968	4.66963		
1.03321	2.49473	1.17903	2.57299	1.03043	2.49483	1.2197	2.67179	1.37578	3.00128	1.85166	4.04412			1.17935	2.57286	1.22483	2.67463	1.59456	3.48862	2.12872	4.64402		
1.02756	2.49498	1.18401	2.5709	1.02481	2.49516	1.22566	2.67134	1.3776	2.99022	1.85116	4.02276			1.18432	2.57077	1.22943	2.67122	1.59497	3.47198	2.12776	4.61867		
1.02197	2.4954	1.18892	2.5687	1.01925	2.49567	1.23161	2.67088	1.37948	2.97936	1.85068	4.00166			1.18923	2.56856	1.23414	2.66806	1.59541	3.4556	2.1268	4.59359		
1.01645	2.49599	1.19378	2.56639	1.01377	2.49635	1.23756	2.67042	1.3814	2.96871	1.85023	3.98083			1.19408	2.56624	1.23894	2.66516	1.59589	3.43945	2.12585	4.56876		
1.01101	2.49678	1.19857	2.56399	1.00837	2.49724	1.24351	2.66996	1.38337	2.95827	1.84981	3.96025			1.19888	2.56383	1.24385	2.6625	1.59641	3.42353	2.12491	4.5442		
1.00565	2.49777	1.20332	2.5615	1.00305	2.49834	1.24945	2.66949	1.38538	2.94803	1.84941	3.93993			1.20362	2.56134	1.24885	2.66005	1.59696	3.40785	2.12397	4.5199		
1.00037	2.49898	1.20802	2.55894	0.997813	2.49966	1.25538	2.66902	1.38744	2.938	1.84904	3.91987			1.20832	2.55877	1.25393	2.65782	1.59754	3.39239	2.12305	4.49586		
0.995179	2.50042	1.21268	2.55631	0.99266	2.50121	1.26131	2.66853	1.38955	2.92816	1.84869	3.90006			1.21297	2.55614	1.2591	2.65579	1.59817	3.37717	2.12214	4.47207		
0.990069	2.50209	1.2173	2.55364	0.987592	2.50299	1.26724	2.66804	1.39171	2.91852	1.84837	3.88049			1.2176	2.55347	1.26434	2.65393	1.59882	3.36216	2.12123	4.44854		
0.985045	2.50399	1.2219	2.55093	0.982609	2.50501	1.27315	2.66754	1.39392	2.90908	1.84807	3.86117			1.22219	2.55076	1.26966	2.65225	1.59952	3.34738	2.12034	4.42526		
0.980103	2.50613	1.22647	2.5482	0.977707	2.50726	1.27906	2.66702	1.39618	2.89983	1.84781	3.84209			1.22676	2.54803	1.27504	2.65071	1.60025	3.33281	2.11947	4.40223		
0.975243	2.5085	1.23102	2.54546	0.972886	2.50975	1.28496	2.66649	1.3985	2.89078	1.84757	3.82325			1.23131	2.54528	1.28048	2.64932	1.60101	3.31846	2.11861	4.37945		
0.97046	2.5111	1.23556	2.54271	0.96814	2.51246	1.29085	2.66595	1.40086	2.88192	1.84736	3.80465			1.23585	2.54254	1.28598	2.64806	1.60181	3.30432	2.11776	4.35692		
0.965751	2.51393	1.24009	2.53998	0.963465	2.51539	1.29673	2.66539	1.40327	2.87325	1.84717	3.78628			1.24038	2.5398	1.29153	2.6469	1.60265	3.29038	2.11692	4.33463		
0.961112	2.51697	1.24462	2.53726	0.958858	2.51853	1.30259	2.66481	1.40574	2.86477	1.84702	3.76814			1.24491	2.53709	1.29713	2.64586	1.60352	3.27666	2.11611	4.31258		
0.956536	2.52021	1.24915	2.53457	0.954311	2.52188	1.30845	2.6642	1.40826	2.85648	1.84689	3.75023			1.24944	2.5344	1.30276	2.64491	1.60443	3.26313	2.11531	4.29077		
0.952018	2.52365	1.25368	2.53191	0.94982	2.52541	1.31428	2.66358	1.41084	2.84838	1.84679	3.73254			1.25397	2.53174	1.30844	2.64404	1.60538	3.24981	2.11452	4.2692		
0.947554	2.52728	1.25823	2.5293	0.94538	2.52912	1.32011	2.66293	1.41348	2.84047	1.84672	3.71507			1.25851	2.52913	1.31414	2.64325	1.60637	3.23668	2.11376	4.24787		
0.943136	2.53107	1.26278	2.52673	0.940983	2.53299	1.32591	2.66225	1.41617	2.83275	1.84668	3.69783			1.26307	2.52657	1.31988	2.64252	1.60739	3.22375	2.11301	4.22677		
0.938759	2.53502	1.26735	2.52422	0.936623	2.53701	1.3317	2.66154	1.41893	2.82522	1.84667	3.6808			1.26764	2.52406	1.32565	2.64186	1.60844	3.21101	2.11228	4.2059		
0.934417	2.53912	1.27193	2.52176	0.932296	2.54117	1.33747	2.66079	1.42175	2.81789	1.84669	3.66398			1.27223	2.52161	1.33144	2.64126	1.60954	3.19846	2.11158	4.18526		
0.930102	2.54334	1.27654	2.51937	0.927993	2.54545	1.34321	2.66001	1.42463	2.81074	1.84674	3.64738			1.27683	2.51922	1.33725	2.6407	1.61067	3.18609	2.11089	4.16484		
0.92581	2.54767	1.28117	2.51705	0.923708	2.54984	1.34893	2.65918	1.42758	2.8038	1.84682	3.63099			1.28147	2.5169	1.34308	2.64019	1.61183	3.17391	2.11022	4.14465		
0.921531	2.55211	1.28583	2.51479	0.919434	2.55431	1.35462	2.65831	1.4306	2.79705	1.84692	3.6148			1.28612	2.51465	1.34894	2.63972	1.61304	3.16192	2.10957	4.12469		
0.91726	2.55662	1.29051	2.51261	0.915164	2.55885	1.36028	2.65739	1.43369	2.7905	1.84706	3.59881			1.29081	2.51248	1.3548	2.63929	1.61428	3.1501	2.10894	4.10494		
0.912989	2.56118	1.29522	2.51051	0.91089	2.56344	1.36591	2.65641	1.43685	2.78415	1.84723	3.58303			1.29552	2.51038	1.36069	2.63889	1.61555	3.13846	2.10833	4.08541		
0.908711	2.56579	1.29996	2.50848	0.906605	2.56806	1.3715	2.65537	1.44009	2.77801	1.84743	3.56745			1.30026	2.50835	1.36658	2.63851	1.61687	3.127	2.10775	4.06609		
0.904416	2.57041	1.30473	2.50653	0.9023	2.57268	1.37706	2.65426	1.44341	2.77209	1.84765	3.55206			1.30504	2.50641	1.37249	2.63817	1.61822	3.11571	2.10718	4.04699		
0.900098	2.57502	1.30954	2.50466	0.897967	2.57728	1.38257	2.65308	1.44682	2.76637	1.84791	3.53687			1.30985	2.50455	1.37841	2.63785	1.61961	3.10459	2.10664	4.0281		
0.895747	2.5796	1.31438	2.50288	0.893598	2.58183	1.38803	2.65183	1.45032	2.76088	1.8482	3.52187			1.31469	2.50276	1.38434	2.63754	1.62104	3.09364	2.10612	4.00942		
0.891357	2.58413	1.31926	2.50117	0.889184	2.58633	1.39345	2.65049	1.45391	2.7556	1.84852	3.50706			1.31957	2.50107	1.39027	2.63726	1.6225	3.08286	2.10563	3.99094		
0.886918	2.58858	1.32417	2.49955	0.884719	2.59073	1.39881	2.64906	1.45759	2.75056	1.84887	3.49244			1.32449	2.49945	1.39622	2.63699	1.624	3.07224	2.10515	3.97267		
0.882423	2.59292	1.32912	2.49802	0.880195	2.59501	1.40411	2.64754	1.46137	2.74574	1.84926	3.478			1.32944	2.49792	1.40217	2.63674	1.62554	3.06178	2.1047	3.9546		
0.877867	2.59714	1.33411	2.49657	0.875606	2.59916	1.40935	2.64591	1.46526	2.74115	1.84967	3.46375			1.33443	2.49648	1.40813	2.6365	1.62711	3.05149	2.10428	3.93674		
0.873243	2.60122	1.33914	2.4952	0.870947	2.60316	1.41453	2.64418	1.46925	2.73681	1.85011	3.44967			1.33946	2.49512	1.41409	2.63628	1.62872	3.04135	2.10387	3.91907		
0.868546	2.60514	1.3442	2.49392	0.866213	2.60699	1.41965	2.64234	1.47335	2.7327	1.85059	3.43578			1.34453	2.49384	1.42005	2.63606	1.63037	3.03137	2.1035	3.90159		
0.863774	2.60888	1.34931	2.49272	0.861403	2.61065	1.42469	2.64039	1.47756	2.72882	1.8511	3.42206			1.34964	2.49264	1.42602	2.63585	1.63206	3.02154	2.10314	3.88431		
0.858924	2.61244	1.35445	2.4916	0.856515	2.61411	1.42967	2.63833	1.48187	2.72518	1.85163	3.40852			1.35478	2.49153	1.43199	2.63565	1.63378	3.01187	2.10281	3.86722		
0.853996	2.6158	1.35964	2.49056	0.851549	2.61739	1.43457	2.63615	1.4863	2.72178	1.8522	3.39514			1.35997	2.4905	1.43797	2.63545	1.63554	3.00234	2.10251	3.85032		
0.848991	2.61898	1.36486	2.48961	0.846506	2.62047	1.43941	2.63387	1.49084	2.7186	1.8528	3.38194			1.36519	2.48955	1.44394	2.63526	1.63734	2.99297	2.10223	3.83361		
0.84391	2.62197	1.37012	2.48873	0.841389	2.62337	1.44418	2.63149	1.49548	2.71563	1.85344	3.36891			1.37046	2.48867	1.44992	2.63507	1.63918	2.98374	2.10197	3.81708		
0.838756	2.62478	1.37542	2.48793	0.8362	2.62609	1.44888	2.62901	1.50022	2.71288	1.8541	3.35604			1.37576	2.48788	1.4559	2.63489	1.64106	2.97466	2.10174	3.80074		
0.833533	2.6274	1.38076	2.4872	0.830944	2.62863	1.45352	2.62643	1.50507	2.71034	1.8548	3.34334			1.3811	2.48716	1.46188	2.63471	1.64297	2.96572	2.10154	3.78458		
0.828243	2.62986	1.38613	2.48655	0.825624	2.631	1.45811	2.62378	1.51001	2.70798	1.85553	3.3308			1.38647	2.48651	1.46786	2.63453	1.64492	2.95693	2.10136	3.7686		
0.822893	2.63215	1.39154	2.48597	0.820245	2.63322	1.46265	2.62107	1.51504	2.7058	1.85629	3.31842			1.39189	2.48593	1.47384	2.63434	1.64691	2.94828	2.10121	3.75279		
0.817485	2.6343	1.39699	2.48545	0.814811	2.6353	1.46714	2.61829	1.52015	2.70379	1.85708	3.30619			1.39734	2.48542	1.47981	2.63416	1.64893	2.93976	2.10108	3.73717		
0.812024	2.6363	1.40248	2.48501	0.809326	2.63724	1.4716	2.61548	1.52534	2.70193	1.8579	3.29413			1.40282	2.48498	1.48579	2.63398	1.651	2.93139	2.10098	3.72171		
0.806515	2.63818	1.40799	2.48463	0.803794	2.63906	1.47603	2.61263	1.5306	2.70021	1.85876	3.28222			1.40834	2.4846	1.49176	2.63379	1.6531	2.92315	2.1009	3.70643		
0.800962	2.63994	1.41354	2.48431	0.79822	2.64076	1.48043	2.60978	1.53593	2.69863	1.85964	3.27046			1.4139	2.48429	1.49773	2.63361	1.65525	2.91504	2.10085	3.69132		
0.795367	2.64159	1.41913	2.48404	0.792607	2.64236	1.48483	2.60692	1.54132	2.69717	1.86056	3.25885			1.41948	2.48403	1.5037	2.63341	1.65743	2.90707	2.10083	3.67637		
0.789736	2.64314	1.42474	2.48384	0.786959	2.64387	1.48921	2.60407	1.54677	2.69581	1.86151	3.24739			1.4251	2.48383	1.50966	2.63322	1.65965	2.89923	2.10084	3.6616		
0.784071	2.6446	1.43039	2.48369	0.781278	2.64529	1.49361	2.60125	1.55226	2.69455	1.8625	3.23608			1.43075	2.48368	1.51562	2.63301	1.66191	2.89152	2.10087	3.64698		
0.778375	2.64598	1.43606	2.48359	0.775569	2.64664	1.49801	2.59848	1.5578	2.69339	1.86351	3.22492			1.43642	2.48359	1.52157	2.6328	1.66421	2.88395	2.10093	3.63253		
0.772651	2.64729	1.44176	2.48355	0.769832	2.64791	1.50243	2.59576	1.56339	2.6923	1.86456	3.2139			1.44213	2.48354	1.52752	2.63259	1.66655	2.8765	2.10101	3.61825		
0.766902	2.64853	1.44749	2.48354	0.764071	2.64912	1.50689	2.59313	1.56901	2.69129	1.86564	3.20302			1.44786	2.48355	1.53346	2.63236	1.66893	2.86918	2.10112	3.60412		
0.76113	2.64971	1.45325	2.48359	0.758289	2.65027	1.51139	2.59058	1.57467	2.69035	1.86675	3.19228			1.45362	2.48359	1.5394	2.63213	1.67135	2.86199	2.10126	3.59015		
0.755337	2.65084	1.45903	2.48367	0.752486	2.65137	1.51594	2.58815	1.58036	2.68947	1.8679	3.18169			1.4594	2.48368	1.54533	2.63188	1.67381	2.85492	2.10143	3.57633		
0.749525	2.65192	1.46483	2.4838	0.746665	2.65243	1.52056	2.58584	1.58608	2.68864	1.86907	3.17123			1.4652	2.48381	1.55125	2.63163	1.67631	2.84798	2.10162	3.56267		
0.743695	2.65295	1.47066	2.48396	0.740828	2.65344	1.52525	2.58369	1.59182	2.68786	1.87028	3.1609			1.47103	2.48397	1.55717	2.63136	1.67886	2.84117	2.10184	3.54916		
0.73785	2.65394	1.47651	2.48416	0.734976	2.65442	1.53003	2.5817	1.59759	2.68713	1.87152	3.15071			1.47688	2.48417	1.56307	2.63108	1.68144	2.83448	2.10209	3.53581		
0.731991	2.6549	1.48238	2.48439	0.72911	2.65536	1.53492	2.57989	1.60338	2.68644	1.8728	3.14066			1.48275	2.48441	1.56897	2.63078	1.68407	2.82791	2.10237	3.5226		
0.726119	2.65583	1.48827	2.48465	0.723232	2.65627	1.53991	2.57829	1.60918	2.68579	1.8741	3.13073			1.48865	2.48467	1.57485	2.63047	1.68675	2.82147	2.10267	3.50954		
0.720234	2.65673	1.49418	2.48494	0.717342	2.65716	1.54502	2.57689	1.61501	2.68517	1.87544	3.12094			1.49456	2.48496	1.58072	2.63014	1.68946	2.81514	2.103	3.49663		
0.71434	2.6576	1.50011	2.48527	0.711442	2.65803	1.55025	2.5757	1.62085	2.68458	1.87681	3.11127			1.50048	2.48529	1.58658	2.62979	1.69222	2.80895	2.10336	3.48386		
0.708435	2.65846	1.50605	2.48561	0.705534	2.65887	1.5556	2.57471	1.62671	2.68402	1.87821	3.10173			1.50643	2.48563	1.59243	2.62943	1.69503	2.80287	2.10375	3.47123		
0.702522	2.6593	1.51201	2.48598	0.699616	2.6597	1.56106	2.57392	1.63258	2.68349	1.87965	3.09232			1.51239	2.48601	1.59826	2.62904	1.69789	2.79692	2.10416	3.45875		
0.696601	2.66012	1.51799	2.48638	0.693691	2.66051	1.56662	2.5733	1.63846	2.68298	1.88111	3.08303			1.51837	2.4864	1.60407	2.62863	1.70079	2.79109	2.10461	3.4464		
0.690672	2.66092	1.52398	2.48679	0.68776	2.66132	1.57227	2.57284	1.64435	2.6825	1.88261	3.07386			1.52436	2.48682	1.60987	2.62819	1.70374	2.78538	2.10508	3.4342		
0.684737	2.66172	1.52999	2.48723	0.681822	2.66211	1.57801	2.57251	1.65025	2.68203	1.88415	3.06481			1.53037	2.48725	1.61565	2.62773	1.70674	2.7798	2.10557	3.42213		
0.678797	2.66251	1.536	2.48768	0.675879	2.66289	1.58382	2.57231	1.65616	2.68158	1.88571	3.05589			1.53639	2.48771	1.62141	2.62723	1.70979	2.77434	2.1061	3.4102		
0.672851	2.66329	1.54204	2.48815	0.669931	2.66367	1.58969	2.57221	1.66208	2.68115	1.88731	3.04708			1.54242	2.48818	1.62715	2.62671	1.71289	2.76901	2.10666	3.3984		
0.666901	2.66407	1.54808	2.48864	0.663978	2.66445	1.59562	2.57219	1.66801	2.68073	1.88894	3.03839			1.54846	2.48867	1.63286	2.62615	1.71605	2.7638	2.10724	3.38673		
0.660946	2.66485	1.55414	2.48914	0.658022	2.66523	1.60158	2.57224	1.67394	2.68033	1.8906	3.02982			1.55452	2.48917	1.63855	2.62556	1.71926	2.75872	2.10785	3.3752		
0.654989	2.66562	1.5602	2.48965	0.652063	2.66601	1.60759	2.57235	1.67988	2.67994	1.89229	3.02136			1.56059	2.48969	1.64421	2.62493	1.72253	2.75377	2.10849	3.36379		
0.649028	2.6664	1.56628	2.49018	0.646101	2.66679	1.61362	2.57251	1.68583	2.67956	1.89402	3.01302			1.56667	2.49022	1.64985	2.62425	1.72585	2.74895	2.10916	3.35252		
0.643065	2.66719	1.57237	2.49073	0.640137	2.66758	1.61969	2.57271	1.69178	2.67919	1.89578	3.00479			1.57275	2.49076	1.65545	2.62354	1.72924	2.74426	2.10985	3.34137		
0.6371	2.66798	1.57847	2.49128	0.634171	2.66837	1.62577	2.57294	1.69773	2.67883	1.89757	2.99667			1.57885	2.49131	1.66102	2.62277	1.73269	2.7397	2.11058	3.33035		
0.631133	2.66878	1.58457	2.49184	0.628203	2.66918	1.63187	2.57321	1.70369	2.67848	1.89939	2.98866			1.58496	2.49188	1.66655	2.62196	1.7362	2.73528	2.11133	3.31945		
0.625165	2.66959	1.59069	2.49241	0.622235	2.67	1.63799	2.57349	1.70965	2.67814	1.90125	2.98076			1.59107	2.49245	1.67205	2.62109	1.73979	2.731	2.11211	3.30867		
0.619197	2.67042	1.59681	2.49299	0.616267	2.67083	1.64413	2.5738	1.71562	2.6778	1.90314	2.97297			1.5972	2.49303	1.6775	2.62016	1.74344	2.72685	2.11292	3.29802		
0.613228	2.67126	1.60294	2.49358	0.610298	2.67168	1.65027	2.57412	1.72158	2.67747	1.90506	2.96529			1.60333	2.49362	1.68291	2.61918	1.74716	2.72284	2.11376	3.28749		
0.60726	2.67212	1.60908	2.49418	0.60433	2.67255	1.65643	2.57446	1.72755	2.67715	1.90702	2.95771			1.60947	2.49422	1.68828	2.61813	1.75095	2.71898	2.11462	3.27707		
0.601292	2.673	1.61523	2.49478	0.598363	2.67344	1.66259	2.5748	1.73352	2.67683	1.90901	2.95024			1.61562	2.49482	1.6936	2.61701	1.75482	2.71526	2.11552	3.26678		
0.595326	2.6739	1.62138	2.49539	0.592398	2.67436	1.66876	2.57516	1.7395	2.67652	1.91103	2.94287			1.62177	2.49543	1.69887	2.61583	1.75877	2.71169	2.11644	3.2566		
0.589361	2.67484	1.62754	2.49601	0.586434	2.6753	1.67494	2.57552	1.74547	2.67621	1.91309	2.9356			1.62793	2.49605	1.70409	2.61458	1.7628	2.70827	2.11739	3.24654		
0.583399	2.6758	1.6337	2.49663	0.580473	2.67628	1.68112	2.57589	1.75144	2.6759	1.91518	2.92844			1.63409	2.49667	1.70926	2.61325	1.76691	2.70499	2.11837	3.23659		
0.577439	2.67679	1.63987	2.49726	0.574514	2.67729	1.68731	2.57626	1.75742	2.6756	1.9173	2.92138			1.64027	2.4973	1.71437	2.61185	1.7711	2.70186	2.11938	3.22675		
0.571482	2.67782	1.64605	2.49789	0.56856	2.67834	1.6935	2.57664	1.76339	2.67529	1.91946	2.91442			1.64644	2.49793	1.71942	2.61038	1.77537	2.69888	2.12042	3.21703		
0.56553	2.67889	1.65223	2.49852	0.562609	2.67943	1.6997	2.57701	1.76937	2.67499	1.92165	2.90756			1.65263	2.49856	1.72442	2.60883	1.77973	2.69605	2.12148	3.20742		
0.559581	2.68001	1.65842	2.49916	0.556663	2.68057	1.70589	2.57739	1.77534	2.67469	1.92387	2.90079			1.65882	2.4992	1.72937	2.60721	1.78418	2.69337	2.12258	3.19792		
0.553638	2.68117	1.66461	2.4998	0.550723	2.68177	1.71209	2.57777	1.78131	2.67439	1.92613	2.89413			1.66501	2.49984	1.73425	2.60551	1.7887	2.69083	2.1237	3.18852		
0.547701	2.6824	1.67081	2.50044	0.544789	2.68302	1.71829	2.57815	1.78728	2.67409	1.92842	2.88756			1.67121	2.50048	1.73908	2.60374	1.79332	2.68844	2.12485	3.17924		
0.541771	2.68368	1.67701	2.50108	0.538862	2.68433	1.72449	2.57853	1.79324	2.67378	1.93075	2.88109			1.67741	2.50113	1.74386	2.60191	1.79801	2.68618	2.12603	3.17006		
0.535848	2.68503	1.68322	2.50173	0.532943	2.68572	1.73069	2.5789	1.79921	2.67348	1.93311	2.87472			1.68361	2.50177	1.74859	2.60001	1.80278	2.68406	2.12724	3.16098		
0.529933	2.68645	1.68943	2.50238	0.527033	2.68718	1.7369	2.57927	1.80517	2.67317	1.93551	2.86844			1.68983	2.50242	1.75326	2.59805	1.80763	2.68206	2.12847	3.15201		
0.524028	2.68796	1.69564	2.50303	0.521134	2.68873	1.7431	2.57965	1.81113	2.67286	1.93794	2.86226			1.69604	2.50307	1.75789	2.59603	1.81256	2.68019	2.12974	3.14314		
0.518134	2.68956	1.70186	2.50368	0.515245	2.69038	1.7493	2.58001	1.81708	2.67255	1.94041	2.85617			1.70226	2.50372	1.76248	2.59396	1.81755	2.67845	2.13103	3.13438		
0.512252	2.69126	1.70808	2.50433	0.509369	2.69213	1.7555	2.58038	1.82303	2.67223	1.94291	2.85018			1.70848	2.50437	1.76702	2.59185	1.82262	2.67681	2.13235	3.12571		
0.506383	2.69307	1.71431	2.50498	0.503507	2.694	1.7617	2.58074	1.82898	2.67191	1.94546	2.84428			1.7147	2.50503	1.77153	2.58969	1.82775	2.67528	2.1337	3.11715		
0.500529	2.69501	1.72054	2.50564	0.497662	2.69601	1.7679	2.5811	1.83492	2.67158	1.94803	2.83848			1.72093	2.50568	1.776	2.5875	1.83294	2.67385	2.13508	3.10868		
0.494692	2.69709	1.72677	2.50629	0.491834	2.69817	1.7741	2.58145	1.84085	2.67124	1.95065	2.83277			1.72716	2.50633	1.78044	2.58528	1.83819	2.67251	2.13649	3.10032		
0.488874	2.69933	1.733	2.50694	0.486026	2.70049	1.7803	2.5818	1.84678	2.6709	1.95331	2.82715			1.7334	2.50698	1.78486	2.58304	1.8435	2.67127	2.13792	3.09205		
0.483077	2.70174	1.73924	2.50759	0.48024	2.703	1.78649	2.58214	1.8527	2.67055	1.956	2.82163			1.73963	2.50763	1.78925	2.58077	1.84885	2.6701	2.13939	3.08387		
0.477304	2.70435	1.74548	2.50824	0.47448	2.70571	1.79268	2.58248	1.85861	2.67019	1.95874	2.8162			1.74587	2.50828	1.79362	2.5785	1.85426	2.66901	2.14088	3.0758		
0.471558	2.70719	1.75172	2.50889	0.468749	2.70867	1.79887	2.58281	1.86451	2.66982	1.96151	2.81086			1.75211	2.50893	1.79797	2.57621	1.85971	2.66799	2.1424	3.06781		
0.465843	2.71028	1.75796	2.50954	0.46305	2.7119	1.80506	2.58314	1.8704	2.66943	1.96433	2.80562			1.75836	2.50958	1.80231	2.57392	1.8652	2.66704	2.14395	3.05992		
0.460162	2.71366	1.76421	2.51019	0.457387	2.71543	1.81125	2.58346	1.87628	2.66904	1.96718	2.80047			1.7646	2.51023	1.80664	2.57162	1.87072	2.66614	2.14553	3.05212		
0.45452	2.71736	1.77045	2.51083	0.451766	2.71931	1.81743	2.58377	1.88215	2.66863	1.97009	2.79542			1.77085	2.51088	1.81096	2.56933	1.87628	2.6653	2.14713	3.04441		
0.448922	2.72144	1.7767	2.51148	0.446193	2.72359	1.82361	2.58408	1.88801	2.6682	1.97303	2.79046			1.7771	2.51152	1.81527	2.56705	1.88188	2.66451	2.14877	3.03679		
0.443375	2.72594	1.78295	2.51212	0.440672	2.72832	1.82978	2.58438	1.89385	2.66776	1.97603	2.78561			1.78335	2.51216	1.81958	2.56478	1.8875	2.66377	2.15043	3.02927		
0.437885	2.73093	1.78921	2.51276	0.435214	2.73357	1.83595	2.58467	1.89968	2.6673	1.97907	2.78085			1.7896	2.5128	1.82389	2.56251	1.89315	2.66308	2.15212	3.02183		
0.432461	2.73647	1.79546	2.51339	0.429825	2.73943	1.84212	2.58495	1.90548	2.66681	1.98215	2.77619			1.79585	2.51344	1.8282	2.56027	1.89882	2.66242	2.15384	3.01448		
0.427111	2.74267	1.80171	2.51403	0.424515	2.74597	1.84828	2.58522	1.91128	2.66631	1.98529	2.77162			1.80211	2.51407	1.83251	2.55804	1.90452	2.66179	2.15559	3.00721		
0.421846	2.7496	1.80796	2.51466	0.419296	2.75331	1.85443	2.58549	1.91705	2.66578	1.98848	2.76717			1.80836	2.5147	1.83683	2.55584	1.91024	2.66121	2.15737	3.00004		
0.416678	2.75738	1.81422	2.51528	0.414181	2.76156	1.86058	2.58575	1.92279	2.66522	1.99173	2.76281			1.81462	2.51532	1.84115	2.55365	1.91598	2.66065	2.15918	2.99294		
0.41162	2.76615	1.82047	2.51591	0.409182	2.77086	1.86672	2.58599	1.92852	2.66463	1.99503	2.75857			1.82087	2.51594	1.84548	2.5515	1.92174	2.66012	2.16101	2.98594		
0.406687	2.77604	1.82672	2.51652	0.404315	2.78136	1.87286	2.58623	1.93422	2.66401	1.9984	2.75443			1.82712	2.51656	1.84983	2.54937	1.92751	2.65961	2.16287	2.97901		
0.401894	2.78722	1.83297	2.51713	0.399597	2.79324	1.87899	2.58645	1.93989	2.66335	2.00182	2.7504			1.83337	2.51717	1.85418	2.54727	1.9333	2.65913	2.16477	2.97217		
0.397257	2.79987	1.83922	2.51773	0.395043	2.80667	1.88511	2.58666	1.94552	2.66266	2.00531	2.74648			1.83962	2.51777	1.85855	2.5452	1.9391	2.65867	2.16669	2.96542		
0.392794	2.81418	1.84547	2.51833	0.390671	2.82187	1.89123	2.58686	1.95113	2.66193	2.00886	2.74269			1.84586	2.51836	1.86293	2.54317	1.94491	2.65823	2.16863	2.95874		
0.388521	2.83036	1.8517	2.51891	0.386498	2.83905	1.89733	2.58705	1.9567	2.66115	2.01249	2.73901			1.8521	2.51894	1.86734	2.54118	1.95073	2.65781	2.17061	2.95214		
0.384454	2.84861	1.85793	2.51947	0.382537	2.8584	1.90343	2.58722	1.96223	2.66032	2.01619	2.73546			1.85833	2.51951	1.87176	2.53922	1.95657	2.6574	2.17262	2.94563		
0.380607	2.86916	1.86415	2.52002	0.378803	2.88015	1.90951	2.58737	1.96772	2.65944	2.01997	2.73203			1.86454	2.52005	1.87621	2.53732	1.96241	2.65701	2.17465	2.93919		
0.376992	2.89222	1.87035	2.52053	0.375305	2.90451	1.91559	2.58751	1.97316	2.65851	2.02383	2.72873			1.87074	2.52056	1.8807	2.53547	1.96826	2.65664	2.17672	2.93284		
0.373617	2.91798	1.87651	2.521	0.37205	2.93168	1.92165	2.58764	1.97856	2.65752	2.02777	2.72557			1.8769	2.52103	1.88523	2.5337	1.97412	2.65627	2.17881	2.92656		
0.370488	2.94664	1.88263	2.52141	0.369043	2.96183	1.9277	2.58774	1.98391	2.65648	2.0318	2.72254			1.88302	2.52143	1.88982	2.53202	1.97999	2.65592	2.18093	2.92036		
0.367607	2.97839	1.88867	2.5217	0.366284	2.99515	1.93373	2.58782	1.98921	2.65537	2.03592	2.71965			1.88905	2.52171	1.8945	2.53047	1.98586	2.65557	2.18308	2.91423		
0.364974	3.01339	1.89456	2.52179	0.363772	3.03182	1.93975	2.58788	1.99446	2.6542	2.04013	2.7169			1.89492	2.52179	1.89934	2.52914	1.99173	2.65524	2.18526	2.90819		
0.362586	3.05182	1.90021	2.52157	0.361503	3.07198	1.94575	2.58792	1.99966	2.65297	2.04443	2.71429			1.90056	2.52155	1.90442	2.52813	1.99761	2.65491	2.18747	2.90221		
0.36044	3.09383	1.90556	2.52095	0.359472	3.11582	1.95173	2.58794	2.00481	2.65168	2.04883	2.71182			1.90589	2.5209	1.90982	2.52756	2.0035	2.65459	2.18971	2.89632		
0.358528	3.1396	1.91062	2.51996	0.357673	3.1635	1.95769	2.58792	2.00991	2.65034	2.05333	2.7095			1.91094	2.51989	1.91553	2.5274	2.00938	2.65428	2.19198	2.89049		
0.356845	3.18931	1.9155	2.51872	0.3561	3.2152	1.96363	2.58788	2.01496	2.64894	2.05792	2.70732			1.9158	2.51864	1.92146	2.52752	2.01528	2.65397	2.19428	2.88475		
0.355383	3.24313	1.92027	2.51736	0.354745	3.27111	1.96954	2.5878	2.01996	2.64749	2.06261	2.70527			1.92057	2.51727	1.92752	2.52782	2.02117	2.65367	2.1966	2.87907		
0.354137	3.30127	1.92499	2.51593	0.353602	3.33145	1.97543	2.58769	2.02493	2.646	2.06738	2.70336			1.92529	2.51584	1.93365	2.52822	2.02706	2.65336	2.19896	2.87347		
0.353099	3.36394	1.92968	2.51449	0.352663	3.39644	1.98128	2.58754	2.02986	2.64447	2.07225	2.70157			1.92998	2.51439	1.93984	2.52867	2.03295	2.65307	2.20135	2.86794		
0.352262	3.4314	1.93437	2.51304	0.351922	3.46634	1.98711	2.58735	2.03477	2.64291	2.07721	2.69991			1.93467	2.51295	1.94605	2.52916	2.03885	2.65277				
0.351619	3.5039	1.93906	2.5116	0.351373	3.54142	1.9929	2.58712	2.03965	2.64134	2.08225	2.69837			1.93935	2.51151	1.95228	2.52968	2.04474	2.65248				
0.351166	3.58173	1.94375	2.51018	0.35101	3.62199	1.99865	2.58683	2.04452	2.63976	2.08737	2.69694			1.94405	2.51009	1.95852	2.5302	2.05064	2.65218				
0.350894	3.66522	1.94845	2.50878	0.350826	3.70838	2.00436	2.5865	2.04938	2.63818	2.09256	2.69561			1.94875	2.50869	1.96478	2.53074	2.05653	2.65189				
0.350799	3.75472	1.95317	2.5074	0.350815	3.80097	2.01002	2.58611	2.05425	2.63661	2.09782	2.69438			1.95347	2.50732	1.97104	2.53128	2.06242	2.65159				
0.350874	3.85062	1.95791	2.50605	0.350971	3.90017	2.01564	2.58566	2.05913	2.63507	2.10315	2.69324			1.95821	2.50597	1.9773	2.53182	2.06831	2.6513				
0.351113	3.95336	1.96265	2.50474	0.351289	4.00643	2.0212	2.58514	2.06402	2.63356	2.10853	2.69218			1.96296	2.50465	1.98357	2.53237	2.07419	2.651				
0.351511	4.0634	1.96742	2.50345	0.351762	4.12026	2.02671	2.58456	2.06894	2.63209	2.11397	2.6912			1.96772	2.50336	1.98985	2.53292	2.08007	2.6507				
0.352061	4.18129	1.9722	2.50218	0.352385	4.24221	2.03216	2.58391	2.0739	2.63067	2.11946	2.69028			1.97251	2.50211	1.99612	2.53346	2.08595	2.6504				
0.352758	4.30761	1.977	2.50095	0.353151	4.3729	2.03755	2.58318	2.07889	2.62931	2.125	2.68943			1.97731	2.50088	2.0024	2.53401	2.09182	2.65009				
0.353594	4.44302	1.98182	2.49976	0.354055	4.51303	2.04287	2.58237	2.08394	2.62802	2.13058	2.68864			1.98213	2.49968	2.00868	2.53456	2.09769	2.64977				
0.354565	4.58824	1.98666	2.49859	0.355088	4.66336	2.04813	2.58149	2.08903	2.6268	2.1362	2.68791			1.98697	2.49851	2.01496	2.5351	2.10355	2.64945				
0.355663	4.7441	1.99152	2.49745	0.356246	4.82477	2.05332	2.58053	2.09417	2.62565	2.14185	2.68722			1.99183	2.49738	2.02124	2.53565	2.1094	2.64913				
0.356881	4.91151	1.9964	2.49634	0.357521	4.99823	2.05845	2.57949	2.09938	2.62458	2.14753	2.68657			1.99671	2.49627	2.02753	2.53619	2.11525	2.64879				
0.358212	5.09152	2.00129	2.49526	0.358905	5.18484	2.0635	2.57838	2.10464	2.62359	2.15325	2.68597			2.0016	2.4952	2.03381	2.53673	2.12108	2.64845				
0.35946	5.25956	2.00621	2.49422	0.360392	5.38585	2.0685	2.57718	2.10996	2.62267	2.15899	2.6854			2.00652	2.49415	2.04009	2.53726	2.12691	2.6481				
0.360583	5.41172	2.01114	2.4932	0.361974	5.60269	2.07343	2.57592	2.11533	2.62184	2.16475	2.68486			2.01146	2.49314	2.04638	2.5378	2.13273	2.64774				
0.361551	5.54419	2.0161	2.49221	0.363643	5.83698	2.0783	2.57459	2.12077	2.62108	2.17054	2.68435			2.01641	2.49215	2.05266	2.53833	2.13854	2.64737				
0.36234	5.65345	2.02107	2.49126	0.36539	6.0906	2.08311	2.5732	2.12626	2.62039	2.17634	2.68388			2.02139	2.4912	2.05895	2.53885	2.14434	2.64698				
0.362933	5.73647	2.02607	2.49033	0.367207	6.36572	2.08787	2.57175	2.1318	2.61977	2.18217	2.68342			2.02639	2.49027	2.06524	2.53938	2.15012	2.64659				
0.363488	5.81492	2.03108	2.48943	0.369085	6.66487	2.09258	2.57025	2.13739	2.61921	2.18801	2.68299			2.0314	2.48938	2.07152	2.5399	2.15589	2.64617				
0.363879	5.87071	2.03612	2.48857	0.371014	6.991	2.09725	2.5687	2.14302	2.61871	2.19386	2.68258			2.03644	2.48851	2.07781	2.54042	2.16165	2.64574				
0.364498	5.95994	2.04117	2.48773	0.37273	7.29991	2.10188	2.56712	2.1487	2.61826	2.19973	2.68219			2.04149	2.48768	2.08409	2.54094	2.16739	2.6453				
0.365356	6.08547	2.04624	2.48692	0.374213	7.58353	2.10647	2.56549	2.15441	2.61787	2.20562	2.68182			2.04657	2.48687	2.09038	2.54145	2.17311	2.64484				
0.366463	6.25151	2.05134	2.48614	0.37545	7.83361	2.11103	2.56384	2.16017	2.61752					2.05166	2.48609	2.09666	2.54196	2.17882	2.64435				
0.367835	6.46392	2.05645	2.48538	0.376433	8.04218	2.11557	2.56217	2.16595	2.61721					2.05678	2.48534	2.10294	2.54246	2.1845	2.64385				
0.369485	6.73073	2.06158	2.48466	0.377158	8.20207	2.12008	2.56048	2.17177	2.61694					2.06191	2.48461	2.10923	2.54297	2.19016	2.64332				
0.371423	7.06292	2.06673	2.48396	0.377827	8.35435	2.12457	2.55877	2.17761	2.61671					2.06706	2.48392	2.11551	2.54347	2.1958	2.64277				
0.373402	7.4264	2.07191	2.48329	0.378292	8.46333	2.12904	2.55705	2.18348	2.61651					2.07224	2.48325	2.12179	2.54396	2.20142	2.64219				
0.375411	7.82546	2.0771	2.48264	0.379019	8.63887	2.1335	2.55533	2.18937	2.61633					2.07743	2.4826	2.12807	2.54445						
0.377438	8.26526	2.08231	2.48202	0.380008	8.88847	2.13795	2.5536	2.19528	2.61618					2.08264	2.48199	2.13435	2.54494						
0.379474	8.75207	2.08754	2.48143	0.381257	9.22347	2.14239	2.55187	2.20121	2.61606					2.08787	2.4814	2.14063	2.54542						
0.381507	9.29354	2.09278	2.48087	0.382761	9.66043	2.14683	2.55015							2.09312	2.48083	2.14691	2.5459						
0.383527	9.89914	2.09805	2.48032	0.384509	10.2234	2.15126	2.54843							2.09838	2.48029	2.15318	2.54638						
0.385519	10.5807	2.10333	2.47981	0.386485	10.9475	2.15569	2.54672							2.10367	2.47978	2.15946	2.54685						
0.387474	11.3534	2.10864	2.47932	0.388416	11.7716	2.16012	2.54501							2.10898	2.47929	2.16573	2.54731						
0.389379	12.2365	2.11396	2.47885	0.390292	12.7178	2.16456	2.54332							2.1143	2.47882	2.172	2.54778						
0.391221	13.2555	2.1193	2.4784	0.392098	13.8154	2.16899	2.54164							2.11964	2.47838	2.17827	2.54823						
0.392988	14.4447	2.12466	2.47798	0.393823	15.1042	2.17343	2.53998							2.125	2.47796	2.18454	2.54869						
0.394667	15.8507	2.13003	2.47758	0.395455	16.6393	2.17788	2.53833							2.13037	2.47756	2.1908	2.54913						
0.396246	17.5395	2.13543	2.47721	0.396981	18.4995	2.18233	2.53669							2.13577	2.47719	2.19707	2.54958						
0.397714	19.607	2.14084	2.47686	0.39839	20.8019	2.18679	2.53508							2.14118	2.47683	2.20333	2.55001						
0.399059	22.1985	2.14626	2.47652	0.39967	23.7275	2.19126	2.53348							2.14661	2.4765								
0.400269	25.5445	2.15171	2.47621	0.400811	27.5722	2.19573	2.53191							2.15205	2.47619								
0.401335	30.0355	2.15717	2.47592	0.401803	32.8555	2.20022	2.53035							2.15752	2.4759								
0.402248	36.3872	2.16265	2.47565	0.402638	40.5803									2.16299	2.47564								
0.403	46.0715	2.16814	2.4754	0.403307	52.9649									2.16849	2.47539								
0.403583	62.6694	2.17365	2.47517	0.403806	76.0862									2.174	2.47516								
0.403992	97.7603	2.17917	2.47496	0.404128	134.718									2.17952	2.47495								
0.404224	221.483	2.18471	2.47477	0.404272	583.853									2.18507	2.47476								
		2.19027	2.47459											2.19062	2.47458								
		2.19584	2.47444											2.1962	2.47443								
		2.20143	2.4743											2.20178	2.47429								
