Sym0		Asym0		Sym1		Sym2		Sym3		Sym4		Sym5		Asym1		Asym2		Asym3		Asym4		Asym5	
386  Points		382  Points		387  Points		374  Points		366  Points		349  Points		140  Points		382  Points		380  Points		366  Points		174  Points		129  Points	
Freq (MHz)	Vph (m/ms)	Freq (MHz)	Vph (m/ms)	Freq (MHz)	Vph (m/ms)	Freq (MHz)	Vph (m/ms)	Freq (MHz)	Vph (m/ms)	Freq (MHz)	Vph (m/ms)	Freq (MHz)	Vph (m/ms)	Freq (MHz)	Vph (m/ms)	Freq (MHz)	Vph (m/ms)	Freq (MHz)	Vph (m/ms)	Freq (MHz)	Vph (m/ms)	Freq (MHz)	Vph (m/ms)
2.20231	2.50824	0.346318	157.479	2.20469	2.50831	0.692219	5995.44	1.37544	2769.82	1.38455	2995.15	2.07665	3515.22	0.346249	192.46	0.916936	530.178	1.03834	1739.78	1.73054	3967.99	1.8342	1152.66
2.19639	2.50808	0.346983	76.9957	2.19876	2.50814	0.692406	285.781	1.37255	489.503	1.38744	500.944	2.0765	716.491	0.346835	84.4609	0.916458	227.021	1.03871	357.654	1.73024	630.664	1.83479	470.618
2.19047	2.50793	0.348101	51.0867	2.19284	2.50799	0.692933	146.49	1.36827	267.691	1.39185	274.145	2.07616	398.835	0.347875	54.2381	0.915613	144.321	1.03954	199.466	1.72952	342.416	1.83585	295.815
2.18456	2.50779	0.349663	38.3347	2.18693	2.50785	0.693794	98.5833	1.36368	183.815	1.39663	189.132	2.07562	276.273	0.349361	40.0586	0.914419	105.693	1.04082	138.426	1.72839	234.889	1.83736	215.818
2.17866	2.50766	0.351657	30.7696	2.18102	2.50771	0.694984	74.3692	1.35902	139.729	1.40157	144.613	2.0749	211.286	0.351281	31.8516	0.912905	83.3013	1.04254	106.095	1.72689	178.661	1.83929	169.976
2.17277	2.50754	0.354068	25.7764	2.17513	2.50759	0.696492	59.7722	1.35436	112.549	1.40658	117.222	2.07399	171.012	0.353621	26.5162	0.911102	68.6771	1.04465	86.0942	1.72505	144.077	1.8416	140.277
2.16689	2.50743	0.356881	22.2446	2.16925	2.50748	0.698309	50.0228	1.34972	94.1164	1.41165	98.6709	2.07291	143.602	0.356365	22.7805	0.909044	58.3699	1.04713	72.5099	1.72291	120.648	1.84424	119.479
2.16102	2.50733	0.360076	19.6217	2.16337	2.50737	0.700422	43.0572	1.34511	80.7955	1.41676	85.2748	2.07166	123.737	0.359495	20.0267	0.906768	50.7105	1.04994	62.6884	1.72051	103.721	1.84719	104.108
2.15516	2.50724	0.363634	17.6023	2.15751	2.50728	0.702816	37.8374	1.34055	70.7198	1.4219	75.1477	2.07026	108.675	0.362992	17.9182	0.904306	44.7928	1.05305	55.261	1.71789	90.9163	1.8504	92.2871
2.1493	2.50717	0.367533	16.0036	2.15165	2.5072	0.705477	33.784	1.33603	62.8332	1.42707	67.2233	2.0687	96.8615	0.366834	16.2563	0.90169	40.0822	1.05643	49.4504	1.71508	80.8899	1.85384	82.9166
2.14346	2.5071	0.371753	14.7095	2.1458	2.50713	0.708389	30.548	1.33157	56.493	1.43226	60.8536	2.06701	87.3456	0.371	14.9158	0.898952	36.243	1.06004	44.7827	1.71212	72.8251	1.85748	75.3075
2.13763	2.50705	0.376272	13.6427	2.13997	2.50707	0.711536	27.9069	1.32716	51.2856	1.43748	55.6221	2.06519	79.5156	0.375468	13.8139	0.896118	33.0539	1.06386	40.9521	1.70904	66.1971	1.86129	69.0066
2.13181	2.50701	0.381067	12.7499	2.13415	2.50702	0.714902	25.712	1.32282	46.933	1.44271	51.2488	2.06325	72.9592	0.380217	12.894	0.893214	30.3626	1.06786	37.7529	1.70586	60.653	1.86525	63.7039
2.12601	2.50698	0.386118	11.993	2.12833	2.50699	0.718471	23.8603	1.31854	43.2412	1.44795	47.5385	2.0612	67.3885	0.385225	12.1158	0.890263	28.0613	1.07203	35.0416	1.7026	55.9471	1.86935	59.18
2.12021	2.50697	0.391403	11.3441	2.12253	2.50697	0.722227	22.2779	1.31433	40.0709	1.4532	44.3512	2.05906	62.5964	0.390471	11.4499	0.887284	26.0713	1.07633	32.7148	1.69928	51.9027	1.87355	55.2754
2.11443	2.50697	0.396902	10.7824	2.11674	2.50697	0.726154	20.9107	1.31019	37.3193	1.45847	41.5835	2.05684	58.4301	0.395934	10.8743	0.884298	24.3337	1.08075	30.6964	1.69592	48.3897	1.87785	51.8711
2.10865	2.50698	0.402594	10.2919	2.11097	2.50698	0.730237	19.7181	1.30612	34.9091	1.46374	39.1576	2.05454	54.7744	0.400856	10.4333	0.881321	22.8039	1.08528	28.9292	1.69253	45.31	1.88223	48.8769
2.10289	2.50701	0.40846	9.86026	2.1052	2.507	0.734463	18.6691	1.30213	32.7809	1.46901	37.0139	2.05217	51.5407	0.40516	10.095	0.878368	21.447	1.08991	27.3691	1.68913	42.5882	1.88669	46.223
2.09715	2.50706	0.414481	9.4777	2.09945	2.50704	0.738816	17.7393	1.29823	30.8883	1.47428	35.1058	2.04975	48.66	0.408788	9.83795	0.875456	20.2359	1.09461	25.9817	1.68572	40.1657	1.8912	43.8545
2.09141	2.50712	0.420639	9.13645	2.09371	2.50709	0.743284	16.9097	1.2944	29.1946	1.47956	33.3964	2.04728	46.0774	0.411699	9.64777	0.872597	19.1485	1.09937	24.7399	1.68233	37.9959	1.89576	41.7277
2.08569	2.50719	0.426916	8.83024	2.08798	2.50716	0.747852	16.1651	1.29067	27.6704	1.48482	31.8562	2.04477	43.7491	0.413861	9.51469	0.869805	18.1673	1.1042	23.6219	1.67895	36.0414	1.90037	39.8073
2.07998	2.50729	0.433295	8.55393	2.08227	2.50725	0.75251	15.4931	1.28703	26.2917	1.49009	30.4612	2.04224	41.6392	0.415254	9.43235	0.867092	17.278	1.10907	22.61	1.6756	34.2719	1.90501	38.0647
2.07429	2.5074	0.439758	8.3033	2.07657	2.50735	0.757244	14.8835	1.28348	25.039	1.49534	29.1916	2.03968	39.7185	0.417268	9.31765	0.864471	16.4686	1.11398	21.6898	1.67229	32.6626	1.90968	36.4763
2.06861	2.50753	0.446289	8.07482	2.07089	2.50747	0.762043	14.328	1.28004	23.8961	1.50058	28.0313	2.03712	37.9628	0.419474	9.19765	0.861954	15.7292	1.11891	20.8492	1.66901	31.1929	1.91437	35.0223
2.06294	2.50767	0.452873	7.86556	2.06522	2.50761	0.766897	13.8197	1.27669	22.8495	1.50581	26.9666	2.03455	36.3518	0.422498	9.04177	0.859552	15.0516	1.12387	20.0783	1.66579	29.8456	1.91907	33.6864
2.05729	2.50784	0.459491	7.67302	2.05956	2.50777	0.771793	13.3527	1.27346	21.8877	1.51102	25.9861	2.03198	34.8684	0.426361	8.85582	0.857278	14.4288	1.12884	19.3688	1.66262	28.6062	1.92378	32.4546
2.05166	2.50802	0.46613	7.49508	2.05392	2.50795	0.776722	12.9222	1.27034	21.0012	1.51621	25.0801	2.02942	33.4982	0.431085	8.64611	0.855142	13.8548	1.13382	18.7133	1.65951	27.4624	1.9285	31.3152
2.04604	2.50823	0.472772	7.32993	2.04829	2.50814	0.781672	12.5238	1.26734	20.1818	1.52137	24.2404	2.02688	32.2287	0.436689	8.41898	0.853158	13.3245	1.1388	18.106	1.65647	26.4038	1.93322	30.258
2.04043	2.50845	0.479401	7.176	2.04268	2.50836	0.786636	12.154	1.26446	19.4223	1.52651	23.4598	2.02436	31.0495	0.44319	8.18042	0.851337	12.8336	1.14378	17.5415	1.6535	25.4215	1.93792	29.2745
2.03484	2.5087	0.486002	7.03194	2.03708	2.5086	0.791601	11.8097	1.26171	18.7166	1.53162	22.7322	2.02188	29.9514	0.449751	7.9624	0.849692	12.3782	1.14874	17.0155	1.6506	24.5076	1.94262	28.357
2.02927	2.50896	0.492559	6.89656	2.0315	2.50885	0.796559	11.4882	1.25909	18.0596	1.5367	22.0523	2.01943	28.9264	0.456355	7.76223	0.848235	11.9552	1.15368	16.524	1.6478	23.6555	1.9473	27.4992
2.02371	2.50925	0.499055	6.76883	2.02594	2.50913	0.8015	11.1872	1.25661	17.4466	1.54174	21.4156	2.01702	27.9676	0.462986	7.57762	0.846979	11.5615	1.1586	16.0635	1.64508	22.8593	1.95196	26.6951
2.01817	2.50956	0.505474	6.64785	2.02039	2.50943	0.806415	10.9046	1.25427	16.8736	1.54674	20.8178	2.01467	27.0689	0.469628	7.40662	0.845939	11.1947	1.16349	15.6313	1.64245	22.1138	1.9566	25.94
2.01265	2.50989	0.5118	6.5328	2.01486	2.50976	0.811295	10.6386	1.25208	16.3371	1.5517	20.2555	2.01237	26.225	0.476265	7.24756	0.845126	10.8525	1.16834	15.2245	1.63993	21.4145	1.9612	25.2292
2.00714	2.51025	0.518017	6.42298	2.00935	2.5101	0.815511	10.4192	1.25005	15.8339	1.55661	19.7255	2.01013	25.4311	0.482882	7.09898	0.844614	10.573	1.17315	14.841	1.6375	20.7574	1.96577	24.559
2.00165	2.51063	0.524108	6.31775	2.00385	2.51047	0.819074	10.2404	1.24818	15.3612	1.56147	19.225	2.00796	24.6831	0.489462	6.95963	0.844329	10.3474	1.17792	14.4786	1.63519	20.1391	1.9703	23.9259
1.99618	2.51103	0.530058	6.21657	1.99837	2.51087	0.821995	10.098	1.24648	14.9166	1.56628	18.7515	2.00586	23.9772	0.495989	6.8284	0.844203	10.1692	1.18263	14.1356	1.633	19.5563	1.97479	23.3268
1.99073	2.51146	0.535851	6.11892	1.99291	2.51129	0.824288	9.98865	1.24494	14.498	1.57103	18.3027	2.00385	23.3102	0.502446	6.70433	0.844176	10.0334	1.18728	13.8103	1.63092	19.0062	1.97923	22.759
1.98529	2.51191	0.541472	6.02438	1.98747	2.51173	0.825964	9.91	1.24359	14.1032	1.57572	17.8768	2.00191	22.679	0.508818	6.58657	0.844198	9.93635	1.19187	13.5014	1.62897	18.4864	1.98362	22.2199
1.97987	2.51239	0.546908	5.93255	1.98204	2.5122	0.827031	9.86041	1.24242	13.7306	1.58034	17.4719	2.00007	22.0809	0.515089	6.47436	0.84423	9.87543	1.19639	13.2074	1.62714	17.9945	1.98795	21.7073
1.97447	2.5129	0.552144	5.8431	1.97663	2.51269	0.828559	9.79013	1.24144	13.3787	1.5849	17.0863	1.99833	21.5136	0.521241	6.36703	0.844304	9.78947	1.20084	12.9272	1.62546	17.5286	1.99221	21.2193
1.96909	2.51343	0.557169	5.75574	1.97124	2.51321	0.830211	9.71505	1.24065	13.0458	1.58938	16.7188	1.99668	20.9749	0.52726	6.264	0.844419	9.69814	1.20521	12.6597	1.62391	17.0867	1.99641	20.7539
1.96372	2.51398	0.561973	5.67021	1.96587	2.51376	0.83244	9.61504	1.24007	12.7308	1.59378	16.3678	1.99514	20.4627	0.533129	6.16474	0.844636	9.57736	1.20949	12.4041	1.62251	16.6673	2.00054	20.3097
1.95838	2.51457	0.566548	5.58631	1.96052	2.51433	0.835231	9.49188	1.23969	12.4324	1.5981	16.0323	1.99372	19.9754	0.538833	6.06877	0.845012	9.43007	1.21369	12.1594	1.62126	16.2688	2.0046	19.885
1.95305	2.51518	0.570886	5.50386	1.95518	2.51493	0.838561	9.34764	1.23952	12.1496	1.60234	15.7111	1.99241	19.5112	0.544359	5.97571	0.845623	9.25976	1.21779	11.9248	1.62016	15.8899	2.00857	19.4786
1.94774	2.51582	0.574983	5.42273	1.94987	2.51556	0.8424	9.18457	1.23957	11.8813	1.60648	15.4033	1.99123	19.0688	0.549691	5.88517	0.846562	9.07033	1.22179	11.6996	1.61922	15.5293	2.01245	19.0891
1.94245	2.51649	0.578837	5.34281	1.94457	2.51622	0.846709	9.00501	1.23984	11.6267	1.61054	15.1079	1.99017	18.6466	0.554817	5.79685	0.847944	8.86595	1.22569	11.4833	1.61844	15.1858	2.01625	18.7155
1.93718	2.51718	0.582448	5.26403	1.93929	2.5169	0.850908	8.83291	1.24032	11.3849	1.6145	14.8242	1.98925	18.2436	0.559727	5.71048	0.84966	8.67461	1.22949	11.2751	1.61783	14.8583	2.01996	18.3567
1.93193	2.51791	0.585818	5.18634	1.93403	2.51761	0.854989	8.66767	1.24104	11.1552	1.61836	14.5513	1.98846	17.8584	0.564411	5.62584	0.851718	8.4955	1.23317	11.0746	1.61739	14.546	2.02356	18.0118
1.9267	2.51866	0.588953	5.10971	1.92879	2.51836	0.858946	8.50874	1.24198	10.9368	1.62211	14.2886	1.98781	17.4902	0.568862	5.54272	0.854124	8.32782	1.23675	10.8812	1.61712	14.248	2.02706	17.6799
1.92148	2.51944	0.591858	5.03414	1.92357	2.51913	0.86277	8.35564	1.24298	10.7552	1.62576	14.0355	1.98731	17.1378	0.573073	5.46098	0.85688	8.17088	1.23977	10.7182	1.61703	13.9633	2.03046	17.3601
1.91628	2.52026	0.594542	4.95963	1.91837	2.51993	0.866457	8.20793	1.24397	10.6065	1.6293	13.7914	1.98696	16.8005	0.577043	5.3805	0.859989	8.02398	1.24227	10.583	1.61712	13.6913	2.03375	17.0518
1.91111	2.5211	0.597015	4.88621	1.91318	2.52076	0.870001	8.06521	1.24489	10.4876	1.63273	13.5556	1.98676	16.4774	0.580769	5.30119	0.86345	7.88648	1.2443	10.4738	1.61739	13.4311	2.03692	16.7543
1.90595	2.52197	0.599289	4.81391	1.90802	2.52162	0.873396	7.92712	1.24567	10.396	1.63605	13.3279	1.98672	16.1676	0.584253	5.22298	0.867259	7.75777	1.24587	10.389	1.61784	13.1823	2.03998	16.467
1.90081	2.52287	0.601375	4.74276	1.90287	2.52251	0.876638	7.79333	1.24628	10.3301	1.63926	13.1076	1.98684	15.8705	0.587498	5.14585	0.871411	7.63728	1.247	10.3275	1.61847	12.9441	2.04292	16.1892
1.89569	2.5238	0.603287	4.67281	1.89774	2.52342	0.879724	7.66357	1.24669	10.2885	1.64235	12.8944	1.98711	15.5855	0.590511	5.06978	0.875897	7.52444	1.24772	10.2885	1.61929	12.716	2.04575	15.9204
1.89058	2.52476	0.605039	4.60409	1.89263	2.52437	0.882651	7.53755	1.24729	10.2295	1.64532	12.6879	1.98755	15.3118	0.593298	4.99477	0.880709	7.41872	1.24874	10.2329	1.62028	12.4973	2.04845	15.6603
1.8855	2.52575	0.606644	4.53665	1.88753	2.52535	0.885416	7.41506	1.24798	10.1664	1.64818	12.4877	1.98815	15.0489	0.59587	4.92083	0.885834	7.31962	1.24984	10.1732	1.62146	12.2878	2.05103	15.4082
1.88043	2.52677	0.608116	4.47052	1.88246	2.52636	0.88802	7.29588	1.24895	10.0823	1.65092	12.2936	1.98891	14.7963	0.598236	4.84799	0.891259	7.22667	1.2513	10.0931	1.62283	12.0867	2.05349	15.1638
1.87537	2.52782	0.609469	4.40573	1.8774	2.5274	0.89046	7.17982	1.25027	9.97867	1.65355	12.1052	1.98984	14.5533	0.60041	4.77629	0.896971	7.13941	1.25312	9.99346	1.62436	11.8938	2.05582	14.9267
1.87034	2.5289	0.610716	4.34232	1.87236	2.52846	0.892738	7.06672	1.25196	9.85735	1.65607	11.9223	1.99093	14.3197	0.602403	4.70577	0.902952	7.0574	1.25525	9.8755	1.62608	11.7085	2.05804	14.6966
1.86532	2.53	0.611871	4.2803	1.86733	2.52956	0.894856	6.95642	1.2541	9.72033	1.65848	11.7445	1.99218	14.0947	0.604229	4.63646	0.909188	6.98025	1.25768	9.74047	1.62796	11.5305	2.06014	14.4731
1.86032	2.53114	0.612945	4.21971	1.86232	2.53068	0.896814	6.8488	1.25676	9.56978	1.66079	11.5718	1.99359	13.8782	0.605901	4.56841	0.91566	6.90757	1.26035	9.58979	1.63002	11.3594	2.06212	14.2559
1.85533	2.5323	0.613951	4.16054	1.85733	2.53183	0.898617	6.74373	1.25962	9.42598	1.66299	11.4038	1.99516	13.6695	0.607435	4.50166	0.922351	6.83901	1.26291	9.44346	1.63223	11.1949	2.06399	14.0448
1.85035	2.53349	0.614899	4.10282	1.85235	2.53301	0.900267	6.64112	1.26269	9.28854	1.6651	11.2404	1.99688	13.4684	0.608842	4.43623	0.929245	6.77422	1.26536	9.3013	1.63429	11.0565	2.06574	13.8395
1.84539	2.53471	0.615801	4.04653	1.84738	2.53422	0.90177	6.54087	1.26595	9.15709	1.66686	11.1016	1.99875	13.2744	0.610138	4.37216	0.936322	6.7129	1.2677	9.16312	1.63614	10.9421	2.0674	13.6397
1.84044	2.53595	0.616556	3.99866	1.84243	2.53545	0.903129	6.4429	1.2694	9.03129	1.66831	10.9858	2.00077	13.0873	0.611335	4.30949	0.943567	6.65475	1.26995	9.02877	1.63773	10.8499	2.06895	13.4452
1.83551	2.53721	0.617183	3.95872	1.83748	2.5367	0.90435	6.34713	1.27302	8.9108	1.66948	10.8918	2.00294	12.9067	0.612446	4.24822	0.95096	6.5995	1.2721	8.8981	1.63903	10.7785	2.0704	13.2559
1.83058	2.5385	0.617692	3.92629	1.83255	2.53798	0.905439	6.2535	1.27682	8.7953	1.67038	10.8186	2.00524	12.7322	0.613482	4.18837	0.958486	6.54689	1.27417	8.77099	1.64	10.7268	2.07177	13.0716
1.82566	2.5398	0.61809	3.90103	1.82763	2.53928	0.906402	6.16195	1.28077	8.6845	1.67103	10.7654	2.00767	12.5636	0.614457	4.12996	0.966125	6.49668	1.27615	8.64733	1.64064	10.694	2.07305	12.892
1.82075	2.54113	0.61838	3.88267	1.82272	2.54059	0.907245	6.07243	1.28487	8.57812	1.67144	10.7316	2.01023	12.4005	0.615379	4.073	0.973862	6.44865	1.27807	8.52702	1.64156	10.6474	2.07425	12.717
1.81584	2.54247	0.618565	3.87101	1.81781	2.54193	0.907975	5.98489	1.28912	8.47589	1.67202	10.6833	2.01291	12.2428	0.616261	4.01748	0.981678	6.40258	1.27994	8.40997	1.64258	10.5974	2.07539	12.5465
1.81094	2.54382	0.618831	3.85439	1.8129	2.54327	0.908599	5.89928	1.29349	8.37754	1.67265	10.6313	2.0157	12.0901	0.61711	3.96339	0.989557	6.35828	1.28175	8.29611	1.64399	10.5303	2.07646	12.3803
1.80603	2.54518	0.619119	3.83649	1.808	2.54463	0.909124	5.81556	1.29798	8.28285	1.67349	10.5615	2.0186	11.9422	0.617937	3.91075	0.997481	6.31556	1.28353	8.18537	1.64582	10.4472	2.07748	12.2182
1.80112	2.54654	0.619509	3.81243	1.80309	2.54599	0.909556	5.73369	1.30258	8.19158	1.67454	10.4743	2.0216	11.7989	0.618749	3.85953	1.00543	6.27425	1.28528	8.0777	1.6481	10.3491	2.07845	12.0603
1.79621	2.5479	0.620004	3.78248	1.79818	2.54736	0.909903	5.65364	1.30728	8.10352	1.67577	10.3709	2.0247	11.6599	0.619554	3.80972	1.01339	6.23416	1.28703	7.97305	1.65085	10.2371	2.07939	11.9063
1.79128	2.54926	0.620604	3.74696	1.79326	2.54871	0.91017	5.57537	1.31206	8.01846	1.67718	10.252	2.02788	11.5251	0.620359	3.7613	1.02135	6.19515	1.28878	7.87139	1.65411	10.1126	2.08029	11.7562
1.78634	2.55059	0.621313	3.70625	1.78832	2.55006	0.910366	5.49885	1.31691	7.93621	1.67876	10.119	2.03071	11.4108	0.621172	3.71427	1.02927	6.15706	1.29056	7.7727	1.65748	9.99227	2.08118	11.6098
1.78137	2.55191	0.622142	3.6608	1.78336	2.55138	0.910496	5.42404	1.32182	7.85658	1.68031	9.98939	2.03317	11.3157	0.621997	3.66859	1.03715	6.11973	1.29237	7.67695	1.66094	9.87577	2.08194	11.4852
1.77637	2.55319	0.622989	3.61669	1.77838	2.55268	0.910567	5.35091	1.32679	7.7794	1.68184	9.86318	2.03524	11.2385	0.622841	3.62424	1.04497	6.08302	1.29424	7.58412	1.66449	9.76294	2.08258	11.3811
1.77133	2.55442	0.623861	3.57387	1.77336	2.55393	0.910585	5.27943	1.33179	7.7045	1.68336	9.74027	2.03688	11.1784	0.623708	3.5812	1.0527	6.04678	1.2962	7.49423	1.66812	9.65357	2.08311	11.2965
1.76625	2.5556	0.624762	3.53234	1.7683	2.55513	0.910556	5.20957	1.33682	7.63173	1.68487	9.62058	2.0381	11.1348	0.624604	3.53945	1.06032	6.01089	1.29825	7.40726	1.67182	9.54749	2.08354	11.2306
1.76112	2.5567	0.625697	3.49207	1.76318	2.55627	0.910487	5.1413	1.34187	7.56093	1.6864	9.50406	2.03889	11.107	0.625532	3.49896	1.06781	5.97519	1.30041	7.32322	1.67558	9.44451	2.08385	11.1826
1.75592	2.55773	0.626668	3.45303	1.75801	2.55733	0.910381	5.07459	1.34692	7.49197	1.68794	9.39063	2.04002	11.0675	0.626497	3.45971	1.07515	5.93957	1.30273	7.24213	1.6794	9.34447	2.08405	11.1521
1.75065	2.55865	0.62768	3.41518	1.75278	2.55829	0.910246	5.0094	1.35195	7.42471	1.68951	9.28025	2.04126	11.0249	0.627502	3.42166	1.08231	5.90389	1.3052	7.16401	1.68325	9.24721	2.08434	11.1086
1.74531	2.55948	0.628737	3.37851	1.74746	2.55916	0.910085	4.94572	1.35697	7.35902	1.69112	9.17286	2.04296	10.9677	0.62855	3.38479	1.08928	5.86803	1.30787	7.08885	1.68714	9.15257	2.08466	11.0617
1.73989	2.56019	0.62984	3.34299	1.74208	2.55992	0.909905	4.8835	1.36196	7.29479	1.69279	9.0684	2.04511	10.8964	0.629645	3.34907	1.09602	5.83189	1.31074	7.01669	1.69106	9.06042	2.08509	10.9986
1.73439	2.5608	0.630992	3.30859	1.73661	2.56057	0.909709	4.82272	1.36691	7.23189	1.69452	8.96683	2.04774	10.8117	0.630789	3.31448	1.10253	5.79535	1.31386	6.94754	1.695	8.97062	2.08565	10.9199
1.72882	2.56129	0.632197	3.27528	1.73106	2.5611	0.909502	4.76336	1.3718	7.17023	1.69632	8.8681	2.05086	10.7143	0.631984	3.28098	1.10877	5.75832	1.31723	6.88139	1.69895	8.88303	2.08635	10.8264
1.72316	2.56167	0.633455	3.24303	1.72544	2.56153	0.909288	4.70538	1.37662	7.1097	1.69821	8.77216	2.05446	10.6053	0.633233	3.24855	1.11473	5.72071	1.32087	6.81827	1.7029	8.79755	2.08719	10.7189
1.71744	2.56196	0.634769	3.21182	1.71975	2.56185	0.909072	4.64875	1.38137	7.0502	1.7002	8.67898	2.05808	10.4989	0.634537	3.21715	1.12039	5.68248	1.32482	6.75815	1.70684	8.71404	2.08819	10.5985
1.71166	2.56215	0.636141	3.18161	1.71399	2.56208	0.908856	4.59345	1.38603	6.99165	1.70229	8.58851	2.06171	10.3951	0.635899	3.18678	1.12574	5.64356	1.32908	6.70101	1.71077	8.63241	2.08925	10.4811
1.70582	2.56226	0.637572	3.15239	1.70817	2.56222	0.908646	4.53945	1.39059	6.93395	1.70451	8.5007	2.06536	10.2938	0.637319	3.15739	1.13076	5.60392	1.33367	6.64682	1.71468	8.55254	2.09036	10.3667
1.69993	2.56229	0.639063	3.12412	1.7023	2.56229	0.908443	4.48671	1.39504	6.87704	1.70684	8.41552	2.06901	10.1947	0.6388	3.12895	1.13546	5.56356	1.3386	6.59552	1.71855	8.47435	2.09154	10.2552
1.694	2.56227	0.640616	3.09678	1.69639	2.56228	0.908252	4.43523	1.39938	6.82084	1.70932	8.33291	2.07266	10.0979	0.640342	3.10146	1.13982	5.5225	1.34386	6.54704	1.72239	8.39774	2.0928	10.1465
1.68804	2.56218	0.642232	3.07034	1.69043	2.56222	0.908076	4.38496	1.40359	6.76528	1.71193	8.25284	2.0763	10.0032	0.641947	3.07486	1.14385	5.48074	1.34948	6.5013	1.72619	8.32262	2.09413	10.0407
1.68203	2.56205	0.643911	3.04479	1.68445	2.5621	0.907916	4.33588	1.40767	6.71031	1.7147	8.17525	2.07992	9.91043	0.643615	3.04915	1.14755	5.43836	1.35543	6.4582	1.72994	8.24892	2.09556	9.93757
1.67601	2.56187	0.645655	3.02008	1.67843	2.56194	0.907777	4.28796	1.41161	6.65587	1.71763	8.10011	2.08352	9.81961	0.645348	3.0243	1.15093	5.39539	1.36172	6.41761	1.73363	8.17655	2.09707	9.83713
1.66995	2.56165	0.647463	2.9962	1.67238	2.56174	0.907661	4.24119	1.4154	6.60191	1.72073	8.02736	2.08709	9.73063	0.647145	3.00028	1.15401	5.35193	1.36834	6.37941	1.73725	8.10545	2.09869	9.7393
1.66388	2.5614	0.649337	2.97313	1.66632	2.5615	0.907569	4.19552	1.41903	6.54839	1.72399	7.95694	2.09063	9.64339	0.649007	2.97707	1.15679	5.30804	1.37526	6.34347	1.74081	8.03555	2.10041	9.64403
1.65779	2.56112	0.651277	2.95083	1.66023	2.56123	0.907505	4.15095	1.42251	6.49528	1.72743	7.88881	2.09413	9.55782	0.650936	2.95464	1.1593	5.26382	1.38249	6.30965	1.7443	7.96679	2.10225	9.55125
1.65168	2.56081	0.653283	2.9293	1.65413	2.56093	0.907471	4.10745	1.42583	6.44254	1.73105	7.82291	2.09759	9.47384	0.652931	2.93298	1.16155	5.21935	1.39	6.2778	1.74771	7.89912	2.1042	9.46092
1.64556	2.56048	0.655356	2.9085	1.64801	2.56061	0.907469	4.06498	1.42898	6.39015	1.73485	7.75917	2.101	9.39139	0.654992	2.91205	1.16356	5.17472	1.39777	6.24779	1.75104	7.83248	2.10626	9.37298
1.63942	2.56012	0.657495	2.88842	1.64188	2.56027	0.9075	4.02353	1.43196	6.33809	1.73884	7.69755	2.10437	9.3104	0.657119	2.89185	1.16534	5.13001	1.40578	6.21947	1.75428	7.76682	2.10845	9.28736
1.63328	2.55975	0.659701	2.86903	1.63574	2.5599	0.907566	3.98308	1.43478	6.28635	1.743	7.63797	2.10768	9.23081	0.659314	2.87234	1.16692	5.08532	1.41402	6.19271	1.75744	7.70211	2.11077	9.20401
1.62712	2.55936	0.661973	2.85031	1.62959	2.55952	0.90767	3.9436	1.43742	6.23492	1.74735	7.58036	2.11093	9.15256	0.661575	2.8535	1.16832	5.0407	1.42247	6.16739	1.7605	7.63831	2.11321	9.12288
1.62096	2.55896	0.664313	2.83224	1.62343	2.55912	0.907812	3.90507	1.4399	6.18379	1.75187	7.52467	2.11412	9.07561	0.663902	2.83533	1.16954	4.99625	1.43111	6.14338	1.76348	7.57539	2.11578	9.0439
1.61479	2.55853	0.666718	2.8148	1.61727	2.55871	0.907995	3.86747	1.44222	6.13296	1.75657	7.47081	2.11725	8.99991	0.666296	2.81778	1.17061	4.95201	1.43992	6.12056	1.76637	7.51331	2.11849	8.96701
1.60861	2.5581	0.66919	2.79799	1.61109	2.55828	0.90822	3.83078	1.44437	6.08243	1.76144	7.41872	2.12032	8.92541	0.668757	2.80086	1.17155	4.90804	1.44888	6.09883	1.76916	7.45206	2.12132	8.89216
1.60243	2.55765	0.671729	2.78176	1.60491	2.55783	0.908487	3.79497	1.44637	6.03221	1.76648	7.36833	2.12332	8.85207	0.671284	2.78453	1.17235	4.86441	1.45798	6.0781	1.77187	7.39161	2.12429	8.81929
1.59624	2.55719	0.674333	2.76611	1.59873	2.55738	0.908799	3.76003	1.4482	5.98232	1.77168	7.31956	2.12626	8.77986	0.673877	2.76879	1.17305	4.82115	1.46719	6.05825	1.77448	7.33195	2.12738	8.74834
1.59005	2.55672	0.677003	2.75103	1.59253	2.55691	0.909156	3.72594	1.44989	5.93274	1.77703	7.27235	2.12913	8.70874	0.676535	2.7536	1.17365	4.7783	1.47652	6.03921	1.77701	7.27307	2.13061	8.67925
1.58385	2.55624	0.679738	2.73649	1.58634	2.55644	0.909561	3.69268	1.45144	5.88351	1.78253	7.22661	2.13194	8.63869	0.679259	2.73897	1.17416	4.73589	1.48593	6.02089	1.77946	7.21496	2.13396	8.61196
1.57765	2.55575	0.682539	2.72247	1.58014	2.55595	0.910012	3.66023	1.45284	5.83463	1.78816	7.18228	2.13468	8.56968	0.682049	2.72486	1.1746	4.69397	1.49542	6.00322	1.78184	7.15762	2.13744	8.5464
1.57145	2.55525	0.685405	2.70897	1.57394	2.55545	0.910513	3.62856	1.45411	5.78611	1.79393	7.13928	2.13736	8.50169	0.684904	2.71128	1.17497	4.65254	1.50497	5.98612	1.78414	7.10105	2.14103	8.48253
1.56524	2.55474	0.688336	2.69597	1.56773	2.55495	0.911063	3.59767	1.45525	5.73797	1.79982	7.09754	2.13998	8.43469	0.687823	2.69819	1.17528	4.61164	1.51457	5.96951	1.78638	7.04526	2.14475	8.42027
1.55903	2.55423	0.691332	2.68345	1.56152	2.55443	0.911664	3.56754	1.45627	5.69023	1.80582	7.05699	2.14255	8.36868	0.690808	2.68559	1.17554	4.57128	1.52421	5.95334	1.78856	6.99026	2.14858	8.35957
1.55282	2.5537	0.694393	2.67141	1.55531	2.55391	0.912316	3.53814	1.45718	5.64289	1.81192	7.01756	2.14505	8.30364	0.693858	2.67346	1.17576	4.53146	1.53386	5.93753	1.7907	6.93605	2.15251	8.30037
1.5466	2.55317	0.69752	2.65983	1.54909	2.55338	0.91302	3.50947	1.45798	5.59598	1.81812	6.97918	2.14751	8.23956	0.696973	2.6618	1.17594	4.49222	1.54352	5.92201	1.79279	6.88267	2.15655	8.24261
1.54038	2.55263	0.700712	2.6487	1.54288	2.55284	0.913777	3.4815	1.45867	5.54949	1.82439	6.94179	2.14992	8.17643	0.700154	2.65059	1.17609	4.45355	1.55316	5.90673	1.79487	6.83012	2.16069	8.18623
1.53416	2.55208	0.703972	2.63801	1.53666	2.5523	0.914587	3.45422	1.45927	5.50346	1.83074	6.90532	2.1523	8.11425	0.703402	2.63983	1.17622	4.41545	1.56278	5.89162	1.79693	6.77845	2.16492	8.13118
1.52794	2.55152	0.707301	2.62776	1.53044	2.55175	0.915451	3.42762	1.45978	5.45788	1.83715	6.86971	2.15464	8.05302	0.706719	2.62951	1.17633	4.37794	1.57236	5.8766	1.799	6.72769	2.16924	8.07739
1.52172	2.55096	0.710703	2.61796	1.52422	2.55119	0.916371	3.40167	1.4602	5.41276	1.84361	6.83488	2.15695	7.99274	0.710108	2.61963	1.17643	4.34102	1.58187	5.86162	1.80108	6.67786	2.17363	8.02481
1.5155	2.55039	0.714182	2.6086	1.51799	2.55062	0.917345	3.37637	1.46055	5.36813	1.85011	6.80079	2.15924	7.9334	0.713573	2.61019	1.17651	4.30469	1.59131	5.84659	1.80321	6.62903	2.1781	7.97337
1.50927	2.54982	0.717746	2.59971	1.51177	2.55005	0.918375	3.35169	1.46082	5.32398	1.85663	6.76737	2.16152	7.87502	0.717121	2.60122	1.17659	4.26894	1.60064	5.83144	1.80539	6.58124	2.18263	7.92304
1.50304	2.54924	0.72141	2.59132	1.50554	2.54947	0.919462	3.32764	1.46102	5.28033	1.86317	6.73456	2.1638	7.8176	0.720766	2.59274	1.17667	4.23378	1.60985	5.81608	1.80766	6.53455	2.18722	7.87375
1.49682	2.54865	0.725197	2.58351	1.49932	2.54889	0.920605	3.30418	1.46117	5.23718	1.86971	6.70231	2.16608	7.76114	0.72453	2.58482	1.17675	4.1992	1.6189	5.80044	1.81004	6.48902	2.19186	7.82545
1.49059	2.54806	0.72915	2.57642	1.49309	2.5483	0.921805	3.28132	1.46126	5.19453	1.87624	6.67054	2.16838	7.70567	0.72845	2.57759	1.17684	4.16521	1.62778	5.78442	1.81255	6.44473	2.19654	7.77809
1.48436	2.54746	0.73334	2.57027	1.48686	2.5477	0.923063	3.25903	1.46129	5.1524	1.88275	6.63922	2.17071	7.6512	0.732592	2.57125	1.17693	4.13179	1.63644	5.76793	1.81524	6.40175	2.20126	7.73161
1.47813	2.54686	0.737872	2.56541	1.48063	2.5471	0.92438	3.2373	1.46128	5.11078	1.88922	6.60829	2.17307	7.59773	0.737057	2.56614	1.17703	4.09894	1.64487	5.75085	1.81813	6.36018		
1.47191	2.54625	0.742836	2.56211	1.4744	2.54649	0.925754	3.21613	1.46123	5.06967	1.89565	6.57768	2.17548	7.54528	0.741943	2.56257	1.17714	4.06667	1.65302	5.73309	1.82125	6.32009		
1.46568	2.54563	0.748224	2.56032	1.46818	2.54588	0.927187	3.19549	1.46113	5.02909	1.90202	6.54735	2.17795	7.49387	0.747263	2.56054	1.17727	4.03495	1.66085	5.71454	1.82465	6.28159		
1.45945	2.54502	0.753929	2.55963	1.46195	2.54526	0.92868	3.17538	1.46101	4.98903	1.90831	6.51725	2.18049	7.44352	0.752922	2.55969	1.17742	4.00379	1.66835	5.69511	1.82836	6.24476		
1.45322	2.54439	0.759832	2.55962	1.45572	2.54464	0.930232	3.15579	1.46085	4.9495	1.91452	6.48732	2.18311	7.39424	0.758798	2.55959	1.17759	3.97319	1.67546	5.67468	1.83242	6.20969		
1.44699	2.54376	0.765855	2.56001	1.44949	2.54402	0.931844	3.13671	1.46066	4.91048	1.92062	6.45752	2.18584	7.34605	0.764804	2.55992	1.17778	3.94312	1.68216	5.65319	1.83686	6.17643		
1.44077	2.54313	0.771948	2.56063	1.44326	2.54339	0.933517	3.11812	1.46045	4.87199	1.92661	6.4278	2.18867	7.29897	0.770888	2.56051	1.17799	3.91359	1.68842	5.63057	1.84171	6.14506		
1.43454	2.5425	0.778086	2.56138	1.43704	2.54275	0.93525	3.10001	1.46023	4.83401	1.93248	6.39811	2.19162	7.25301	0.77702	2.56125	1.17822	3.88459	1.69422	5.60678	1.84698	6.11559		
1.42831	2.54186	0.784253	2.56222	1.43081	2.54211	0.937044	3.08239	1.45998	4.79656	1.9382	6.36841	2.19471	7.2082	0.783182	2.56207	1.17848	3.85612	1.69955	5.5818	1.85271	6.08803		
1.42209	2.54121	0.790438	2.56311	1.42458	2.54147	0.938899	3.06522	1.45972	4.75962	1.94377	6.33865	2.19795	7.16454	0.789365	2.56295	1.17877	3.82815	1.70441	5.55566	1.85888	6.06235		
1.41586	2.54056	0.796636	2.56402	1.41836	2.54082	0.940817	3.04852	1.45945	4.7232	1.94918	6.30881	2.20135	7.12205	0.795561	2.56386	1.17908	3.8007	1.7088	5.5284	1.8655	6.0385		
1.40964	2.53991	0.802843	2.56495	1.41214	2.54018	0.942797	3.03226	1.45917	4.68729	1.9544	6.27884			0.801767	2.56479	1.17943	3.77375	1.71274	5.50009	1.87256	6.0164		
1.40342	2.53926	0.809056	2.56589	1.40591	2.53952	0.944839	3.01645	1.45888	4.65189	1.95945	6.24872			0.807979	2.56572	1.17981	3.74729	1.71625	5.47081	1.88003	5.99595		
1.3972	2.53861	0.815274	2.56682	1.39969	2.53887	0.946946	3.00107	1.45859	4.61699	1.96429	6.21841			0.814195	2.56666	1.18022	3.72131	1.71935	5.44068	1.88789	5.97703		
1.39098	2.53795	0.821493	2.56775	1.39347	2.53821	0.949116	2.98611	1.4583	4.58259	1.96893	6.18789			0.820415	2.56759	1.18066	3.69582	1.72208	5.4098	1.89611	5.95953		
1.38476	2.53729	0.827715	2.56867	1.38726	2.53755	0.95135	2.97157	1.458	4.54869	1.97336	6.15716			0.826636	2.56851	1.18113	3.67079	1.72446	5.37829	1.90466	5.94331		
1.37855	2.53663	0.833937	2.56958	1.38104	2.53689	0.95365	2.95743	1.45771	4.51528	1.97757	6.12619			0.832858	2.56942	1.18164	3.64623	1.72652	5.34626	1.91352	5.92826		
1.37234	2.53596	0.84016	2.57048	1.37483	2.53623	0.956016	2.94371	1.45743	4.48236	1.98155	6.09497			0.839081	2.57032	1.18219	3.62212	1.72831	5.31382	1.92265	5.91426		
1.36613	2.5353	0.846383	2.57136	1.36862	2.53557	0.958449	2.93038	1.45715	4.44992	1.98532	6.06351			0.845304	2.57121	1.18277	3.59846	1.72984	5.28106	1.93202	5.9012		
1.35992	2.53464	0.852605	2.57224	1.36241	2.5349	0.96095	2.91744	1.45687	4.41795	1.98886	6.03181			0.851526	2.57209	1.18339	3.57525	1.73114	5.24807	1.9416	5.88897		
1.35372	2.53397	0.858826	2.57309	1.35621	2.53424	0.96352	2.9049	1.45661	4.38646	1.99217	5.99988			0.857747	2.57295	1.18404	3.55246	1.73224	5.21493	1.95138	5.87749		
1.34752	2.53331	0.865046	2.57394	1.35001	2.53358	0.96616	2.89273	1.45636	4.35544	1.99526	5.96772			0.863968	2.57379	1.18474	3.53011	1.73316	5.18171	1.96132	5.86667		
1.34133	2.53265	0.871265	2.57476	1.34381	2.53292	0.968871	2.88095	1.45612	4.32487	1.99814	5.93535			0.870187	2.57462	1.18547	3.50817	1.73393	5.14848	1.97142	5.85644		
1.33514	2.53199	0.877483	2.57558	1.33762	2.53226	0.971655	2.86954	1.45589	4.29477	2.0008	5.9028			0.876405	2.57544	1.18624	3.48664	1.73455	5.11528	1.98164	5.84673		
1.32895	2.53134	0.883699	2.57637	1.33143	2.5316	0.974513	2.8585	1.45568	4.26511	2.00325	5.87007			0.882621	2.57623	1.18705	3.46552	1.73505	5.08217	1.99197	5.83748		
1.32277	2.53069	0.889914	2.57715	1.32525	2.53095	0.977448	2.84783	1.45548	4.2359	2.0055	5.83721			0.888836	2.57702	1.1879	3.4448	1.73544	5.04918	2.0024	5.82863		
1.31659	2.53004	0.896126	2.57792	1.31907	2.5303	0.98046	2.83753	1.4553	4.20713	2.00756	5.80422			0.895049	2.57779	1.1888	3.42448	1.73573	5.01636	2.01292	5.82015		
1.31042	2.5294	0.902337	2.57867	1.3129	2.52966	0.983552	2.8276	1.45514	4.17879	2.00943	5.77114			0.901261	2.57854	1.18973	3.40453	1.73593	4.98372	2.0235	5.81197		
1.30426	2.52877	0.908547	2.57941	1.30673	2.52902	0.986727	2.81803	1.455	4.15089	2.01113	5.73798			0.90747	2.57928	1.1907	3.38497	1.73606	4.95129	2.03414	5.80407		
1.2981	2.52814	0.914754	2.58013	1.30057	2.52839	0.989986	2.80883	1.45488	4.1234	2.01266	5.70479			0.913678	2.58	1.19172	3.36578	1.73613	4.9191	2.04483	5.7964		
1.29195	2.52752	0.920959	2.58083	1.29442	2.52777	0.993332	2.8	1.45479	4.09634	2.01403	5.67158			0.919883	2.58071	1.19277	3.34695	1.73613	4.88716	2.05555	5.78892		
1.28582	2.52692	0.927162	2.58152	1.28828	2.52716	0.996768	2.79152	1.45471	4.06968	2.01525	5.63839			0.926086	2.5814	1.19387	3.32848	1.73609	4.85549	2.06629	5.78161		
1.27968	2.52633	0.933362	2.5822	1.28214	2.52656	1.0003	2.78342	1.45466	4.04343	2.01633	5.60522			0.932288	2.58208	1.19501	3.31037	1.736	4.82411	2.07705	5.77443		
1.27356	2.52575	0.939561	2.58286	1.27602	2.52598	1.00392	2.77568	1.45463	4.01759	2.01728	5.57212			0.938486	2.58274	1.1962	3.2926	1.73587	4.79301	2.08781	5.76734		
1.26746	2.52519	0.945757	2.5835	1.2699	2.52541	1.00764	2.76831	1.45463	3.99213	2.0181	5.53909			0.944683	2.58339	1.19742	3.27518	1.7357	4.76222	2.09856	5.76032		
1.26136	2.52465	0.951951	2.58414	1.2638	2.52486	1.01146	2.76131	1.45465	3.96707	2.01881	5.50616			0.950878	2.58403	1.19869	3.25809	1.73551	4.73174	2.10928	5.75332		
1.25528	2.52413	0.958143	2.58475	1.25771	2.52434	1.01539	2.75467	1.45469	3.94239	2.01941	5.47336			0.95707	2.58465	1.20001	3.24133	1.73529	4.70157	2.11997	5.74631		
1.24921	2.52364	0.964332	2.58536	1.25164	2.52383	1.01942	2.74839	1.45477	3.9181	2.01991	5.44069			0.963259	2.58525	1.20136	3.2249	1.73506	4.67173	2.13061	5.73926		
1.24315	2.52317	0.970519	2.58595	1.24558	2.52335	1.02355	2.74248	1.45487	3.89417	2.02032	5.40817			0.969446	2.58585	1.20276	3.20878	1.7348	4.6422	2.14118	5.73211		
1.23712	2.52273	0.976703	2.58652	1.23954	2.5229	1.02779	2.73692	1.455	3.87062	2.02064	5.37583			0.975631	2.58642	1.20421	3.19297	1.73454	4.613	2.15167	5.72482		
1.2311	2.52233	0.982885	2.58709	1.23351	2.52249	1.03214	2.73172	1.45516	3.84742	2.02088	5.34367			0.981813	2.58699	1.20569	3.17748	1.73426	4.58413	2.16205	5.71734		
1.2251	2.52197	0.989064	2.58763	1.22751	2.52211	1.0366	2.72685	1.45535	3.82459	2.02105	5.3117			0.987993	2.58754	1.20723	3.16228	1.73397	4.55559	2.1723	5.7096		
1.21913	2.52165	0.99524	2.58817	1.22153	2.52177	1.04115	2.72232	1.45557	3.80211	2.02115	5.27994			0.99417	2.58808	1.2088	3.14738	1.73368	4.52738	2.18239	5.70154		
1.21318	2.52138	1.00141	2.58869	1.21557	2.52149	1.04582	2.71811	1.45582	3.77998	2.02119	5.24841			1.00034	2.5886	1.21042	3.13278	1.73339	4.4995	2.19229	5.69308		
1.20726	2.52117	1.00758	2.5892	1.20964	2.52125	1.05058	2.71421	1.4561	3.75819	2.02117	5.21709			1.00652	2.58911	1.21208	3.11846	1.73309	4.47195	2.20195	5.68413		
1.20137	2.52102	1.01375	2.58969	1.20373	2.52107	1.05543	2.71059	1.45641	3.73673	2.02109	5.18602			1.01268	2.58961	1.21379	3.10442	1.7328	4.44473				
1.19552	2.52093	1.01992	2.59017	1.19786	2.52096	1.06038	2.70725	1.45675	3.71561	2.02097	5.15518			1.01885	2.59009	1.21554	3.09066	1.73251	4.41784				
1.18969	2.52092	1.02608	2.59064	1.19202	2.52091	1.06541	2.70417	1.45712	3.69482	2.02081	5.1246			1.02501	2.59056	1.21734	3.07717	1.73222	4.39127				
1.18391	2.52098	1.03224	2.5911	1.18622	2.52095	1.07052	2.70133	1.45753	3.67435	2.0206	5.09427			1.03117	2.59102	1.21918	3.06395	1.73194	4.36503				
1.17816	2.52114	1.03839	2.59154	1.18046	2.52107	1.07571	2.69871	1.45797	3.6542	2.02036	5.0642			1.03733	2.59146	1.22106	3.051	1.73167	4.33911				
1.17246	2.52139	1.04455	2.59197	1.17475	2.52128	1.08097	2.69629	1.45844	3.63437	2.02009	5.0344			1.04348	2.59189	1.22299	3.0383	1.73141	4.31352				
1.16681	2.52175	1.0507	2.59238	1.16907	2.52159	1.08629	2.69406	1.45894	3.61484	2.01978	5.00486			1.04963	2.59231	1.22496	3.02585	1.73116	4.28824				
1.16121	2.52222	1.05684	2.59278	1.16345	2.52202	1.09168	2.69201	1.45948	3.59562	2.01945	4.97559			1.05578	2.59271	1.22698	3.01366	1.73092	4.26327				
1.15566	2.52281	1.06298	2.59317	1.15788	2.52256	1.09711	2.69011	1.46005	3.5767	2.0191	4.9466			1.06192	2.5931	1.22904	3.00171	1.73069	4.23863				
1.15016	2.52352	1.06912	2.59355	1.15236	2.52322	1.1026	2.68835	1.46066	3.55807	2.01872	4.91788			1.06806	2.59348	1.23115	2.99	1.73048	4.21429				
1.14472	2.52437	1.07525	2.59391	1.1469	2.52401	1.10813	2.68673	1.4613	3.53973	2.01833	4.88944			1.07419	2.59385	1.2333	2.97854	1.73028	4.19026				
1.13934	2.52536	1.08138	2.59425	1.1415	2.52494	1.11371	2.68522	1.46198	3.52169	2.01792	4.86127			1.08032	2.59419	1.23549	2.9673	1.73009	4.16654				
1.13402	2.52648	1.08751	2.59459	1.13615	2.52601	1.11932	2.68382	1.46269	3.50392	2.0175	4.83338			1.08645	2.59453	1.23773	2.9563	1.72993	4.14311				
1.12876	2.52776	1.09363	2.59491	1.13087	2.52723	1.12497	2.68252	1.46343	3.48644	2.01706	4.80578			1.09257	2.59485	1.24001	2.94552	1.72978	4.11999				
1.12356	2.52918	1.09975	2.59521	1.12564	2.52859	1.13064	2.6813	1.46421	3.46923	2.01662	4.77845			1.09869	2.59516	1.24234	2.93497	1.72965	4.09717				
1.11842	2.53075	1.10586	2.5955	1.12048	2.5301	1.13635	2.68017	1.46503	3.45228	2.01617	4.7514			1.1048	2.59545	1.24472	2.92463	1.72954	4.07463				
1.11334	2.53247	1.11197	2.59578	1.11537	2.53176	1.14208	2.67911	1.46588	3.43561	2.01571	4.72463			1.11091	2.59573	1.24714	2.91451	1.72945	4.05239				
1.10831	2.53433	1.11807	2.59604	1.11032	2.53357	1.14784	2.67811	1.46677	3.4192	2.01525	4.69814			1.11701	2.596	1.2496	2.9046	1.72938	4.03044				
1.10334	2.53634	1.12417	2.59629	1.10532	2.53552	1.15361	2.67718	1.46769	3.40305	2.01478	4.67192			1.12311	2.59624	1.25211	2.89491	1.72933	4.00877				
1.09841	2.53849	1.13026	2.59652	1.10038	2.53761	1.15941	2.6763	1.46865	3.38715	2.01432	4.64599			1.1292	2.59648	1.25466	2.88542	1.7293	3.98738				
1.09354	2.54078	1.13634	2.59673	1.09549	2.53984	1.16522	2.67547	1.46964	3.3715	2.01385	4.62032			1.13529	2.59669	1.25726	2.87613	1.7293	3.96626				
1.08871	2.54319	1.14242	2.59693	1.09064	2.54221	1.17106	2.67469	1.47068	3.3561	2.01339	4.59493			1.14137	2.59689	1.2599	2.86704	1.72932	3.94543				
1.08392	2.54573	1.14849	2.59711	1.08584	2.5447	1.1769	2.67395	1.47174	3.34095	2.01293	4.56982			1.14744	2.59708	1.26259	2.85816	1.72936	3.92486				
1.07917	2.54838	1.15456	2.59727	1.08107	2.5473	1.18276	2.67325	1.47285	3.32603	2.01247	4.54497			1.1535	2.59724	1.26532	2.84946	1.72943	3.90456				
1.07446	2.55115	1.16061	2.59741	1.07634	2.55003	1.18863	2.67258	1.47399	3.31135	2.01202	4.5204			1.15956	2.59739	1.2681	2.84096	1.72952	3.88453				
1.06977	2.55401	1.16666	2.59754	1.07165	2.55285	1.19451	2.67195	1.47516	3.29691	2.01157	4.49609			1.16561	2.59752	1.27093	2.83265	1.72963	3.86475				
1.06511	2.55697	1.1727	2.59764	1.06698	2.55577	1.20041	2.67134	1.47638	3.28269	2.01113	4.47204			1.17166	2.59762	1.2738	2.82453	1.72977	3.84524				
1.06047	2.56001	1.17873	2.59773	1.06233	2.55878	1.20631	2.67076	1.47763	3.2687	2.0107	4.44826			1.17769	2.59771	1.27672	2.81659	1.72993	3.82598				
1.05585	2.56313	1.18476	2.59779	1.0577	2.56187	1.21222	2.67021	1.47892	3.25493	2.01028	4.42475			1.18371	2.59778	1.27969	2.80884	1.73013	3.80698				
1.05124	2.56631	1.19077	2.59783	1.05308	2.56503	1.21814	2.66968	1.48024	3.24139	2.00987	4.40149			1.18973	2.59782	1.28271	2.80127	1.73034	3.78822				
1.04663	2.56954	1.19677	2.59784	1.04848	2.56824	1.22407	2.66917	1.4816	3.22806	2.00947	4.37849			1.19573	2.59784	1.28577	2.79388	1.73059	3.76972				
1.04203	2.57281	1.20276	2.59784	1.04387	2.5715	1.23	2.66868	1.483	3.21494	2.00908	4.35574			1.20172	2.59784	1.28888	2.78667	1.73086	3.75145				
1.03742	2.57611	1.20874	2.5978	1.03927	2.57479	1.23594	2.66821	1.48443	3.20203	2.00871	4.33325			1.2077	2.59781	1.29204	2.77963	1.73116	3.73343				
1.0328	2.57942	1.2147	2.59774	1.03465	2.57809	1.24189	2.66776	1.48591	3.18934	2.00835	4.31101			1.21367	2.59775	1.29525	2.77277	1.73148	3.71564				
1.02816	2.58273	1.22065	2.59764	1.03003	2.5814	1.24784	2.66732	1.48741	3.17684	2.008	4.28902			1.21962	2.59766	1.29851	2.76609	1.73184	3.69809				
1.02351	2.58602	1.22659	2.59752	1.02538	2.58471	1.25379	2.66689	1.48896	3.16455	2.00766	4.26728			1.22556	2.59754	1.30182	2.75958	1.73222	3.68077				
1.01883	2.58929	1.23251	2.59736	1.02071	2.58798	1.25975	2.66648	1.49054	3.15245	2.00734	4.24578			1.23148	2.59739	1.30519	2.75325	1.73263	3.66367				
1.01411	2.59251	1.23841	2.59717	1.01601	2.59122	1.26571	2.66608	1.49216	3.14055	2.00704	4.22452			1.23739	2.5972	1.3086	2.74709	1.73307	3.64681				
1.00936	2.59566	1.24429	2.59694	1.01127	2.5944	1.27168	2.6657	1.49382	3.12885	2.00675	4.2035			1.24327	2.59698	1.31208	2.7411	1.73353	3.63017				
1.00456	2.59874	1.25015	2.59667	1.00649	2.59752	1.27765	2.66532	1.49552	3.11733	2.00648	4.18272			1.24914	2.59672	1.3156	2.73528	1.73403	3.61374				
0.999712	2.60174	1.25599	2.59635	1.00166	2.60055	1.28362	2.66495	1.49725	3.106	2.00623	4.16217			1.25498	2.59641	1.31919	2.72964	1.73455	3.59754				
0.994816	2.60464	1.26181	2.59599	0.996786	2.60349	1.2896	2.66459	1.49902	3.09486	2.006	4.14186			1.2608	2.59606	1.32283	2.72418	1.73511	3.58155				
0.989864	2.60743	1.2676	2.59558	0.991857	2.60632	1.29558	2.66424	1.50082	3.08389	2.00578	4.12177			1.2666	2.59566	1.32654	2.71889	1.73569	3.56577				
0.984857	2.6101	1.27336	2.59512	0.986872	2.60904	1.30155	2.66389	1.50267	3.07311	2.00558	4.10192			1.27236	2.59521	1.3303	2.71377	1.73631	3.5502				
0.979791	2.61265	1.27909	2.59461	0.98183	2.61164	1.30754	2.66356	1.50455	3.0625	2.0054	4.08229			1.2781	2.5947	1.33413	2.70883	1.73695	3.53484				
0.974667	2.61508	1.2848	2.59403	0.97673	2.61412	1.31352	2.66322	1.50646	3.05207	2.00525	4.06288			1.28381	2.59414	1.33803	2.70408	1.73762	3.51968				
0.969486	2.61738	1.29046	2.59339	0.971571	2.61647	1.3195	2.6629	1.50842	3.04181	2.00511	4.0437			1.28948	2.59351	1.34199	2.6995	1.73832	3.50473				
0.964247	2.61955	1.2961	2.59269	0.966355	2.6187	1.32548	2.66257	1.51041	3.03172	2.00499	4.02473			1.29512	2.59282	1.34603	2.6951	1.73906	3.48997				
0.958954	2.62161	1.30169	2.59192	0.961084	2.6208	1.33147	2.66226	1.51244	3.0218	2.00489	4.00598			1.30072	2.59205	1.35013	2.69089	1.73982	3.47541				
0.953607	2.62354	1.30724	2.59107	0.955758	2.62278	1.33745	2.66194	1.51451	3.01204	2.00482	3.98744			1.30628	2.59122	1.35431	2.68686	1.74062	3.46104				
0.94821	2.62536	1.31276	2.59015	0.950381	2.62464	1.34344	2.66163	1.51661	3.00245	2.00476	3.96912			1.3118	2.59031	1.35857	2.68302	1.74144	3.44687				
0.942766	2.62707	1.31822	2.58915	0.944955	2.62639	1.34942	2.66132	1.51875	2.99301	2.00473	3.951			1.31728	2.58933	1.3629	2.67937	1.7423	3.43288				
0.937276	2.62867	1.32364	2.58806	0.939484	2.62804	1.35541	2.66101	1.52093	2.98374	2.00472	3.9331			1.32271	2.58826	1.36731	2.6759	1.74318	3.41908				
0.931745	2.63018	1.32902	2.5869	0.933969	2.62959	1.36139	2.66071	1.52314	2.97462	2.00473	3.9154			1.32809	2.58711	1.3718	2.67263	1.7441	3.40547				
0.926176	2.6316	1.33434	2.58565	0.928414	2.63104	1.36737	2.6604	1.5254	2.96566	2.00476	3.8979			1.33342	2.58588	1.37638	2.66953	1.74505	3.39204				
0.92057	2.63293	1.33962	2.58432	0.922823	2.63241	1.37336	2.6601	1.52769	2.95684	2.00482	3.8806			1.33871	2.58456	1.38103	2.66663	1.74603	3.37879				
0.914931	2.63419	1.34485	2.58291	0.917197	2.63369	1.37934	2.6598	1.53001	2.94818	2.0049	3.8635			1.34395	2.58316	1.38577	2.6639	1.74703	3.36571				
0.909262	2.63537	1.35003	2.58143	0.911539	2.63491	1.38532	2.65949	1.53238	2.93967	2.005	3.84659			1.34913	2.58169	1.39058	2.66136	1.74808	3.35281				
0.903564	2.63649	1.35516	2.57986	0.905853	2.63605	1.39129	2.65919	1.53478	2.9313	2.00513	3.82988			1.35428	2.58014	1.39548	2.65899	1.74915	3.34009				
0.897841	2.63755	1.36026	2.57823	0.90014	2.63713	1.39727	2.65888	1.53722	2.92308	2.00528	3.81337			1.35938	2.57852	1.40045	2.65678	1.75025	3.32753				
0.892094	2.63855	1.3653	2.57653	0.894402	2.63816	1.40324	2.65857	1.5397	2.91501	2.00546	3.79704			1.36443	2.57683	1.4055	2.65474	1.75138	3.31514				
0.886325	2.6395	1.37031	2.57477	0.888641	2.63913	1.40921	2.65826	1.54222	2.90707	2.00566	3.7809			1.36945	2.57508	1.41062	2.65286	1.75255	3.30292				
0.880536	2.64041	1.37529	2.57296	0.88286	2.64005	1.41518	2.65795	1.54477	2.89927	2.00588	3.76494			1.37443	2.57328	1.41582	2.65111	1.75375	3.29087				
0.874729	2.64127	1.38023	2.5711	0.877061	2.64093	1.42114	2.65763	1.54736	2.89162	2.00613	3.74917			1.37937	2.57143	1.42107	2.64951	1.75497	3.27897				
0.868905	2.64209	1.38514	2.56921	0.871243	2.64177	1.4271	2.65731	1.54999	2.8841	2.0064	3.73359			1.38429	2.56954	1.42639	2.64803	1.75623	3.26724				
0.863066	2.64288	1.39002	2.56729	0.86541	2.64257	1.43305	2.65698	1.55266	2.87671	2.0067	3.71818			1.38918	2.56762	1.43177	2.64668	1.75752	3.25567				
0.857213	2.64364	1.39489	2.56534	0.859563	2.64334	1.439	2.65665	1.55537	2.86947	2.00703	3.70294			1.39405	2.56568	1.4372	2.64544	1.75885	3.24425				
0.851347	2.64436	1.39974	2.56338	0.853702	2.64408	1.44495	2.65631	1.55812	2.86235	2.00737	3.68789			1.3989	2.56372	1.44268	2.6443	1.7602	3.23299				
0.845469	2.64506	1.40457	2.56141	0.847828	2.64478	1.45089	2.65596	1.56091	2.85537	2.00775	3.67301			1.40374	2.56175	1.44821	2.64325	1.76158	3.22188				
0.83958	2.64574	1.4094	2.55944	0.841944	2.64547	1.45682	2.65561	1.56373	2.84851	2.00815	3.6583			1.40856	2.55978	1.45378	2.64229	1.763	3.21092				
0.833681	2.64639	1.41422	2.55747	0.836049	2.64613	1.46275	2.65524	1.5666	2.84179	2.00858	3.64376			1.41338	2.55781	1.45939	2.64141	1.76445	3.2001				
0.827774	2.64703	1.41903	2.55551	0.830145	2.64677	1.46867	2.65487	1.56951	2.8352	2.00903	3.62938			1.4182	2.55585	1.46504	2.64061	1.76593	3.18944				
0.821857	2.64764	1.42384	2.55357	0.824231	2.6474	1.47458	2.65448	1.57246	2.82873	2.0095	3.61518			1.42301	2.55391	1.47072	2.63987	1.76744	3.17892				
0.815933	2.64824	1.42866	2.55165	0.81831	2.648	1.48048	2.65409	1.57545	2.8224	2.01001	3.60114			1.42783	2.55198	1.47643	2.63919	1.76898	3.16854				
0.810002	2.64883	1.43348	2.54976	0.812382	2.6486	1.48638	2.65368	1.57848	2.81619	2.01054	3.58726			1.43265	2.55008	1.48217	2.63857	1.77055	3.15831				
0.804064	2.6494	1.43831	2.54789	0.806447	2.64917	1.49226	2.65325	1.58155	2.81011	2.0111	3.57354			1.43748	2.54821	1.48794	2.63799	1.77216	3.14821				
0.79812	2.64997	1.44315	2.54606	0.800505	2.64974	1.49814	2.65282	1.58467	2.80415	2.01168	3.55998			1.44231	2.54637	1.49373	2.63746	1.77379	3.13825				
0.792171	2.65052	1.448	2.54426	0.794558	2.6503	1.504	2.65236	1.58783	2.79832	2.01229	3.54657			1.44716	2.54457	1.49953	2.63698	1.77546	3.12843				
0.786217	2.65107	1.45287	2.5425	0.788606	2.65085	1.50985	2.65188	1.59104	2.79262	2.01292	3.53332			1.45203	2.5428	1.50536	2.63653	1.77716	3.11874				
0.780259	2.6516	1.45775	2.54078	0.782649	2.65139	1.51569	2.65139	1.59429	2.78704	2.01359	3.52023			1.4569	2.54108	1.51121	2.63611	1.77889	3.10919				
0.774296	2.65214	1.46265	2.53911	0.776688	2.65192	1.52151	2.65087	1.5976	2.78159	2.01428	3.50729			1.4618	2.5394	1.51707	2.63573	1.78065	3.09976				
0.76833	2.65267	1.46757	2.53748	0.770723	2.65245	1.52731	2.65033	1.60095	2.77627	2.01499	3.49449			1.46671	2.53776	1.52295	2.63537	1.78244	3.09047				
0.76236	2.65319	1.4725	2.5359	0.764755	2.65298	1.5331	2.64976	1.60435	2.77108	2.01573	3.48185			1.47165	2.53617	1.52884	2.63504	1.78426	3.0813				
0.756387	2.65371	1.47746	2.53437	0.758783	2.6535	1.53886	2.64916	1.6078	2.76602	2.01651	3.46935			1.4766	2.53463	1.53474	2.63474	1.78612	3.07227				
0.750412	2.65424	1.48244	2.53289	0.752809	2.65403	1.54461	2.64853	1.6113	2.76108	2.0173	3.457			1.48158	2.53314	1.54065	2.63445	1.788	3.06335				
0.744434	2.65476	1.48745	2.53146	0.746832	2.65455	1.55033	2.64787	1.61486	2.75628	2.01813	3.44479			1.48658	2.5317	1.54657	2.63418	1.78992	3.05456				
0.738454	2.65528	1.49247	2.53008	0.740853	2.65507	1.55603	2.64717	1.61847	2.75161	2.01898	3.43273			1.4916	2.53031	1.5525	2.63393	1.79187	3.04589				
0.732473	2.65581	1.49753	2.52875	0.734872	2.6556	1.5617	2.64643	1.62215	2.74708	2.01986	3.4208			1.49665	2.52898	1.55844	2.6337	1.79385	3.03734				
0.726489	2.65634	1.50261	2.52748	0.72889	2.65613	1.56734	2.64564	1.62588	2.74269	2.02076	3.40901			1.50172	2.5277	1.56439	2.63348	1.79586	3.02891				
0.720505	2.65688	1.50771	2.52626	0.722906	2.65666	1.57295	2.64481	1.62967	2.73843	2.02169	3.39736			1.50682	2.52647	1.57034	2.63327	1.7979	3.0206				
0.71452	2.65742	1.51284	2.5251	0.716921	2.6572	1.57853	2.64393	1.63354	2.73432	2.02265	3.38585			1.51195	2.52529	1.5763	2.63308	1.79997	3.0124				
0.708535	2.65796	1.518	2.52398	0.710936	2.65774	1.58407	2.643	1.63747	2.73035	2.02364	3.37446			1.5171	2.52417	1.58227	2.6329	1.80207	3.00432				
0.702548	2.65852	1.52319	2.52293	0.70495	2.6583	1.58957	2.64201	1.64146	2.72653	2.02466	3.36322			1.52228	2.52311	1.58824	2.63272	1.80421	2.99635				
0.696562	2.65909	1.5284	2.52192	0.698964	2.65886	1.59503	2.64095	1.64554	2.72285	2.0257	3.3521			1.52749	2.52209	1.59421	2.63255	1.80637	2.98849				
0.690576	2.65966	1.53364	2.52097	0.692977	2.65943	1.60045	2.63984	1.64968	2.71933	2.02677	3.34111			1.53273	2.52114	1.60019	2.6324	1.80857	2.98075				
0.684591	2.66025	1.53891	2.52008	0.686992	2.66001	1.60582	2.63865	1.6539	2.71596	2.02787	3.33025			1.53799	2.52023	1.60617	2.63224	1.81079	2.97311				
0.678606	2.66085	1.54421	2.51923	0.681006	2.66061	1.61114	2.6374	1.65821	2.71275	2.02899	3.31952			1.54329	2.51938	1.61215	2.6321	1.81305	2.96558				
0.672622	2.66147	1.54953	2.51844	0.675022	2.66122	1.61642	2.63608	1.66259	2.70969	2.03014	3.30892			1.54861	2.51858	1.61814	2.63196	1.81534	2.95816				
0.666639	2.6621	1.55489	2.5177	0.669039	2.66184	1.62164	2.63468	1.66705	2.70679	2.03132	3.29843			1.55396	2.51783	1.62413	2.63182	1.81766	2.95084				
0.660659	2.66275	1.56027	2.51701	0.663058	2.66249	1.62681	2.63321	1.6716	2.70404	2.03253	3.28807			1.55933	2.51713	1.63012	2.63169	1.82001	2.94363				
0.65468	2.66342	1.56568	2.51637	0.657078	2.66315	1.63193	2.63167	1.67623	2.70145	2.03376	3.27783			1.56474	2.51648	1.63611	2.63156	1.82239	2.93652				
0.648703	2.66412	1.57111	2.51578	0.6511	2.66384	1.637	2.63005	1.68095	2.69901	2.03502	3.26772			1.57017	2.51588	1.6421	2.63143	1.8248	2.92952				
0.642729	2.66483	1.57658	2.51524	0.645125	2.66454	1.64202	2.62837	1.68574	2.69672	2.03631	3.25772			1.57563	2.51533	1.6481	2.63131	1.82724	2.92261				
0.636758	2.66558	1.58207	2.51474	0.639153	2.66528	1.64698	2.62662	1.69062	2.69457	2.03763	3.24783			1.58111	2.51482	1.65409	2.63119	1.82971	2.9158				
0.63079	2.66635	1.58758	2.51429	0.633184	2.66604	1.65191	2.62482	1.69557	2.69257	2.03898	3.23807			1.58663	2.51436	1.66009	2.63107	1.83222	2.9091				
0.624826	2.66716	1.59313	2.51388	0.627218	2.66683	1.65679	2.62295	1.7006	2.69069	2.04035	3.22842			1.59216	2.51394	1.66608	2.63095	1.83475	2.90249				
0.618867	2.668	1.59869	2.51351	0.621257	2.66766	1.66163	2.62104	1.7057	2.68895	2.04175	3.21888			1.59773	2.51357	1.67208	2.63083	1.83732	2.89598				
0.612912	2.66887	1.60429	2.51319	0.6153	2.66852	1.66643	2.61909	1.71087	2.68732	2.04317	3.20945			1.60332	2.51324	1.67807	2.63071	1.83991	2.88956				
0.606963	2.66979	1.6099	2.5129	0.609349	2.66942	1.67121	2.6171	1.71611	2.68581	2.04463	3.20014			1.60893	2.51295	1.68406	2.63059	1.84254	2.88324				
0.60102	2.67076	1.61554	2.51266	0.603403	2.67036	1.67595	2.61509	1.7214	2.68441	2.04611	3.19093			1.61456	2.5127	1.69006	2.63046	1.8452	2.87701				
0.595083	2.67177	1.62121	2.51245	0.597463	2.67136	1.68068	2.61305	1.72676	2.6831	2.04762	3.18183			1.62022	2.51248	1.69604	2.63034	1.84789	2.87087				
0.589153	2.67284	1.62689	2.51227	0.591531	2.6724	1.68539	2.61101	1.73216	2.68189	2.04915	3.17285			1.62591	2.5123	1.70203	2.63021	1.85061	2.86483				
0.583231	2.67396	1.6326	2.51214	0.585606	2.6735	1.6901	2.60897	1.73762	2.68076	2.05072	3.16396			1.63161	2.51216	1.70802	2.63009	1.85336	2.85887				
0.577319	2.67515	1.63833	2.51203	0.57969	2.67467	1.69479	2.60694	1.74312	2.67971	2.05231	3.15518			1.63733	2.51205	1.714	2.62996	1.85614	2.85301				
0.571416	2.67642	1.64408	2.51196	0.573783	2.6759	1.69949	2.60492	1.74867	2.67873	2.05393	3.14651			1.64308	2.51197	1.71998	2.62982	1.85895	2.84723				
0.565524	2.67776	1.64984	2.51192	0.567887	2.67721	1.7042	2.60293	1.75425	2.67782	2.05557	3.13794			1.64884	2.51192	1.72596	2.62968	1.8618	2.84155				
0.559645	2.67919	1.65563	2.5119	0.562002	2.67861	1.70892	2.60097	1.75987	2.67696	2.05724	3.12947			1.65463	2.5119	1.73193	2.62954	1.86467	2.83595				
0.553779	2.68072	1.66144	2.51192	0.55613	2.6801	1.71366	2.59906	1.76552	2.67617	2.05894	3.1211			1.66043	2.51191	1.7379	2.62939	1.86758	2.83044				
0.547927	2.68236	1.66726	2.51196	0.550273	2.68169	1.71843	2.5972	1.7712	2.67542	2.06067	3.11283			1.66625	2.51195	1.74387	2.62924	1.87052	2.82501				
0.542093	2.68411	1.6731	2.51202	0.544431	2.68339	1.72323	2.59541	1.77691	2.67472	2.06243	3.10466			1.67208	2.51201	1.74983	2.62909	1.87349	2.81967				
0.536276	2.686	1.67895	2.51211	0.538607	2.68523	1.72808	2.59369	1.78264	2.67406	2.06421	3.09659			1.67794	2.51209	1.75579	2.62892	1.87649	2.81442				
0.530481	2.68804	1.68483	2.51222	0.532803	2.6872	1.73298	2.59207	1.7884	2.67344	2.06602	3.08861			1.68381	2.5122	1.76174	2.62875	1.87953	2.80925				
0.524708	2.69025	1.69071	2.51236	0.527021	2.68934	1.73793	2.59055	1.79417	2.67286	2.06785	3.08073			1.68969	2.51233	1.76769	2.62857	1.88259	2.80416				
0.518962	2.69264	1.69662	2.51251	0.521264	2.69165	1.74296	2.58914	1.79997	2.67231	2.06972	3.07294			1.69559	2.51248	1.77363	2.62839	1.88569	2.79916				
0.513245	2.69524	1.70253	2.51269	0.515534	2.69417	1.74807	2.58785	1.80578	2.67179	2.07161	3.06524			1.7015	2.51266	1.77956	2.6282	1.88883	2.79424				
0.50756	2.69808	1.70846	2.51288	0.509836	2.69691	1.75325	2.58669	1.81161	2.67129	2.07352	3.05764			1.70743	2.51285	1.78549	2.62799	1.89199	2.78941				
0.501912	2.70119	1.7144	2.51309	0.504173	2.69991	1.75853	2.58567	1.81746	2.67082	2.07547	3.05013			1.71337	2.51305	1.79141	2.62778	1.89519	2.78465				
0.496305	2.7046	1.72036	2.51332	0.498549	2.70319	1.76389	2.58478	1.82332	2.67038	2.07744	3.04271			1.71932	2.51328	1.79732	2.62756	1.89843	2.77998				
0.490745	2.70835	1.72632	2.51356	0.492969	2.7068	1.76934	2.58404	1.82919	2.66995	2.07944	3.03538			1.72529	2.51352	1.80322	2.62732	1.9017	2.77539				
0.485238	2.7125	1.7323	2.51382	0.48744	2.71079	1.77488	2.58342	1.83507	2.66955	2.08146	3.02813			1.73126	2.51377	1.80911	2.62708	1.905	2.77088				
0.479791	2.7171	1.73829	2.51409	0.481968	2.7152	1.78049	2.58292	1.84096	2.66916	2.08351	3.02098			1.73725	2.51404	1.815	2.62682	1.90834	2.76645				
0.474411	2.72221	1.74429	2.51437	0.476561	2.72009	1.78619	2.58253	1.84686	2.66879	2.08559	3.01391			1.74325	2.51432	1.82087	2.62655	1.91172	2.7621				
0.469108	2.72789	1.75029	2.51467	0.471226	2.72554	1.79194	2.58224	1.85277	2.66843	2.0877	3.00693			1.74925	2.51462	1.82673	2.62626	1.91513	2.75784				
0.463891	2.73425	1.75631	2.51498	0.465973	2.73161	1.79776	2.58203	1.85869	2.66809	2.08983	3.00003			1.75527	2.51493	1.83258	2.62596	1.91858	2.75365				
0.458772	2.74135	1.76234	2.5153	0.460813	2.7384	1.80362	2.5819	1.86462	2.66776	2.09199	2.99321			1.76129	2.51525	1.83841	2.62564	1.92206	2.74955				
0.453761	2.74932	1.76838	2.51563	0.455757	2.74601	1.80953	2.58183	1.87055	2.66745	2.09417	2.98648			1.76733	2.51557	1.84423	2.6253	1.92559	2.74553				
0.448872	2.75826	1.77442	2.51597	0.450818	2.75455	1.81548	2.58182	1.87649	2.66714	2.09639	2.97983			1.77337	2.51591	1.85004	2.62494	1.92915	2.74159				
0.444117	2.76829	1.78047	2.51632	0.446008	2.76413	1.82146	2.58185	1.88244	2.66685	2.09862	2.97326			1.77942	2.51626	1.85583	2.62456	1.93275	2.73774				
0.439511	2.77955	1.78654	2.51668	0.44134	2.77488	1.82747	2.58192	1.88839	2.66656	2.10089	2.96677			1.78548	2.51662	1.8616	2.62416	1.9364	2.73397				
0.435065	2.79218	1.7926	2.51705	0.436828	2.78694	1.8335	2.58203	1.89435	2.66628	2.10318	2.96036			1.79155	2.51698	1.86736	2.62374	1.94009	2.73028				
0.430793	2.80632	1.79868	2.51742	0.432485	2.80046	1.83955	2.58216	1.90031	2.66601	2.1055	2.95403			1.79762	2.51736	1.87309	2.62329	1.94382	2.72668				
0.426705	2.82211	1.80476	2.5178	0.428322	2.81557	1.84562	2.58232	1.90627	2.66575	2.10785	2.94778			1.80371	2.51774	1.8788	2.62282	1.94759	2.72316				
0.422812	2.8397	1.81085	2.51819	0.42435	2.83242	1.85171	2.58249	1.91224	2.6655	2.11022	2.94161			1.80979	2.51812	1.88449	2.62231	1.95142	2.71973				
0.41912	2.85921	1.81694	2.51859	0.420576	2.85114	1.8578	2.58268	1.91821	2.66525	2.11262	2.93551			1.81589	2.51852	1.89016	2.62178	1.95528	2.71638				
0.415635	2.88078	1.82305	2.51899	0.417008	2.87187	1.86391	2.58289	1.92418	2.665	2.11504	2.92948			1.82199	2.51892	1.8958	2.62122	1.9592	2.71312				
0.41236	2.90453	1.82915	2.51939	0.413648	2.89474	1.87003	2.58311	1.93016	2.66477	2.1175	2.92354			1.82809	2.51932	1.90142	2.62062	1.96317	2.70996				
0.409296	2.93058	1.83526	2.5198	0.410499	2.91985	1.87616	2.58334	1.93614	2.66453	2.11997	2.91766			1.8342	2.51973	1.907	2.61999	1.96718	2.70688				
0.406443	2.95904	1.84138	2.52022	0.407562	2.94733	1.88229	2.58357	1.94212	2.66431	2.12248	2.91186			1.84032	2.52015	1.91256	2.61932	1.97125	2.70389				
0.403798	2.99002	1.8475	2.52064	0.404834	2.97728	1.88843	2.58382	1.94811	2.66408	2.12501	2.90614			1.84644	2.52056	1.91808	2.61861	1.97537	2.701				
0.401361	3.02363	1.85363	2.52106	0.402314	3.00982	1.89457	2.58407	1.95409	2.66386	2.12757	2.90048			1.85257	2.52099	1.92357	2.61786	1.97955	2.6982				
0.399126	3.05998	1.85977	2.52149	0.399998	3.04506	1.90072	2.58432	1.96008	2.66364	2.13015	2.8949			1.8587	2.52141	1.92903	2.61706	1.98379	2.6955				
0.39709	3.0992	1.8659	2.52192	0.397883	3.08311	1.90688	2.58458	1.96607	2.66343	2.13276	2.88939			1.86484	2.52185	1.93445	2.61623	1.98808	2.69289				
0.395249	3.1414	1.87204	2.52235	0.395964	3.12411	1.91304	2.58484	1.97206	2.66322	2.1354	2.88395			1.87098	2.52228	1.93983	2.61534	1.99244	2.69038				
0.3936	3.18674	1.87819	2.52279	0.394239	3.16817	1.9192	2.58511	1.97805	2.66301	2.13806	2.87857			1.87712	2.52272	1.94517	2.61441	1.99685	2.68796				
0.392139	3.23535	1.88434	2.52323	0.392703	3.21545	1.92536	2.58537	1.98404	2.6628	2.14076	2.87327			1.88327	2.52316	1.95048	2.61344	2.00132	2.68564				
0.390862	3.28739	1.89049	2.52367	0.391352	3.26609	1.93152	2.58564	1.99003	2.6626	2.14347	2.86804			1.88942	2.5236	1.95574	2.61241	2.00586	2.68342				
0.389765	3.34305	1.89665	2.52412	0.390184	3.32028	1.93769	2.58591	1.99602	2.66239	2.14622	2.86287			1.89558	2.52404	1.96096	2.61134	2.01046	2.6813				
0.388846	3.40251	1.90281	2.52456	0.389194	3.37819	1.94386	2.58618	2.00201	2.66219	2.14899	2.85777			1.90174	2.52449	1.96614	2.61021	2.01513	2.67928				
0.388101	3.46597	1.90897	2.52501	0.38838	3.44002	1.95003	2.58645	2.00799	2.66198	2.15179	2.85274			1.9079	2.52494	1.97128	2.60904	2.01985	2.67735				
0.387528	3.53366	1.91514	2.52546	0.387738	3.50598	1.9562	2.58671	2.01398	2.66178	2.15461	2.84777			1.91407	2.52538	1.97637	2.60782	2.02464	2.67552				
0.387123	3.60583	1.92131	2.52591	0.387265	3.57633	1.96237	2.58698	2.01997	2.66158	2.15746	2.84287			1.92024	2.52584	1.98143	2.60656	2.0295	2.67378				
0.386882	3.68275	1.92748	2.52637	0.386959	3.6513	1.96854	2.58725	2.02596	2.66138	2.16034	2.83803			1.92641	2.52629	1.98644	2.60525	2.03441	2.67213				
0.386805	3.76469	1.93366	2.52682	0.386817	3.7312	1.97471	2.58751	2.03194	2.66117	2.16325	2.83326			1.93259	2.52674	1.99142	2.6039	2.03939	2.67057				
0.386886	3.85199	1.93984	2.52727	0.386835	3.81631	1.98089	2.58777	2.03793	2.66097	2.16618	2.82856			1.93877	2.5272	1.99636	2.60251	2.04442	2.66909				
0.387124	3.94499	1.94602	2.52773	0.38701	3.90698	1.98706	2.58804	2.04391	2.66076	2.16914	2.82392			1.94495	2.52765	2.00127	2.60108	2.04951	2.6677				
0.387515	4.04406	1.95221	2.52819	0.38734	4.00357	1.99323	2.58829	2.04989	2.66056	2.17213	2.81934			1.95113	2.52811	2.00614	2.59961	2.05466	2.66639				
0.388055	4.14963	1.95839	2.52864	0.387821	4.10647	1.9994	2.58855	2.05587	2.66035	2.17515	2.81482			1.95732	2.52856	2.01098	2.59812	2.05985	2.66516				
0.388742	4.26213	1.96458	2.5291	0.388449	4.21614	2.00557	2.58881	2.06184	2.66014	2.17819	2.81037			1.96351	2.52902	2.01579	2.59659	2.0651	2.664				
0.389572	4.38209	1.97077	2.52955	0.389222	4.33304	2.01174	2.58906	2.06781	2.65992	2.18127	2.80598			1.9697	2.52948	2.02058	2.59504	2.0704	2.66291				
0.39054	4.51003	1.97697	2.53001	0.390135	4.45771	2.01791	2.58931	2.07378	2.65971	2.18437	2.80166			1.97589	2.52993	2.02534	2.59347	2.07575	2.66188				
0.391643	4.64658	1.98316	2.53047	0.391184	4.59073	2.02408	2.58956	2.07975	2.65949	2.1875	2.79739			1.98209	2.53039	2.03007	2.59188	2.08113	2.66092				
0.392876	4.79241	1.98936	2.53092	0.392366	4.73275	2.03024	2.5898	2.08571	2.65926	2.19066	2.79319			1.98829	2.53085	2.03479	2.59027	2.08656	2.66001				
0.394235	4.94827	1.99556	2.53138	0.393675	4.88449	2.03641	2.59004	2.09167	2.65903	2.19384	2.78905			1.99449	2.5313	2.03949	2.58865	2.09203	2.65916				
0.395716	5.11499	2.00176	2.53184	0.395108	5.04675	2.04257	2.59028	2.09762	2.6588	2.19706	2.78497			2.00069	2.53176	2.04418	2.58702	2.09753	2.65836				
0.397312	5.29351	2.00796	2.53229	0.396658	5.22041	2.04873	2.59051	2.10356	2.65856	2.20031	2.78096			2.00689	2.53221	2.04885	2.58538	2.10307	2.6576				
0.39902	5.48487	2.01417	2.53275	0.398322	5.40649	2.05489	2.59074	2.1095	2.65832					2.01309	2.53267	2.05351	2.58374	2.10864	2.65689				
0.400594	5.66303	2.02037	2.5332	0.400093	5.60611	2.06105	2.59097	2.11544	2.65807					2.0193	2.53312	2.05816	2.5821	2.11424	2.65622				
0.401996	5.82397	2.02658	2.53365	0.401966	5.82053	2.06721	2.59119	2.12137	2.65781					2.02551	2.53357	2.06281	2.58046	2.11986	2.65559				
0.403195	5.9638	2.03279	2.5341	0.403934	6.05122	2.07336	2.59141	2.12729	2.65755					2.03171	2.53403	2.06745	2.57882	2.12552	2.655				
0.404167	6.07896	2.039	2.53455	0.405991	6.29979	2.07951	2.59162	2.1332	2.65727					2.03792	2.53448	2.07209	2.57719	2.13119	2.65444				
0.404896	6.16635	2.04521	2.535	0.40813	6.56815	2.08566	2.59183	2.13911	2.65699					2.04413	2.53493	2.07672	2.57556	2.13689	2.65391				
0.405576	6.24885	2.05142	2.53545	0.410344	6.85846	2.09181	2.59204	2.145	2.6567					2.05034	2.53537	2.08135	2.57394	2.14261	2.65341				
0.406054	6.30747	2.05763	2.5359	0.412625	7.17322	2.09795	2.59224	2.15089	2.6564					2.05656	2.53582	2.08599	2.57233	2.14834	2.65293				
0.406809	6.40115	2.06385	2.53634	0.414965	7.51535	2.10409	2.59243	2.15676	2.65608					2.06277	2.53627	2.09062	2.57073	2.1541	2.65248				
0.407854	6.53278	2.07006	2.53679	0.417354	7.88827	2.11022	2.59262	2.16262	2.65576					2.06898	2.53671	2.09527	2.56915	2.15987	2.65205				
0.409199	6.7066	2.07627	2.53723	0.419471	8.24148	2.11635	2.5928	2.16847	2.65542					2.0752	2.53715	2.09991	2.56758	2.16565	2.65164				
0.410863	6.9285	2.08249	2.53766	0.421295	8.56579	2.12248	2.59298	2.17431	2.65506					2.08141	2.53759	2.10456	2.56603	2.17145	2.65125				
0.412859	7.20653	2.0887	2.5381	0.422813	8.85176	2.12861	2.59315	2.18013	2.65469					2.08763	2.53802	2.10922	2.56449	2.17727	2.65088				
0.415204	7.55161	2.09492	2.53853	0.42402	9.0903	2.13472	2.59332	2.18593	2.6543					2.09384	2.53846	2.11388	2.56297	2.18309	2.65053				
0.417599	7.92786	2.10113	2.53896	0.424909	9.27318	2.14084	2.59348	2.19172	2.65389					2.10005	2.53889	2.11856	2.56148	2.18893	2.65019				
0.420033	8.33938	2.10734	2.53938	0.425727	9.44737	2.14695	2.59363	2.19749	2.65346					2.10626	2.53931	2.12324	2.56	2.19477	2.64986				
0.422498	8.79104	2.11355	2.5398	0.426298	9.57205	2.15305	2.59377	2.20324	2.65301					2.11247	2.53973	2.12794	2.55854	2.20063	2.64955				
0.424983	9.2887	2.11975	2.54022	0.427188	9.77289	2.15915	2.59391							2.11867	2.54014	2.13265	2.55711						
0.427476	9.83943	2.12595	2.54062	0.4284	10.0585	2.16524	2.59403							2.12488	2.54055	2.13737	2.55571						
0.429968	10.4519	2.13214	2.54101	0.429929	10.4419	2.17132	2.59415							2.13107	2.54094	2.14212	2.55433						
0.432445	11.1367	2.13832	2.54139	0.431772	10.9422	2.1774	2.59426							2.13725	2.54133	2.14688	2.55299						
0.434894	11.9074	2.14449	2.54175	0.433916	11.587	2.18347	2.59436							2.14342	2.54169	2.15167	2.55168						
0.437303	12.7808	2.15062	2.54207	0.436343	12.4168	2.18953	2.59444							2.14956	2.54201	2.1565	2.55043						
0.439657	13.7788	2.15671	2.54233	0.438721	13.3618	2.19558	2.59452							2.15566	2.54229	2.16138	2.54925						
0.441942	14.93	2.16272	2.5425	0.441035	14.4476	2.20162	2.59458							2.16169	2.54248	2.16635	2.54817						
0.444142	16.2728	2.16859	2.5425	0.443271	15.7082									2.16758	2.54251	2.17146	2.54727						
0.446242	17.8596	2.17423	2.54223	0.445413	17.1897									2.17327	2.5423	2.17679	2.54663						
0.448227	19.7642	2.1796	2.54166	0.447446	18.9561									2.17868	2.54178	2.1824	2.54632						
0.45008	22.0938	2.18476	2.54084	0.449353	21.0995									2.18388	2.541	2.18825	2.54629						
0.451785	25.0104	2.18981	2.53989	0.45112	23.7563									2.18894	2.54006	2.19426	2.54644						
0.453328	28.7709	2.19479	2.53887	0.452729	27.1386									2.19393	2.53905	2.20035	2.54669						
0.454693	33.8085	2.19974	2.53782	0.454168	31.5949									2.19888	2.53801								
0.455868	40.9155	2.20467	2.53677	0.45542	37.74									2.20382	2.53695								
0.45684	51.712			0.456475	46.7704																		
0.457598	70.1094			0.45732	61.3645																		
0.458134	108.575			0.457946	89.0058																		
0.458442	239.756			0.458346	161.519																		
				0.458516	864.584																		
