Sym0		Asym0		Sym1		Sym2		Sym3		Asym1		Asym2		Asym3	
448  Points		491  Points		154  Points		127  Points		110  Points		262  Points		138  Points		111  Points	
Freq (MHz)	Vph (m/ms)	Freq (MHz)	Vph (m/ms)	Freq (MHz)	Vph (m/ms)	Freq (MHz)	Vph (m/ms)	Freq (MHz)	Vph (m/ms)	Freq (MHz)	Vph (m/ms)	Freq (MHz)	Vph (m/ms)	Freq (MHz)	Vph (m/ms)
0.00400459	8.03218	0.000444822	0.226958	0.279538	507.11	0.559005	912.822	0.5632	763.784	0.139755	2523.87	0.419272	1156.32	0.698772	7858.88
0.0114875	8.03172	0.000960903	0.332306	0.279723	188.628	0.558944	361.99	0.563452	337.583	0.139988	141.822	0.419377	324.022	0.698813	684.702
0.0189684	8.0308	0.00166273	0.434892	0.280077	115.992	0.558854	225.728	0.563874	216.81	0.140636	73.2951	0.419601	188.502	0.698925	358
0.0264462	8.02943	0.00253924	0.534013	0.280598	83.8528	0.55876	163.981	0.56444	159.786	0.141691	49.7081	0.419943	132.991	0.699106	242.409
0.0339194	8.02761	0.00357747	0.629093	0.281287	65.7518	0.558684	128.754	0.565129	126.592	0.143142	37.8468	0.420404	102.804	0.699358	183.285
0.0413871	8.02535	0.00476347	0.719731	0.282142	54.1568	0.558644	105.987	0.565925	104.881	0.144975	30.7552	0.420981	83.843	0.699679	147.382
0.0488476	8.02261	0.00608277	0.805654	0.283159	46.1066	0.558649	90.0675	0.566818	89.5794	0.147172	26.0688	0.421676	70.837	0.70007	123.272
0.0562997	8.0194	0.00752069	0.886686	0.284339	40.2	0.558708	78.3134	0.567803	78.2178	0.149715	22.7626	0.422487	61.3682	0.70053	105.968
0.0637421	8.01572	0.00906336	0.962805	0.285678	35.6883	0.558824	69.2819	0.568873	69.4515	0.152582	20.32	0.423413	54.1715	0.70106	92.9483
0.0711733	8.01156	0.0106976	1.03406	0.287172	32.1348	0.559002	62.1276	0.570026	62.4848	0.155752	18.4527	0.424454	48.521	0.701659	82.7997
0.0785919	8.00691	0.0124111	1.10058	0.288821	29.2679	0.559244	56.3223	0.571261	56.8174	0.159206	16.9868	0.425609	43.9699	0.702327	74.669
0.0859966	8.00175	0.0141928	1.16253	0.290619	26.9095	0.559551	51.5191	0.572575	52.1185	0.162921	15.8114	0.426876	40.2287	0.703064	68.0106
0.0933856	7.99609	0.0160328	1.22013	0.292565	24.9382	0.559926	47.4806	0.573968	48.1609	0.166878	14.8525	0.428255	37.101	0.703869	62.4592
0.100757	7.98989	0.0179223	1.27362	0.294653	23.2683	0.560369	44.0388	0.57544	44.7833	0.171059	14.0588	0.429744	34.4494	0.704742	57.7613
0.10811	7.98316	0.0198536	1.32325	0.296882	21.8376	0.560881	41.0717	0.576988	41.868	0.175445	13.3937	0.431341	32.1745	0.705684	53.7351
0.115443	7.97587	0.02182	1.36928	0.299246	20.5998	0.561463	38.4885	0.578613	39.3272	0.180021	12.8304	0.433047	30.2027	0.706692	50.2471
0.122753	7.96801	0.0238157	1.41197	0.301742	19.5196	0.562117	36.22	0.580316	37.0939	0.18415	12.4068	0.434858	28.4785	0.707769	47.1971
0.130039	7.95957	0.0258358	1.45155	0.304365	18.5701	0.562843	34.2129	0.582094	35.1162	0.187767	12.0868	0.436773	26.959	0.708912	44.508
0.137298	7.95052	0.0276127	1.4837	0.307113	17.7299	0.563642	32.4251	0.583948	33.3534	0.190821	11.847	0.438792	25.6108	0.710121	42.1201
0.144529	7.94084	0.0291376	1.50951	0.309981	16.9821	0.564516	30.8233	0.585878	31.7728	0.193274	11.6713	0.440912	24.4072	0.711397	39.9861
0.15173	7.9305	0.0304048	1.5298	0.312965	16.3129	0.565464	29.3804	0.587883	30.3482	0.195098	11.5495	0.443131	23.327	0.712739	38.0679
0.158898	7.91949	0.0314102	1.5452	0.316061	15.7113	0.566489	28.0746	0.589963	29.058	0.196275	11.4745	0.445448	22.3527	0.714145	36.3349
0.166031	7.90778	0.0321513	1.55618	0.319266	15.1681	0.56759	26.8877	0.592118	27.8845	0.197978	11.3705	0.447862	21.47	0.715617	34.762
0.173125	7.89534	0.0326263	1.56306	0.322576	14.6757	0.56877	25.8047	0.594347	26.813	0.199845	11.2625	0.450369	20.6671	0.717153	33.3282
0.18018	7.88214	0.0333101	1.57275	0.325987	14.2278	0.57003	24.813	0.596651	25.8312	0.20241	11.1234	0.452969	19.9341	0.718753	32.0163
0.187191	7.86814	0.0340544	1.58303	0.329495	13.819	0.57137	23.9019	0.599028	24.9286	0.205692	10.9591	0.455659	19.2627	0.720416	30.8117
0.194155	7.85333	0.0350686	1.59658	0.333099	13.4448	0.572792	23.0626	0.601479	24.0963	0.209718	10.7762	0.458438	18.6458	0.722142	29.7019
0.20107	7.83765	0.0363538	1.61306	0.336794	13.1013	0.574298	22.2871	0.604002	23.3267	0.214514	10.5812	0.461304	18.0773	0.723931	28.6766
0.207931	7.82108	0.0379114	1.63206	0.340579	12.7851	0.575888	21.569	0.606599	22.6133	0.220108	10.3801	0.464254	17.5521	0.725781	27.7266
0.214736	7.80357	0.0397426	1.65311	0.343948	12.5297	0.577564	20.9023	0.609268	21.9504	0.225791	10.1999	0.467288	17.0657	0.727692	26.8441
0.221481	7.78509	0.0418483	1.67575	0.34687	12.3254	0.579327	20.2823	0.612009	21.3331	0.231556	10.0379	0.470403	16.6141	0.729664	26.0225
0.228162	7.76559	0.0439575	1.6969	0.349322	12.1651	0.581179	19.7044	0.614821	20.757	0.237395	9.89148	0.473597	16.194	0.731697	25.2558
0.234774	7.74504	0.0460693	1.71668	0.351282	12.0436	0.583121	19.1648	0.617705	20.2184	0.243302	9.75879	0.476868	15.8025	0.733788	24.5388
0.241313	7.72339	0.048183	1.73521	0.352736	11.957	0.585154	18.6602	0.62066	19.7139	0.249272	9.63806	0.480215	15.4368	0.735939	23.8671
0.247776	7.70059	0.050298	1.75257	0.353672	11.9028	0.58728	18.1877	0.623685	19.2406	0.255299	9.52786	0.483635	15.0946	0.738148	23.2366
0.254157	7.67662	0.0524137	1.76886	0.355024	11.8265	0.589499	17.7444	0.62678	18.7959	0.261378	9.42694	0.487127	14.774	0.740414	22.6439
0.260451	7.65142	0.0545298	1.78418	0.356504	11.7456	0.591814	17.3281	0.629945	18.3773	0.267504	9.33423	0.490689	14.4731	0.742738	22.0856
0.266655	7.62496	0.0566461	1.79859	0.358533	11.6389	0.594224	16.9366	0.63318	17.9829	0.273673	9.24881	0.494319	14.1902	0.745118	21.5591
0.272763	7.59721	0.058762	1.81217	0.361125	11.5092	0.596731	16.5681	0.636483	17.6107	0.279881	9.16988	0.498016	13.9239	0.747554	21.0618
0.27877	7.56814	0.0608776	1.82497	0.3643	11.3598	0.599337	16.2209	0.639856	17.2591	0.286125	9.09675	0.501778	13.6729	0.750045	20.5915
0.284672	7.53771	0.0629926	1.83707	0.368079	11.1942	0.60204	15.8933	0.643296	16.9265	0.2924	9.02881	0.505602	13.436	0.75259	20.146
0.290464	7.50592	0.0651069	1.8485	0.372487	11.0162	0.604843	15.584	0.646806	16.6116	0.298703	8.96552	0.509488	13.2121	0.755189	19.7237
0.296143	7.47274	0.0672204	1.85933	0.376972	10.8498	0.607746	15.2917	0.650383	16.3132	0.305032	8.90641	0.513433	13.0004	0.757841	19.3228
0.301703	7.43817	0.0693331	1.86958	0.381533	10.6944	0.610748	15.0152	0.654028	16.03	0.311383	8.85106	0.516919	12.825	0.760546	18.9418
0.307141	7.40222	0.071445	1.87931	0.386171	10.5489	0.613851	14.7536	0.657741	15.7611	0.317754	8.79912	0.519924	12.6818	0.763303	18.5793
0.312455	7.3649	0.0735558	1.88855	0.390886	10.4126	0.617053	14.5057	0.661521	15.5055	0.324141	8.75025	0.522433	12.5675	0.766111	18.2341
0.31764	7.32623	0.0756658	1.89734	0.395678	10.285	0.620354	14.2707	0.665369	15.2624	0.330543	8.70415	0.524431	12.4797	0.768969	17.9051
0.322695	7.28625	0.0777748	1.9057	0.400546	10.1654	0.623755	14.0479	0.669285	15.031	0.336958	8.66058	0.525908	12.4166	0.771877	17.5912
0.327618	7.245	0.0798829	1.91367	0.405493	10.0532	0.627253	13.8363	0.673268	14.8105	0.343382	8.61929	0.526857	12.3767	0.774834	17.2914
0.332408	7.20253	0.08199	1.92127	0.410516	9.94798	0.630849	13.6354	0.677319	14.6004	0.349814	8.58008	0.528227	12.3203	0.77784	17.005
0.337065	7.1589	0.0840963	1.92852	0.415618	9.84923	0.63454	13.4445	0.681437	14.4	0.356251	8.54276	0.529721	12.26	0.780894	16.7309
0.341588	7.11418	0.0862017	1.93545	0.420797	9.75655	0.638326	13.2629	0.685624	14.2087	0.362692	8.50714	0.531765	12.1797	0.783995	16.4686
0.345978	7.06845	0.0883062	1.94207	0.426053	9.66953	0.6417	13.1118	0.689879	14.0261	0.369135	8.47309	0.534367	12.081	0.787142	16.2173
0.350236	7.0218	0.0904098	1.94841	0.431385	9.58781	0.644632	12.988	0.694202	13.8516	0.375577	8.44046	0.537539	11.9654	0.790335	15.9764
0.354364	6.97429	0.0925127	1.95449	0.436792	9.51104	0.647093	12.889	0.698594	13.6848	0.382018	8.40913	0.541294	11.8352	0.793573	15.7454
0.358365	6.92603	0.0946147	1.96031	0.442274	9.4389	0.649062	12.8127	0.703056	13.5253	0.388454	8.37897	0.54565	11.6922	0.796856	15.5235
0.362241	6.8771	0.096716	1.9659	0.447827	9.37108	0.650523	12.7577	0.707587	13.3728	0.394885	8.34987	0.550053	11.5558	0.800183	15.3105
0.365994	6.82759	0.0988167	1.97126	0.45345	9.30729	0.651464	12.7231	0.711592	13.2453	0.401308	8.32175	0.554502	11.4257	0.803553	15.1056
0.369629	6.7776	0.100917	1.97642	0.459141	9.24725	0.652825	12.6739	0.715049	13.1403	0.407722	8.29451	0.558996	11.3013	0.806965	14.9087
0.373149	6.72721	0.103016	1.98138	0.464896	9.19071	0.654314	12.6212	0.717938	13.0561	0.414126	8.26807	0.563535	11.1824	0.81042	14.7191
0.376557	6.67651	0.105114	1.98615	0.470714	9.13742	0.656356	12.5511	0.720241	12.9911	0.420517	8.24235	0.568116	11.0687	0.813916	14.5366
0.379857	6.62558	0.107212	1.99075	0.47659	9.08714	0.658966	12.4646	0.721945	12.9441	0.426895	8.21729	0.572739	10.9598	0.817452	14.3608
0.383054	6.5745	0.10931	1.99517	0.482522	9.03965	0.662164	12.3632	0.72304	12.9145	0.433256	8.19281	0.577403	10.8555	0.821029	14.1914
0.386151	6.52334	0.111406	1.99944	0.488505	8.99475	0.665969	12.2486	0.724621	12.8723	0.439601	8.16886	0.582108	10.7556	0.824645	14.028
0.389152	6.47217	0.113503	2.00356	0.494538	8.95224	0.670407	12.1225	0.726349	12.8272	0.445926	8.14539	0.586851	10.6597	0.8283	13.8703
0.392062	6.42106	0.115598	2.00754	0.500615	8.91195	0.674917	12.0018	0.728713	12.7669	0.452231	8.12233	0.591634	10.5678	0.831993	13.7181
0.394883	6.37006	0.117694	2.01138	0.506734	8.8737	0.679496	11.8863	0.731728	12.6925	0.458515	8.09964	0.596453	10.4795	0.835242	13.5898
0.397621	6.31925	0.119788	2.0151	0.512891	8.83733	0.68414	11.7756	0.735411	12.605	0.464774	8.07728	0.601311	10.3946	0.838034	13.4834
0.400278	6.26866	0.121883	2.01869	0.519082	8.8027	0.688847	11.6695	0.739783	12.5059	0.471009	8.0552	0.606204	10.3131	0.840359	13.3974
0.402859	6.21834	0.123977	2.02217	0.525305	8.76967	0.693613	11.5677	0.744869	12.3966	0.477217	8.03337	0.611133	10.2348	0.842206	13.3307
0.405366	6.16834	0.12607	2.02553	0.531556	8.73812	0.698433	11.4698	0.75003	12.2919	0.483397	8.01174	0.616098	10.1594	0.84357	13.2823
0.407804	6.1187	0.128163	2.02879	0.537833	8.70792	0.703305	11.3758	0.755265	12.1916	0.489547	7.99029	0.621097	10.0868	0.844445	13.2517
0.410176	6.06944	0.130256	2.03195	0.544131	8.67898	0.708225	11.2853	0.760577	12.0954	0.495665	7.96897	0.626131	10.017	0.845707	13.208
0.412485	6.0206	0.132348	2.03501	0.550449	8.65119	0.713191	11.1982	0.765964	12.0032	0.501751	7.94776	0.631198	9.94979	0.847082	13.1611
0.414735	5.97222	0.13444	2.03798	0.556783	8.62445	0.718197	11.1142	0.771427	11.9149	0.507803	7.92664	0.636299	9.88501	0.84896	13.0982
0.416927	5.92431	0.136532	2.04086	0.563132	8.5987	0.723241	11.0332	0.776966	11.8302	0.513818	7.90557	0.641432	9.82259	0.851347	13.02
0.419066	5.87689	0.138623	2.04366	0.569493	8.57384	0.728321	10.955	0.782582	11.749	0.519797	7.88452	0.646598	9.76242	0.854251	12.9276
0.421153	5.82998	0.140714	2.04638	0.575862	8.54982	0.733433	10.8794	0.788274	11.6712	0.525736	7.86349	0.651797	9.70439	0.857682	12.822
0.423191	5.78361	0.142805	2.04902	0.58224	8.52655	0.738575	10.8063	0.794041	11.5967	0.531636	7.84244	0.657027	9.64842	0.861651	12.7044
0.425184	5.73778	0.144895	2.05159	0.588622	8.50399	0.743743	10.7356	0.799885	11.5252	0.537493	7.82135	0.662289	9.59442	0.865654	12.5904
0.427132	5.69251	0.146986	2.05409	0.595008	8.48208	0.748936	10.6671	0.805803	11.4566	0.543308	7.8002	0.667582	9.54231	0.869689	12.48
0.428797	5.65351	0.149076	2.05652	0.601395	8.46076	0.754151	10.6007	0.811796	11.391	0.549078	7.77899	0.672906	9.492	0.873757	12.373
0.430191	5.62061	0.151165	2.05888	0.607783	8.43999	0.759387	10.5363	0.817862	11.328	0.554802	7.75769	0.678261	9.44342	0.877857	12.2692
0.431329	5.59365	0.153255	2.06119	0.614168	8.41973	0.764641	10.4738	0.824001	11.2676	0.560479	7.73629	0.683645	9.3965	0.881988	12.1684
0.432219	5.57248	0.155344	2.06343	0.62055	8.39993	0.769912	10.4131	0.830211	11.2097	0.566109	7.71478	0.68906	9.35118	0.88615	12.0707
0.432867	5.55701	0.157433	2.06561	0.626928	8.38056	0.775199	10.3541	0.836492	11.1542	0.571688	7.69314	0.694505	9.30738	0.890343	11.9758
0.43328	5.54714	0.159522	2.06774	0.633299	8.36159	0.7805	10.2968	0.842842	11.101	0.577217	7.67136	0.699978	9.26505	0.894565	11.8837
0.433871	5.53301	0.16161	2.06982	0.639662	8.34298	0.785815	10.2411	0.849259	11.0499	0.582695	7.64944	0.705481	9.22413	0.898818	11.7942
0.434508	5.51773	0.163699	2.07184	0.646017	8.3247	0.791142	10.1868	0.855742	11.0009	0.58812	7.62737	0.711011	9.18456	0.903099	11.7073
0.435368	5.49706	0.165787	2.07382	0.652362	8.30673	0.796482	10.134	0.86229	10.9539	0.593492	7.60514	0.71657	9.14629	0.907409	11.6228
0.436445	5.47112	0.167875	2.07574	0.658696	8.28904	0.801832	10.0825	0.8689	10.9087	0.598809	7.58274	0.722156	9.10926	0.911747	11.5406
0.437732	5.44005	0.169962	2.07762	0.665017	8.27161	0.807193	10.0324	0.875571	10.8654	0.604071	7.56018	0.72777	9.07343	0.916114	11.4607
0.439219	5.40401	0.17205	2.07946	0.671325	8.25442	0.812565	9.98355	0.882302	10.8238	0.609277	7.53745	0.733409	9.03875	0.920507	11.383
0.4409	5.36321	0.174138	2.08125	0.677619	8.23744	0.817946	9.93593	0.88909	10.7838	0.614427	7.51454	0.739074	9.00517	0.924928	11.3074
0.442554	5.323	0.176225	2.08301	0.683897	8.22065	0.823338	9.8895	0.895933	10.7453	0.619519	7.49146	0.744765	8.97264	0.929376	11.2338
0.444181	5.28337	0.178312	2.08472	0.69016	8.20405	0.828739	9.84421	0.90283	10.7084	0.624554	7.46821	0.750479	8.94113	0.933849	11.1622
0.445785	5.24432	0.180399	2.08639	0.696405	8.1876	0.83415	9.80003	0.909779	10.6729	0.629531	7.44478	0.756218	8.91059	0.938349	11.0924
0.447365	5.20586	0.182486	2.08803	0.702631	8.1713	0.839571	9.75692	0.916778	10.6387	0.63445	7.42118	0.76198	8.88098	0.942874	11.0245
0.448924	5.16797	0.184573	2.08963	0.708839	8.15514	0.845002	9.71484	0.923825	10.6058	0.63931	7.39741	0.767763	8.85227	0.947425	10.9583
0.450463	5.13065	0.186659	2.09119	0.715027	8.13908	0.850443	9.67377	0.930918	10.5741	0.644112	7.37348	0.773569	8.8244	0.952	10.8939
0.451982	5.0939	0.188746	2.09272	0.721195	8.12314	0.855893	9.63367	0.938056	10.5436	0.648854	7.34939	0.779394	8.79736	0.9566	10.831
0.453483	5.05771	0.190832	2.09422	0.72734	8.10728	0.861354	9.59452	0.945236	10.5142	0.653538	7.32513	0.78524	8.7711	0.961224	10.7698
0.454967	5.02207	0.192918	2.09569	0.733464	8.09151	0.866825	9.55629	0.952458	10.4859	0.658163	7.30073	0.791104	8.74559	0.965871	10.71
0.456435	4.98699	0.195004	2.09712	0.739564	8.0758	0.872306	9.51894	0.959719	10.4586	0.662728	7.27617	0.796986	8.72079	0.970543	10.6518
0.457887	4.95244	0.19709	2.09853	0.745641	8.06016	0.877798	9.48247	0.967017	10.4322	0.667235	7.25148	0.802885	8.69668	0.975237	10.595
0.459325	4.91843	0.199176	2.09991	0.751693	8.04456	0.883301	9.44683	0.974351	10.4067	0.671684	7.22665	0.8088	8.67322	0.979954	10.5395
0.46075	4.88495	0.201262	2.10126	0.75772	8.029	0.888815	9.41201	0.981719	10.3821	0.676074	7.2017	0.814729	8.65038	0.984694	10.4854
0.462162	4.852	0.203348	2.10258	0.763721	8.01348	0.894339	9.37799	0.98912	10.3583	0.680406	7.17662	0.820673	8.62813	0.989456	10.4326
0.463562	4.81956	0.205433	2.10388	0.769696	7.99797	0.899875	9.34474	0.996551	10.3353	0.684681	7.15143	0.82663	8.60645	0.994241	10.3811
0.464951	4.78762	0.207519	2.10515	0.775642	7.98249	0.905422	9.31225	1.00401	10.313	0.688898	7.12613	0.832598	8.58531	0.999046	10.3308
0.46633	4.75619	0.209604	2.1064	0.781561	7.96701	0.910981	9.28049			0.693059	7.10073	0.838577	8.56469	1.00387	10.2817
0.467699	4.72525	0.211689	2.10762	0.787452	7.95154	0.916551	9.24944			0.697163	7.07524	0.844567	8.54455		
0.469059	4.69479	0.213775	2.10882	0.793313	7.93606	0.922133	9.21909			0.701211	7.04967	0.850564	8.52487		
0.47041	4.66481	0.21586	2.10999	0.799144	7.92057	0.927726	9.18942			0.705204	7.02402	0.85657	8.50564		
0.471753	4.63531	0.217945	2.11115	0.804945	7.90507	0.933331	9.1604			0.709142	6.9983	0.862583	8.48683		
0.473089	4.60626	0.22003	2.11228	0.810715	7.88954	0.938948	9.13202			0.713025	6.97251	0.868601	8.46841		
0.474417	4.57767	0.222114	2.11339	0.816453	7.87399	0.944577	9.10427			0.716855	6.94667	0.874624	8.45037		
0.47574	4.54953	0.224199	2.11448	0.82216	7.85841	0.950218	9.07712			0.720632	6.92079	0.880651	8.43269		
0.477056	4.52183	0.226284	2.11555	0.827833	7.8428	0.955871	9.05057			0.724357	6.89487	0.88668	8.41535		
0.478367	4.49457	0.228369	2.11661	0.833474	7.82715	0.961535	9.02459			0.728029	6.86891	0.892711	8.39833		
0.479673	4.46773	0.230453	2.11764	0.839081	7.81146	0.967211	8.99917			0.731651	6.84293	0.898743	8.38161		
0.480974	4.4413	0.232538	2.11866	0.844654	7.79573	0.972899	8.97429			0.735223	6.81693	0.904775	8.36518		
0.482271	4.41529	0.234622	2.11966	0.850193	7.77995	0.978598	8.94995			0.738744	6.79092	0.910806	8.34902		
0.483564	4.38969	0.236706	2.12064	0.855698	7.76412	0.984309	8.92612			0.742217	6.7649	0.916835	8.33311		
0.484853	4.36448	0.238791	2.1216	0.861167	7.74825	0.990031	8.90279			0.745641	6.73888	0.922861	8.31745		
0.486139	4.33966	0.240875	2.12255	0.8666	7.73231	0.995764	8.87994			0.749018	6.71288	0.928883	8.30201		
0.487422	4.31522	0.242959	2.12348	0.871998	7.71633	1.00151	8.85757			0.752348	6.68688	0.9349	8.28679		
0.488703	4.29116	0.245043	2.1244	0.87736	7.70029					0.755632	6.66091	0.940912	8.27176		
0.489981	4.26748	0.247127	2.1253	0.882685	7.68419					0.75887	6.63497	0.946918	8.25693		
0.491257	4.24415	0.249211	2.12618	0.887974	7.66804					0.762064	6.60905	0.952916	8.24227		
0.492531	4.22118	0.251295	2.12706	0.893226	7.65183					0.765214	6.58318	0.958906	8.22778		
0.493804	4.19856	0.253379	2.12791	0.898441	7.63556					0.76832	6.55735	0.964888	8.21344		
0.495076	4.17629	0.255463	2.12876	0.903618	7.61923					0.771385	6.53156	0.97086	8.19925		
0.496346	4.15436	0.257547	2.12959	0.908758	7.60285					0.774407	6.50583	0.976822	8.1852		
0.497616	4.13275	0.25963	2.1304	0.913861	7.5864					0.777389	6.48016	0.982772	8.17127		
0.498884	4.11148	0.261714	2.13121	0.918926	7.5699					0.78033	6.45455	0.988711	8.15745		
0.500153	4.09052	0.263798	2.132	0.923954	7.55335					0.783232	6.429	0.994638	8.14375		
0.501421	4.06988	0.265881	2.13278	0.928943	7.53673					0.786095	6.40353	1.00055	8.13014		
0.502689	4.04955	0.267965	2.13355	0.933895	7.52006					0.78892	6.37814				
0.503957	4.02952	0.270048	2.1343	0.938809	7.50334					0.791708	6.35283				
0.505225	4.00979	0.272132	2.13505	0.943685	7.48656					0.794459	6.3276				
0.506494	3.99035	0.274215	2.13578	0.948523	7.46973					0.797175	6.30245				
0.507763	3.9712	0.276299	2.13651	0.953323	7.45285					0.799855	6.2774				
0.509033	3.95233	0.278382	2.13722	0.958085	7.43592					0.8025	6.25245				
0.510303	3.93374	0.280465	2.13792	0.96281	7.41894					0.805112	6.22759				
0.511575	3.91542	0.282548	2.13861	0.967497	7.40191					0.80769	6.20283				
0.512847	3.89737	0.284632	2.13929	0.972146	7.38484					0.810237	6.17818				
0.514121	3.87958	0.286715	2.13996	0.976757	7.36773					0.812751	6.15364				
0.515396	3.86205	0.288798	2.14063	0.981331	7.35057					0.815234	6.1292				
0.516673	3.84477	0.290881	2.14128	0.985868	7.33337					0.817687	6.10488				
0.517951	3.82774	0.292964	2.14192	0.990367	7.31614					0.82011	6.08067				
0.51923	3.81096	0.295047	2.14256	0.99483	7.29887					0.822504	6.05658				
0.520511	3.79442	0.29713	2.14318	0.999255	7.28156					0.824869	6.03261				
0.521794	3.77811	0.299213	2.1438	1.00364	7.26422					0.827207	6.00876				
0.523079	3.76203	0.301296	2.14441							0.829517	5.98504				
0.524366	3.74618	0.303379	2.14501							0.8318	5.96144				
0.525654	3.73056	0.305462	2.1456							0.834057	5.93796				
0.526945	3.71515	0.307545	2.14619							0.836289	5.91462				
0.528238	3.69996	0.309628	2.14677							0.838496	5.89141				
0.529533	3.68499	0.31171	2.14734							0.840678	5.86833				
0.53083	3.67022	0.313793	2.1479							0.842837	5.84538				
0.53213	3.65565	0.315876	2.14845							0.844972	5.82256				
0.533432	3.64129	0.317959	2.149							0.847085	5.79988				
0.534736	3.62713	0.320041	2.14954							0.849175	5.77734				
0.536043	3.61316	0.322124	2.15007							0.851244	5.75494				
0.537352	3.59938	0.324206	2.1506							0.853291	5.73267				
0.538664	3.58579	0.326289	2.15112							0.855318	5.71054				
0.539978	3.57238	0.328372	2.15163							0.857324	5.68855				
0.541295	3.55915	0.330454	2.15214							0.859311	5.6667				
0.542615	3.54611	0.332537	2.15264							0.861279	5.645				
0.543937	3.53324	0.334619	2.15314							0.863228	5.62343				
0.545262	3.52054	0.336702	2.15363							0.865159	5.60201				
0.54659	3.50801	0.338784	2.15411							0.867071	5.58073				
0.547921	3.49565	0.340867	2.15459							0.868967	5.55959				
0.549254	3.48345	0.342949	2.15506							0.870845	5.53859				
0.550591	3.47141	0.345031	2.15552							0.872707	5.51773				
0.55193	3.45953	0.347114	2.15598							0.874552	5.49702				
0.553272	3.44781	0.349196	2.15644							0.876382	5.47645				
0.554617	3.43624	0.351278	2.15689							0.878197	5.45602				
0.555965	3.42482	0.353361	2.15733							0.879996	5.43574				
0.557315	3.41355	0.355443	2.15777							0.881781	5.4156				
0.558669	3.40242	0.357525	2.1582							0.883552	5.3956				
0.560026	3.39144	0.359607	2.15863							0.885309	5.37574				
0.561386	3.3806	0.36169	2.15906							0.887052	5.35602				
0.562748	3.3699	0.363772	2.15948							0.888782	5.33645				
0.564114	3.35934	0.365854	2.15989							0.890499	5.31702				
0.565483	3.34891	0.367936	2.1603							0.892204	5.29772				
0.566854	3.33861	0.370018	2.1607							0.893897	5.27857				
0.568229	3.32844	0.3721	2.16111							0.895577	5.25956				
0.569607	3.3184	0.374183	2.1615							0.897247	5.24069				
0.570988	3.30849	0.376265	2.16189							0.898904	5.22196				
0.572372	3.2987	0.378347	2.16228							0.900551	5.20336				
0.573759	3.28903	0.380429	2.16267							0.902188	5.1849				
0.575149	3.27949	0.382511	2.16305							0.903814	5.16658				
0.576542	3.27006	0.384593	2.16342							0.90543	5.1484				
0.577938	3.26074	0.386675	2.16379							0.907036	5.13035				
0.579337	3.25155	0.388757	2.16416							0.908632	5.11244				
0.580739	3.24246	0.390839	2.16452							0.910219	5.09466				
0.582145	3.23349	0.392921	2.16488							0.911798	5.07702				
0.583553	3.22462	0.395003	2.16524							0.913367	5.05951				
0.584964	3.21586	0.397085	2.16559							0.914928	5.04214				
0.586379	3.20721	0.399167	2.16594							0.91648	5.02489				
0.587796	3.19867	0.401249	2.16628							0.918025	5.00778				
0.589217	3.19022	0.403331	2.16663							0.919561	4.99079				
0.590641	3.18188	0.405412	2.16696							0.92109	4.97394				
0.592067	3.17364	0.407494	2.1673							0.922611	4.95721				
0.593497	3.16549	0.409576	2.16763							0.924125	4.94062				
0.59493	3.15744	0.411658	2.16796							0.925633	4.92415				
0.596366	3.14949	0.41374	2.16828							0.927133	4.9078				
0.597804	3.14163	0.415822	2.1686							0.928626	4.89158				
0.599246	3.13386	0.417904	2.16892							0.930114	4.87549				
0.600691	3.12619	0.419985	2.16924							0.931595	4.85952				
0.602139	3.1186	0.422067	2.16955							0.93307	4.84367				
0.60359	3.1111	0.424149	2.16986							0.934539	4.82795				
0.605044	3.10369	0.426231	2.17017							0.936002	4.81235				
0.606501	3.09637	0.428312	2.17047							0.93746	4.79686				
0.60796	3.08912	0.430394	2.17077							0.938912	4.7815				
0.609423	3.08197	0.432476	2.17107							0.940359	4.76626				
0.610889	3.07489	0.434558	2.17136							0.941801	4.75113				
0.612358	3.0679	0.436639	2.17165							0.943239	4.73612				
0.613829	3.06098	0.438721	2.17194							0.944671	4.72122				
0.615304	3.05414	0.440803	2.17223							0.946099	4.70644				
0.616781	3.04739	0.442884	2.17251							0.947522	4.69178				
0.618262	3.0407	0.444966	2.17279							0.948941	4.67723				
0.619745	3.03409	0.447048	2.17307							0.950356	4.66279				
0.621231	3.02756	0.449129	2.17335							0.951767	4.64846				
0.62272	3.0211	0.451211	2.17362							0.953174	4.63424				
0.624212	3.01471	0.453293	2.17389							0.954577	4.62014				
0.625707	3.00839	0.455374	2.17416							0.955976	4.60614				
0.627204	3.00215	0.457456	2.17442							0.957372	4.59225				
0.628705	2.99597	0.459537	2.17469							0.958764	4.57847				
0.630208	2.98986	0.461619	2.17495							0.960153	4.56479				
0.631714	2.98381	0.4637	2.17521							0.961539	4.55122				
0.633223	2.97783	0.465782	2.17546							0.962922	4.53775				
0.634735	2.97192	0.467864	2.17572							0.964302	4.52439				
0.636249	2.96607	0.469945	2.17597							0.965679	4.51113				
0.637767	2.96029	0.472027	2.17622							0.967053	4.49797				
0.639287	2.95457	0.474108	2.17647							0.968424	4.48492				
0.640809	2.94891	0.47619	2.17671							0.969793	4.47196				
0.642335	2.94331	0.478271	2.17696							0.97116	4.45911				
0.643863	2.93777	0.480353	2.1772							0.972524	4.44635				
0.645394	2.93229	0.482434	2.17744							0.973885	4.43369				
0.646927	2.92687	0.484516	2.17768							0.975245	4.42112				
0.648464	2.9215	0.486597	2.17791							0.976602	4.40866				
0.650003	2.91619	0.488679	2.17814							0.977958	4.39628				
0.651544	2.91094	0.49076	2.17838							0.979311	4.38401				
0.653088	2.90575	0.492842	2.1786							0.980663	4.37182				
0.654635	2.9006	0.494923	2.17883							0.982013	4.35973				
0.656185	2.89552	0.497004	2.17906							0.983361	4.34774				
0.657737	2.89048	0.499086	2.17928							0.984707	4.33583				
0.659291	2.8855	0.501167	2.1795							0.986052	4.32401				
0.660848	2.88057	0.503249	2.17972							0.987396	4.31228				
0.662408	2.87569	0.50533	2.17994							0.988738	4.30065				
0.663971	2.87086	0.507411	2.18016							0.990079	4.2891				
0.665535	2.86608	0.509493	2.18037							0.991418	4.27763				
0.667103	2.86135	0.511574	2.18058							0.992756	4.26626				
0.668673	2.85667	0.513656	2.1808							0.994093	4.25497				
0.670245	2.85203	0.515737	2.18101							0.99543	4.24376				
0.67182	2.84744	0.517818	2.18121							0.996765	4.23264				
0.673397	2.8429	0.5199	2.18142							0.998099	4.2216				
0.674977	2.83841	0.521981	2.18162							0.999432	4.21065				
0.67656	2.83396	0.524062	2.18183							1.00076	4.19978				
0.678144	2.82955	0.526144	2.18203												
0.679731	2.82519	0.528225	2.18223												
0.681321	2.82088	0.530306	2.18243												
0.682913	2.8166	0.532388	2.18262												
0.684507	2.81237	0.534469	2.18282												
0.686104	2.80818	0.53655	2.18301												
0.687703	2.80403	0.538632	2.1832												
0.689304	2.79993	0.540713	2.18339												
0.690908	2.79586	0.542794	2.18358												
0.692514	2.79183	0.544875	2.18377												
0.694122	2.78785	0.546957	2.18396												
0.695733	2.7839	0.549038	2.18414												
0.697346	2.77999	0.551119	2.18433												
0.698961	2.77612	0.5532	2.18451												
0.700579	2.77228	0.555282	2.18469												
0.702198	2.76848	0.557363	2.18487												
0.70382	2.76472	0.559444	2.18505												
0.705445	2.761	0.561525	2.18522												
0.707071	2.75731	0.563607	2.1854												
0.7087	2.75365	0.565688	2.18557												
0.71033	2.75004	0.567769	2.18575												
0.711963	2.74645	0.56985	2.18592												
0.713598	2.7429	0.571931	2.18609												
0.715235	2.73938	0.574013	2.18626												
0.716875	2.7359	0.576094	2.18642												
0.718516	2.73245	0.578175	2.18659												
0.72016	2.72903	0.580256	2.18676												
0.721805	2.72564	0.582337	2.18692												
0.723453	2.72229	0.584419	2.18708												
0.725103	2.71896	0.5865	2.18725												
0.726755	2.71567	0.588581	2.18741												
0.728409	2.71241	0.590662	2.18757												
0.730065	2.70917	0.592743	2.18773												
0.731723	2.70597	0.594824	2.18788												
0.733383	2.7028	0.596906	2.18804												
0.735045	2.69965	0.598987	2.1882												
0.736709	2.69654	0.601068	2.18835												
0.738375	2.69345	0.603149	2.1885												
0.740043	2.69039	0.60523	2.18866												
0.741713	2.68736	0.607311	2.18881												
0.743384	2.68435	0.609392	2.18896												
0.745058	2.68138	0.611473	2.18911												
0.746734	2.67843	0.613554	2.18925												
0.748412	2.6755	0.615636	2.1894												
0.750091	2.6726	0.617717	2.18955												
0.751772	2.66973	0.619798	2.18969												
0.753456	2.66689	0.621879	2.18984												
0.755141	2.66407	0.62396	2.18998												
0.756828	2.66127	0.626041	2.19012												
0.758517	2.6585	0.628122	2.19026												
0.760207	2.65575	0.630203	2.1904												
0.7619	2.65303	0.632284	2.19054												
0.763594	2.65033	0.634365	2.19068												
0.76529	2.64766	0.636446	2.19082												
0.766988	2.645	0.638527	2.19096												
0.768688	2.64238	0.640608	2.19109												
0.770389	2.63977	0.642689	2.19123												
0.772093	2.63719	0.64477	2.19136												
0.773798	2.63463	0.646851	2.1915												
0.775504	2.63209	0.648932	2.19163												
0.777213	2.62957	0.651013	2.19176												
0.778923	2.62708	0.653094	2.19189												
0.780635	2.6246	0.655176	2.19202												
0.782348	2.62215	0.657257	2.19215												
0.784063	2.61972	0.659338	2.19228												
0.78578	2.61731	0.661419	2.19241												
0.787499	2.61492	0.6635	2.19253												
0.789219	2.61255	0.665581	2.19266												
0.790941	2.61019	0.667662	2.19278												
0.792665	2.60786	0.669743	2.19291												
0.79439	2.60555	0.671823	2.19303												
0.796117	2.60326	0.673904	2.19315												
0.797845	2.60099	0.675985	2.19328												
0.799575	2.59874	0.678066	2.1934												
0.801307	2.5965	0.680147	2.19352												
0.80304	2.59429	0.682228	2.19364												
0.804774	2.59209	0.684309	2.19376												
0.806511	2.58991	0.68639	2.19388												
0.808249	2.58775	0.688471	2.19399												
0.809988	2.5856	0.690552	2.19411												
0.811729	2.58348	0.692633	2.19423												
0.813471	2.58137	0.694714	2.19434												
0.815215	2.57928	0.696795	2.19446												
0.816961	2.5772	0.698876	2.19457												
0.818708	2.57514	0.700957	2.19468												
0.820456	2.5731	0.703038	2.1948												
0.822206	2.57108	0.705119	2.19491												
0.823958	2.56907	0.7072	2.19502												
0.825711	2.56708	0.709281	2.19513												
0.827465	2.5651	0.711362	2.19524												
0.829221	2.56314	0.713443	2.19535												
0.830978	2.5612	0.715523	2.19546												
0.832737	2.55927	0.717604	2.19557												
0.834497	2.55736	0.719685	2.19568												
0.836258	2.55546	0.721766	2.19578												
0.838021	2.55358	0.723847	2.19589												
0.839786	2.55171	0.725928	2.196												
0.841551	2.54985	0.728009	2.1961												
0.843318	2.54801	0.73009	2.19621												
0.845087	2.54619	0.732171	2.19631												
0.846857	2.54438	0.734252	2.19641												
0.848628	2.54258	0.736332	2.19652												
0.850401	2.5408	0.738413	2.19662												
0.852174	2.53904	0.740494	2.19672												
0.85395	2.53728	0.742575	2.19682												
0.855726	2.53554	0.744656	2.19692												
0.857504	2.53381	0.746737	2.19702												
0.859283	2.5321	0.748818	2.19712												
0.861064	2.5304	0.750898	2.19722												
0.862846	2.52871	0.752979	2.19732												
0.864629	2.52704	0.75506	2.19742												
0.866413	2.52538	0.757141	2.19752												
0.868199	2.52373	0.759222	2.19761												
0.869985	2.52209	0.761303	2.19771												
0.871774	2.52047	0.763384	2.1978												
0.873563	2.51885	0.765464	2.1979												
0.875354	2.51726	0.767545	2.19799												
0.877146	2.51567	0.769626	2.19809												
0.878939	2.51409	0.771707	2.19818												
0.880733	2.51253	0.773788	2.19827												
0.882529	2.51098	0.775869	2.19837												
0.884325	2.50944	0.777949	2.19846												
0.886123	2.50791	0.78003	2.19855												
0.887922	2.50639	0.782111	2.19864												
0.889723	2.50489	0.784192	2.19873												
0.891524	2.50339	0.786273	2.19882												
0.893327	2.50191	0.788353	2.19891												
0.895131	2.50044	0.790434	2.199												
0.896936	2.49897	0.792515	2.19909												
0.898742	2.49752	0.794596	2.19918												
0.900549	2.49608	0.796677	2.19927												
0.902358	2.49465	0.798757	2.19935												
0.904168	2.49323	0.800838	2.19944												
0.905978	2.49183	0.802919	2.19953												
0.90779	2.49043	0.805	2.19961												
0.909603	2.48904	0.807081	2.1997												
0.911417	2.48766	0.809161	2.19979												
0.913232	2.48629	0.811242	2.19987												
0.915049	2.48493	0.813323	2.19995												
0.916866	2.48359	0.815404	2.20004												
0.918685	2.48225	0.817485	2.20012												
0.920504	2.48092	0.819565	2.2002												
0.922325	2.4796	0.821646	2.20029												
0.924146	2.47829	0.823727	2.20037												
0.925969	2.47699	0.825808	2.20045												
0.927793	2.4757	0.827888	2.20053												
0.929618	2.47441	0.829969	2.20061												
0.931444	2.47314	0.83205	2.20069												
0.933271	2.47188	0.834131	2.20077												
0.935099	2.47062	0.836211	2.20085												
0.936928	2.46937	0.838292	2.20093												
0.938758	2.46814	0.840373	2.20101												
0.940589	2.46691	0.842454	2.20109												
0.942421	2.46569	0.844534	2.20117												
0.944254	2.46448	0.846615	2.20125												
0.946088	2.46327	0.848696	2.20132												
0.947923	2.46208	0.850777	2.2014												
0.949759	2.46089	0.852857	2.20148												
0.951596	2.45971	0.854938	2.20155												
0.953434	2.45854	0.857019	2.20163												
0.955273	2.45738	0.8591	2.20171												
0.957112	2.45623	0.86118	2.20178												
0.958953	2.45508	0.863261	2.20186												
0.960795	2.45394	0.865342	2.20193												
0.962638	2.45281	0.867422	2.202												
0.964482	2.45169	0.869503	2.20208												
0.966326	2.45058	0.871584	2.20215												
0.968172	2.44947	0.873665	2.20222												
0.970018	2.44837	0.875745	2.2023												
0.971866	2.44728	0.877826	2.20237												
0.973714	2.44619	0.879907	2.20244												
0.975563	2.44512	0.881987	2.20251												
0.977413	2.44405	0.884068	2.20258												
0.979264	2.44298	0.886149	2.20266												
0.981116	2.44193	0.888229	2.20273												
0.982969	2.44088	0.89031	2.2028												
0.984823	2.43984	0.892391	2.20287												
0.986678	2.4388	0.894472	2.20294												
0.988533	2.43777	0.896552	2.20301												
0.99039	2.43675	0.898633	2.20307												
0.992247	2.43574	0.900714	2.20314												
0.994105	2.43473	0.902794	2.20321												
0.995964	2.43373	0.904875	2.20328												
0.997824	2.43274	0.906956	2.20335												
0.999684	2.43175	0.909036	2.20341												
1.00155	2.43077	0.911117	2.20348												
		0.913198	2.20355												
		0.915278	2.20362												
		0.917359	2.20368												
		0.91944	2.20375												
		0.92152	2.20381												
		0.923601	2.20388												
		0.925682	2.20394												
		0.927762	2.20401												
		0.929843	2.20407												
		0.931924	2.20414												
		0.934004	2.2042												
		0.936085	2.20426												
		0.938165	2.20433												
		0.940246	2.20439												
		0.942327	2.20445												
		0.944407	2.20452												
		0.946488	2.20458												
		0.948569	2.20464												
		0.950649	2.2047												
		0.95273	2.20476												
		0.954811	2.20482												
		0.956891	2.20489												
		0.958972	2.20495												
		0.961052	2.20501												
		0.963133	2.20507												
		0.965214	2.20513												
		0.967294	2.20519												
		0.969375	2.20524												
		0.971456	2.2053												
		0.973536	2.20536												
		0.975617	2.20542												
		0.977697	2.20548												
		0.979778	2.20554												
		0.981859	2.20559												
		0.983939	2.20565												
		0.98602	2.20571												
		0.9881	2.20577												
		0.990181	2.20582												
		0.992262	2.20588												
		0.994342	2.20594												
		0.996423	2.20599												
		0.998503	2.20605												
		1.00058	2.2061												
