Minima		Zeros		Sym0		Asym0		Sym1		Sym2		Sym3		Asym1		Asym2	
8  Points		7  Points		468  Points		491  Points		467  Points		170  Points		120  Points		362  Points		131  Points	
Freq (MHz)	Vph (m/ms)	Freq (MHz)	Vph (m/ms)	Freq (MHz)	Vph (m/ms)	Freq (MHz)	Vph (m/ms)	Freq (MHz)	Vph (m/ms)	Freq (MHz)	Vph (m/ms)	Freq (MHz)	Vph (m/ms)	Freq (MHz)	Vph (m/ms)	Freq (MHz)	Vph (m/ms)
0.386611	4.34412	0.385842	4.34412	0.0002555	8.80248	0.000476372	0.245747	0.00499746	8.80306	0.279535	569.106	0.41277	829.681	0.139769	624.882	0.419267	1795.71
0.0297116	1.56306	0.0296802	1.56306	0.00845704	8.8028	0.00103508	0.360634	0.0131981	8.80231	0.279727	196.593	0.412844	288.864	0.140135	121.29	0.419371	359.921
0.19099	8.55784	0.190636	8.55784	0.0166567	8.80181	0.00179448	0.472001	0.0213957	8.80089	0.280106	118.963	0.412992	174.93	0.140992	67.5552	0.419614	200.114
0.555708	9.30673	0.553448	9.30673	0.0248524	8.80007	0.00274047	0.578945	0.0295882	8.79874	0.280671	85.4072	0.413212	125.498	0.142329	47.1481	0.419995	138.678
0.870691	9.95351	0.870182	9.95351	0.0330423	8.79765	0.00385707	0.68083	0.0377739	8.79592	0.281419	66.7192	0.413507	97.8881	0.144129	36.4842	0.420515	106.184
0.406505	9.00037	0.407037	9.00037	0.0412243	8.79452	0.00512713	0.777198	0.0459504	8.79237	0.282348	54.8285	0.413877	80.2713	0.146373	29.9812	0.421171	86.0946
0.734751	9.67437	0.735062	9.67437	0.0493964	8.79066	0.00653309	0.867765	0.0541159	8.7881	0.283454	46.6104	0.414324	68.0595	0.149036	25.6347	0.421964	72.4569
0.794432	9.79692			0.0575566	8.78607	0.00805799	0.952444	0.0622682	8.78308	0.284735	40.6007	0.41485	59.1007	0.152093	22.5473	0.422892	62.6011
				0.0657026	8.78073	0.00968565	1.03126	0.0704048	8.77728	0.286185	36.0219	0.415456	52.2516	0.155518	20.257	0.423955	55.1519
				0.0738319	8.77459	0.0114012	1.10437	0.0785235	8.77068	0.2878	32.4229	0.416146	46.8487	0.159282	18.5019	0.425151	49.3287
				0.0819423	8.76765	0.0131913	1.17199	0.0866216	8.76325	0.289575	29.524	0.416921	42.4803	0.163359	17.1225	0.426478	44.6554
				0.0900309	8.75986	0.015044	1.23442	0.0946965	8.75495	0.291505	27.1424	0.417786	38.8778	0.167724	16.0159	0.427936	40.8253
				0.0980951	8.75117	0.0169489	1.29195	0.102745	8.74573	0.293583	25.1538	0.418743	35.8579	0.172352	15.1133	0.429522	37.6317
				0.106132	8.74156	0.0188971	1.34494	0.110764	8.73555	0.295803	23.4704	0.419797	33.292	0.17722	14.3664	0.431234	34.9304
				0.114138	8.73096	0.0208809	1.39371	0.118751	8.72435	0.29816	22.0289	0.42095	31.0865	0.182307	13.741	0.433071	32.6176
				0.122109	8.71932	0.0228938	1.4386	0.126701	8.71209	0.300646	20.7821	0.422207	29.1722	0.187594	13.2117	0.43503	30.6167
				0.130043	8.70657	0.0246673	1.4748	0.13461	8.69868	0.303256	19.6941	0.423574	27.4965	0.193062	12.7595	0.43711	28.8701
				0.137934	8.69266	0.0261909	1.50368	0.142475	8.68405	0.305984	18.7375	0.425053	26.0189	0.198694	12.37	0.439308	27.3333
				0.145778	8.67749	0.0274578	1.52626	0.15029	8.66812	0.308823	17.8907	0.426651	24.7076	0.204475	12.0321	0.441622	25.9717
				0.15357	8.66099	0.0284635	1.54334	0.158049	8.6508	0.311768	17.1363	0.428371	23.5373	0.210392	11.7368	0.44405	24.7579
				0.161305	8.64306	0.0292049	1.55548	0.165748	8.63199	0.314814	16.4608	0.430221	22.4877	0.216432	11.4772	0.446588	23.6698
				0.168976	8.62358	0.0296802	1.56306	0.172402	8.61429	0.317955	15.8528	0.432203	21.5422	0.222582	11.2476	0.449235	22.6897
				0.176577	8.60245	0.0303644	1.57373	0.178031	8.59818	0.32119	15.3031	0.434324	20.6872	0.228833	11.0436	0.451988	21.8027
				0.1841	8.57954	0.0311095	1.585	0.182652	8.58411	0.324513	14.8043	0.436588	19.9114	0.235175	10.8613	0.454844	20.9969
				0.191537	8.5547	0.0321246	1.59984	0.186284	8.57248	0.327924	14.35	0.439	19.2054	0.241598	10.6976	0.457801	20.2619
				0.19888	8.5278	0.0334112	1.6178	0.188941	8.56363	0.331421	13.9349	0.441564	18.561	0.248095	10.55	0.460856	19.5893
				0.206119	8.49867	0.0349707	1.63841	0.190636	8.55784	0.335007	13.5547	0.444285	17.9716	0.254658	10.4164	0.464006	18.9719
				0.213243	8.46714	0.0368042	1.66112	0.193063	8.54932	0.338681	13.2055	0.447166	17.4312	0.26128	10.2949	0.46725	18.4034
				0.220241	8.43304	0.0389123	1.68539	0.19569	8.5398	0.342449	12.8844	0.450211	16.9348	0.267953	10.184	0.470583	17.8787
				0.227102	8.39619	0.0410238	1.70793	0.199242	8.52641	0.346314	12.5885	0.45342	16.478	0.274673	10.0824	0.474004	17.393
				0.233811	8.35641	0.0431376	1.72887	0.203698	8.50872	0.350284	12.3157	0.456797	16.0571	0.281434	9.98896	0.47751	16.9424
				0.240357	8.31352	0.0452529	1.74836	0.209031	8.48615	0.354365	12.064	0.460343	15.6685	0.28823	9.90269	0.481099	16.5235
				0.246725	8.26737	0.0473691	1.76653	0.215203	8.45792	0.358567	11.8318	0.464056	15.3095	0.295056	9.82279	0.484767	16.1332
				0.252903	8.21782	0.0494857	1.7835	0.222164	8.42308	0.362899	11.6175	0.467939	14.9772	0.301908	9.74851	0.488513	15.769
				0.258877	8.16476	0.0516022	1.79936	0.228984	8.38543	0.367369	11.42	0.471988	14.6693	0.30878	9.67923	0.492334	15.4283
				0.264636	8.10812	0.0537186	1.81422	0.235649	8.3448	0.371988	11.2381	0.476202	14.3838	0.31567	9.6144	0.496227	15.1091
				0.270168	8.04788	0.0558343	1.82814	0.242147	8.30102	0.376763	11.0708	0.480579	14.1187	0.322571	9.55351	0.50019	14.8097
				0.275465	7.98408	0.0579492	1.84122	0.248464	8.25394	0.3817	10.917	0.485116	13.8722	0.329482	9.49614	0.504221	14.5283
				0.28052	7.91682	0.0600634	1.85353	0.254586	8.20342	0.386806	10.7759	0.489808	13.643	0.336397	9.44191	0.508319	14.2634
				0.28533	7.84626	0.0621765	1.86511	0.260501	8.14937	0.392082	10.6465	0.494653	13.4294	0.343313	9.39047	0.512479	14.0138
				0.289894	7.77262	0.0642887	1.87604	0.266198	8.09172	0.397528	10.528	0.499646	13.2303	0.350227	9.34151	0.516702	13.7782
				0.294214	7.69619	0.0663997	1.88636	0.271665	8.03049	0.403142	10.4196	0.504783	13.0445	0.357134	9.29477	0.520984	13.5556
				0.298294	7.61728	0.0685098	1.89611	0.276895	7.96571	0.40892	10.3204	0.510058	12.8709	0.364032	9.24998	0.525324	13.3451
				0.302143	7.53625	0.0706187	1.90535	0.281883	7.89751	0.414854	10.2296	0.515467	12.7086	0.370916	9.20694	0.52972	13.1456
				0.305768	7.45347	0.0727266	1.91411	0.286624	7.82607	0.420936	10.1465	0.521005	12.5567	0.377784	9.16544	0.534172	12.9565
				0.309182	7.36931	0.0748334	1.92241	0.29112	7.75163	0.427156	10.0703	0.526667	12.4144	0.384631	9.12529	0.538676	12.777
				0.312396	7.28416	0.0769392	1.93031	0.295373	7.67447	0.433503	10.0003	0.532448	12.281	0.390578	9.09127	0.543232	12.6065
				0.315423	7.19836	0.0790439	1.93782	0.299388	7.59494	0.439967	9.93583	0.538344	12.1557	0.395632	9.06291	0.54784	12.4444
				0.318276	7.11225	0.0811478	1.94497	0.303173	7.51338	0.446536	9.87637	0.544349	12.0381	0.399799	9.03984	0.552497	12.29
				0.320968	7.02612	0.0832506	1.95179	0.306738	7.43018	0.453199	9.82135	0.550459	11.9275	0.403085	9.02183	0.557202	12.143
				0.323512	6.94027	0.0853526	1.95829	0.310095	7.34571	0.459944	9.77026	0.556669	11.8233	0.405496	9.00871	0.561956	12.0029
				0.32592	6.85491	0.0874537	1.9645	0.313256	7.26034	0.466763	9.72268	0.562976	11.7253	0.407037	9.00037	0.566758	11.8693
				0.328203	6.77027	0.0895539	1.97044	0.316233	7.17443	0.473644	9.67819	0.569375	11.6328	0.409249	8.98843	0.571606	11.7417
				0.330373	6.68651	0.0916534	1.97613	0.31904	7.08828	0.480579	9.63644	0.575862	11.5456	0.411649	8.97554	0.576501	11.6199
				0.332439	6.6038	0.0937521	1.98157	0.32169	7.00221	0.48756	9.59712	0.582433	11.4632	0.414905	8.95814	0.581443	11.5035
				0.334411	6.52225	0.0958501	1.98679	0.324195	6.91646	0.494578	9.55994	0.589084	11.3853	0.419009	8.93632	0.586431	11.3922
				0.336296	6.44197	0.0979474	1.9918	0.326567	6.83129	0.501626	9.52465	0.595812	11.3116	0.42395	8.91019	0.591465	11.2857
				0.338104	6.36304	0.100044	1.9966	0.328818	6.74687	0.508698	9.49103	0.602613	11.2419	0.429716	8.87984	0.596547	11.1838
				0.339841	6.28551	0.10214	2.00122	0.330958	6.66339	0.515788	9.45887	0.609483	11.1758	0.436286	8.84532	0.601676	11.0863
				0.341513	6.20944	0.104235	2.00567	0.332996	6.58099	0.522889	9.42802	0.61642	11.1132	0.442805	8.81104	0.606852	10.993
				0.343127	6.13487	0.10633	2.00994	0.334943	6.49979	0.529998	9.39831	0.623421	11.0537	0.449268	8.77693	0.612076	10.9036
				0.344689	6.0618	0.108425	2.01406	0.336807	6.41988	0.536194	9.37324	0.630481	10.9972	0.455672	8.74289	0.617349	10.818
				0.346201	5.99026	0.110518	2.01802	0.338594	6.34133	0.541476	9.35241	0.637598	10.9435	0.462011	8.70885	0.62267	10.736
				0.347671	5.92024	0.112612	2.02185	0.340312	6.26421	0.545841	9.33552	0.644769	10.8924	0.468284	8.67475	0.628041	10.6574
				0.349101	5.85175	0.114704	2.02554	0.341968	6.18855	0.549291	9.32237	0.651991	10.8438	0.474486	8.6405	0.633463	10.5821
				0.350495	5.78477	0.116797	2.02911	0.343567	6.11439	0.551826	9.31281	0.659261	10.7973	0.480613	8.60606	0.638935	10.5099
				0.351856	5.71929	0.118889	2.03255	0.345114	6.04174	0.553448	9.30673	0.666576	10.7531	0.486661	8.57136	0.644458	10.4407
				0.353188	5.6553	0.12098	2.03588	0.346614	5.97063	0.555778	9.29806	0.673932	10.7108	0.492627	8.53636	0.650032	10.3744
				0.354493	5.59276	0.123071	2.0391	0.348072	5.90103	0.55831	9.2887	0.681327	10.6703	0.498507	8.50101	0.655657	10.3109
				0.355775	5.53167	0.125162	2.04222	0.349492	5.83296	0.56175	9.2761	0.688758	10.6315	0.504299	8.46527	0.661334	10.25
				0.357034	5.47198	0.127253	2.04523	0.350876	5.76641	0.566096	9.26035	0.696222	10.5944	0.509998	8.42911	0.667062	10.1916
				0.358274	5.41368	0.129343	2.04816	0.352229	5.70134	0.571343	9.24155	0.703714	10.5587	0.515602	8.39249	0.67284	10.1356
				0.359496	5.35674	0.131433	2.05099	0.353554	5.63776	0.577485	9.21981	0.711234	10.5244	0.521108	8.3554	0.678669	10.0819
				0.360703	5.30112	0.133522	2.05373	0.354852	5.57562	0.584512	9.19522	0.718775	10.4913	0.526513	8.31782	0.684547	10.0304
				0.361895	5.2468	0.135611	2.0564	0.356127	5.51492	0.591515	9.17098	0.726336	10.4595	0.531816	8.27973	0.690473	9.98098
				0.363074	5.19374	0.1377	2.05899	0.357381	5.45563	0.598492	9.14701	0.733913	10.4287	0.537015	8.24112	0.696447	9.93355
				0.364242	5.14192	0.139789	2.0615	0.358616	5.39771	0.605439	9.12328	0.741502	10.3988	0.542107	8.202	0.702467	9.888
				0.3654	5.0913	0.141877	2.06394	0.359833	5.34113	0.612355	9.09973	0.749099	10.3699	0.547093	8.16237	0.70853	9.84425
				0.36655	5.04186	0.143965	2.06631	0.361036	5.28588	0.619237	9.07634	0.7567	10.3417	0.55197	8.12223	0.714636	9.8022
				0.367691	4.99357	0.146053	2.06861	0.362224	5.23191	0.626083	9.05305	0.7643	10.3142	0.556738	8.08161	0.71999	9.76687
				0.368825	4.94639	0.148141	2.07085	0.3634	5.1792	0.632891	9.02985	0.771896	10.2874	0.561398	8.0405	0.724577	9.73767
				0.369954	4.90029	0.150228	2.07303	0.364565	5.12772	0.63966	9.0067	0.779482	10.2611	0.565949	7.99895	0.728386	9.71414
				0.371078	4.85526	0.152315	2.07516	0.365721	5.07743	0.646387	8.98357	0.787054	10.2352	0.570392	7.95696	0.731408	9.69592
				0.372197	4.81125	0.154402	2.07722	0.366868	5.02831	0.653071	8.96043	0.794607	10.2098	0.574727	7.91457	0.733634	9.68273
				0.373312	4.76824	0.156489	2.07923	0.368007	4.98033	0.659709	8.93726	0.802136	10.1846	0.578956	7.8718	0.735062	9.67437
				0.374425	4.72621	0.158576	2.0812	0.36914	4.93346	0.6663	8.91404	0.809635	10.1596	0.583079	7.8287	0.737116	9.66249
				0.375536	4.68513	0.160662	2.08311	0.370267	4.88766	0.672843	8.89075	0.817101	10.1348	0.587099	7.78528	0.739354	9.64973
				0.376644	4.64497	0.162749	2.08497	0.371389	4.84291	0.679335	8.86737	0.824528	10.1101	0.591017	7.74159	0.742403	9.63263
				0.377752	4.60571	0.164835	2.08679	0.372507	4.79919	0.685775	8.84387	0.831912	10.0854	0.594835	7.69766	0.74627	9.61143
				0.378859	4.56732	0.166921	2.08856	0.373622	4.75645	0.692161	8.82025	0.839248	10.0607	0.598555	7.65352	0.75096	9.58639
				0.379965	4.52978	0.169007	2.09029	0.374734	4.71469	0.698492	8.79649	0.846533	10.0359	0.60218	7.60921	0.756482	9.55781
				0.381072	4.49307	0.171092	2.09198	0.375844	4.67387	0.704766	8.77257	0.852837	10.0143	0.605711	7.56477	0.76284	9.52601
				0.38218	4.45717	0.173178	2.09363	0.376953	4.63396	0.710982	8.74849	0.858179	9.99578	0.609151	7.52023	0.769221	9.49522
				0.383145	4.42652	0.175263	2.09524	0.37806	4.59494	0.717138	8.72422	0.862571	9.98042	0.612502	7.47562	0.775622	9.46536
				0.383969	4.40085	0.177348	2.09682	0.379167	4.5568	0.723234	8.69977	0.86603	9.96823	0.615768	7.43098	0.782039	9.43639
				0.384651	4.37993	0.179434	2.09836	0.380273	4.51949	0.729266	8.67511	0.868564	9.95926	0.61895	7.38633	0.788471	9.40822
				0.385191	4.36359	0.181519	2.09986	0.38138	4.48301	0.735236	8.65025	0.870182	9.95351	0.622052	7.34171	0.794914	9.38082
				0.385588	4.35169	0.183603	2.10133	0.382488	4.44732	0.74114	8.62517	0.872502	9.94523	0.625075	7.29715	0.801366	9.35412
				0.385842	4.34412	0.185688	2.10277	0.383596	4.41241	0.746978	8.59987	0.875018	9.93621	0.628023	7.25268	0.807826	9.32807
				0.386208	4.3333	0.187773	2.10417	0.384707	4.37826	0.75275	8.57434	0.878427	9.92393	0.630897	7.20832	0.814289	9.30262
				0.386606	4.32163	0.189857	2.10555	0.385818	4.34484	0.758453	8.54858	0.882719	9.90836	0.633701	7.16409	0.820755	9.27773
				0.387147	4.3059	0.191942	2.1069	0.386932	4.31214	0.764088	8.52259	0.887883	9.88948	0.636437	7.12002	0.82722	9.25336
				0.387833	4.28624	0.194026	2.10822	0.388048	4.28013	0.769652	8.49637	0.893901	9.86729	0.639107	7.07614	0.833681	9.22945
				0.388663	4.2628	0.19611	2.10951	0.389166	4.2488	0.775147	8.4699	0.90076	9.84178	0.641713	7.03245	0.840138	9.20598
				0.389639	4.23578	0.198195	2.11077	0.390287	4.21813	0.78057	8.44321	0.90757	9.81626	0.644259	6.98899	0.846588	9.1829
				0.390761	4.20539	0.200279	2.11201	0.391411	4.18811	0.785922	8.41628	0.914335	9.79076	0.646746	6.94577	0.853028	9.16018
				0.391886	4.17563	0.202363	2.11322	0.392538	4.15871	0.791201	8.38911	0.921058	9.76533	0.649177	6.9028	0.859456	9.13779
				0.393014	4.14649	0.204446	2.11441	0.393668	4.12992	0.796409	8.36172	0.927744	9.74	0.651553	6.86011	0.86587	9.11569
				0.394146	4.11795	0.20653	2.11558	0.394802	4.10172	0.801543	8.33411	0.934395	9.71481	0.653877	6.8177	0.872269	9.09385
				0.395281	4.09	0.208614	2.11672	0.395939	4.0741	0.806605	8.30627	0.941016	9.68978	0.656151	6.77559	0.87865	9.07225
				0.39642	4.06262	0.210698	2.11784	0.39708	4.04704	0.811594	8.27822	0.94761	9.66495	0.658376	6.73378	0.885011	9.05086
				0.397562	4.03579	0.212781	2.11894	0.398225	4.02053	0.81651	8.24997	0.95418	9.64035	0.660556	6.6923	0.89135	9.02966
				0.398709	4.00951	0.214865	2.12002	0.399374	3.99455	0.821354	8.22151	0.960728	9.61599	0.66269	6.65115	0.897666	9.00861
				0.39986	3.98375	0.216948	2.12108	0.400527	3.9691	0.826125	8.19286	0.967257	9.5919	0.664782	6.61033	0.903957	8.98771
				0.401014	3.95851	0.219031	2.12212	0.401684	3.94415	0.830824	8.16402	0.97377	9.56808	0.666833	6.56986	0.910221	8.96692
				0.402173	3.93378	0.221115	2.12313	0.402845	3.9197	0.835451	8.13501	0.980268	9.54456	0.668845	6.52974	0.916456	8.94623
				0.403337	3.90952	0.223198	2.12413	0.404011	3.89572	0.840006	8.10583	0.986753	9.52132	0.670819	6.48998	0.922661	8.92562
				0.404504	3.88575	0.225281	2.12512	0.405181	3.87222	0.844491	8.0765	0.993226	9.49839	0.672757	6.45058	0.928833	8.90508
				0.405677	3.86244	0.227364	2.12608	0.406356	3.84917	0.848905	8.04701	0.999688	9.47576	0.67466	6.41155	0.934973	8.88457
				0.406853	3.83959	0.229447	2.12703	0.407536	3.82658	0.85325	8.01739	1.00614	9.45343	0.676529	6.37289	0.941077	8.8641
				0.408035	3.81717	0.23153	2.12796	0.40872	3.80441	0.857525	7.98763			0.678367	6.3346	0.947145	8.84365
				0.409221	3.79519	0.233613	2.12887	0.409909	3.78267	0.861733	7.95776			0.680174	6.29669	0.953175	8.8232
				0.410412	3.77363	0.235696	2.12977	0.411102	3.76135	0.865872	7.92778			0.681951	6.25916	0.959166	8.80274
				0.411607	3.75248	0.237779	2.13065	0.412301	3.74043	0.869946	7.89771			0.683701	6.22202	0.965117	8.78226
				0.412808	3.73172	0.239861	2.13152	0.413504	3.7199	0.873953	7.86754			0.685424	6.18525	0.971026	8.76174
				0.414013	3.71136	0.241944	2.13237	0.414712	3.69976	0.877895	7.8373			0.68712	6.14886	0.976893	8.74119
				0.415223	3.69138	0.244027	2.13321	0.415925	3.68	0.881774	7.80698			0.688792	6.11286	0.982715	8.72059
				0.416439	3.67177	0.246109	2.13403	0.417143	3.6606	0.885589	7.77661			0.69044	6.07723	0.988493	8.69993
				0.417659	3.65252	0.248192	2.13484	0.418367	3.64156	0.889342	7.7462			0.692066	6.04199	0.994225	8.67921
				0.418884	3.63363	0.250274	2.13564	0.419595	3.62287	0.893034	7.71574			0.693669	6.00713	0.99991	8.65842
				0.420114	3.61509	0.252356	2.13643	0.420828	3.60452	0.896666	7.68525			0.695252	5.97265	1.00555	8.63755
				0.421349	3.59688	0.254439	2.1372	0.422066	3.5865	0.900239	7.65475			0.696815	5.93854		
				0.42259	3.579	0.256521	2.13796	0.423309	3.56881	0.903754	7.62424			0.698359	5.90481		
				0.423835	3.56144	0.258603	2.13871	0.424557	3.55144	0.907211	7.59372			0.699884	5.87146		
				0.425085	3.5442	0.260686	2.13944	0.42581	3.53438	0.910613	7.56321			0.701392	5.83847		
				0.426341	3.52727	0.262768	2.14016	0.427069	3.51762	0.913959	7.53271			0.702883	5.80586		
				0.427601	3.51064	0.26485	2.14088	0.428332	3.50116	0.917252	7.50224			0.704359	5.77361		
				0.428867	3.4943	0.266932	2.14158	0.429601	3.48498	0.920492	7.4718			0.705818	5.74173		
				0.430137	3.47825	0.269014	2.14227	0.430874	3.46909	0.92368	7.4414			0.707264	5.7102		
				0.431413	3.46248	0.271096	2.14295	0.432153	3.45348	0.926817	7.41105			0.708695	5.67904		
				0.432694	3.44698	0.273178	2.14362	0.433436	3.43814	0.929904	7.38075			0.710112	5.64823		
				0.433979	3.43175	0.27526	2.14428	0.434725	3.42307	0.932943	7.35051			0.711517	5.61777		
				0.43527	3.41678	0.277342	2.14493	0.436019	3.40825	0.935933	7.32034			0.71291	5.58766		
				0.436566	3.40208	0.279424	2.14557	0.437317	3.39369	0.938877	7.29024			0.714291	5.5579		
				0.437867	3.38762	0.281506	2.14621	0.438621	3.37937	0.941775	7.26022			0.71566	5.52848		
				0.439173	3.3734	0.283588	2.14683	0.43993	3.3653	0.944629	7.23028			0.717019	5.4994		
				0.440484	3.35943	0.28567	2.14744	0.441244	3.35146	0.947438	7.20044			0.718368	5.47065		
				0.441799	3.34569	0.287752	2.14805	0.442562	3.33786	0.950205	7.17069			0.719707	5.44223		
				0.44312	3.33218	0.289833	2.14864	0.443886	3.32448	0.95293	7.14104			0.721037	5.41415		
				0.444446	3.3189	0.291915	2.14923	0.445215	3.31132	0.955613	7.1115			0.722358	5.38638		
				0.445777	3.30584	0.293997	2.14981	0.446548	3.29838	0.958257	7.08207			0.723671	5.35894		
				0.447112	3.29299	0.296078	2.15038	0.447887	3.28566	0.960862	7.05276			0.724975	5.33181		
				0.448453	3.28035	0.29816	2.15094	0.44923	3.27314	0.963428	7.02356			0.726272	5.305		
				0.449798	3.26792	0.300241	2.1515	0.450578	3.26083	0.965957	6.99449			0.727562	5.2785		
				0.451148	3.25569	0.302323	2.15205	0.451931	3.24871	0.96845	6.96555			0.728844	5.2523		
				0.452503	3.24366	0.304405	2.15259	0.453289	3.2368	0.970907	6.93674			0.73012	5.2264		
				0.453863	3.23183	0.306486	2.15312	0.454651	3.22507	0.973329	6.90806			0.73139	5.20081		
				0.455228	3.22018	0.308568	2.15365	0.456019	3.21353	0.975718	6.87952			0.732654	5.17551		
				0.456597	3.20872	0.310649	2.15417	0.457391	3.20218	0.978073	6.85112			0.733912	5.1505		
				0.457971	3.19744	0.31273	2.15468	0.458768	3.191	0.980396	6.82286			0.735165	5.12577		
				0.45935	3.18634	0.314812	2.15519	0.460149	3.18	0.982687	6.79475			0.736413	5.10133		
				0.460733	3.17541	0.316893	2.15569	0.461535	3.16918	0.984948	6.76679			0.737656	5.07718		
				0.462122	3.16466	0.318975	2.15618	0.462926	3.15852	0.987179	6.73898			0.738894	5.05329		
				0.463514	3.15407	0.321056	2.15667	0.464322	3.14803	0.98938	6.71133			0.740128	5.02969		
				0.464912	3.14365	0.323137	2.15715	0.465722	3.1377	0.991553	6.68382			0.741358	5.00635		
				0.466314	3.13339	0.325219	2.15762	0.467126	3.12753	0.993698	6.65648			0.742585	4.98328		
				0.46772	3.12329	0.3273	2.15809	0.468535	3.11752	0.995816	6.62929			0.743807	4.96047		
				0.469131	3.11334	0.329381	2.15855	0.469949	3.10766	0.997908	6.60227			0.745027	4.93792		
				0.470547	3.10355	0.331462	2.15901	0.471367	3.09795	0.999974	6.5754			0.746243	4.91562		
				0.471966	3.0939	0.333544	2.15946	0.472789	3.08839	1.00201	6.5487			0.747456	4.89358		
				0.473391	3.0844	0.335625	2.15991	0.474216	3.07897					0.748667	4.87179		
				0.47482	3.07504	0.337706	2.16035	0.475648	3.06969					0.749874	4.85024		
				0.476253	3.06582	0.339787	2.16078	0.477083	3.06056					0.75108	4.82894		
				0.47769	3.05674	0.341868	2.16121	0.478523	3.05156					0.752283	4.80788		
				0.479132	3.0478	0.343949	2.16163	0.479968	3.04269					0.753484	4.78705		
				0.480578	3.03899	0.34603	2.16205	0.481416	3.03395					0.754684	4.76645		
				0.482029	3.03031	0.348111	2.16247	0.482869	3.02534					0.755881	4.74609		
				0.483483	3.02175	0.350192	2.16288	0.484326	3.01686					0.757077	4.72595		
				0.484942	3.01332	0.352273	2.16328	0.485788	3.0085					0.758272	4.70604		
				0.486405	3.00502	0.354354	2.16368	0.487253	3.00027					0.759465	4.68635		
				0.487872	2.99683	0.356435	2.16408	0.488723	2.99215					0.760657	4.66687		
				0.489344	2.98876	0.358516	2.16447	0.490196	2.98415					0.761848	4.64761		
				0.490819	2.98081	0.360597	2.16485	0.491674	2.97627					0.763038	4.62856		
				0.492298	2.97297	0.362678	2.16524	0.493156	2.96849					0.764227	4.60972		
				0.493782	2.96525	0.364759	2.16561	0.494641	2.96083					0.765416	4.59109		
				0.495269	2.95763	0.36684	2.16599	0.496131	2.95328					0.766604	4.57266		
				0.496761	2.95013	0.368921	2.16635	0.497625	2.94583					0.767791	4.55444		
				0.498256	2.94272	0.371002	2.16672	0.499123	2.93849					0.768979	4.53641		
				0.499756	2.93543	0.373083	2.16708	0.500624	2.93125					0.770166	4.51858		
				0.501259	2.92823	0.375164	2.16744	0.50213	2.92412					0.771352	4.50093		
				0.502766	2.92114	0.377244	2.16779	0.503639	2.91708					0.772539	4.48348		
				0.504277	2.91414	0.379325	2.16814	0.505152	2.91014					0.773726	4.46622		
				0.505791	2.90724	0.381406	2.16849	0.506669	2.90329					0.774913	4.44915		
				0.50731	2.90043	0.383487	2.16883	0.508189	2.89654					0.7761	4.43225		
				0.508832	2.89372	0.385568	2.16916	0.509714	2.88989					0.777287	4.41554		
				0.510358	2.8871	0.387648	2.1695	0.511242	2.88332					0.778475	4.399		
				0.511887	2.88057	0.389729	2.16983	0.512773	2.87684					0.779663	4.38264		
				0.513421	2.87413	0.39181	2.17016	0.514309	2.87045					0.780852	4.36646		
				0.514958	2.86778	0.393891	2.17048	0.515848	2.86415					0.782041	4.35044		
				0.516498	2.86151	0.395971	2.1708	0.51739	2.85793					0.783231	4.3346		
				0.518042	2.85533	0.398052	2.17112	0.518936	2.85179					0.784422	4.31892		
				0.51959	2.84923	0.400133	2.17143	0.520486	2.84573					0.785613	4.3034		
				0.521141	2.84321	0.402213	2.17174	0.522039	2.83976					0.786805	4.28805		
				0.522695	2.83726	0.404294	2.17205	0.523596	2.83387					0.787999	4.27285		
				0.524254	2.8314	0.406375	2.17236	0.525156	2.82805					0.789193	4.25782		
				0.525815	2.82562	0.408455	2.17266	0.526719	2.82231					0.790388	4.24294		
				0.52738	2.81991	0.410536	2.17296	0.528286	2.81664					0.791584	4.22821		
				0.528948	2.81427	0.412616	2.17325	0.529857	2.81105					0.792781	4.21364		
				0.53052	2.80871	0.414697	2.17354	0.53143	2.80553					0.79398	4.19921		
				0.532095	2.80322	0.416778	2.17383	0.533007	2.80008					0.795179	4.18494		
				0.533673	2.79781	0.418858	2.17412	0.534587	2.79471					0.79638	4.17081		
				0.535255	2.79246	0.420939	2.1744	0.536171	2.7894					0.797583	4.15682		
				0.53684	2.78718	0.423019	2.17468	0.537757	2.78416					0.798786	4.14297		
				0.538428	2.78197	0.4251	2.17496	0.539347	2.77898					0.799991	4.12927		
				0.540019	2.77682	0.42718	2.17524	0.54094	2.77388					0.801198	4.11571		
				0.541613	2.77174	0.429261	2.17551	0.542537	2.76883					0.802406	4.10228		
				0.543211	2.76673	0.431341	2.17578	0.544136	2.76385					0.803615	4.08898		
				0.544812	2.76177	0.433422	2.17605	0.545739	2.75894					0.804826	4.07582		
				0.546416	2.75688	0.435502	2.17631	0.547344	2.75408					0.806039	4.06279		
				0.548022	2.75205	0.437583	2.17658	0.548953	2.74929					0.807253	4.04989		
				0.549632	2.74728	0.439663	2.17684	0.550565	2.74455					0.808469	4.03712		
				0.551245	2.74257	0.441744	2.17709	0.552179	2.73988					0.809686	4.02448		
				0.552861	2.73792	0.443824	2.17735	0.553797	2.73526					0.810905	4.01196		
				0.55448	2.73333	0.445904	2.1776	0.555418	2.7307					0.812126	3.99956		
				0.556102	2.72879	0.447985	2.17785	0.557041	2.72619					0.813349	3.98729		
				0.557727	2.72431	0.450065	2.1781	0.558668	2.72174					0.814573	3.97514		
				0.559355	2.71988	0.452146	2.17835	0.560297	2.71735					0.8158	3.9631		
				0.560985	2.71551	0.454226	2.17859	0.561929	2.713					0.817028	3.95118		
				0.562619	2.71119	0.456306	2.17883	0.563565	2.70871					0.818258	3.93938		
				0.564255	2.70692	0.458387	2.17907	0.565203	2.70448					0.81949	3.9277		
				0.565894	2.7027	0.460467	2.17931	0.566843	2.70029					0.820723	3.91612		
				0.567536	2.69854	0.462547	2.17955	0.568487	2.69615					0.821959	3.90466		
				0.569181	2.69442	0.464628	2.17978	0.570133	2.69206					0.823197	3.89331		
				0.570828	2.69035	0.466708	2.18001	0.571782	2.68802					0.824436	3.88206		
				0.572479	2.68634	0.468788	2.18024	0.573434	2.68403					0.825678	3.87093		
				0.574132	2.68236	0.470869	2.18047	0.575088	2.68009					0.826921	3.8599		
				0.575787	2.67844	0.472949	2.18069	0.576746	2.67619					0.828167	3.84897		
				0.577445	2.67456	0.475029	2.18091	0.578405	2.67234					0.829415	3.83815		
				0.579106	2.67073	0.47711	2.18113	0.580068	2.66853					0.830664	3.82743		
				0.58077	2.66694	0.47919	2.18135	0.581733	2.66477					0.831916	3.81682		
				0.582436	2.6632	0.48127	2.18157	0.5834	2.66105					0.83317	3.8063		
				0.584104	2.6595	0.48335	2.18179	0.58507	2.65738					0.834426	3.79588		
				0.585776	2.65584	0.485431	2.182	0.586743	2.65375					0.835684	3.78556		
				0.58745	2.65223	0.487511	2.18221	0.588418	2.65016					0.836944	3.77533		
				0.589126	2.64865	0.489591	2.18242	0.590096	2.64661					0.838206	3.7652		
				0.590805	2.64512	0.491671	2.18263	0.591776	2.6431					0.83947	3.75516		
				0.592486	2.64163	0.493752	2.18284	0.593459	2.63963					0.840737	3.74522		
				0.594169	2.63818	0.495832	2.18304	0.595144	2.6362					0.842006	3.73537		
				0.595856	2.63476	0.497912	2.18324	0.596832	2.63281					0.843277	3.72561		
				0.597544	2.63139	0.499992	2.18344	0.598522	2.62946					0.84455	3.71594		
				0.599235	2.62805	0.502073	2.18364	0.600214	2.62614					0.845825	3.70635		
				0.600928	2.62476	0.504153	2.18384	0.601909	2.62286					0.847102	3.69686		
				0.602624	2.62149	0.506233	2.18404	0.603606	2.61962					0.848382	3.68745		
				0.604322	2.61827	0.508313	2.18423	0.605305	2.61642					0.849664	3.67813		
				0.606023	2.61508	0.510393	2.18443	0.607007	2.61325					0.850948	3.66889		
				0.607725	2.61193	0.512473	2.18462	0.608711	2.61012					0.852234	3.65973		
				0.60943	2.60881	0.514554	2.18481	0.610417	2.60702					0.853523	3.65066		
				0.611137	2.60572	0.516634	2.185	0.612125	2.60395					0.854813	3.64167		
				0.612847	2.60267	0.518714	2.18518	0.613836	2.60092					0.856106	3.63276		
				0.614558	2.59965	0.520794	2.18537	0.615549	2.59792					0.857402	3.62393		
				0.616272	2.59667	0.522874	2.18555	0.617264	2.59496					0.858699	3.61517		
				0.617988	2.59372	0.524954	2.18573	0.618981	2.59203					0.859999	3.6065		
				0.619707	2.5908	0.527034	2.18592	0.620701	2.58913					0.861301	3.5979		
				0.621427	2.58791	0.529114	2.1861	0.622423	2.58626					0.862605	3.58938		
				0.62315	2.58506	0.531194	2.18627	0.624146	2.58342					0.863912	3.58093		
				0.624874	2.58223	0.533275	2.18645	0.625872	2.58061					0.86522	3.57256		
				0.626601	2.57943	0.535355	2.18663	0.6276	2.57783					0.866531	3.56426		
				0.62833	2.57667	0.537435	2.1868	0.62933	2.57508					0.867845	3.55604		
				0.630061	2.57393	0.539515	2.18697	0.631063	2.57236					0.86916	3.54788		
				0.631794	2.57123	0.541595	2.18714	0.632797	2.56967					0.870478	3.5398		
				0.633529	2.56855	0.543675	2.18732	0.634533	2.56701					0.871798	3.53179		
				0.635266	2.5659	0.545755	2.18748	0.636271	2.56438					0.873121	3.52384		
				0.637005	2.56328	0.547835	2.18765	0.638012	2.56177					0.874445	3.51597		
				0.638746	2.56068	0.549915	2.18782	0.639754	2.55919					0.875772	3.50816		
				0.640489	2.55812	0.551995	2.18798	0.641498	2.55664					0.877102	3.50042		
				0.642234	2.55558	0.554075	2.18815	0.643244	2.55412					0.878433	3.49275		
				0.643981	2.55306	0.556155	2.18831	0.644992	2.55162					0.879767	3.48514		
				0.64573	2.55057	0.558235	2.18847	0.646742	2.54915					0.881103	3.4776		
				0.647481	2.54811	0.560315	2.18863	0.648494	2.5467					0.882442	3.47012		
				0.649234	2.54568	0.562395	2.18879	0.650248	2.54428					0.883782	3.46271		
				0.650988	2.54327	0.564475	2.18895	0.652004	2.54188					0.885125	3.45536		
				0.652745	2.54088	0.566555	2.1891	0.653761	2.53951					0.88647	3.44807		
				0.654503	2.53852	0.568635	2.18926	0.655521	2.53716					0.887818	3.44084		
				0.656264	2.53618	0.570715	2.18941	0.657282	2.53484					0.889168	3.43367		
				0.658026	2.53387	0.572795	2.18957	0.659045	2.53254					0.89052	3.42656		
				0.659789	2.53157	0.574875	2.18972	0.66081	2.53026					0.891874	3.41952		
				0.661555	2.52931	0.576955	2.18987	0.662577	2.52801					0.89323	3.41253		
				0.663323	2.52706	0.579035	2.19002	0.664345	2.52578					0.894589	3.4056		
				0.665092	2.52484	0.581115	2.19017	0.666115	2.52357					0.89595	3.39872		
				0.666863	2.52264	0.583195	2.19032	0.667888	2.52138					0.897314	3.39191		
				0.668635	2.52046	0.585275	2.19046	0.669661	2.51922					0.898679	3.38515		
				0.67041	2.51831	0.587355	2.19061	0.671437	2.51707					0.900047	3.37844		
				0.672186	2.51618	0.589435	2.19076	0.673214	2.51495					0.901417	3.37179		
				0.673964	2.51406	0.591515	2.1909	0.674993	2.51285					0.90279	3.3652		
				0.675744	2.51197	0.593594	2.19104	0.676773	2.51077					0.904164	3.35866		
				0.677525	2.5099	0.595674	2.19118	0.678555	2.50871					0.905541	3.35217		
				0.679308	2.50785	0.597754	2.19132	0.680339	2.50667					0.90692	3.34574		
				0.681092	2.50582	0.599834	2.19146	0.682125	2.50465					0.908302	3.33935		
				0.682879	2.50381	0.601914	2.1916	0.683912	2.50265					0.909685	3.33302		
				0.684666	2.50182	0.603994	2.19174	0.685701	2.50067					0.911071	3.32675		
				0.686456	2.49984	0.606074	2.19188	0.687491	2.49871					0.912459	3.32052		
				0.688247	2.49789	0.608154	2.19201	0.689283	2.49677					0.913849	3.31434		
				0.69004	2.49596	0.610234	2.19215	0.691077	2.49485					0.915242	3.30821		
				0.691834	2.49404	0.612313	2.19228	0.692872	2.49294					0.916636	3.30213		
				0.69363	2.49215	0.614393	2.19242	0.694669	2.49106					0.918033	3.2961		
				0.695427	2.49027	0.616473	2.19255	0.696467	2.48919					0.919432	3.29012		
				0.697226	2.48841	0.618553	2.19268	0.698267	2.48734					0.920833	3.28418		
				0.699026	2.48656	0.620633	2.19281	0.700068	2.48551					0.922237	3.27829		
				0.700829	2.48474	0.622713	2.19294	0.701871	2.48369					0.923643	3.27245		
				0.702632	2.48293	0.624793	2.19307	0.703675	2.48189					0.92505	3.26666		
				0.704437	2.48114	0.626872	2.1932	0.705481	2.48011					0.92646	3.26091		
				0.706243	2.47937	0.628952	2.19332	0.707289	2.47835					0.927873	3.2552		
				0.708051	2.47761	0.631032	2.19345	0.709097	2.4766					0.929287	3.24954		
				0.709861	2.47587	0.633112	2.19358	0.710908	2.47487					0.930703	3.24393		
				0.711672	2.47415	0.635192	2.1937	0.712719	2.47316					0.932122	3.23836		
				0.713484	2.47244	0.637272	2.19382	0.714532	2.47146					0.933543	3.23283		
				0.715298	2.47075	0.639351	2.19395	0.716347	2.46978					0.934966	3.22734		
				0.717113	2.46907	0.641431	2.19407	0.718163	2.46811					0.936391	3.2219		
				0.71893	2.46741	0.643511	2.19419	0.719981	2.46646					0.937818	3.2165		
				0.720748	2.46577	0.645591	2.19431	0.721799	2.46482					0.939248	3.21114		
				0.722567	2.46414	0.647671	2.19443	0.723619	2.4632					0.940679	3.20583		
				0.724388	2.46252	0.64975	2.19455	0.725441	2.46159					0.942113	3.20055		
				0.72621	2.46092	0.65183	2.19467	0.727264	2.46					0.943549	3.19531		
				0.728033	2.45934	0.65391	2.19479	0.729088	2.45843					0.944987	3.19012		
				0.729858	2.45776	0.65599	2.1949	0.730914	2.45686					0.946427	3.18496		
				0.731684	2.45621	0.658069	2.19502	0.732741	2.45531					0.947869	3.17984		
				0.733512	2.45467	0.660149	2.19513	0.734569	2.45378					0.949313	3.17477		
				0.735341	2.45314	0.662229	2.19525	0.736399	2.45226					0.950759	3.16973		
				0.737171	2.45162	0.664309	2.19536	0.73823	2.45075					0.952208	3.16473		
				0.739002	2.45012	0.666388	2.19547	0.740062	2.44926					0.953658	3.15976		
				0.740835	2.44863	0.668468	2.19559	0.741895	2.44778					0.955111	3.15484		
				0.742669	2.44716	0.670548	2.1957	0.74373	2.44631					0.956565	3.14995		
				0.744505	2.4457	0.672628	2.19581	0.745566	2.44486					0.958022	3.14509		
				0.746341	2.44425	0.674707	2.19592	0.747403	2.44342					0.959481	3.14028		
				0.748179	2.44282	0.676787	2.19603	0.749242	2.44199					0.960941	3.1355		
				0.750018	2.44139	0.678867	2.19614	0.751082	2.44058					0.962404	3.13075		
				0.751858	2.43998	0.680947	2.19625	0.752923	2.43918					0.963869	3.12604		
				0.7537	2.43859	0.683026	2.19636	0.754765	2.43779					0.965336	3.12137		
				0.755543	2.4372	0.685106	2.19646	0.756609	2.43641					0.966805	3.11673		
				0.757387	2.43583	0.687186	2.19657	0.758453	2.43504					0.968276	3.11212		
				0.759232	2.43447	0.689265	2.19667	0.760299	2.43369					0.969748	3.10755		
				0.761078	2.43312	0.691345	2.19678	0.762146	2.43235					0.971223	3.10301		
				0.762926	2.43178	0.693425	2.19688	0.763994	2.43102					0.9727	3.09851		
				0.764774	2.43046	0.695504	2.19699	0.765844	2.4297					0.974179	3.09404		
				0.766624	2.42915	0.697584	2.19709	0.767694	2.42839					0.97566	3.0896		
				0.768475	2.42784	0.699664	2.19719	0.769546	2.4271					0.977143	3.08519		
				0.770328	2.42655	0.701744	2.1973	0.771399	2.42581					0.978628	3.08082		
				0.772181	2.42527	0.703823	2.1974	0.773253	2.42454					0.980115	3.07647		
				0.774035	2.424	0.705903	2.1975	0.775108	2.42328					0.981603	3.07216		
				0.775891	2.42275	0.707983	2.1976	0.776964	2.42202					0.983094	3.06788		
				0.777748	2.4215	0.710062	2.1977	0.778822	2.42078					0.984587	3.06363		
				0.779606	2.42026	0.712142	2.1978	0.78068	2.41955					0.986081	3.05941		
				0.781465	2.41904	0.714221	2.19789	0.78254	2.41833					0.987578	3.05522		
				0.783325	2.41782	0.716301	2.19799	0.784401	2.41712					0.989076	3.05107		
				0.785186	2.41662	0.718381	2.19809	0.786262	2.41593					0.990577	3.04694		
				0.787048	2.41542	0.72046	2.19819	0.788125	2.41474					0.992079	3.04284		
				0.788911	2.41424	0.72254	2.19828	0.789989	2.41356					0.993583	3.03877		
				0.790776	2.41306	0.72462	2.19838	0.791854	2.41239					0.99509	3.03473		
				0.792641	2.4119	0.726699	2.19847	0.79372	2.41123					0.996598	3.03071		
				0.794508	2.41074	0.728779	2.19857	0.795587	2.41008					0.998107	3.02673		
				0.796375	2.4096	0.730859	2.19866	0.797455	2.40894					0.999619	3.02277		
				0.798244	2.40846	0.732938	2.19876	0.799324	2.40781					1.00113	3.01885		
				0.800113	2.40734	0.735018	2.19885	0.801195	2.40669								
				0.801984	2.40622	0.737097	2.19894	0.803066	2.40558								
				0.803855	2.40511	0.739177	2.19903	0.804938	2.40447								
				0.805728	2.40401	0.741257	2.19912	0.806811	2.40338								
				0.807602	2.40292	0.743336	2.19921	0.808685	2.4023								
				0.809476	2.40184	0.745416	2.1993	0.810561	2.40122								
				0.811352	2.40077	0.747495	2.19939	0.812437	2.40015								
				0.813228	2.39971	0.749575	2.19948	0.814314	2.3991								
				0.815106	2.39865	0.751655	2.19957	0.816192	2.39805								
				0.816985	2.39761	0.753734	2.19966	0.818071	2.39701								
				0.818864	2.39657	0.755814	2.19975	0.819951	2.39597								
				0.820744	2.39554	0.757893	2.19984	0.821832	2.39495								
				0.822626	2.39452	0.759973	2.19992	0.823714	2.39394								
				0.824508	2.39351	0.762053	2.20001	0.825597	2.39293								
				0.826392	2.39251	0.764132	2.20009	0.827481	2.39193								
				0.828276	2.39151	0.766212	2.20018	0.829365	2.39094								
				0.830161	2.39052	0.768291	2.20027	0.831251	2.38995								
				0.832047	2.38954	0.770371	2.20035	0.833138	2.38898								
				0.833934	2.38857	0.77245	2.20043	0.835025	2.38801								
				0.835822	2.38761	0.77453	2.20052	0.836914	2.38705								
				0.83771	2.38665	0.776609	2.2006	0.838803	2.3861								
				0.8396	2.3857	0.778689	2.20068	0.840693	2.38516								
				0.841491	2.38476	0.780768	2.20077	0.842584	2.38422								
				0.843382	2.38382	0.782848	2.20085	0.844476	2.38329								
				0.845274	2.3829	0.784928	2.20093	0.846369	2.38237								
				0.847167	2.38198	0.787007	2.20101	0.848262	2.38145								
				0.849061	2.38107	0.789087	2.20109	0.850157	2.38054								
				0.850956	2.38016	0.791166	2.20117	0.852052	2.37964								
				0.852852	2.37926	0.793246	2.20125	0.853948	2.37875								
				0.854749	2.37837	0.795325	2.20133	0.855846	2.37786								
				0.856646	2.37749	0.797405	2.20141	0.857743	2.37698								
				0.858544	2.37661	0.799484	2.20149	0.859642	2.37611								
				0.860443	2.37574	0.801564	2.20156	0.861542	2.37524								
				0.862343	2.37488	0.803643	2.20164	0.863442	2.37438								
				0.864244	2.37402	0.805723	2.20172	0.865343	2.37353								
				0.866145	2.37317	0.807802	2.2018	0.867245	2.37268								
				0.868048	2.37233	0.809882	2.20187	0.869148	2.37184								
				0.869951	2.37149	0.811961	2.20195	0.871052	2.37101								
				0.871855	2.37066	0.814041	2.20202	0.872956	2.37018								
				0.87376	2.36983	0.81612	2.2021	0.874861	2.36936								
				0.875665	2.36902	0.8182	2.20217	0.876767	2.36855								
				0.877572	2.3682	0.820279	2.20225	0.878674	2.36774								
				0.879479	2.3674	0.822359	2.20232	0.880581	2.36694								
				0.881386	2.3666	0.824438	2.2024	0.88249	2.36614								
				0.883295	2.3658	0.826517	2.20247	0.884399	2.36535								
				0.885204	2.36502	0.828597	2.20254	0.886309	2.36456								
				0.887115	2.36424	0.830676	2.20261	0.888219	2.36379								
				0.889025	2.36346	0.832756	2.20269	0.890131	2.36301								
				0.890937	2.36269	0.834835	2.20276	0.892043	2.36225								
				0.892849	2.36193	0.836915	2.20283	0.893955	2.36149								
				0.894763	2.36117	0.838994	2.2029	0.895869	2.36073								
				0.896676	2.36041	0.841074	2.20297	0.897783	2.35998								
				0.898591	2.35967	0.843153	2.20304	0.899698	2.35924								
				0.900506	2.35892	0.845232	2.20311	0.901614	2.3585								
				0.902422	2.35819	0.847312	2.20318	0.90353	2.35776								
				0.904339	2.35746	0.849391	2.20325	0.905448	2.35704								
				0.906256	2.35673	0.851471	2.20332	0.907365	2.35631								
				0.908175	2.35601	0.85355	2.20339	0.909284	2.3556								
				0.910093	2.3553	0.855629	2.20346	0.911203	2.35489								
				0.912013	2.35459	0.857709	2.20352	0.913123	2.35418								
				0.913933	2.35388	0.859788	2.20359	0.915044	2.35348								
				0.915854	2.35318	0.861868	2.20366	0.916965	2.35278								
				0.917776	2.35249	0.863947	2.20373	0.918887	2.35209								
				0.919698	2.3518	0.866027	2.20379	0.92081	2.3514								
				0.921621	2.35112	0.868106	2.20386	0.922733	2.35072								
				0.923545	2.35044	0.870185	2.20393	0.924657	2.35005								
				0.925469	2.34976	0.872265	2.20399	0.926582	2.34937								
				0.927394	2.34909	0.874344	2.20406	0.928507	2.34871								
				0.92932	2.34843	0.876423	2.20412	0.930433	2.34805								
				0.931246	2.34777	0.878503	2.20419	0.93236	2.34739								
				0.933173	2.34711	0.880582	2.20425	0.934287	2.34674								
				0.9351	2.34646	0.882662	2.20432	0.936215	2.34609								
				0.937029	2.34582	0.884741	2.20438	0.938144	2.34545								
				0.938958	2.34518	0.88682	2.20444	0.940073	2.34481								
				0.940887	2.34454	0.8889	2.20451	0.942003	2.34417								
				0.942817	2.34391	0.890979	2.20457	0.943933	2.34354								
				0.944748	2.34328	0.893058	2.20463	0.945865	2.34292								
				0.946679	2.34266	0.895138	2.20469	0.947796	2.3423								
				0.948611	2.34204	0.897217	2.20476	0.949729	2.34168								
				0.950544	2.34142	0.899297	2.20482	0.951662	2.34107								
				0.952477	2.34081	0.901376	2.20488	0.953595	2.34046								
				0.954411	2.34021	0.903455	2.20494	0.955529	2.33986								
				0.956346	2.33961	0.905535	2.205	0.957464	2.33926								
				0.958281	2.33901	0.907614	2.20506	0.9594	2.33866								
				0.960216	2.33841	0.909693	2.20512	0.961336	2.33807								
				0.962152	2.33783	0.911773	2.20518	0.963272	2.33749								
				0.964089	2.33724	0.913852	2.20524	0.965209	2.3369								
				0.966027	2.33666	0.915931	2.2053	0.967147	2.33633								
				0.967965	2.33608	0.918011	2.20536	0.969085	2.33575								
				0.969903	2.33551	0.92009	2.20542	0.971024	2.33518								
				0.971842	2.33494	0.922169	2.20548	0.972964	2.33461								
				0.973782	2.33438	0.924249	2.20554	0.974904	2.33405								
				0.975722	2.33381	0.926328	2.20559	0.976845	2.33349								
				0.977663	2.33326	0.928407	2.20565	0.978786	2.33294								
				0.979605	2.3327	0.930486	2.20571	0.980727	2.33239								
				0.981547	2.33215	0.932566	2.20577	0.98267	2.33184								
				0.983489	2.33161	0.934645	2.20582	0.984613	2.33129								
				0.985432	2.33107	0.936724	2.20588	0.986556	2.33075								
				0.987376	2.33053	0.938804	2.20594	0.9885	2.33022								
				0.98932	2.32999	0.940883	2.20599	0.990444	2.32968								
				0.991265	2.32946	0.942962	2.20605	0.99239	2.32915								
				0.99321	2.32893	0.945042	2.20611	0.994335	2.32863								
				0.995156	2.32841	0.947121	2.20616	0.996281	2.32811								
				0.997102	2.32789	0.9492	2.20622	0.998228	2.32759								
				0.999049	2.32737	0.951279	2.20627	1.00018	2.32707								
				1.001	2.32686	0.953359	2.20633										
						0.955438	2.20638										
						0.957517	2.20644										
						0.959596	2.20649										
						0.961676	2.20654										
						0.963755	2.2066										
						0.965834	2.20665										
						0.967913	2.2067										
						0.969993	2.20676										
						0.972072	2.20681										
						0.974151	2.20686										
						0.97623	2.20692										
						0.97831	2.20697										
						0.980389	2.20702										
						0.982468	2.20707										
						0.984547	2.20712										
						0.986627	2.20717										
						0.988706	2.20722										
						0.990785	2.20727										
						0.992864	2.20733										
						0.994944	2.20738										
						0.997023	2.20743										
						0.999102	2.20748										
						1.00118	2.20753										
