Sym0		Asym0		Sym1		Sym2		Sym3		Asym1		Asym2		Asym3	
451  Points		491  Points		158  Points		129  Points		109  Points		282  Points		139  Points		111  Points	
Freq (MHz)	Vph (m/ms)	Freq (MHz)	Vph (m/ms)	Freq (MHz)	Vph (m/ms)	Freq (MHz)	Vph (m/ms)	Freq (MHz)	Vph (m/ms)	Freq (MHz)	Vph (m/ms)	Freq (MHz)	Vph (m/ms)	Freq (MHz)	Vph (m/ms)
0.00742683	8.03198	0.000439244	0.225541	0.279522	748.367	0.551398	3744.04	0.559053	926.38	0.139868	203.313	0.419283	757.326	0.698792	955.811
0.0149088	8.03123	0.000952801	0.330925	0.279672	214.274	0.551385	511.029	0.559246	364.288	0.140382	86.6749	0.419412	282.369	0.698881	420.305
0.0223879	8.02994	0.00165222	0.433551	0.279988	125.168	0.551355	274.215	0.559601	226.846	0.141306	55.385	0.419657	173.625	0.699039	269.432
0.0298626	8.02813	0.00252656	0.532737	0.280469	88.5152	0.551319	187.373	0.560105	164.806	0.142629	40.9496	0.420019	125.427	0.699265	198.307
0.0373315	8.02579	0.0035628	0.627884	0.281114	68.5596	0.55129	142.303	0.560746	129.495	0.144338	32.6946	0.420497	98.2374	0.699561	156.927
0.0447931	8.02293	0.00474706	0.7186	0.281922	56.0261	0.55128	114.713	0.561511	106.711	0.146416	27.3858	0.421091	80.7909	0.699925	129.866
0.0522459	8.01953	0.00606483	0.804602	0.282892	47.4357	0.5513	96.0881	0.56239	90.801	0.148845	23.7086	0.421801	68.6546	0.700357	110.794
0.0596883	8.01559	0.00750153	0.885724	0.28402	41.1899	0.551361	82.6736	0.563374	79.0663	0.151605	21.0276	0.422625	59.7307	0.700858	96.6306
0.0671187	8.0111	0.00904316	0.961929	0.285305	36.4511	0.551471	72.554	0.564458	70.0577	0.154674	18.9982	0.423563	52.8978	0.701428	85.7003
0.0745355	8.00604	0.0106766	1.03328	0.286744	32.738	0.551635	64.6508	0.565635	62.9271	0.158032	17.4174	0.424614	47.5019	0.702065	77.0116
0.0819371	8.00041	0.0123895	1.09988	0.288335	29.7545	0.551858	58.3099	0.566902	57.1449	0.161657	16.1578	0.425777	43.136	0.702771	69.941
0.0893216	7.9942	0.0141709	1.16191	0.290073	27.3083	0.552145	53.1117	0.568256	52.3635	0.165531	15.1355	0.427051	39.5335	0.703543	64.0765
0.0966873	7.98739	0.0160107	1.2196	0.291956	25.2692	0.552498	48.7744	0.569694	48.3454	0.169633	14.2929	0.428435	36.5124	0.704384	59.1351
0.104032	7.97996	0.0179001	1.27317	0.293981	23.5457	0.55292	45.1021	0.571214	44.9226	0.173945	13.5895	0.429928	33.9443	0.705291	54.9158
0.111355	7.97191	0.0198315	1.32287	0.296143	22.0719	0.553413	41.9539	0.572815	41.973	0.178451	12.9956	0.431527	31.7361	0.706265	51.2721
0.118652	7.9632	0.0217981	1.36898	0.29844	20.7988	0.55398	39.2262	0.574495	39.4059	0.183134	12.4892	0.433233	29.8184	0.707306	48.0947
0.125923	7.95383	0.0237941	1.41173	0.300867	19.6894	0.554622	36.8412	0.576254	37.1522	0.187348	12.1063	0.435043	28.1385	0.708412	45.3
0.133165	7.94376	0.0258146	1.45137	0.30342	18.7154	0.555341	34.739	0.57809	35.1587	0.191032	11.8159	0.436955	26.6559	0.709584	42.8237
0.140375	7.93298	0.0275919	1.48358	0.306096	17.8544	0.556138	32.873	0.580003	33.3834	0.194137	11.5974	0.438969	25.3386	0.710822	40.6147
0.147552	7.92145	0.0291173	1.50942	0.308891	17.0887	0.557015	31.2063	0.581992	31.793	0.196628	11.437	0.441082	24.1612	0.712124	38.6325
0.154692	7.90917	0.0303848	1.52974	0.311801	16.4042	0.557974	29.7092	0.584057	30.3605	0.198479	11.3255	0.443293	23.1032	0.713491	36.8444
0.161793	7.89608	0.0313905	1.54517	0.314822	15.7892	0.559015	28.3578	0.586197	29.0641	0.199672	11.2568	0.445601	22.148	0.714922	35.2236
0.168851	7.88216	0.0321318	1.55617	0.317952	15.2343	0.56014	27.1325	0.588411	27.8858	0.201398	11.1615	0.448003	21.2818	0.716417	33.7481
0.175865	7.86739	0.0326069	1.56306	0.321185	14.7316	0.56135	26.017	0.5907	26.8104	0.203289	11.0622	0.450497	20.4933	0.717975	32.3995
0.18283	7.85171	0.0332909	1.57277	0.32452	14.2745	0.562647	24.9977	0.593061	25.8255	0.205884	10.9342	0.453082	19.7729	0.719595	31.1624
0.189743	7.83511	0.0340354	1.58306	0.327953	13.8576	0.564033	24.0632	0.595497	24.9205	0.209203	10.7827	0.455756	19.1125	0.721277	30.0239
0.196601	7.81753	0.0350499	1.59664	0.331482	13.4762	0.565508	23.2038	0.598005	24.0863	0.213269	10.6136	0.458517	18.5052	0.723021	28.9728
0.2034	7.79894	0.0363354	1.61314	0.335103	13.1262	0.567074	22.4113	0.600585	23.3153	0.218107	10.4329	0.461364	17.9453	0.724826	27.9998
0.210135	7.7793	0.0378935	1.63216	0.338814	12.8043	0.568732	21.6786	0.603238	22.6008	0.223743	10.2458	0.464293	17.4277	0.726692	27.0966
0.216804	7.75857	0.0397253	1.65325	0.342613	12.5075	0.570484	20.9996	0.605962	21.9371	0.229461	10.0777	0.467305	16.948	0.728618	26.2562
0.223401	7.73669	0.0418317	1.67592	0.345994	12.2673	0.572331	20.369	0.608758	21.3193	0.235255	9.92603	0.470395	16.5025	0.730602	25.4726
0.229922	7.71363	0.0439415	1.6971	0.348928	12.075	0.574274	19.7822	0.611624	20.7429	0.241118	9.7886	0.473564	16.0878	0.732646	24.7402
0.236362	7.68935	0.046054	1.71691	0.351389	11.924	0.576314	19.2352	0.614562	20.2041	0.247043	9.66364	0.476808	15.7011	0.734748	24.0543
0.242717	7.66379	0.0481683	1.73545	0.353357	11.8094	0.578453	18.7243	0.61757	19.6996	0.253026	9.54963	0.480127	15.3397	0.736908	23.411
0.248981	7.63693	0.050284	1.75284	0.354816	11.7278	0.580692	18.2465	0.620649	19.2264	0.259061	9.44526	0.483517	15.0015	0.739124	22.8063
0.255151	7.60872	0.0524003	1.76915	0.355756	11.6767	0.58303	17.7989	0.623798	18.7818	0.265143	9.34941	0.486978	14.6844	0.741397	22.2372
0.26122	7.57913	0.0545171	1.78449	0.357114	11.6046	0.585471	17.3791	0.627017	18.3636	0.271267	9.26111	0.490508	14.3867	0.743726	21.7006
0.267184	7.54813	0.0566338	1.79891	0.358601	11.5283	0.588013	16.9848	0.630305	17.9696	0.27743	9.17953	0.494105	14.1067	0.746109	21.194
0.273038	7.5157	0.0587503	1.8125	0.360639	11.4276	0.590657	16.614	0.633664	17.5979	0.283628	9.10394	0.497767	13.843	0.748548	20.715
0.278778	7.48181	0.0608665	1.82532	0.363245	11.3051	0.593405	16.2651	0.637092	17.2469	0.289856	9.0337	0.501492	13.5944	0.75104	20.2616
0.284399	7.44647	0.062982	1.83743	0.366437	11.164	0.596255	15.9362	0.640589	16.9149	0.296112	8.96825	0.505279	13.3596	0.753585	19.8318
0.289897	7.40966	0.0650968	1.84887	0.370239	11.0075	0.599209	15.6261	0.644157	16.6007	0.302391	8.90711	0.509127	13.1377	0.756183	19.4239
0.295268	7.37141	0.0672109	1.8597	0.374678	10.8393	0.602265	15.3332	0.647794	16.303	0.308692	8.84983	0.513033	12.9277	0.758833	19.0364
0.30051	7.33173	0.069324	1.86996	0.379199	10.6821	0.605424	15.0565	0.651501	16.0206	0.315012	8.79605	0.516997	12.7287	0.761534	18.6678
0.305619	7.29065	0.0714363	1.8797	0.383801	10.5353	0.608685	14.7948	0.655278	15.7526	0.321346	8.74541	0.520496	12.5637	0.764286	18.3169
0.310593	7.24822	0.0735477	1.88895	0.388486	10.398	0.612047	14.5471	0.659125	15.498	0.327693	8.69761	0.523512	12.4289	0.767088	17.9825
0.315431	7.20449	0.075658	1.89774	0.393254	10.2695	0.615508	14.3124	0.663043	15.2559	0.334051	8.65239	0.526028	12.3212	0.769939	17.6636
0.320133	7.15951	0.0777674	1.9061	0.398104	10.1492	0.619068	14.0899	0.667032	15.0256	0.340416	8.6095	0.528032	12.2384	0.772838	17.3591
0.324697	7.11337	0.0798758	1.91407	0.403037	10.0366	0.622725	13.8788	0.671092	14.8063	0.346787	8.56872	0.529513	12.1788	0.775786	17.0681
0.329125	7.06615	0.0819833	1.92167	0.408053	9.93106	0.626477	13.6784	0.675225	14.5974	0.353162	8.52986	0.530464	12.1412	0.778781	16.7898
0.333417	7.01792	0.0840899	1.92892	0.413151	9.83219	0.630321	13.488	0.679429	14.3983	0.359537	8.49273	0.531836	12.0879	0.781823	16.5235
0.337576	6.96879	0.0861956	1.93585	0.418332	9.73952	0.634256	13.3069	0.683707	14.2084	0.365912	8.45718	0.533334	12.031	0.78491	16.2684
0.341603	6.91885	0.0883004	1.94247	0.423592	9.65262	0.638279	13.1345	0.688058	14.0272	0.372284	8.42307	0.535381	11.9551	0.788043	16.0239
0.345501	6.86819	0.0904043	1.94881	0.428932	9.5711	0.642387	12.9704	0.692484	13.8543	0.37865	8.39025	0.537987	11.8617	0.791221	15.7894
0.349273	6.81692	0.0925074	1.95489	0.43435	9.49459	0.646033	12.8337	0.696985	13.6892	0.38501	8.35862	0.541163	11.7524	0.794443	15.5643
0.352923	6.76513	0.0946097	1.96071	0.439842	9.42275	0.64919	12.7214	0.701562	13.5315	0.391361	8.32805	0.544922	11.629	0.797708	15.3481
0.356454	6.71293	0.0967112	1.9663	0.445408	9.35526	0.651832	12.6316	0.706217	13.3808	0.397702	8.29845	0.54928	11.4935	0.801017	15.1404
0.35987	6.66039	0.098812	1.97166	0.451043	9.29179	0.653941	12.5623	0.710948	13.2368	0.40403	8.26972	0.553683	11.3641	0.804367	14.9406
0.363175	6.60763	0.100912	1.97682	0.456745	9.23206	0.655503	12.5123	0.715759	13.0991	0.410344	8.24178	0.558132	11.2404	0.807759	14.7484
0.366374	6.55471	0.103012	1.98177	0.462511	9.1758	0.656507	12.4807	0.720016	12.9841	0.416642	8.21455	0.562625	11.1222	0.811192	14.5633
0.36947	6.50173	0.10511	1.98654	0.468336	9.12274	0.657957	12.4359	0.723692	12.8895	0.422922	8.18796	0.56716	11.0091	0.814665	14.385
0.372468	6.44876	0.107208	1.99113	0.474218	9.07265	0.659542	12.388	0.726766	12.8137	0.429182	8.16195	0.571738	10.9008	0.818178	14.2132
0.375372	6.39587	0.109306	1.99556	0.480152	9.0253	0.661712	12.324	0.729219	12.7551	0.435422	8.13643	0.576356	10.7971	0.821731	14.0476
0.378187	6.34313	0.111403	1.99982	0.486134	8.98048	0.664478	12.245	0.731034	12.7129	0.441638	8.11137	0.581016	10.6977	0.825322	13.8878
0.380915	6.29059	0.113499	2.00394	0.492161	8.93798	0.667855	12.1522	0.732202	12.6862	0.447829	8.08671	0.585715	10.6023	0.828951	13.7335
0.383562	6.23832	0.115595	2.00792	0.498229	8.89762	0.671861	12.0471	0.733887	12.6483	0.453994	8.06239	0.590452	10.5108	0.832617	13.5846
0.386131	6.18636	0.11769	2.01175	0.504334	8.85924	0.676511	11.9312	0.73573	12.6078	0.460131	8.03837	0.595229	10.4229	0.83632	13.4407
0.388627	6.13477	0.119785	2.01547	0.510472	8.82268	0.681216	11.8199	0.738252	12.5536	0.466238	8.01461	0.600043	10.3386	0.839577	13.3192
0.391051	6.08357	0.12188	2.01905	0.516641	8.78779	0.685971	11.7131	0.74147	12.4868	0.472314	7.99107	0.604894	10.2575	0.842375	13.2185
0.393409	6.03281	0.123974	2.02253	0.522836	8.75443	0.690774	11.6104	0.745403	12.4084	0.478356	7.9677	0.609782	10.1796	0.844703	13.137
0.395703	5.98251	0.126067	2.02589	0.529055	8.72249	0.69562	11.5116	0.750076	12.3197	0.484364	7.94447	0.614706	10.1046	0.846554	13.0738
0.397937	5.93272	0.12816	2.02914	0.535295	8.69184	0.700505	11.4164	0.755516	12.2221	0.490335	7.92136	0.619666	10.0325	0.847919	13.028
0.400114	5.88345	0.130253	2.0323	0.541552	8.66239	0.705428	11.3247	0.76104	12.1286	0.496268	7.89833	0.624662	9.96307	0.848796	12.9989
0.402237	5.83473	0.132346	2.03536	0.547823	8.63403	0.710383	11.2361	0.766648	12.0392	0.502161	7.87535	0.629692	9.89624	0.850059	12.9575
0.404308	5.78657	0.134438	2.03832	0.554107	8.60669	0.715369	11.1507	0.772339	11.9537	0.508014	7.85239	0.634757	9.83188	0.851436	12.913
0.40633	5.73899	0.136529	2.0412	0.5604	8.58027	0.720383	11.0681	0.778113	11.8719	0.513823	7.82944	0.639856	9.76987	0.853316	12.8533
0.408307	5.692	0.138621	2.044	0.566701	8.55471	0.725421	10.9882	0.78397	11.7936	0.519589	7.80646	0.644988	9.7101	0.855705	12.7791
0.41024	5.64562	0.140712	2.04671	0.573007	8.52993	0.730482	10.9109	0.789908	11.7187	0.525309	7.78345	0.650155	9.65249	0.858611	12.6913
0.412131	5.59985	0.142802	2.04935	0.579316	8.50587	0.735564	10.836	0.795928	11.647	0.530981	7.76037	0.655355	9.59694	0.862043	12.5909
0.413747	5.56047	0.144893	2.05192	0.585626	8.48248	0.740664	10.7634	0.802026	11.5784	0.536606	7.73721	0.660587	9.54336	0.866012	12.4791
0.415103	5.52727	0.146983	2.05441	0.591935	8.4597	0.745782	10.693	0.808204	11.5127	0.54218	7.71396	0.665852	9.49166	0.870014	12.3707
0.416209	5.50008	0.149073	2.05684	0.598241	8.43748	0.750915	10.6247	0.814458	11.4498	0.547704	7.69061	0.671149	9.44177	0.874047	12.2655
0.417074	5.47875	0.151163	2.0592	0.604544	8.41578	0.756063	10.5583	0.820788	11.3896	0.553176	7.66713	0.676477	9.39361	0.878112	12.1635
0.417705	5.46316	0.153252	2.0615	0.61084	8.39456	0.761224	10.4939	0.827192	11.332	0.558594	7.64353	0.681837	9.34711	0.882208	12.0646
0.418107	5.45323	0.155341	2.06373	0.61713	8.37377	0.766398	10.4312	0.833667	11.2768	0.563958	7.61978	0.687228	9.3022	0.886334	11.9685
0.418682	5.43901	0.15743	2.06592	0.62341	8.35339	0.771584	10.3703	0.840213	11.2239	0.569267	7.59589	0.692649	9.25881	0.890491	11.8752
0.419302	5.42362	0.159519	2.06804	0.62968	8.33337	0.776781	10.311	0.846827	11.1731	0.574519	7.57185	0.6981	9.21689	0.894677	11.7846
0.42014	5.40283	0.161607	2.07011	0.63594	8.3137	0.781989	10.2533	0.853507	11.1245	0.579715	7.54764	0.703581	9.17637	0.898892	11.6966
0.421189	5.37675	0.163696	2.07213	0.642186	8.29433	0.787207	10.1972	0.860251	11.0779	0.584853	7.52328	0.70909	9.13719	0.903136	11.6111
0.422443	5.34553	0.165784	2.0741	0.648419	8.27525	0.792437	10.1425	0.867057	11.0332	0.589933	7.49875	0.714627	9.0993	0.907408	11.5279
0.423894	5.30935	0.167872	2.07603	0.654636	8.25643	0.797676	10.0893	0.873923	10.9902	0.594953	7.47405	0.720191	9.06264	0.911708	11.4471
0.425535	5.26841	0.16996	2.0779	0.660838	8.23784	0.802926	10.0374	0.880846	10.949	0.599915	7.44919	0.725783	9.02716	0.916036	11.3684
0.42715	5.2281	0.172047	2.07974	0.667022	8.21947	0.808186	9.98683	0.887826	10.9094	0.604817	7.42417	0.7314	8.99282	0.920391	11.2919
0.428741	5.18841	0.174135	2.08153	0.673188	8.2013	0.813457	9.93755	0.894859	10.8714	0.609658	7.39898	0.737042	8.95955	0.924773	11.2174
0.43031	5.14934	0.176222	2.08327	0.679336	8.1833	0.818738	9.88951	0.901943	10.8348	0.614439	7.37363	0.742709	8.92733	0.929181	11.1449
0.431858	5.11088	0.178309	2.08498	0.685463	8.16547	0.824031	9.84266	0.909077	10.7997	0.61916	7.34813	0.748399	8.8961	0.933615	11.0744
0.433385	5.07302	0.180396	2.08665	0.691569	8.14777	0.829333	9.79697	0.916259	10.7658	0.623821	7.32247	0.754112	8.86582	0.938074	11.0056
0.434894	5.03577	0.182483	2.08829	0.697653	8.13021	0.834647	9.75241	0.923486	10.7332	0.628421	7.29666	0.759846	8.83644	0.94256	10.9387
0.436385	4.9991	0.184569	2.08988	0.703714	8.11276	0.839973	9.70894	0.930756	10.7018	0.63296	7.27072	0.765601	8.80793	0.94707	10.8735
0.43786	4.96302	0.186656	2.09144	0.709751	8.09541	0.845309	9.66652	0.938068	10.6716	0.637439	7.24463	0.771375	8.78025	0.951605	10.8099
0.439319	4.92752	0.188742	2.09297	0.715764	8.07815	0.850658	9.62513	0.945419	10.6424	0.641858	7.21842	0.777168	8.75335	0.956164	10.7479
0.440763	4.89259	0.190828	2.09447	0.721752	8.06096	0.856018	9.58474	0.952808	10.6143	0.646218	7.19209	0.782978	8.72721	0.960747	10.6875
0.442194	4.85823	0.192915	2.09593	0.727713	8.04384	0.86139	9.54532	0.960233	10.5871	0.650517	7.16564	0.788805	8.70179	0.965354	10.6286
0.443611	4.82442	0.195001	2.09736	0.733648	8.02677	0.866775	9.50683	0.967692	10.5609	0.654758	7.13909	0.794647	8.67705	0.969984	10.5711
0.445017	4.79115	0.197086	2.09877	0.739555	8.00975	0.872171	9.46926	0.975183	10.5355	0.65894	7.11243	0.800503	8.65297	0.974637	10.5151
0.44641	4.75843	0.199172	2.10014	0.745434	7.99277	0.877581	9.43257	0.982704	10.5109	0.663064	7.08569	0.806372	8.6295	0.979313	10.4604
0.447794	4.72624	0.201258	2.10149	0.751283	7.97581	0.883003	9.39675	0.990253	10.4872	0.66713	7.05886	0.812253	8.60662	0.984011	10.407
0.449167	4.69457	0.203344	2.10281	0.757103	7.95887	0.888438	9.36177	0.997829	10.4642	0.67114	7.03196	0.818144	8.5843	0.988732	10.3549
0.450531	4.66341	0.205429	2.1041	0.762892	7.94194	0.893885	9.3276	1.00543	10.4418	0.675092	7.00499	0.824046	8.56252	0.993475	10.304
0.451886	4.63276	0.207514	2.10537	0.76865	7.92502	0.899346	9.29422			0.678989	6.97797	0.829956	8.54124	0.998239	10.2543
0.453234	4.60261	0.2096	2.10661	0.774376	7.90809	0.90482	9.26161			0.68283	6.95089	0.835873	8.52044	1.00302	10.2058
0.454573	4.57295	0.211685	2.10783	0.78007	7.89116	0.910307	9.22976			0.686617	6.92377	0.841797	8.50009		
0.455906	4.54377	0.21377	2.10903	0.785731	7.87421	0.915807	9.19863			0.69035	6.89662	0.847725	8.48018		
0.457232	4.51506	0.215855	2.1102	0.791359	7.85725	0.92132	9.16821			0.69403	6.86944	0.853658	8.46067		
0.458553	4.48682	0.21794	2.11135	0.796952	7.84026	0.926847	9.13847			0.697657	6.84225	0.859594	8.44155		
0.459867	4.45903	0.220025	2.11248	0.802511	7.82324	0.932386	9.10941			0.701233	6.81504	0.865532	8.4228		
0.461177	4.4317	0.222109	2.11359	0.808035	7.80619	0.937939	9.08099			0.704757	6.78783	0.87147	8.40439		
0.462482	4.4048	0.224194	2.11468	0.813524	7.7891	0.943504	9.05321			0.708232	6.76063	0.877409	8.38631		
0.463783	4.37834	0.226279	2.11575	0.818977	7.77198	0.949082	9.02604			0.711657	6.73344	0.883346	8.36853		
0.46508	4.3523	0.228363	2.1168	0.824393	7.75482	0.954673	8.99947			0.715033	6.70626	0.889281	8.35104		
0.466373	4.32668	0.230447	2.11783	0.829773	7.73761	0.960276	8.97348			0.718361	6.67911	0.895212	8.33383		
0.467663	4.30147	0.232532	2.11884	0.835116	7.72035	0.965892	8.94805			0.721643	6.652	0.90114	8.31688		
0.46895	4.27666	0.234616	2.11984	0.840421	7.70305	0.971519	8.92317			0.724877	6.62492	0.907062	8.30017		
0.470235	4.25224	0.2367	2.12082	0.845689	7.6857	0.977159	8.89881			0.728067	6.59789	0.912979	8.28368		
0.471517	4.22822	0.238785	2.12178	0.850919	7.6683	0.98281	8.87497			0.731211	6.57091	0.918888	8.26741		
0.472798	4.20457	0.240869	2.12273	0.85611	7.65085	0.988472	8.85163			0.734312	6.54398	0.92479	8.25134		
0.474077	4.1813	0.242953	2.12365	0.861264	7.63335	0.994145	8.82877			0.73737	6.51712	0.930683	8.23546		
0.475354	4.15839	0.245037	2.12457	0.866379	7.61579	0.999828	8.80638			0.740385	6.49032	0.936566	8.21975		
0.47663	4.13585	0.247121	2.12547	0.871455	7.59819	1.00552	8.78444			0.743359	6.4636	0.942439	8.20421		
0.477905	4.11366	0.249204	2.12635	0.876492	7.58053					0.746291	6.43695	0.9483	8.18881		
0.47918	4.09181	0.251288	2.12722	0.881491	7.56282					0.749184	6.41039	0.954149	8.17357		
0.480454	4.07031	0.253372	2.12808	0.88645	7.54505					0.752038	6.38391	0.959986	8.15845		
0.481727	4.04914	0.255456	2.12892	0.89137	7.52724					0.754853	6.35753	0.965809	8.14345		
0.483001	4.02829	0.257539	2.12974	0.896251	7.50938					0.75763	6.33123	0.971617	8.12858		
0.484274	4.00777	0.259623	2.13056	0.901093	7.49147					0.76037	6.30504	0.977411	8.1138		
0.485548	3.98756	0.261706	2.13136	0.905896	7.47351					0.763074	6.27896	0.983189	8.09912		
0.486822	3.96767	0.26379	2.13215	0.91066	7.4555					0.765742	6.25298	0.98895	8.08453		
0.488096	3.94808	0.265873	2.13293	0.915385	7.43745					0.768376	6.22711	0.994695	8.07003		
0.489372	3.92878	0.267957	2.1337	0.92007	7.41936					0.770976	6.20135	1.00042	8.0556		
0.490648	3.90978	0.27004	2.13445	0.924717	7.40122					0.773542	6.17571				
0.491925	3.89107	0.272123	2.13519	0.929325	7.38305					0.776076	6.15019				
0.493203	3.87264	0.274207	2.13592	0.933894	7.36483					0.778578	6.12479				
0.494482	3.85449	0.27629	2.13664	0.938425	7.34658					0.781048	6.09952				
0.495763	3.83661	0.278373	2.13735	0.942917	7.3283					0.783488	6.07438				
0.497045	3.81899	0.280456	2.13805	0.94737	7.30998					0.785898	6.04937				
0.498328	3.80164	0.282539	2.13874	0.951786	7.29163					0.788279	6.02449				
0.499613	3.78454	0.284622	2.13942	0.956164	7.27325					0.790631	5.99974				
0.5009	3.7677	0.286705	2.14009	0.960504	7.25485					0.792955	5.97514				
0.502189	3.75111	0.288788	2.14075	0.964806	7.23642					0.795252	5.95067				
0.50348	3.73476	0.290871	2.1414	0.969071	7.21797					0.797522	5.92634				
0.504772	3.71864	0.292954	2.14205	0.973298	7.1995					0.799766	5.90215				
0.506067	3.70277	0.295037	2.14268	0.977489	7.181					0.801985	5.87811				
0.507364	3.68712	0.29712	2.1433	0.981643	7.1625					0.804178	5.85421				
0.508663	3.6717	0.299203	2.14392	0.98576	7.14397					0.806348	5.83045				
0.509964	3.6565	0.301286	2.14453	0.989841	7.12544					0.808493	5.80685				
0.511268	3.64152	0.303368	2.14512	0.993886	7.10689					0.810616	5.78339				
0.512574	3.62676	0.305451	2.14572	0.997895	7.08834					0.812715	5.76008				
0.513882	3.6122	0.307534	2.1463	1.00187	7.06977					0.814793	5.73693				
0.515193	3.59786	0.309616	2.14687							0.816849	5.71392				
0.516506	3.58371	0.311699	2.14744							0.818884	5.69106				
0.517823	3.56977	0.313782	2.148							0.820899	5.66836				
0.519141	3.55602	0.315864	2.14855							0.822893	5.64581				
0.520463	3.54246	0.317947	2.1491							0.824868	5.62341				
0.521787	3.52909	0.320029	2.14964							0.826824	5.60117				
0.523114	3.51591	0.322112	2.15017							0.828761	5.57908				
0.524443	3.50291	0.324194	2.1507							0.83068	5.55715				
0.525776	3.49009	0.326277	2.15121							0.832581	5.53536				
0.527111	3.47745	0.328359	2.15173							0.834466	5.51374				
0.52845	3.46498	0.330441	2.15223							0.836333	5.49226				
0.529791	3.45268	0.332524	2.15273							0.838184	5.47095				
0.531135	3.44055	0.334606	2.15322							0.840019	5.44978				
0.532482	3.42859	0.336688	2.15371							0.841838	5.42877				
0.533832	3.41678	0.338771	2.15419							0.843642	5.40791				
0.535185	3.40514	0.340853	2.15467							0.845432	5.38721				
0.536541	3.39365	0.342935	2.15514							0.847207	5.36666				
0.5379	3.38231	0.345017	2.1556							0.848968	5.34626				
0.539262	3.37113	0.347099	2.15606							0.850715	5.32602				
0.540628	3.36009	0.349182	2.15651							0.85245	5.30592				
0.541996	3.3492	0.351264	2.15696							0.854171	5.28598				
0.543367	3.33845	0.353346	2.1574							0.855879	5.26619				
0.544742	3.32785	0.355428	2.15784							0.857575	5.24655				
0.546119	3.31738	0.35751	2.15827							0.85926	5.22706				
0.5475	3.30705	0.359592	2.1587							0.860932	5.20772				
0.548884	3.29686	0.361674	2.15912							0.862594	5.18853				
0.550271	3.2868	0.363756	2.15954							0.864244	5.16948				
0.551661	3.27686	0.365838	2.15995							0.865884	5.15059				
0.553054	3.26706	0.36792	2.16036							0.867513	5.13184				
0.554451	3.25738	0.370002	2.16077							0.869132	5.11323				
0.55585	3.24782	0.372084	2.16117							0.870741	5.09477				
0.557253	3.23839	0.374166	2.16156							0.87234	5.07646				
0.558659	3.22908	0.376248	2.16195							0.87393	5.05829				
0.560068	3.21988	0.37833	2.16234							0.875512	5.04026				
0.56148	3.2108	0.380412	2.16272							0.877084	5.02237				
0.562895	3.20184	0.382494	2.1631							0.878648	5.00463				
0.564313	3.19298	0.384575	2.16347							0.880203	4.98702				
0.565735	3.18424	0.386657	2.16384							0.88175	4.96955				
0.56716	3.17561	0.388739	2.16421							0.883289	4.95222				
0.568587	3.16708	0.390821	2.16457							0.884821	4.93503				
0.570018	3.15866	0.392903	2.16493							0.886345	4.91798				
0.571453	3.15034	0.394985	2.16529							0.887862	4.90106				
0.57289	3.14212	0.397066	2.16564							0.889372	4.88427				
0.57433	3.13401	0.399148	2.16598							0.890876	4.86762				
0.575774	3.12599	0.40123	2.16633							0.892372	4.85111				
0.57722	3.11807	0.403311	2.16667							0.893863	4.83472				
0.57867	3.11025	0.405393	2.16701							0.895347	4.81846				
0.580122	3.10252	0.407475	2.16734							0.896825	4.80234				
0.581578	3.09489	0.409557	2.16767							0.898297	4.78634				
0.583037	3.08734	0.411638	2.168							0.899763	4.77047				
0.584499	3.07989	0.41372	2.16832							0.901224	4.75473				
0.585964	3.07253	0.415801	2.16864							0.90268	4.73912				
0.587432	3.06525	0.417883	2.16896							0.90413	4.72363				
0.588903	3.05806	0.419965	2.16927							0.905575	4.70826				
0.590378	3.05095	0.422046	2.16958							0.907016	4.69302				
0.591855	3.04393	0.424128	2.16989							0.908452	4.67789				
0.593335	3.03699	0.426209	2.17019							0.909883	4.66289				
0.594818	3.03013	0.428291	2.1705							0.91131	4.64801				
0.596304	3.02335	0.430373	2.1708							0.912732	4.63325				
0.597793	3.01665	0.432454	2.17109							0.914151	4.61861				
0.599285	3.01003	0.434536	2.17139							0.915565	4.60408				
0.60078	3.00348	0.436617	2.17168							0.916976	4.58967				
0.602279	2.99701	0.438699	2.17196							0.918383	4.57538				
0.603779	2.99062	0.44078	2.17225							0.919786	4.5612				
0.605283	2.98429	0.442862	2.17253							0.921186	4.54713				
0.60679	2.97804	0.444943	2.17281							0.922582	4.53317				
0.6083	2.97186	0.447024	2.17309							0.923976	4.51933				
0.609812	2.96575	0.449106	2.17336							0.925366	4.5056				
0.611328	2.95971	0.451187	2.17364							0.926753	4.49197				
0.612846	2.95374	0.453269	2.17391							0.928137	4.47846				
0.614367	2.94783	0.45535	2.17417							0.929518	4.46505				
0.615891	2.94199	0.457432	2.17444							0.930897	4.45175				
0.617418	2.93622	0.459513	2.1747							0.932273	4.43855				
0.618947	2.93051	0.461594	2.17496							0.933647	4.42546				
0.62048	2.92486	0.463676	2.17522							0.935018	4.41248				
0.622015	2.91928	0.465757	2.17547							0.936387	4.39959				
0.623553	2.91375	0.467838	2.17573							0.937753	4.38681				
0.625093	2.90829	0.46992	2.17598							0.939118	4.37413				
0.626637	2.90289	0.472001	2.17623							0.94048	4.36155				
0.628183	2.89754	0.474082	2.17647							0.941841	4.34907				
0.629732	2.89226	0.476164	2.17672							0.9432	4.33668				
0.631283	2.88703	0.478245	2.17696							0.944557	4.3244				
0.632837	2.88186	0.480326	2.1772							0.945912	4.31221				
0.634394	2.87674	0.482408	2.17744							0.947266	4.30012				
0.635954	2.87168	0.484489	2.17768							0.948618	4.28812				
0.637516	2.86668	0.48657	2.17791							0.949969	4.27621				
0.639081	2.86172	0.488652	2.17814							0.951318	4.2644				
0.640648	2.85682	0.490733	2.17837							0.952666	4.25268				
0.642218	2.85198	0.492814	2.1786							0.954013	4.24106				
0.643791	2.84718	0.494895	2.17883							0.955358	4.22952				
0.645366	2.84243	0.496977	2.17905							0.956702	4.21807				
0.646944	2.83774	0.499058	2.17928							0.958046	4.20672				
0.648524	2.83309	0.501139	2.1795							0.959388	4.19545				
0.650107	2.82849	0.50322	2.17972							0.96073	4.18426				
0.651692	2.82394	0.505301	2.17993							0.96207	4.17317				
0.65328	2.81944	0.507383	2.18015							0.96341	4.16216				
0.654871	2.81499	0.509464	2.18036							0.964749	4.15124				
0.656464	2.81058	0.511545	2.18057							0.966088	4.1404				
0.658059	2.80621	0.513626	2.18079							0.967425	4.12964				
0.659657	2.8019	0.515707	2.18099							0.968762	4.11897				
0.661257	2.79762	0.517788	2.1812							0.970099	4.10837				
0.66286	2.79339	0.51987	2.18141							0.971435	4.09786				
0.664465	2.7892	0.521951	2.18161							0.972771	4.08743				
0.666072	2.78506	0.524032	2.18181							0.974106	4.07708				
0.667682	2.78096	0.526113	2.18201							0.975441	4.06681				
0.669294	2.7769	0.528194	2.18221							0.976776	4.05662				
0.670909	2.77288	0.530275	2.18241							0.978111	4.0465				
0.672526	2.7689	0.532356	2.1826							0.979445	4.03647				
0.674145	2.76496	0.534437	2.1828							0.980779	4.0265				
0.675767	2.76106	0.536518	2.18299							0.982113	4.01662				
0.67739	2.7572	0.5386	2.18318							0.983447	4.00681				
0.679017	2.75337	0.540681	2.18337							0.984781	3.99707				
0.680645	2.74959	0.542762	2.18356							0.986115	3.9874				
0.682276	2.74584	0.544843	2.18375							0.987449	3.97781				
0.683909	2.74213	0.546924	2.18393							0.988783	3.96829				
0.685544	2.73846	0.549005	2.18412							0.990118	3.95884				
0.687181	2.73482	0.551086	2.1843							0.991452	3.94947				
0.688821	2.73122	0.553167	2.18448							0.992787	3.94016				
0.690463	2.72765	0.555248	2.18466							0.994122	3.93092				
0.692107	2.72412	0.557329	2.18484							0.995457	3.92175				
0.693753	2.72062	0.55941	2.18502							0.996792	3.91265				
0.695401	2.71716	0.561491	2.18519							0.998128	3.90362				
0.697052	2.71373	0.563572	2.18537							0.999464	3.89466				
0.698704	2.71033	0.565653	2.18554							1.0008	3.88576				
0.700359	2.70697	0.567734	2.18572												
0.702016	2.70363	0.569815	2.18589												
0.703675	2.70033	0.571896	2.18606												
0.705336	2.69707	0.573977	2.18622												
0.706999	2.69383	0.576058	2.18639												
0.708664	2.69062	0.578139	2.18656												
0.710331	2.68744	0.58022	2.18672												
0.712001	2.6843	0.582301	2.18689												
0.713672	2.68118	0.584382	2.18705												
0.715345	2.67809	0.586463	2.18721												
0.71702	2.67503	0.588544	2.18737												
0.718698	2.672	0.590625	2.18753												
0.720377	2.669	0.592706	2.18769												
0.722058	2.66603	0.594787	2.18784												
0.723741	2.66308	0.596868	2.188												
0.725426	2.66016	0.598948	2.18816												
0.727113	2.65727	0.601029	2.18831												
0.728802	2.6544	0.60311	2.18846												
0.730493	2.65156	0.605191	2.18861												
0.732186	2.64875	0.607272	2.18876												
0.73388	2.64596	0.609353	2.18891												
0.735577	2.6432	0.611434	2.18906												
0.737275	2.64046	0.613515	2.18921												
0.738975	2.63775	0.615596	2.18936												
0.740677	2.63506	0.617676	2.1895												
0.742381	2.6324	0.619757	2.18965												
0.744087	2.62976	0.621838	2.18979												
0.745794	2.62714	0.623919	2.18993												
0.747503	2.62455	0.626	2.19007												
0.749214	2.62198	0.628081	2.19022												
0.750927	2.61943	0.630162	2.19036												
0.752642	2.61691	0.632242	2.19049												
0.754358	2.61441	0.634323	2.19063												
0.756076	2.61193	0.636404	2.19077												
0.757796	2.60947	0.638485	2.19091												
0.759517	2.60703	0.640566	2.19104												
0.76124	2.60462	0.642647	2.19118												
0.762965	2.60222	0.644727	2.19131												
0.764692	2.59985	0.646808	2.19144												
0.76642	2.5975	0.648889	2.19157												
0.76815	2.59517	0.65097	2.1917												
0.769881	2.59285	0.653051	2.19183												
0.771614	2.59056	0.655131	2.19196												
0.773349	2.58829	0.657212	2.19209												
0.775085	2.58604	0.659293	2.19222												
0.776824	2.58381	0.661374	2.19235												
0.778563	2.58159	0.663455	2.19247												
0.780304	2.5794	0.665535	2.1926												
0.782047	2.57722	0.667616	2.19272												
0.783792	2.57506	0.669697	2.19285												
0.785538	2.57292	0.671778	2.19297												
0.787285	2.5708	0.673858	2.19309												
0.789034	2.5687	0.675939	2.19321												
0.790785	2.56661	0.67802	2.19334												
0.792537	2.56454	0.680101	2.19346												
0.79429	2.56249	0.682181	2.19357												
0.796046	2.56046	0.684262	2.19369												
0.797802	2.55844	0.686343	2.19381												
0.79956	2.55644	0.688424	2.19393												
0.80132	2.55446	0.690504	2.19404												
0.803081	2.55249	0.692585	2.19416												
0.804844	2.55054	0.694666	2.19428												
0.806608	2.54861	0.696747	2.19439												
0.808373	2.54669	0.698827	2.1945												
0.81014	2.54478	0.700908	2.19462												
0.811908	2.5429	0.702989	2.19473												
0.813678	2.54102	0.705069	2.19484												
0.815449	2.53917	0.70715	2.19495												
0.817222	2.53733	0.709231	2.19506												
0.818996	2.5355	0.711311	2.19517												
0.820771	2.53369	0.713392	2.19528												
0.822548	2.53189	0.715473	2.19539												
0.824326	2.53011	0.717554	2.1955												
0.826105	2.52834	0.719634	2.1956												
0.827886	2.52658	0.721715	2.19571												
0.829668	2.52484	0.723795	2.19582												
0.831451	2.52312	0.725876	2.19592												
0.833236	2.5214	0.727957	2.19603												
0.835022	2.5197	0.730037	2.19613												
0.83681	2.51802	0.732118	2.19624												
0.838598	2.51635	0.734199	2.19634												
0.840388	2.51469	0.736279	2.19644												
0.84218	2.51304	0.73836	2.19654												
0.843972	2.51141	0.740441	2.19664												
0.845766	2.50979	0.742521	2.19674												
0.847561	2.50818	0.744602	2.19684												
0.849358	2.50659	0.746683	2.19694												
0.851155	2.505	0.748763	2.19704												
0.852954	2.50343	0.750844	2.19714												
0.854754	2.50187	0.752925	2.19724												
0.856556	2.50033	0.755005	2.19734												
0.858358	2.49879	0.757086	2.19743												
0.860162	2.49727	0.759166	2.19753												
0.861967	2.49576	0.761247	2.19763												
0.863773	2.49426	0.763328	2.19772												
0.865581	2.49278	0.765408	2.19782												
0.867389	2.4913	0.767489	2.19791												
0.869199	2.48983	0.769569	2.198												
0.87101	2.48838	0.77165	2.1981												
0.872822	2.48694	0.773731	2.19819												
0.874635	2.48551	0.775811	2.19828												
0.87645	2.48409	0.777892	2.19837												
0.878265	2.48268	0.779972	2.19847												
0.880082	2.48128	0.782053	2.19856												
0.8819	2.47989	0.784134	2.19865												
0.883718	2.47851	0.786214	2.19874												
0.885538	2.47714	0.788295	2.19883												
0.88736	2.47578	0.790375	2.19891												
0.889182	2.47443	0.792456	2.199												
0.891005	2.4731	0.794536	2.19909												
0.89283	2.47177	0.796617	2.19918												
0.894655	2.47045	0.798698	2.19927												
0.896482	2.46914	0.800778	2.19935												
0.89831	2.46784	0.802859	2.19944												
0.900138	2.46655	0.804939	2.19952												
0.901968	2.46527	0.80702	2.19961												
0.903799	2.464	0.8091	2.19969												
0.905631	2.46274	0.811181	2.19978												
0.907464	2.46149	0.813261	2.19986												
0.909298	2.46025	0.815342	2.19995												
0.911133	2.45901	0.817422	2.20003												
0.912969	2.45779	0.819503	2.20011												
0.914806	2.45657	0.821584	2.20019												
0.916644	2.45536	0.823664	2.20027												
0.918483	2.45416	0.825745	2.20036												
0.920323	2.45297	0.827825	2.20044												
0.922164	2.45179	0.829906	2.20052												
0.924006	2.45062	0.831986	2.2006												
0.925849	2.44946	0.834067	2.20068												
0.927693	2.4483	0.836147	2.20076												
0.929538	2.44715	0.838228	2.20084												
0.931384	2.44601	0.840308	2.20091												
0.933231	2.44488	0.842389	2.20099												
0.935079	2.44376	0.844469	2.20107												
0.936928	2.44264	0.84655	2.20115												
0.938778	2.44153	0.84863	2.20123												
0.940629	2.44043	0.850711	2.2013												
0.94248	2.43934	0.852791	2.20138												
0.944333	2.43826	0.854872	2.20145												
0.946186	2.43718	0.856952	2.20153												
0.948041	2.43611	0.859033	2.2016												
0.949896	2.43505	0.861113	2.20168												
0.951752	2.43399	0.863194	2.20175												
0.953609	2.43294	0.865274	2.20183												
0.955467	2.4319	0.867355	2.2019												
0.957326	2.43087	0.869435	2.20198												
0.959186	2.42984	0.871516	2.20205												
0.961047	2.42883	0.873596	2.20212												
0.962909	2.42781	0.875677	2.20219												
0.964771	2.42681	0.877757	2.20227												
0.966634	2.42581	0.879837	2.20234												
0.968499	2.42482	0.881918	2.20241												
0.970364	2.42383	0.883998	2.20248												
0.97223	2.42286	0.886079	2.20255												
0.974096	2.42189	0.888159	2.20262												
0.975964	2.42092	0.89024	2.20269												
0.977832	2.41996	0.89232	2.20276												
0.979702	2.41901	0.894401	2.20283												
0.981572	2.41807	0.896481	2.2029												
0.983443	2.41713	0.898561	2.20297												
0.985314	2.4162	0.900642	2.20303												
0.987187	2.41527	0.902722	2.2031												
0.98906	2.41435	0.904803	2.20317												
0.990934	2.41343	0.906883	2.20324												
0.99281	2.41253	0.908964	2.20331												
0.994685	2.41163	0.911044	2.20337												
0.996562	2.41073	0.913124	2.20344												
0.998439	2.40984	0.915205	2.2035												
1.00032	2.40896	0.917285	2.20357												
		0.919366	2.20364												
		0.921446	2.2037												
		0.923527	2.20377												
		0.925607	2.20383												
		0.927687	2.2039												
		0.929768	2.20396												
		0.931848	2.20402												
		0.933929	2.20409												
		0.936009	2.20415												
		0.938089	2.20421												
		0.94017	2.20428												
		0.94225	2.20434												
		0.944331	2.2044												
		0.946411	2.20446												
		0.948491	2.20452												
		0.950572	2.20459												
		0.952652	2.20465												
		0.954733	2.20471												
		0.956813	2.20477												
		0.958893	2.20483												
		0.960974	2.20489												
		0.963054	2.20495												
		0.965134	2.20501												
		0.967215	2.20507												
		0.969295	2.20513												
		0.971376	2.20518												
		0.973456	2.20524												
		0.975536	2.2053												
		0.977617	2.20536												
		0.979697	2.20542												
		0.981777	2.20547												
		0.983858	2.20553												
		0.985938	2.20559												
		0.988018	2.20564												
		0.990099	2.2057												
		0.992179	2.20576												
		0.994259	2.20581												
		0.99634	2.20587												
		0.99842	2.20592												
		1.0005	2.20598												
