Sym0		Asym0		Sym1		Sym2		Sym3		Asym1		Asym2		Asym3	
450  Points		491  Points		155  Points		128  Points		110  Points		269  Points		138  Points		110  Points	
Freq (MHz)	Vph (m/ms)	Freq (MHz)	Vph (m/ms)	Freq (MHz)	Vph (m/ms)	Freq (MHz)	Vph (m/ms)	Freq (MHz)	Vph (m/ms)	Freq (MHz)	Vph (m/ms)	Freq (MHz)	Vph (m/ms)	Freq (MHz)	Vph (m/ms)
0.000366596	8.03228	0.00044305	0.22651	0.279573	343.502	0.558986	3990.62	0.559341	1609.69	0.139772	516.175	0.419296	596.981	0.698784	1227.83
0.00784997	8.03201	0.000958318	0.331864	0.279804	160.292	0.558516	521.115	0.559942	437.736	0.140101	116.51	0.419444	256.689	0.698862	465.654
0.0153319	8.03124	0.0016594	0.43447	0.280203	104.659	0.558087	278.561	0.560629	253.578	0.140843	65.9943	0.419711	163.582	0.699009	287.361
0.0228112	8.03005	0.00253519	0.533603	0.280769	77.7973	0.557728	190.016	0.561389	178.64	0.14199	46.3133	0.420094	120.115	0.699225	207.842
0.0302864	8.02838	0.00357284	0.628715	0.2815	61.9953	0.557441	144.159	0.562224	137.994	0.14353	35.9045	0.420595	94.9609	0.699511	162.832
0.0377563	8.02624	0.00475832	0.719382	0.282396	51.604	0.557227	116.124	0.563131	112.492	0.145448	29.5071	0.421213	78.5723	0.699867	133.879
0.0452195	8.02361	0.00607705	0.805317	0.283454	44.2615	0.557085	97.2183	0.564113	95.006	0.147726	25.205	0.421948	67.0553	0.700292	113.697
0.0526746	8.02049	0.00751458	0.886378	0.284671	38.806	0.557015	83.6115	0.565167	82.2738	0.150343	22.1332	0.422797	58.5249	0.700786	98.8277
0.0601202	8.01688	0.00905695	0.962528	0.286046	34.5991	0.557018	73.3533	0.566296	72.5923	0.15328	19.8438	0.423762	51.9576	0.701349	87.4207
0.0675548	8.01277	0.0106909	1.03381	0.287576	31.2612	0.557094	65.3457	0.567498	64.9852	0.156516	18.0817	0.42484	46.7493	0.70198	78.3952
0.074977	8.00815	0.0124043	1.10036	0.289258	28.5522	0.557242	58.9237	0.568775	58.8524	0.160029	16.6911	0.426031	42.521	0.702681	71.0778
0.0823852	8.003	0.0141858	1.16233	0.291088	26.3129	0.557465	53.6606	0.570125	53.805	0.1638	15.5712	0.427334	39.0224	0.703449	65.0272
0.0897778	7.99733	0.0160257	1.21996	0.293063	24.4336	0.55776	49.2703	0.571549	49.58	0.167808	14.6543	0.428748	36.0817	0.704286	59.942
0.0971534	7.99111	0.0179153	1.27348	0.295179	22.8362	0.55813	45.5538	0.573048	45.9928	0.172035	13.893	0.43027	33.5771	0.70519	55.6093
0.10451	7.98433	0.0198466	1.32313	0.297433	21.4635	0.558574	42.3682	0.57462	42.9103	0.176463	13.2534	0.431901	31.4199	0.706162	51.8747
0.111846	7.97699	0.021813	1.36918	0.299821	20.2728	0.559093	39.6085	0.576267	40.2339	0.181076	12.7105	0.433638	29.5438	0.707201	48.6231
0.119159	7.96905	0.0238088	1.41189	0.302339	19.2315	0.559688	37.1955	0.577988	37.8894	0.185235	12.3014	0.43548	27.8984	0.708307	45.7674
0.126448	7.9605	0.025829	1.45149	0.304983	18.3143	0.560359	35.0687	0.579782	35.8193	0.188876	11.9919	0.437426	26.4447	0.709479	43.24
0.133711	7.95133	0.0276061	1.48366	0.30775	17.5013	0.561107	33.1808	0.581651	33.9789	0.191948	11.7597	0.439473	25.1518	0.710718	40.988
0.140945	7.9415	0.0291312	1.50948	0.310634	16.7764	0.561933	31.4944	0.583593	32.3326	0.194415	11.5895	0.441621	23.9952	0.712022	38.9693
0.148148	7.93101	0.0303985	1.52978	0.313633	16.1269	0.562837	29.9796	0.585609	30.8518	0.196249	11.4713	0.443867	22.9552	0.713391	37.1499
0.155317	7.91981	0.031404	1.54519	0.316743	15.5423	0.563821	28.6121	0.587699	29.5132	0.197431	11.3985	0.44621	22.0156	0.714824	35.5021
0.162451	7.9079	0.0321451	1.55618	0.31996	15.0137	0.564885	27.372	0.589862	28.2978	0.199143	11.2976	0.448648	21.163	0.716323	34.0031
0.169547	7.89523	0.0326202	1.56306	0.323281	14.5341	0.566031	26.2427	0.592098	27.1898	0.201018	11.1927	0.451179	20.3864	0.717885	32.6339
0.176602	7.88178	0.033304	1.57276	0.326701	14.0974	0.567259	25.2107	0.594407	26.1759	0.203593	11.0575	0.453802	19.6766	0.71951	31.3788
0.183612	7.86752	0.0340484	1.58304	0.330219	13.6985	0.568571	24.2643	0.596788	25.245	0.206889	10.8978	0.456514	19.0256	0.721198	30.2243
0.190576	7.85241	0.0350626	1.5966	0.33383	13.3329	0.569969	23.3937	0.599242	24.3876	0.210929	10.7198	0.459313	18.4268	0.722948	29.1591
0.197489	7.83641	0.0363479	1.61309	0.337532	12.9972	0.571452	22.5908	0.601768	23.5958	0.21574	10.5298	0.462198	17.8744	0.724761	28.1735
0.204348	7.8195	0.0379057	1.63209	0.341323	12.688	0.573023	21.8481	0.604366	22.8624	0.22135	10.3337	0.465168	17.3636	0.726634	27.2591
0.211149	7.80162	0.0397371	1.65315	0.344697	12.438	0.574682	21.1597	0.607036	22.1816	0.227046	10.1578	0.468219	16.8901	0.728568	26.4086
0.21789	7.78275	0.041843	1.67581	0.347624	12.238	0.576432	20.5202	0.609777	21.5481	0.232822	9.99937	0.47135	16.4501	0.730562	25.6158
0.224565	7.76283	0.0439524	1.69697	0.35008	12.081	0.578273	19.9249	0.612588	20.9575	0.23867	9.85616	0.474559	16.0406	0.732616	24.8752
0.23117	7.74183	0.0460644	1.71676	0.352043	11.9619	0.580206	19.3697	0.615471	20.4057	0.244585	9.7262	0.477844	15.6585	0.734728	24.1819
0.237702	7.7197	0.0481783	1.73528	0.353499	11.8771	0.582233	18.851	0.618423	19.8892	0.250561	9.60785	0.481204	15.3014	0.736899	23.5318
0.244155	7.69641	0.0502935	1.75265	0.354436	11.824	0.584355	18.3657	0.621446	19.405	0.256591	9.49972	0.484637	14.9672	0.739128	22.921
0.250526	7.6719	0.0524095	1.76896	0.355791	11.7492	0.586573	17.911	0.624539	18.9502	0.262673	9.4006	0.48814	14.6537	0.741414	22.3462
0.256808	7.64614	0.0545258	1.78428	0.357273	11.6699	0.588888	17.4842	0.627701	18.5225	0.2688	9.30946	0.491713	14.3593	0.743756	21.8045
0.262999	7.6191	0.0566421	1.79869	0.359305	11.5654	0.591301	17.0833	0.630932	18.1197	0.274968	9.22541	0.495352	14.0825	0.746154	21.2932
0.269092	7.59073	0.0587583	1.81227	0.361902	11.4382	0.593814	16.7062	0.634232	17.7398	0.281174	9.14767	0.499057	13.8217	0.748607	20.8099
0.275083	7.56101	0.0608741	1.82509	0.365083	11.2917	0.596426	16.3511	0.637601	17.3811	0.287414	9.07558	0.502826	13.5758	0.751114	20.3525
0.280967	7.52991	0.0629893	1.83718	0.368869	11.1294	0.599138	16.0164	0.641038	17.042	0.293684	9.00854	0.506658	13.3436	0.753676	19.9191
0.286739	7.49741	0.0651037	1.84862	0.373287	10.9547	0.601951	15.7005	0.644544	16.721	0.299981	8.94602	0.510549	13.124	0.756291	19.5078
0.292396	7.46351	0.0672175	1.85945	0.377783	10.7916	0.604865	15.4022	0.648118	16.4169	0.306302	8.88759	0.5145	12.9162	0.758958	19.1172
0.297934	7.42819	0.0693302	1.8697	0.382358	10.6391	0.60788	15.1203	0.65176	16.1285	0.312644	8.83282	0.517989	12.7441	0.761677	18.7457
0.303348	7.39147	0.0714422	1.87944	0.387011	10.4965	0.610997	14.8536	0.655471	15.8548	0.319004	8.78136	0.520998	12.6035	0.764447	18.3922
0.308635	7.35336	0.0735533	1.88868	0.391742	10.3629	0.614214	14.6011	0.659249	15.5948	0.32538	8.7329	0.523508	12.4913	0.767268	18.0553
0.313792	7.31389	0.0756634	1.89747	0.396552	10.2379	0.617531	14.3618	0.663096	15.3475	0.331769	8.68715	0.525508	12.405	0.770139	17.7341
0.318818	7.27309	0.0777725	1.90583	0.401441	10.1206	0.620948	14.135	0.667011	15.1122	0.338169	8.64385	0.526986	12.343	0.77306	17.4274
0.323711	7.23101	0.0798807	1.9138	0.40641	10.0108	0.624463	13.9198	0.670994	14.8882	0.344577	8.60277	0.527936	12.3039	0.776028	17.1345
0.328469	7.18771	0.0819879	1.92139	0.411458	9.90773	0.628075	13.7155	0.675046	14.6747	0.350992	8.56372	0.529305	12.2484	0.779045	16.8544
0.333092	7.14325	0.0840943	1.92865	0.416585	9.81107	0.631783	13.5214	0.679167	14.4712	0.35741	8.52651	0.530801	12.1891	0.782109	16.5863
0.337581	7.0977	0.0861998	1.93557	0.42179	9.72039	0.635586	13.3368	0.683356	14.2771	0.363831	8.49096	0.532845	12.1102	0.785219	16.3296
0.341936	7.05114	0.0883043	1.9422	0.427074	9.63527	0.63948	13.1612	0.687616	14.0918	0.370252	8.45693	0.535448	12.0131	0.788376	16.0836
0.346159	7.00366	0.0904081	1.94854	0.432435	9.55536	0.642948	13.0151	0.691945	13.9148	0.376672	8.42428	0.538621	11.8995	0.791578	15.8477
0.350252	6.95535	0.092511	1.95461	0.437871	9.48031	0.645956	12.8953	0.696344	13.7457	0.383088	8.39289	0.542377	11.7714	0.794824	15.6213
0.354216	6.90629	0.0946131	1.96044	0.443381	9.40979	0.64848	12.7995	0.700815	13.5841	0.389498	8.36263	0.546732	11.6307	0.798115	15.4039
0.358055	6.85659	0.0967145	1.96602	0.448963	9.3435	0.650498	12.7256	0.705357	13.4296	0.395901	8.33341	0.551135	11.4965	0.801448	15.1951
0.361772	6.80633	0.0988152	1.97139	0.454614	9.28114	0.651995	12.6724	0.709971	13.2819	0.402295	8.30513	0.555583	11.3684	0.804825	14.9942
0.36537	6.75561	0.100915	1.97655	0.460331	9.22245	0.652958	12.6388	0.714051	13.1583	0.408679	8.27769	0.560076	11.2459	0.808243	14.801
0.368853	6.70452	0.103014	1.9815	0.466112	9.16715	0.65435	12.5912	0.717573	13.0567	0.41505	8.25103	0.564612	11.1288	0.811703	14.615
0.372225	6.65314	0.105113	1.98627	0.471953	9.11501	0.655873	12.5402	0.720516	12.9751	0.421407	8.22506	0.569192	11.0167	0.815204	14.4359
0.37549	6.60155	0.107211	1.99087	0.477851	9.06578	0.65796	12.4722	0.722863	12.9122	0.427748	8.19972	0.573812	10.9094	0.818745	14.2632
0.378651	6.54985	0.109308	1.9953	0.483802	9.01926	0.660627	12.3883	0.7246	12.8667	0.434072	8.17494	0.578474	10.8066	0.822326	14.0968
0.381714	6.49809	0.111405	1.99956	0.489803	8.97525	0.663889	12.29	0.725716	12.838	0.440377	8.15067	0.583176	10.7081	0.825946	13.9363
0.384681	6.44636	0.113502	2.00368	0.495851	8.93354	0.667768	12.1787	0.727328	12.7972	0.446661	8.12683	0.587917	10.6136	0.829604	13.7813
0.387557	6.39472	0.115597	2.00766	0.50194	8.89396	0.672285	12.0563	0.72909	12.7536	0.452923	8.1034	0.592696	10.5229	0.8333	13.6318
0.390346	6.34322	0.117693	2.0115	0.508069	8.85634	0.676868	11.939	0.731501	12.6952	0.459161	8.08031	0.597513	10.4358	0.836551	13.5056
0.393052	6.29193	0.119787	2.01521	0.514233	8.82054	0.681516	11.8266	0.734575	12.6232	0.465373	8.05753	0.602367	10.3521	0.839345	13.4009
0.395678	6.24089	0.121882	2.0188	0.520429	8.78641	0.686223	11.7188	0.738332	12.5386	0.471559	8.035	0.607257	10.2717	0.84167	13.3164
0.398229	6.19016	0.123976	2.02228	0.526654	8.75381	0.690986	11.6154	0.742792	12.4428	0.477715	8.0127	0.612184	10.1943	0.843518	13.2507
0.400708	6.13977	0.126069	2.02564	0.532905	8.72262	0.695803	11.516	0.747983	12.3372	0.483841	7.99058	0.617146	10.12	0.844882	13.2032
0.403118	6.08976	0.128162	2.0289	0.539178	8.69274	0.700668	11.4204	0.753252	12.2361	0.489936	7.96862	0.622142	10.0484	0.845758	13.173
0.405463	6.04018	0.130255	2.03206	0.545471	8.66405	0.705579	11.3284	0.758598	12.1392	0.495997	7.94677	0.627173	9.97946	0.84702	13.13
0.407746	5.99103	0.132347	2.03512	0.551781	8.63646	0.710532	11.2398	0.764022	12.0464	0.502022	7.92502	0.632238	9.91309	0.848396	13.0839
0.40997	5.94236	0.134439	2.03809	0.558105	8.60989	0.715524	11.1544	0.769526	11.9575	0.508012	7.90332	0.637337	9.84916	0.850274	13.022
0.412138	5.89419	0.136531	2.04097	0.564441	8.58426	0.720552	11.0719	0.775107	11.8724	0.513963	7.88167	0.642469	9.78754	0.852661	12.9451
0.414253	5.84654	0.138622	2.04377	0.570786	8.55948	0.725613	10.9923	0.780767	11.7908	0.519875	7.86002	0.647634	9.72815	0.855566	12.8541
0.416318	5.79942	0.140713	2.04649	0.577139	8.53549	0.730703	10.9154	0.786506	11.7127	0.525745	7.83836	0.652831	9.67088	0.858996	12.7501
0.418335	5.75285	0.142804	2.04913	0.583498	8.51223	0.735821	10.8409	0.792322	11.6378	0.531573	7.81668	0.658061	9.61563	0.862965	12.6343
0.420306	5.70684	0.144895	2.0517	0.589859	8.48964	0.740964	10.7689	0.798216	11.5661	0.537357	7.79494	0.663323	9.56233	0.866967	12.5221
0.422235	5.66141	0.146985	2.05419	0.596222	8.46767	0.746129	10.6991	0.804186	11.4974	0.543096	7.77313	0.668616	9.51089	0.871001	12.4133
0.423883	5.6223	0.149075	2.05662	0.602584	8.44627	0.751315	10.6314	0.810232	11.4316	0.548789	7.75124	0.67394	9.46124	0.875067	12.3078
0.425264	5.58931	0.151164	2.05898	0.608944	8.42539	0.756519	10.5657	0.816354	11.3685	0.554433	7.72925	0.679295	9.41329	0.879165	12.2055
0.426391	5.56228	0.153254	2.06129	0.615301	8.405	0.761741	10.502	0.822549	11.308	0.560029	7.70715	0.684681	9.36699	0.883294	12.1063
0.427272	5.54106	0.155343	2.06353	0.621653	8.38504	0.766978	10.4401	0.828816	11.2501	0.565574	7.68493	0.690096	9.32226	0.887454	12.0099
0.427914	5.52555	0.157432	2.06571	0.627998	8.3655	0.77223	10.38	0.835154	11.1946	0.571067	7.66257	0.695542	9.27903	0.891644	11.9164
0.428323	5.51566	0.159521	2.06784	0.634335	8.34633	0.777496	10.3215	0.841562	11.1413	0.576509	7.64007	0.701017	9.23726	0.895864	11.8255
0.428908	5.50151	0.161609	2.06991	0.640663	8.3275	0.782774	10.2646	0.848038	11.0903	0.581896	7.61742	0.706521	9.19687	0.900113	11.7372
0.42954	5.48619	0.163698	2.07193	0.64698	8.30899	0.788063	10.2092	0.854581	11.0413	0.58723	7.59461	0.712053	9.15782	0.904391	11.6515
0.430392	5.46549	0.165786	2.07391	0.653286	8.29077	0.793365	10.1553	0.861188	10.9943	0.592508	7.57163	0.717613	9.12005	0.908697	11.5681
0.431459	5.43951	0.167874	2.07583	0.659579	8.27282	0.798677	10.1028	0.867857	10.9492	0.59773	7.5485	0.723201	9.0835	0.913031	11.487
0.432735	5.40839	0.169962	2.07771	0.665859	8.25511	0.803999	10.0517	0.874588	10.9059	0.602896	7.52519	0.728815	9.04813	0.917394	11.4082
0.43421	5.37231	0.172049	2.07955	0.672123	8.23763	0.809332	10.0019	0.881377	10.8644	0.608004	7.50171	0.734455	9.0139	0.921783	11.3315
0.435876	5.33148	0.174137	2.08134	0.678372	8.22034	0.814675	9.9533	0.888223	10.8245	0.613054	7.47806	0.740121	8.98074	0.926199	11.2568
0.437517	5.29124	0.176224	2.08309	0.684603	8.20324	0.820028	9.90594	0.895125	10.7861	0.618047	7.45424	0.745811	8.94862	0.930642	11.1842
0.439132	5.2516	0.178311	2.0848	0.690817	8.1863	0.825391	9.85976	0.90208	10.7492	0.62298	7.43024	0.751526	8.9175	0.93511	11.1135
0.440723	5.21255	0.180398	2.08647	0.697012	8.16952	0.830764	9.81471	0.909086	10.7138	0.627854	7.40608	0.757264	8.88733	0.939605	11.0446
0.442292	5.17409	0.182485	2.08811	0.703187	8.15287	0.836147	9.77075	0.916141	10.6796	0.63267	7.38176	0.763024	8.85807	0.944125	10.9775
0.44384	5.13622	0.184572	2.08971	0.709342	8.13634	0.84154	9.72786	0.923244	10.6468	0.637426	7.35727	0.768805	8.82969	0.94867	10.9121
0.445369	5.09893	0.186658	2.09127	0.715476	8.11991	0.846943	9.68601	0.930392	10.6152	0.642122	7.33262	0.774607	8.80214	0.953239	10.8484
0.446878	5.06222	0.188745	2.0928	0.721587	8.10358	0.852357	9.64515	0.937584	10.5847	0.646759	7.30782	0.780429	8.77539	0.957833	10.7863
0.44837	5.02607	0.190831	2.0943	0.727675	8.08734	0.857782	9.60526	0.944818	10.5554	0.651337	7.28288	0.78627	8.7494	0.962451	10.7258
0.449845	4.99049	0.192917	2.09577	0.73374	8.07116	0.863217	9.56632	0.952092	10.5271	0.655855	7.25779	0.792128	8.72414	0.967092	10.6668
0.451305	4.95546	0.195003	2.0972	0.73978	8.05505	0.868663	9.52829	0.959404	10.4997	0.660314	7.23257	0.798004	8.69958	0.971757	10.6092
0.452749	4.92098	0.197089	2.09861	0.745794	8.03899	0.87412	9.49115	0.966753	10.4734	0.664715	7.20721	0.803895	8.67569	0.976445	10.553
0.45418	4.88704	0.199175	2.09998	0.751783	8.02296	0.879588	9.45488	0.974136	10.4479	0.669057	7.18174	0.8098	8.65242	0.981156	10.4982
0.455598	4.85364	0.201261	2.10133	0.757745	8.00697	0.885068	9.41944	0.981553	10.4233	0.67334	7.15615	0.81572	8.62976	0.985889	10.4448
0.457004	4.82077	0.203346	2.10265	0.763679	7.99101	0.890559	9.38483	0.989001	10.3995	0.677566	7.13046	0.821652	8.60768	0.990644	10.3926
0.458398	4.78841	0.205432	2.10395	0.769585	7.97506	0.896062	9.35101	0.996478	10.3765	0.681734	7.10466	0.827596	8.58614	0.995422	10.3416
0.459782	4.75657	0.207517	2.10522	0.775463	7.95912	0.901577	9.31796	1.00398	10.3542	0.685845	7.07878	0.83355	8.56512	1.00022	10.2918
0.461155	4.72524	0.209603	2.10647	0.781311	7.94319	0.907103	9.28567			0.6899	7.0528	0.839514	8.5446		
0.462519	4.6944	0.211688	2.10769	0.787129	7.92725	0.912642	9.2541			0.693899	7.02676	0.845486	8.52454		
0.463875	4.66405	0.213773	2.10888	0.792916	7.9113	0.918193	9.22326			0.697842	7.00064	0.851465	8.50494		
0.465222	4.63418	0.215858	2.11006	0.798672	7.89534	0.923756	9.1931			0.701731	6.97446	0.857451	8.48576		
0.466561	4.60479	0.217943	2.11121	0.804396	7.87935	0.929331	9.16362			0.705566	6.94823	0.863442	8.46698		
0.467894	4.57586	0.220028	2.11234	0.810088	7.86335	0.934919	9.13479			0.709347	6.92196	0.869438	8.44858		
0.469219	4.54739	0.222113	2.11346	0.815748	7.84731	0.940518	9.1066			0.713075	6.89564	0.875436	8.43054		
0.470539	4.51937	0.224198	2.11455	0.821373	7.83124	0.94613	9.07904			0.71675	6.8693	0.881437	8.41285		
0.471853	4.4918	0.226282	2.11562	0.826965	7.81513	0.951755	9.05208			0.720375	6.84293	0.887439	8.39548		
0.473162	4.46466	0.228367	2.11667	0.832523	7.79898	0.957391	9.02571			0.723948	6.81655	0.893441	8.37841		
0.474465	4.43795	0.230451	2.1177	0.838046	7.78279	0.963039	8.99991			0.727472	6.79016	0.899442	8.36163		
0.475765	4.41165	0.232536	2.11872	0.843533	7.76656	0.9687	8.97466			0.730946	6.76376	0.905442	8.34513		
0.47706	4.38578	0.23462	2.11971	0.848986	7.75027	0.974372	8.94996			0.734371	6.73737	0.911439	8.32888		
0.478352	4.36031	0.236705	2.12069	0.854402	7.73394	0.980055	8.92578			0.737749	6.711	0.917433	8.31288		
0.479641	4.33523	0.238789	2.12166	0.859782	7.71755	0.985751	8.90211			0.741079	6.68464	0.923422	8.2971		
0.480926	4.31055	0.240873	2.1226	0.865126	7.70111	0.991457	8.87894			0.744363	6.6583	0.929405	8.28153		
0.482209	4.28625	0.242957	2.12354	0.870433	7.68462	0.997175	8.85624			0.747601	6.63199	0.935383	8.26617		
0.483489	4.26234	0.245041	2.12445	0.875703	7.66807	1.0029	8.83402			0.750794	6.60572	0.941353	8.251		
0.484767	4.23879	0.247125	2.12535	0.880936	7.65147					0.753943	6.5795	0.947316	8.236		
0.486044	4.21561	0.249209	2.12624	0.886131	7.63481					0.757048	6.55331	0.953269	8.22117		
0.487319	4.19278	0.251293	2.12711	0.891288	7.61809					0.760111	6.52719	0.959214	8.20649		
0.488592	4.17031	0.253377	2.12796	0.896408	7.60132					0.763132	6.50111	0.965147	8.19196		
0.489864	4.14818	0.255461	2.12881	0.90149	7.58449					0.766112	6.47511	0.97107	8.17756		
0.491136	4.12639	0.257544	2.12964	0.906534	7.56761					0.769051	6.44916	0.976981	8.16329		
0.492406	4.10493	0.259628	2.13045	0.911539	7.55067					0.771951	6.42329	0.982879	8.14913		
0.493677	4.0838	0.261712	2.13126	0.916507	7.53367					0.774812	6.3975	0.988764	8.13509		
0.494946	4.06299	0.263795	2.13205	0.921436	7.51662					0.777634	6.37179	0.994636	8.12114		
0.496216	4.0425	0.265879	2.13283	0.926327	7.49952					0.78042	6.34616	1.00049	8.10728		
0.497486	4.02231	0.267962	2.1336	0.931179	7.48237					0.783168	6.32063				
0.498756	4.00243	0.270046	2.13435	0.935993	7.46516					0.78588	6.29518				
0.500027	3.98285	0.272129	2.13509	0.940769	7.44791					0.788557	6.26983				
0.501298	3.96356	0.274212	2.13583	0.945507	7.43061					0.7912	6.24458				
0.502569	3.94455	0.276296	2.13655	0.950207	7.41326					0.793808	6.21944				
0.503842	3.92583	0.278379	2.13726	0.954868	7.39587					0.796384	6.1944				
0.505115	3.90739	0.280462	2.13796	0.959492	7.37843					0.798926	6.16946				
0.506389	3.88922	0.282546	2.13865	0.964077	7.36096					0.801437	6.14465				
0.507665	3.87131	0.284629	2.13933	0.968625	7.34344					0.803917	6.11994				
0.508942	3.85367	0.286712	2.14001	0.973135	7.32589					0.806366	6.09535				
0.51022	3.83629	0.288795	2.14067	0.977607	7.3083					0.808786	6.07089				
0.5115	3.81915	0.290878	2.14132	0.982042	7.29067					0.811176	6.04654				
0.512782	3.80227	0.292961	2.14196	0.98644	7.27302					0.813538	6.02232				
0.514065	3.78563	0.295044	2.1426	0.990801	7.25533					0.815871	5.99823				
0.515349	3.76923	0.297127	2.14322	0.995125	7.23761					0.818178	5.97426				
0.516636	3.75307	0.29921	2.14384	0.999412	7.21987					0.820458	5.95043				
0.517925	3.73714	0.301293	2.14445	1.00366	7.2021					0.822711	5.92672				
0.519215	3.72143	0.303376	2.14505							0.824939	5.90315				
0.520508	3.70595	0.305458	2.14564							0.827142	5.87972				
0.521803	3.69069	0.307541	2.14622							0.829321	5.85642				
0.5231	3.67564	0.309624	2.1468							0.831476	5.83326				
0.5244	3.6608	0.311707	2.14737							0.833608	5.81023				
0.525701	3.64617	0.313789	2.14793							0.835716	5.78735				
0.527005	3.63175	0.315872	2.14848							0.837803	5.76461				
0.528312	3.61753	0.317955	2.14903							0.839868	5.74201				
0.529621	3.6035	0.320037	2.14957							0.841912	5.71955				
0.530932	3.58967	0.32212	2.1501							0.843935	5.69723				
0.532246	3.57603	0.324203	2.15063							0.845939	5.67506				
0.533563	3.56257	0.326285	2.15115							0.847922	5.65303				
0.534883	3.5493	0.328368	2.15166							0.849886	5.63115				
0.536205	3.53621	0.33045	2.15217							0.851832	5.60941				
0.537529	3.5233	0.332533	2.15267							0.853759	5.58782				
0.538857	3.51057	0.334615	2.15316							0.855669	5.56638				
0.540187	3.498	0.336697	2.15365							0.857561	5.54508				
0.54152	3.4856	0.33878	2.15414							0.859436	5.52392				
0.542856	3.47337	0.340862	2.15461							0.861295	5.50292				
0.544195	3.46131	0.342945	2.15508							0.863137	5.48206				
0.545537	3.4494	0.345027	2.15555							0.864964	5.46134				
0.546882	3.43765	0.347109	2.15601							0.866776	5.44077				
0.548229	3.42606	0.349191	2.15646							0.868572	5.42035				
0.54958	3.41461	0.351274	2.15691							0.870354	5.40007				
0.550933	3.40332	0.353356	2.15735							0.872122	5.37994				
0.55229	3.39218	0.355438	2.15779							0.873876	5.35996				
0.55365	3.38118	0.35752	2.15823							0.875617	5.34012				
0.555012	3.37032	0.359603	2.15865							0.877344	5.32042				
0.556378	3.35961	0.361685	2.15908							0.879059	5.30087				
0.557746	3.34903	0.363767	2.1595							0.880761	5.28146				
0.559118	3.33859	0.365849	2.15991							0.882452	5.2622				
0.560492	3.32828	0.367931	2.16032							0.88413	5.24308				
0.56187	3.31811	0.370013	2.16072							0.885797	5.2241				
0.563251	3.30806	0.372095	2.16113							0.887453	5.20526				
0.564635	3.29814	0.374177	2.16152							0.889098	5.18657				
0.566022	3.28834	0.376259	2.16191							0.890732	5.16801				
0.567412	3.27867	0.378341	2.1623							0.892356	5.1496				
0.568805	3.26912	0.380423	2.16268							0.89397	5.13132				
0.570201	3.25969	0.382505	2.16306							0.895574	5.11318				
0.5716	3.25038	0.384587	2.16344							0.897169	5.09519				
0.573003	3.24118	0.386669	2.16381							0.898754	5.07732				
0.574408	3.2321	0.388751	2.16418							0.900331	5.0596				
0.575817	3.22313	0.390833	2.16454							0.901898	5.04201				
0.577228	3.21427	0.392915	2.1649							0.903458	5.02456				
0.578643	3.20551	0.394997	2.16525							0.905008	5.00724				
0.580061	3.19687	0.397079	2.16561							0.906551	4.99005				
0.581482	3.18833	0.399161	2.16595							0.908087	4.973				
0.582906	3.17989	0.401243	2.1663							0.909614	4.95607				
0.584333	3.17156	0.403325	2.16664							0.911134	4.93928				
0.585763	3.16332	0.405406	2.16698							0.912647	4.92262				
0.587196	3.15519	0.407488	2.16731							0.914153	4.90609				
0.588633	3.14715	0.40957	2.16764							0.915653	4.88969				
0.590072	3.13921	0.411652	2.16797							0.917145	4.87341				
0.591514	3.13136	0.413734	2.16829							0.918632	4.85726				
0.59296	3.1236	0.415815	2.16862							0.920112	4.84124				
0.594408	3.11594	0.417897	2.16893							0.921586	4.82534				
0.59586	3.10837	0.419979	2.16925							0.923054	4.80957				
0.597314	3.10089	0.422061	2.16956							0.924517	4.79392				
0.598772	3.09349	0.424142	2.16987							0.925974	4.77839				
0.600232	3.08618	0.426224	2.17017							0.927426	4.76298				
0.601696	3.07895	0.428306	2.17048							0.928873	4.74769				
0.603162	3.07181	0.430387	2.17078							0.930314	4.73252				
0.604632	3.06476	0.432469	2.17107							0.931751	4.71748				
0.606104	3.05778	0.434551	2.17137							0.933184	4.70254				
0.60758	3.05088	0.436632	2.17166							0.934611	4.68773				
0.609058	3.04406	0.438714	2.17195							0.936034	4.67303				
0.610539	3.03732	0.440795	2.17223							0.937453	4.65844				
0.612023	3.03066	0.442877	2.17252							0.938868	4.64397				
0.613511	3.02407	0.444959	2.1728							0.940279	4.62962				
0.615	3.01756	0.44704	2.17308							0.941686	4.61537				
0.616493	3.01112	0.449122	2.17335							0.943089	4.60124				
0.617989	3.00475	0.451203	2.17363							0.944489	4.58722				
0.619488	2.99845	0.453285	2.1739							0.945885	4.5733				
0.620989	2.99223	0.455367	2.17416							0.947278	4.5595				
0.622494	2.98607	0.457448	2.17443							0.948667	4.5458				
0.624001	2.97998	0.45953	2.17469							0.950053	4.53221				
0.625511	2.97396	0.461611	2.17495							0.951437	4.51872				
0.627024	2.96801	0.463693	2.17521							0.952817	4.50534				
0.62854	2.96212	0.465774	2.17547							0.954195	4.49207				
0.630058	2.95629	0.467856	2.17572							0.955569	4.47889				
0.631579	2.95053	0.469937	2.17597							0.956942	4.46582				
0.633104	2.94484	0.472019	2.17622							0.958311	4.45285				
0.63463	2.9392	0.4741	2.17647							0.959679	4.43999				
0.63616	2.93363	0.476182	2.17672							0.961044	4.42722				
0.637692	2.92811	0.478263	2.17696							0.962406	4.41455				
0.639227	2.92266	0.480344	2.1772							0.963767	4.40198				
0.640765	2.91726	0.482426	2.17744							0.965126	4.3895				
0.642305	2.91192	0.484507	2.17768							0.966482	4.37712				
0.643848	2.90664	0.486589	2.17791							0.967837	4.36484				
0.645394	2.90141	0.48867	2.17814							0.96919	4.35265				
0.646942	2.89624	0.490751	2.17837							0.970541	4.34056				
0.648493	2.89113	0.492833	2.1786							0.97189	4.32856				
0.650047	2.88606	0.494914	2.17883							0.973238	4.31665				
0.651603	2.88106	0.496996	2.17906							0.974584	4.30483				
0.653162	2.8761	0.499077	2.17928							0.975929	4.29311				
0.654723	2.8712	0.501158	2.1795							0.977273	4.28147				
0.656287	2.86634	0.50324	2.17972							0.978615	4.26992				
0.657854	2.86154	0.505321	2.17994							0.979956	4.25846				
0.659423	2.85679	0.507402	2.18015							0.981296	4.24709				
0.660994	2.85209	0.509484	2.18037							0.982635	4.2358				
0.662568	2.84743	0.511565	2.18058							0.983973	4.2246				
0.664145	2.84282	0.513646	2.18079							0.98531	4.21349				
0.665724	2.83826	0.515728	2.181							0.986646	4.20246				
0.667306	2.83375	0.517809	2.18121							0.987981	4.19151				
0.66889	2.82928	0.51989	2.18142							0.989315	4.18064				
0.670477	2.82486	0.521971	2.18162							0.990649	4.16986				
0.672065	2.82049	0.524053	2.18182							0.991982	4.15916				
0.673657	2.81615	0.526134	2.18202							0.993314	4.14854				
0.675251	2.81186	0.528215	2.18222							0.994646	4.138				
0.676847	2.80762	0.530297	2.18242							0.995977	4.12754				
0.678446	2.80342	0.532378	2.18262							0.997308	4.11716				
0.680047	2.79925	0.534459	2.18281							0.998638	4.10686				
0.68165	2.79513	0.53654	2.18301							0.999968	4.09663				
0.683256	2.79106	0.538621	2.1832							1.0013	4.08648				
0.684864	2.78702	0.540703	2.18339												
0.686474	2.78302	0.542784	2.18358												
0.688087	2.77906	0.544865	2.18376												
0.689702	2.77514	0.546946	2.18395												
0.691319	2.77126	0.549028	2.18413												
0.692938	2.76741	0.551109	2.18432												
0.69456	2.76361	0.55319	2.1845												
0.696184	2.75984	0.555271	2.18468												
0.697811	2.75611	0.557352	2.18486												
0.699439	2.75241	0.559433	2.18504												
0.70107	2.74875	0.561515	2.18521												
0.702703	2.74512	0.563596	2.18539												
0.704338	2.74153	0.565677	2.18556												
0.705975	2.73798	0.567758	2.18574												
0.707614	2.73445	0.569839	2.18591												
0.709256	2.73096	0.57192	2.18608												
0.7109	2.72751	0.574001	2.18625												
0.712545	2.72408	0.576083	2.18641												
0.714193	2.72069	0.578164	2.18658												
0.715843	2.71733	0.580245	2.18675												
0.717495	2.71401	0.582326	2.18691												
0.71915	2.71071	0.584407	2.18707												
0.720806	2.70745	0.586488	2.18724												
0.722464	2.70421	0.588569	2.1874												
0.724124	2.70101	0.59065	2.18756												
0.725787	2.69783	0.592731	2.18771												
0.727451	2.69469	0.594812	2.18787												
0.729117	2.69157	0.596893	2.18803												
0.730786	2.68848	0.598975	2.18818												
0.732456	2.68542	0.601056	2.18834												
0.734128	2.68239	0.603137	2.18849												
0.735802	2.67939	0.605218	2.18864												
0.737479	2.67641	0.607299	2.18879												
0.739157	2.67346	0.60938	2.18894												
0.740837	2.67054	0.611461	2.18909												
0.742519	2.66764	0.613542	2.18924												
0.744203	2.66477	0.615623	2.18939												
0.745888	2.66192	0.617704	2.18953												
0.747576	2.65911	0.619785	2.18968												
0.749265	2.65631	0.621866	2.18982												
0.750957	2.65354	0.623947	2.18997												
0.75265	2.6508	0.626028	2.19011												
0.754345	2.64808	0.628109	2.19025												
0.756041	2.64538	0.63019	2.19039												
0.75774	2.64271	0.632271	2.19053												
0.75944	2.64006	0.634352	2.19067												
0.761143	2.63744	0.636433	2.1908												
0.762847	2.63484	0.638514	2.19094												
0.764552	2.63226	0.640595	2.19108												
0.76626	2.6297	0.642676	2.19121												
0.767969	2.62717	0.644757	2.19135												
0.76968	2.62465	0.646838	2.19148												
0.771393	2.62216	0.648919	2.19161												
0.773107	2.61969	0.651	2.19174												
0.774823	2.61725	0.653081	2.19187												
0.776541	2.61482	0.655162	2.192												
0.778261	2.61241	0.657243	2.19213												
0.779982	2.61003	0.659323	2.19226												
0.781704	2.60766	0.661404	2.19239												
0.783429	2.60532	0.663485	2.19251												
0.785155	2.60299	0.665566	2.19264												
0.786883	2.60069	0.667647	2.19276												
0.788612	2.5984	0.669728	2.19289												
0.790343	2.59614	0.671809	2.19301												
0.792076	2.59389	0.67389	2.19314												
0.79381	2.59166	0.675971	2.19326												
0.795546	2.58945	0.678052	2.19338												
0.797283	2.58726	0.680133	2.1935												
0.799022	2.58509	0.682214	2.19362												
0.800763	2.58293	0.684294	2.19374												
0.802505	2.5808	0.686375	2.19386												
0.804248	2.57868	0.688456	2.19397												
0.805993	2.57658	0.690537	2.19409												
0.80774	2.57449	0.692618	2.19421												
0.809488	2.57242	0.694699	2.19432												
0.811238	2.57037	0.69678	2.19444												
0.812989	2.56834	0.698861	2.19455												
0.814741	2.56632	0.700941	2.19466												
0.816495	2.56432	0.703022	2.19478												
0.818251	2.56234	0.705103	2.19489												
0.820008	2.56037	0.707184	2.195												
0.821766	2.55842	0.709265	2.19511												
0.823526	2.55648	0.711346	2.19522												
0.825288	2.55456	0.713427	2.19533												
0.82705	2.55266	0.715507	2.19544												
0.828815	2.55077	0.717588	2.19555												
0.83058	2.54889	0.719669	2.19565												
0.832347	2.54703	0.72175	2.19576												
0.834116	2.54519	0.723831	2.19587												
0.835885	2.54336	0.725912	2.19597												
0.837656	2.54154	0.727992	2.19608												
0.839429	2.53974	0.730073	2.19618												
0.841203	2.53795	0.732154	2.19629												
0.842978	2.53618	0.734235	2.19639												
0.844755	2.53442	0.736316	2.19649												
0.846533	2.53267	0.738396	2.1966												
0.848312	2.53094	0.740477	2.1967												
0.850092	2.52922	0.742558	2.1968												
0.851874	2.52752	0.744639	2.1969												
0.853657	2.52583	0.74672	2.197												
0.855442	2.52415	0.7488	2.1971												
0.857227	2.52248	0.750881	2.1972												
0.859015	2.52083	0.752962	2.19729												
0.860803	2.51919	0.755043	2.19739												
0.862592	2.51756	0.757124	2.19749												
0.864383	2.51595	0.759204	2.19759												
0.866175	2.51435	0.761285	2.19768												
0.867969	2.51276	0.763366	2.19778												
0.869763	2.51118	0.765447	2.19787												
0.871559	2.50961	0.767527	2.19797												
0.873356	2.50806	0.769608	2.19806												
0.875154	2.50652	0.771689	2.19816												
0.876954	2.50498	0.77377	2.19825												
0.878754	2.50347	0.77585	2.19834												
0.880556	2.50196	0.777931	2.19843												
0.882359	2.50046	0.780012	2.19852												
0.884163	2.49898	0.782093	2.19862												
0.885969	2.4975	0.784173	2.19871												
0.887775	2.49604	0.786254	2.1988												
0.889583	2.49459	0.788335	2.19889												
0.891392	2.49315	0.790416	2.19897												
0.893202	2.49171	0.792496	2.19906												
0.895013	2.49029	0.794577	2.19915												
0.896825	2.48889	0.796658	2.19924												
0.898639	2.48749	0.798739	2.19933												
0.900453	2.4861	0.800819	2.19941												
0.902269	2.48472	0.8029	2.1995												
0.904085	2.48335	0.804981	2.19959												
0.905903	2.48199	0.807061	2.19967												
0.907722	2.48064	0.809142	2.19976												
0.909542	2.4793	0.811223	2.19984												
0.911363	2.47797	0.813304	2.19993												
0.913186	2.47665	0.815384	2.20001												
0.915009	2.47534	0.817465	2.20009												
0.916833	2.47404	0.819546	2.20018												
0.918659	2.47275	0.821626	2.20026												
0.920485	2.47147	0.823707	2.20034												
0.922313	2.4702	0.825788	2.20042												
0.924141	2.46894	0.827868	2.2005												
0.925971	2.46768	0.829949	2.20058												
0.927801	2.46644	0.83203	2.20066												
0.929633	2.4652	0.83411	2.20074												
0.931465	2.46397	0.836191	2.20082												
0.933299	2.46275	0.838272	2.2009												
0.935134	2.46154	0.840352	2.20098												
0.936969	2.46034	0.842433	2.20106												
0.938806	2.45915	0.844514	2.20114												
0.940644	2.45796	0.846594	2.20122												
0.942482	2.45678	0.848675	2.20129												
0.944322	2.45562	0.850756	2.20137												
0.946162	2.45445	0.852836	2.20145												
0.948004	2.4533	0.854917	2.20152												
0.949846	2.45216	0.856998	2.2016												
0.95169	2.45102	0.859078	2.20167												
0.953534	2.44989	0.861159	2.20175												
0.95538	2.44877	0.86324	2.20182												
0.957226	2.44766	0.86532	2.2019												
0.959073	2.44655	0.867401	2.20197												
0.960921	2.44546	0.869482	2.20205												
0.96277	2.44437	0.871562	2.20212												
0.96462	2.44328	0.873643	2.20219												
0.966471	2.44221	0.875724	2.20226												
0.968323	2.44114	0.877804	2.20234												
0.970176	2.44008	0.879885	2.20241												
0.97203	2.43903	0.881965	2.20248												
0.973884	2.43798	0.884046	2.20255												
0.97574	2.43694	0.886127	2.20262												
0.977596	2.43591	0.888207	2.20269												
0.979453	2.43489	0.890288	2.20276												
0.981311	2.43387	0.892368	2.20283												
0.98317	2.43286	0.894449	2.2029												
0.98503	2.43185	0.89653	2.20297												
0.98689	2.43085	0.89861	2.20304												
0.988752	2.42986	0.900691	2.20311												
0.990614	2.42888	0.902772	2.20318												
0.992478	2.4279	0.904852	2.20325												
0.994342	2.42693	0.906933	2.20331												
0.996206	2.42596	0.909013	2.20338												
0.998072	2.42501	0.911094	2.20345												
0.999939	2.42405	0.913174	2.20351												
1.00181	2.42311	0.915255	2.20358												
		0.917336	2.20365												
		0.919416	2.20371												
		0.921497	2.20378												
		0.923577	2.20384												
		0.925658	2.20391												
		0.927739	2.20397												
		0.929819	2.20404												
		0.9319	2.2041												
		0.93398	2.20417												
		0.936061	2.20423												
		0.938141	2.20429												
		0.940222	2.20435												
		0.942303	2.20442												
		0.944383	2.20448												
		0.946464	2.20454												
		0.948544	2.2046												
		0.950625	2.20467												
		0.952705	2.20473												
		0.954786	2.20479												
		0.956866	2.20485												
		0.958947	2.20491												
		0.961028	2.20497												
		0.963108	2.20503												
		0.965189	2.20509												
		0.967269	2.20515												
		0.96935	2.20521												
		0.97143	2.20527												
		0.973511	2.20532												
		0.975591	2.20538												
		0.977672	2.20544												
		0.979752	2.2055												
		0.981833	2.20556												
		0.983913	2.20561												
		0.985994	2.20567												
		0.988074	2.20573												
		0.990155	2.20579												
		0.992236	2.20584												
		0.994316	2.2059												
		0.996397	2.20595												
		0.998477	2.20601												
		1.00056	2.20606												
