Sym0		Asym0		Sym1		Sym2		Sym3		Sym4		Asym1		Asym2		Asym3	
465  Points		495  Points		220  Points		187  Points		175  Points		122  Points		326  Points		200  Points		163  Points	
Freq (MHz)	Vph (m/ms)	Freq (MHz)	Vph (m/ms)	Freq (MHz)	Vph (m/ms)	Freq (MHz)	Vph (m/ms)	Freq (MHz)	Vph (m/ms)	Freq (MHz)	Vph (m/ms)	Freq (MHz)	Vph (m/ms)	Freq (MHz)	Vph (m/ms)	Freq (MHz)	Vph (m/ms)
0.00292835	5.4719	0.000364817	0.169862	0.279509	2107.03	0.480225	579.756	0.559023	1149.9	0.838536	1007.92	0.139772	365.21	0.419266	1200.71	0.698771	20077.4
0.00802626	5.47174	0.000746974	0.242569	0.279556	262.654	0.480254	272.869	0.55907	394.309	0.838574	475.479	0.13996	106.481	0.419313	327.364	0.698788	723.01
0.0131238	5.47157	0.00126043	0.314233	0.279674	140.114	0.480304	178.438	0.559161	237.987	0.838638	311.144	0.140353	62.4875	0.419414	189.56	0.698836	368.158
0.0182207	5.47127	0.00190094	0.384587	0.279865	95.5906	0.480376	132.576	0.559298	170.454	0.838729	231.244	0.14095	44.3546	0.419568	133.439	0.698915	246.976
0.0233167	5.47091	0.00266362	0.45342	0.280127	72.5823	0.480468	105.479	0.559481	132.801	0.838847	184.009	0.141746	34.4922	0.419776	102.988	0.699024	185.832
0.0284114	5.47043	0.00354259	0.520495	0.28046	58.5374	0.480582	87.5888	0.559708	108.795	0.838991	152.81	0.142736	28.3139	0.420037	83.879	0.699165	148.972
0.0335048	5.46987	0.0045316	0.585637	0.280865	49.0781	0.480717	74.8957	0.559981	92.1578	0.839163	130.668	0.143915	24.0947	0.420352	70.774	0.699337	124.327
0.0385964	5.46922	0.00562413	0.648719	0.281341	42.2782	0.480874	65.4234	0.560298	79.951	0.839361	114.14	0.145277	21.0406	0.420719	61.2308	0.69954	106.691
0.0436861	5.46847	0.00681343	0.709637	0.281887	37.1578	0.481054	58.085	0.56066	70.6147	0.839586	101.332	0.146814	18.7351	0.42114	53.9734	0.699774	93.4482
0.0487734	5.46762	0.00809254	0.768304	0.282503	33.1657	0.481255	52.2332	0.561067	63.2444	0.839838	91.1164	0.148518	16.9387	0.421614	48.2703	0.700039	83.1395
0.0538583	5.46667	0.00945477	0.824687	0.283187	29.9682	0.481478	47.4584	0.561518	57.2797	0.840117	82.7791	0.150383	15.504	0.42214	43.6721	0.700335	74.8881
0.0589403	5.46563	0.0108935	0.878762	0.28394	27.3511	0.481725	43.4889	0.562014	52.3544	0.840422	75.8463	0.152401	14.335	0.422718	39.8873	0.700661	68.1349
0.0640192	5.46448	0.0124022	0.930535	0.284761	25.1711	0.481994	40.1372	0.562553	48.2196	0.840754	69.9911	0.154563	13.3669	0.423349	36.7187	0.701019	62.5064
0.0690946	5.46323	0.013975	0.980029	0.285648	23.3283	0.482287	37.27	0.563137	44.6998	0.841112	64.9809	0.156861	12.5542	0.424032	34.0281	0.701407	57.744
0.0741662	5.46188	0.015606	1.02728	0.286602	21.7512	0.482604	34.7897	0.563763	41.668	0.841497	60.6455	0.159289	11.8638	0.424766	31.7157	0.701825	53.6624
0.0792339	5.46042	0.0172897	1.07235	0.28762	20.3869	0.482945	32.6232	0.564433	39.0299	0.841908	56.8574	0.161839	11.2716	0.425552	29.7077	0.702275	50.1258
0.0842971	5.45885	0.0190212	1.1153	0.288703	19.196	0.483311	30.7148	0.565146	36.7139	0.842346	53.5195	0.164155	10.821	0.426388	27.9483	0.702754	47.0324
0.0893556	5.45717	0.0207958	1.15619	0.289849	18.1479	0.483702	29.0213	0.565902	34.6648	0.842811	50.5562	0.166194	10.4774	0.427275	26.3946	0.703265	44.304
0.094409	5.45538	0.0226092	1.1951	0.291057	17.2191	0.484118	27.5085	0.5667	32.8395	0.843301	47.9082	0.167924	10.2178	0.428212	25.0129	0.703805	41.8799
0.0994568	5.45347	0.0244574	1.23211	0.292325	16.3907	0.48456	26.1493	0.56754	31.2035	0.843818	45.5278	0.169319	10.0266	0.4292	23.7765	0.704376	39.7122
0.104499	5.45143	0.0263368	1.26731	0.293654	15.6477	0.485029	24.9216	0.568422	29.7291	0.844362	43.3766	0.170359	9.89325	0.430236	22.6642	0.704977	37.7625
0.109535	5.44928	0.0282441	1.30077	0.295041	14.978	0.485525	23.8074	0.569345	28.3938	0.844931	41.4232	0.171032	9.81095	0.431322	21.6584	0.705608	35.9997
0.114564	5.447	0.0301764	1.33258	0.296486	14.3716	0.486049	22.7918	0.570309	27.179	0.845527	39.6417	0.172007	9.69659	0.432456	20.7448	0.706269	34.3983
0.119586	5.44459	0.0321309	1.36282	0.297987	13.8203	0.486601	21.8625	0.571314	26.0694	0.846148	38.0105	0.173077	9.57731	0.433638	19.9116	0.70696	32.9373
0.1246	5.44204	0.0341052	1.39157	0.299544	13.317	0.487182	21.0092	0.572359	25.052	0.846796	36.5114	0.174552	9.42296	0.434868	19.1489	0.707681	31.5993
0.129606	5.43936	0.0360971	1.4189	0.301154	12.8561	0.487792	20.223	0.573444	24.116	0.84747	35.1293	0.176447	9.23977	0.436145	18.4482	0.708431	30.3693
0.134604	5.43652	0.0381045	1.4449	0.302817	12.4326	0.488433	19.4964	0.574569	23.2523	0.848169	33.8509	0.178781	9.03453	0.437469	17.8027	0.709211	29.2351
0.139593	5.43355	0.0401258	1.46962	0.304532	12.0423	0.489104	18.8232	0.575733	22.4528	0.848895	32.6652	0.181574	8.81408	0.438839	17.2061	0.71002	28.186
0.144572	5.43041	0.0421593	1.49315	0.306297	11.6818	0.489806	18.1977	0.576935	21.7108	0.849646	31.5626	0.184852	8.5849	0.440255	16.6532	0.710859	27.2128
0.149541	5.42712	0.04394	1.51272	0.308111	11.3477	0.49054	17.6152	0.578177	21.0206	0.850422	30.5346	0.188201	8.37793	0.441716	16.1397	0.711727	26.3077
0.154498	5.42366	0.0454639	1.52875	0.309973	11.0375	0.491307	17.0716	0.579456	20.3768	0.851224	29.5741	0.191617	8.19032	0.443222	15.6615	0.712623	25.4639
0.159445	5.42003	0.0467277	1.54158	0.311633	10.7849	0.492108	16.5632	0.580773	19.7752	0.852052	28.6746	0.195098	8.0197	0.444772	15.2154	0.713549	24.6755
0.164379	5.41622	0.0477292	1.55146	0.313076	10.5814	0.492942	16.0868	0.582128	19.2119	0.852905	27.8307	0.198638	7.86404	0.446366	14.7982	0.714504	23.9372
0.1693	5.41222	0.0484666	1.55857	0.314288	10.4208	0.493811	15.6397	0.583519	18.6833	0.853783	27.0374	0.202234	7.72161	0.448002	14.4075	0.715487	23.2446
0.174208	5.40803	0.0489391	1.56306	0.315259	10.2984	0.494716	15.2192	0.584947	18.1865	0.854687	26.2903	0.205884	7.59093	0.449681	14.0408	0.716498	22.5936
0.1791	5.40363	0.0496189	1.56943	0.315979	10.2109	0.495656	14.8233	0.586411	17.7188	0.855615	25.5856	0.209584	7.47071	0.451402	13.6961	0.717538	21.9806
0.183978	5.39902	0.0503587	1.57624	0.316442	10.156	0.496634	14.4499	0.587911	17.2777	0.856569	24.9198	0.213331	7.35985	0.453165	13.3715	0.718606	21.4025
0.188839	5.39419	0.051366	1.58531	0.317113	10.0785	0.497649	14.0973	0.589446	16.8611	0.857548	24.2899	0.217123	7.25739	0.454968	13.0656	0.719702	20.8564
0.193683	5.38913	0.0526421	1.5965	0.317847	9.99613	0.498703	13.7639	0.591017	16.4672	0.858551	23.6931	0.220956	7.16248	0.456811	12.7767	0.720826	20.3398
0.198509	5.38383	0.0541879	1.60959	0.318853	9.88708	0.499796	13.4482	0.592622	16.0941	0.859579	23.1268	0.22483	7.07439	0.458694	12.5035	0.721977	19.8504
0.203315	5.37828	0.0560047	1.62438	0.320141	9.7539	0.500928	13.1491	0.594261	15.7404	0.860632	22.5889	0.228741	6.99247	0.460616	12.2449	0.723157	19.3862
0.2081	5.37246	0.0580935	1.64063	0.321719	9.59954	0.502101	12.8652	0.595934	15.4045	0.861709	22.0773	0.232688	6.91613	0.462577	11.9998	0.724363	18.9454
0.212864	5.36636	0.0601861	1.65615	0.323598	9.42722	0.503315	12.5956	0.597641	15.0853	0.86281	21.5902	0.236668	6.84488	0.464576	11.7673	0.725597	18.5262
0.217605	5.35998	0.0622819	1.67098	0.325791	9.24032	0.504572	12.3394	0.599381	14.7816	0.863936	21.1258	0.24068	6.77826	0.466612	11.5463	0.726857	18.1272
0.222321	5.35329	0.0643804	1.68516	0.328023	9.06411	0.505871	12.0955	0.601153	14.4924	0.865086	20.6827	0.244722	6.71587	0.468685	11.3363	0.728145	17.7469
0.227011	5.34629	0.0664812	1.69872	0.330293	8.89777	0.507213	11.8634	0.602958	14.2166	0.86626	20.2595	0.248792	6.65734	0.470794	11.1363	0.729459	17.3842
0.231674	5.33895	0.0685839	1.7117	0.332601	8.74055	0.508599	11.6421	0.604796	13.9533	0.867458	19.8549	0.252888	6.60235	0.472661	10.9698	0.730799	17.0378
0.236307	5.33127	0.0706882	1.72413	0.334945	8.59179	0.510031	11.4311	0.606665	13.7019	0.86868	19.4677	0.25701	6.55062	0.474273	10.8332	0.732166	16.7068
0.24091	5.32321	0.0727938	1.73603	0.337325	8.45087	0.511507	11.2297	0.608565	13.4616	0.869925	19.0969	0.261155	6.50188	0.475621	10.7238	0.733559	16.3901
0.24548	5.31478	0.0749005	1.74745	0.339741	8.31726	0.512831	11.0616	0.610496	13.2316	0.871194	18.7414	0.265323	6.45589	0.476696	10.6395	0.734978	16.0869
0.250016	5.30595	0.077008	1.75839	0.342192	8.19044	0.513988	10.9234	0.612458	13.0114	0.872487	18.4004	0.269512	6.41245	0.477492	10.5787	0.736423	15.7964
0.254515	5.29671	0.0791161	1.7689	0.344678	8.06998	0.514964	10.8127	0.61445	12.8004	0.873803	18.073	0.273721	6.37135	0.478003	10.5403	0.737893	15.5178
0.258976	5.28703	0.0812246	1.77898	0.347199	7.95546	0.515748	10.7272	0.616472	12.598	0.875142	17.7585	0.277948	6.33242	0.478741	10.4858	0.739388	15.2505
0.263396	5.27689	0.0833334	1.78867	0.349754	7.84651	0.516332	10.6655	0.618524	12.4037	0.876504	17.4561	0.282193	6.29551	0.479548	10.4275	0.740909	14.9937
0.267773	5.26628	0.0854425	1.79798	0.352344	7.74278	0.516709	10.6266	0.620605	12.2172	0.877889	17.1652	0.286455	6.26046	0.480652	10.3496	0.742454	14.7469
0.272105	5.25519	0.0875515	1.80694	0.35497	7.64397	0.517255	10.5712	0.622715	12.0379	0.879297	16.8851	0.290733	6.22715	0.482059	10.2536	0.744025	14.5096
0.27639	5.24358	0.0896605	1.81555	0.35763	7.54979	0.517855	10.512	0.624854	11.8656	0.880728	16.6154	0.295025	6.19544	0.483777	10.1408	0.74562	14.2812
0.280624	5.23145	0.0917694	1.82385	0.360327	7.45998	0.51868	10.4329	0.627021	11.6997	0.882181	16.3553	0.29933	6.16523	0.485816	10.0131	0.747239	14.0613
0.284807	5.21878	0.093878	1.83184	0.363059	7.37431	0.51974	10.3353	0.629215	11.5401	0.883657	16.1045	0.303649	6.13642	0.488185	9.87239	0.748882	13.8494
0.288935	5.20555	0.0959863	1.83953	0.365829	7.29257	0.521047	10.2206	0.631438	11.3863	0.885155	15.8624	0.307979	6.10891	0.490585	9.73746	0.75055	13.6452
0.293006	5.19174	0.0980943	1.84695	0.368637	7.21454	0.522614	10.0906	0.633397	11.2568	0.886675	15.6287	0.31232	6.08261	0.493016	9.60803	0.752241	13.4481
0.297017	5.17735	0.100202	1.85411	0.371483	7.14005	0.524459	9.94731	0.635084	11.1496	0.888217	15.403	0.316672	6.05745	0.495477	9.4838	0.753956	13.2579
0.300967	5.16236	0.102309	1.86102	0.374369	7.06894	0.526354	9.80989	0.636489	11.0631	0.889781	15.1848	0.321033	6.03334	0.497969	9.36448	0.755694	13.0743
0.304853	5.14677	0.104416	1.86769	0.377297	7.00105	0.528299	9.67808	0.637608	10.9961	0.891367	14.9737	0.325403	6.01023	0.500489	9.24982	0.757455	12.8969
0.308673	5.13056	0.106522	1.87413	0.380266	6.93623	0.530294	9.55161	0.638434	10.9475	0.892975	14.7696	0.329781	5.98805	0.503038	9.13955	0.759239	12.7254
0.312426	5.11374	0.108628	1.88035	0.383279	6.87436	0.53234	9.43021	0.638965	10.9167	0.894604	14.572	0.334166	5.96673	0.505615	9.03346	0.761046	12.5596
0.316109	5.0963	0.110733	1.88637	0.386336	6.81531	0.534437	9.31364	0.63973	10.8729	0.896254	14.3806	0.338558	5.94623	0.50822	8.93134	0.762876	12.3991
0.319721	5.07826	0.112838	1.89219	0.38944	6.75896	0.536585	9.20167	0.640565	10.8259	0.897926	14.1952	0.342956	5.92649	0.510853	8.83297	0.764727	12.2438
0.32326	5.05961	0.114942	1.89783	0.39259	6.70522	0.538785	9.09408	0.641707	10.7629	0.899619	14.0155	0.347359	5.90746	0.513512	8.73818	0.766601	12.0934
0.326727	5.04037	0.117046	1.90328	0.39579	6.65398	0.541035	8.99068	0.643158	10.6847	0.901332	13.8413	0.351767	5.88911	0.516197	8.64679	0.768497	11.9477
0.33012	5.02054	0.119149	1.90857	0.399039	6.60515	0.543336	8.89127	0.644927	10.5923	0.903067	13.6724	0.356178	5.87139	0.518909	8.55863	0.770415	11.8065
0.333438	5.00016	0.121251	1.91368	0.402339	6.55863	0.545689	8.79567	0.64702	10.4868	0.904822	13.5084	0.360594	5.85426	0.521645	8.47356	0.772354	11.6696
0.336682	4.97924	0.123353	1.91865	0.405691	6.51433	0.548093	8.7037	0.649446	10.3695	0.906598	13.3492	0.365012	5.83769	0.524407	8.39142	0.774061	11.5537
0.339852	4.95781	0.125455	1.92346	0.409096	6.47217	0.550548	8.61522	0.651896	10.2561	0.908394	13.1946	0.369432	5.82164	0.527193	8.31208	0.775529	11.4572
0.342554	4.93873	0.127556	1.92813	0.412554	6.43207	0.553053	8.53006	0.654371	10.1463	0.91021	13.0445	0.373854	5.80608	0.530004	8.23542	0.776752	11.3791
0.344813	4.92219	0.129656	1.93266	0.416065	6.39394	0.555608	8.44807	0.656871	10.04	0.912047	12.8986	0.378277	5.79097	0.532838	8.1613	0.777725	11.3183
0.346652	4.90832	0.131756	1.93705	0.419631	6.35771	0.558214	8.36913	0.659395	9.93709	0.913903	12.7567	0.382701	5.77631	0.535695	8.08962	0.778443	11.2741
0.348086	4.89725	0.133855	1.94133	0.42325	6.32328	0.560869	8.29309	0.661943	9.83737	0.915779	12.6188	0.387125	5.76205	0.538575	8.02028	0.778904	11.2461
0.34913	4.88905	0.135954	1.94548	0.426923	6.2906	0.563574	8.21985	0.664515	9.74071	0.917675	12.4847	0.391548	5.74817	0.541478	7.95316	0.779568	11.2062
0.349793	4.88377	0.138052	1.94951	0.43065	6.25957	0.566327	8.14926	0.667111	9.64701	0.91959	12.3541	0.39597	5.73465	0.544403	7.88818	0.780293	11.1632
0.35074	4.87615	0.14015	1.95344	0.434428	6.23012	0.569129	8.08124	0.669729	9.55612	0.921525	12.2271	0.40039	5.72147	0.54735	7.82524	0.781283	11.1055
0.351761	4.86783	0.142247	1.95725	0.438258	6.20218	0.571978	8.01565	0.672371	9.46795	0.923479	12.1034	0.404808	5.7086	0.550319	7.76425	0.782542	11.0336
0.353135	4.85643	0.144344	1.96096	0.442138	6.17566	0.574875	7.95241	0.675035	9.38237	0.925452	11.9829	0.409224	5.69603	0.553308	7.70515	0.784075	10.9484
0.35485	4.8419	0.14644	1.96458	0.446068	6.15051	0.577818	7.89142	0.677722	9.29929	0.927187	11.8805	0.413636	5.68373	0.556319	7.64784	0.785887	10.8507
0.356889	4.82417	0.148536	1.96809	0.450044	6.12663	0.580807	7.83258	0.680431	9.21861	0.928677	11.795	0.418045	5.6717	0.55935	7.59227	0.787985	10.7415
0.359235	4.80317	0.150632	1.97152	0.454067	6.10397	0.583841	7.7758	0.683162	9.14024	0.929917	11.7255	0.422449	5.65991	0.562401	7.53835	0.790103	10.6353
0.361866	4.77882	0.152727	1.97486	0.458133	6.08245	0.586921	7.721	0.685915	9.06408	0.930902	11.6713	0.426848	5.64834	0.565472	7.48603	0.792241	10.532
0.364435	4.75425	0.154821	1.97811	0.462242	6.06202	0.590043	7.6681	0.688689	8.99006	0.93163	11.6319	0.431242	5.63699	0.568563	7.43524	0.794398	10.4314
0.366944	4.72949	0.156915	1.98128	0.46639	6.04259	0.59321	7.61702	0.691485	8.9181	0.932097	11.6069	0.43563	5.62583	0.571673	7.38593	0.796575	10.3336
0.369394	4.70457	0.159009	1.98438	0.470577	6.02412	0.596418	7.56768	0.694303	8.84811	0.932769	11.5711	0.440012	5.61486	0.574803	7.33803	0.79877	10.2383
0.371787	4.67953	0.161103	1.98739	0.474801	6.00654	0.599668	7.52002	0.697141	8.78003	0.933503	11.5326	0.444386	5.60405	0.577952	7.2915	0.800984	10.1455
0.374127	4.65439	0.163196	1.99034	0.479058	5.9898	0.602959	7.47396	0.7	8.71379	0.934504	11.4808	0.448753	5.59341	0.581119	7.24629	0.803217	10.0552
0.376415	4.6292	0.165288	1.99321	0.483348	5.97385	0.60629	7.42945	0.702879	8.64932	0.935776	11.4162	0.453112	5.58291	0.584305	7.20234	0.805469	9.9671
0.378653	4.60397	0.16738	1.99601	0.487667	5.95862	0.60966	7.38642	0.705779	8.58656	0.937324	11.3393	0.457463	5.57254	0.587509	7.15961	0.807739	9.88126
0.380844	4.57874	0.169472	1.99875	0.492016	5.94408	0.613069	7.34481	0.7087	8.52545	0.939153	11.2509	0.461804	5.5623	0.590732	7.11806	0.810026	9.79758
0.382989	4.55353	0.171564	2.00143	0.49639	5.93018	0.616515	7.30456	0.71164	8.46594	0.941268	11.1518	0.466136	5.55216	0.593973	7.07766	0.812332	9.71598
0.385091	4.52836	0.173655	2.00404	0.500789	5.91688	0.619998	7.26562	0.7146	8.40796	0.943401	11.055	0.470458	5.54213	0.597231	7.03834	0.814656	9.63639
0.387153	4.50326	0.175746	2.00659	0.505211	5.90413	0.623516	7.22794	0.71758	8.35147	0.945552	10.9606	0.474768	5.5322	0.600507	7.00009	0.816997	9.55874
0.389174	4.47825	0.177836	2.00909	0.509654	5.8919	0.62707	7.19147	0.72058	8.29642	0.94772	10.8683	0.479068	5.52234	0.603801	6.96287	0.819356	9.48297
0.391159	4.45334	0.179927	2.01153	0.514116	5.88015	0.630659	7.15615	0.723599	8.24276	0.949906	10.7782	0.483355	5.51256	0.607113	6.92663	0.821732	9.40901
0.393108	4.42856	0.182017	2.01392	0.518597	5.86886	0.63428	7.12196	0.726637	8.19044	0.952109	10.6902	0.48763	5.50284	0.610441	6.89136	0.824125	9.3368
0.395024	4.40391	0.184106	2.01626	0.523093	5.85798	0.637935	7.08883	0.729694	8.13943	0.954329	10.6042	0.491892	5.49319	0.613787	6.85701	0.826536	9.2663
0.396907	4.37942	0.186196	2.01854	0.527604	5.84749	0.641621	7.05674	0.732771	8.08967	0.956566	10.5202	0.496141	5.48358	0.617151	6.82356	0.828962	9.19744
0.39876	4.35509	0.188285	2.02078	0.532129	5.83736	0.645339	7.02563	0.735866	8.04114	0.95882	10.438	0.500375	5.47401	0.620531	6.79098	0.831406	9.13017
0.400584	4.33095	0.190374	2.02297	0.536666	5.82757	0.649087	6.99548	0.738981	7.99378	0.961091	10.3577	0.504595	5.46447	0.623929	6.75924	0.833866	9.06444
0.402381	4.30699	0.192462	2.02511	0.541214	5.81809	0.652864	6.96624	0.742113	7.94757	0.963378	10.2791	0.508799	5.45497	0.627343	6.72833	0.836343	9.00021
0.404153	4.28323	0.19455	2.02721	0.545771	5.8089	0.65667	6.93788	0.745265	7.90247	0.965682	10.2023	0.512988	5.44548	0.630775	6.6982	0.838836	8.93743
0.405899	4.25969	0.196638	2.02927	0.550337	5.79998	0.660504	6.91036	0.748435	7.85845	0.968001	10.1271	0.51716	5.436	0.634224	6.66884	0.841344	8.87605
0.407623	4.23635	0.198726	2.03128	0.55491	5.79131	0.664365	6.88366	0.751623	7.81547	0.970338	10.0535	0.521315	5.42654	0.637689	6.64023	0.843869	8.81603
0.409324	4.21324	0.200814	2.03326	0.55949	5.78288	0.668253	6.85774	0.75483	7.7735	0.97269	9.98156	0.525453	5.41707	0.641172	6.61234	0.84641	8.75733
0.411005	4.19035	0.202901	2.03519	0.564075	5.77466	0.672167	6.83258	0.758055	7.73252	0.975058	9.9111	0.529572	5.4076	0.644671	6.58515	0.848966	8.69991
0.412666	4.1677	0.204988	2.03709	0.568665	5.76664	0.676106	6.80814	0.761298	7.69249	0.977442	9.84212	0.533673	5.39812	0.648187	6.55865	0.851537	8.64374
0.414309	4.14528	0.207075	2.03895	0.573258	5.75881	0.680069	6.78439	0.764559	7.6534	0.979841	9.77458	0.537755	5.38862	0.651721	6.53282	0.854125	8.58877
0.415934	4.12311	0.209162	2.04078	0.577854	5.75115	0.684055	6.76132	0.767838	7.6152	0.982256	9.70844	0.541817	5.3791	0.655271	6.50763	0.856727	8.53498
0.417542	4.10117	0.211248	2.04257	0.582451	5.74365	0.688065	6.73889	0.771135	7.57788	0.984686	9.64365	0.545858	5.36956	0.658838	6.48306	0.859345	8.48232
0.419135	4.07949	0.213335	2.04432	0.58705	5.73629	0.692097	6.71709	0.77445	7.54141	0.987132	9.58018	0.549879	5.35998	0.662421	6.45911	0.861977	8.43078
0.420713	4.05805	0.215421	2.04604	0.591649	5.72908	0.69615	6.69588	0.777784	7.50577	0.989592	9.518	0.553878	5.35037	0.666022	6.43575	0.864625	8.38031
0.422278	4.03686	0.217506	2.04774	0.596248	5.72198	0.700225	6.67525	0.781135	7.47094	0.992068	9.45706	0.557855	5.34073	0.66964	6.41297	0.867288	8.33088
0.423829	4.01592	0.219592	2.0494	0.600845	5.71501	0.704319	6.65517	0.784504	7.43689	0.994558	9.39734	0.56181	5.33104	0.673274	6.39076	0.869965	8.28247
0.425368	3.99523	0.221678	2.05102	0.605441	5.70814	0.708434	6.63563	0.787891	7.4036	0.997063	9.3388	0.565742	5.3213	0.676925	6.36909	0.872657	8.23506
0.426895	3.97479	0.223763	2.05262	0.610035	5.70136	0.712567	6.61661	0.791295	7.37106	0.999583	9.2814	0.56965	5.31152	0.680594	6.34796	0.875363	8.1886
0.428411	3.9546	0.225848	2.0542	0.614626	5.69468	0.716719	6.59807	0.794718	7.33925	1.00212	9.22512	0.573535	5.30168	0.684279	6.32734	0.878084	8.14308
0.429917	3.93467	0.227933	2.05574	0.619213	5.68808	0.720888	6.58002	0.798159	7.30815			0.577395	5.29179	0.68798	6.30723	0.880819	8.09847
0.431414	3.91498	0.230018	2.05726	0.623796	5.68155	0.725075	6.56242	0.801617	7.27773			0.58123	5.28184	0.691699	6.28762	0.883568	8.05475
0.432901	3.89554	0.232103	2.05874	0.628374	5.6751	0.729278	6.54527	0.805094	7.24798			0.58504	5.27183	0.695434	6.26848	0.886332	8.0119
0.434381	3.87635	0.234187	2.06021	0.632948	5.6687	0.733496	6.52854	0.808589	7.2189			0.588825	5.26175	0.699186	6.24982	0.88911	7.96988
0.435852	3.85741	0.236272	2.06165	0.637515	5.66236	0.737731	6.51223	0.812102	7.19045			0.592583	5.25161	0.702955	6.2316	0.891901	7.92869
0.437315	3.83871	0.238356	2.06306	0.642077	5.65607	0.741979	6.49631	0.815633	7.16263			0.596315	5.24141	0.70674	6.21384	0.894707	7.8883
0.438772	3.82026	0.24044	2.06445	0.646632	5.64983	0.746242	6.48076	0.819182	7.13541			0.600021	5.23114	0.710541	6.1965	0.897526	7.84868
0.440223	3.80204	0.242524	2.06582	0.65118	5.64362	0.750519	6.46559	0.82275	7.1088			0.603699	5.2208	0.714359	6.17958	0.90036	7.80983
0.441667	3.78407	0.244608	2.06716	0.655721	5.63745	0.754808	6.45076	0.826336	7.08277			0.60735	5.21039	0.718193	6.16308	0.903206	7.77171
0.443106	3.76633	0.246691	2.06848	0.660253	5.63132	0.75911	6.43628	0.82994	7.0573			0.610973	5.19992	0.722043	6.14697	0.906067	7.73432
0.44454	3.74883	0.248775	2.06979	0.664778	5.62521	0.763424	6.42212	0.833564	7.0324			0.614569	5.18937	0.725909	6.13125	0.908941	7.69763
0.445969	3.73157	0.250858	2.07106	0.669294	5.61912	0.767749	6.40828	0.837206	7.00804			0.618136	5.17875	0.729791	6.11591	0.911829	7.66164
0.447394	3.71453	0.252941	2.07232	0.6738	5.61305	0.772084	6.39474	0.840866	6.98421			0.621675	5.16806	0.733688	6.10093	0.91473	7.62631
0.448814	3.69772	0.255025	2.07356	0.678298	5.60699	0.77643	6.38149	0.844546	6.96091			0.625186	5.1573	0.737601	6.08632	0.917644	7.59164
0.450231	3.68114	0.257108	2.07478	0.682785	5.60095	0.780785	6.36851	0.848245	6.93812			0.628668	5.14647	0.741529	6.07204	0.920572	7.55761
0.451645	3.66478	0.25919	2.07598	0.687262	5.59492	0.78515	6.35581	0.851963	6.91583			0.632121	5.13556	0.745471	6.05811	0.923513	7.5242
0.453055	3.64864	0.261273	2.07716	0.691729	5.58889	0.789522	6.34337	0.855701	6.89403			0.635545	5.1246	0.749429	6.04451	0.926467	7.4914
0.454463	3.63272	0.263356	2.07833	0.696185	5.58287	0.793903	6.33117	0.859458	6.87271			0.638941	5.11356	0.753401	6.03122	0.929435	7.4592
0.455868	3.61701	0.265438	2.07947	0.70063	5.57684	0.798291	6.31921	0.863235	6.85186			0.642307	5.10245	0.757387	6.01824	0.932415	7.42758
0.457271	3.60152	0.267521	2.0806	0.705063	5.57082	0.802686	6.30748	0.867031	6.83147			0.645645	5.09128	0.761387	6.00556	0.935409	7.39654
0.458672	3.58624	0.269603	2.08171	0.709485	5.56479	0.807087	6.29597	0.870848	6.81154			0.648953	5.08005	0.7654	5.99318	0.938416	7.36604
0.460071	3.57116	0.271686	2.08281	0.713894	5.55875	0.811495	6.28468	0.874685	6.79206			0.652233	5.06875	0.769427	5.98107	0.941435	7.33609
0.461469	3.55629	0.273768	2.08388	0.718291	5.55271	0.815907	6.27358	0.878542	6.77301			0.655483	5.0574	0.773466	5.96924	0.944468	7.30668
0.462865	3.54162	0.27585	2.08494	0.722676	5.54665	0.820324	6.26268	0.88242	6.75439			0.658705	5.04598	0.777519	5.95768	0.947513	7.27778
0.46426	3.52715	0.277932	2.08599	0.727047	5.54058	0.824746	6.25197	0.886318	6.73619			0.661897	5.0345	0.781583	5.94637	0.950572	7.24939
0.465655	3.51288	0.280013	2.08702	0.731406	5.5345	0.829171	6.24143	0.890237	6.7184			0.665061	5.02297	0.785659	5.93531	0.953643	7.2215
0.467048	3.4988	0.282095	2.08804	0.73575	5.5284	0.833599	6.23106	0.894178	6.70102			0.668197	5.01139	0.789747	5.92449	0.956727	7.1941
0.468441	3.48491	0.284177	2.08904	0.740081	5.52229	0.838031	6.22086	0.898139	6.68404			0.671304	4.99976	0.793846	5.91391	0.959823	7.16717
0.469834	3.47122	0.286259	2.09003	0.744398	5.51615	0.842464	6.21082	0.902122	6.66745			0.674382	4.98807	0.797956	5.90355	0.962932	7.14071
0.471226	3.4577	0.28834	2.091	0.748701	5.50999	0.8469	6.20093	0.906126	6.65124			0.677433	4.97634	0.802076	5.89341	0.966054	7.11471
0.472619	3.44437	0.290421	2.09196	0.752989	5.50381	0.851337	6.19118	0.910152	6.63541			0.680455	4.96457	0.806205	5.88347	0.969189	7.08915
0.474011	3.43122	0.292503	2.09291	0.757263	5.49761	0.855775	6.18157	0.914199	6.61995			0.68345	4.95275	0.810345	5.87374	0.972336	7.06403
0.475404	3.41825	0.294584	2.09384	0.761522	5.49138	0.860214	6.1721	0.918269	6.60486			0.686417	4.94089	0.814493	5.86421	0.975496	7.03933
0.476797	3.40545	0.296665	2.09476	0.765765	5.48513	0.864653	6.16275	0.92236	6.59013			0.689357	4.92899	0.818651	5.85487	0.978668	7.01506
0.478191	3.39283	0.298746	2.09567	0.769993	5.47885	0.869091	6.15352	0.926473	6.57574			0.692269	4.91706	0.822816	5.84571	0.981852	6.9912
0.479585	3.38038	0.300827	2.09656	0.774206	5.47255	0.873529	6.14441	0.930609	6.5617			0.695155	4.9051	0.826989	5.83672	0.985049	6.96773
0.48098	3.36809	0.302908	2.09745	0.778402	5.46621	0.877967	6.13542	0.934766	6.548			0.698014	4.89311	0.83117	5.82791	0.988258	6.94467
0.482376	3.35597	0.304989	2.09832	0.782583	5.45985	0.882402	6.12653	0.938946	6.53463			0.700847	4.88109	0.835358	5.81925	0.99148	6.92199
0.483773	3.34401	0.30707	2.09918	0.786747	5.45345	0.886837	6.11774	0.943149	6.52159			0.703654	4.86904	0.839552	5.81076	0.994714	6.89968
0.485171	3.33222	0.309151	2.10003	0.790895	5.44703	0.891269	6.10905	0.947373	6.50887			0.706434	4.85697	0.843753	5.80242	0.99796	6.87775
0.48657	3.32058	0.311231	2.10086	0.795027	5.44057	0.8957	6.10046	0.95162	6.49647			0.70919	4.84488	0.847959	5.79422	1.00122	6.85618
0.48797	3.30909	0.313312	2.10169	0.799142	5.43408	0.900128	6.09196	0.955889	6.48437			0.71192	4.83277	0.852171	5.78616		
0.489372	3.29776	0.315392	2.10251	0.80324	5.42756	0.904553	6.08355	0.960181	6.47257			0.714625	4.82064	0.856388	5.77824		
0.490775	3.28658	0.317473	2.10331	0.80732	5.42101	0.908975	6.07523	0.964494	6.46107			0.717305	4.8085	0.860609	5.77044		
0.49218	3.27555	0.319553	2.10411	0.811384	5.41442	0.913395	6.06698	0.96883	6.44986			0.719962	4.79635	0.864834	5.76277		
0.493586	3.26467	0.321633	2.10489	0.81543	5.4078	0.917811	6.05882	0.973188	6.43893			0.722594	4.78419	0.869063	5.75522		
0.494994	3.25393	0.323714	2.10567	0.819459	5.40115	0.922224	6.05074	0.977567	6.42828			0.725202	4.77202	0.873295	5.74778		
0.496403	3.24333	0.325794	2.10643	0.82347	5.39446	0.926633	6.04273	0.981968	6.4179			0.727787	4.75985	0.87753	5.74046		
0.497814	3.23287	0.327874	2.10719	0.827464	5.38774	0.931039	6.0348	0.986391	6.40779			0.730349	4.74768	0.881767	5.73323		
0.499227	3.22255	0.329954	2.10793	0.831439	5.38098	0.935441	6.02693	0.990835	6.39793			0.732888	4.7355	0.886007	5.72611		
0.500642	3.21236	0.332034	2.10867	0.835397	5.37419	0.93984	6.01914	0.9953	6.38833			0.735405	4.72333	0.890248	5.71908		
0.502059	3.20231	0.334114	2.1094	0.839337	5.36736	0.944234	6.01141	0.999786	6.37898			0.737899	4.71116	0.894491	5.71215		
0.503478	3.19239	0.336194	2.11012	0.843258	5.3605	0.948625	6.00376	1.00429	6.36987			0.740372	4.699	0.898734	5.7053		
0.504899	3.1826	0.338274	2.11083	0.847161	5.3536	0.953012	5.99616					0.742823	4.68684	0.902978	5.69854		
0.506323	3.17293	0.340353	2.11153	0.851046	5.34667	0.957395	5.98863					0.745254	4.67469	0.907222	5.69186		
0.507748	3.1634	0.342433	2.11222	0.854912	5.33971	0.961774	5.98117					0.747663	4.66255	0.911466	5.68525		
0.509175	3.15398	0.344513	2.11291	0.85876	5.33271	0.966149	5.97377					0.750052	4.65043	0.91571	5.67872		
0.510605	3.14469	0.346593	2.11359	0.862589	5.32567	0.970521	5.96643					0.75242	4.63832	0.919952	5.67225		
0.512037	3.13552	0.348672	2.11426	0.866399	5.3186	0.974889	5.95914					0.754769	4.62623	0.924193	5.66585		
0.513471	3.12646	0.350752	2.11492	0.870191	5.3115	0.979253	5.95192					0.757098	4.61416	0.928433	5.65952		
0.514908	3.11752	0.352831	2.11557	0.873964	5.30437	0.983614	5.94476					0.759408	4.6021	0.93267	5.65324		
0.516346	3.1087	0.35491	2.11622	0.877719	5.2972	0.987971	5.93766					0.761699	4.59007	0.936905	5.64702		
0.517788	3.09999	0.35699	2.11685	0.881454	5.29	0.992324	5.93062					0.763971	4.57806	0.941138	5.64085		
0.519231	3.09139	0.359069	2.11749	0.885171	5.28276	0.996674	5.92363					0.766225	4.56607	0.945367	5.63474		
0.520677	3.08289	0.361148	2.11811	0.888868	5.2755	1.00102	5.9167					0.768461	4.55411	0.949593	5.62867		
0.522126	3.07451	0.363228	2.11873	0.892547	5.2682							0.77068	4.54218	0.953816	5.62265		
0.523577	3.06623	0.365307	2.11934	0.896207	5.26087							0.772881	4.53028	0.958034	5.61667		
0.525031	3.05806	0.367386	2.11994	0.899848	5.25351							0.775065	4.5184	0.962248	5.61073		
0.526487	3.04999	0.369465	2.12054	0.903471	5.24613							0.777232	4.50656	0.966458	5.60482		
0.527945	3.04202	0.371544	2.12113	0.907074	5.23871							0.779383	4.49475	0.970663	5.59896		
0.529406	3.03415	0.373623	2.12171	0.910658	5.23126							0.781517	4.48297	0.974862	5.59312		
0.53087	3.02638	0.375702	2.12229	0.914224	5.22378							0.783636	4.47123	0.979056	5.58732		
0.532337	3.0187	0.377781	2.12286	0.91777	5.21628							0.785739	4.45952	0.983245	5.58154		
0.533805	3.01113	0.37986	2.12342	0.921298	5.20875							0.787827	4.44785	0.987427	5.57579		
0.535277	3.00364	0.381939	2.12398	0.924807	5.20119							0.7899	4.43622	0.991603	5.57007		
0.536751	2.99625	0.384018	2.12454	0.928297	5.1936							0.791958	4.42463	0.995772	5.56437		
0.538228	2.98895	0.386096	2.12508	0.931769	5.18599							0.794002	4.41308	0.999934	5.55869		
0.539707	2.98173	0.388175	2.12562	0.935222	5.17836							0.796032	4.40156	1.00409	5.55303		
0.541189	2.97461	0.390254	2.12616	0.938656	5.1707							0.798047	4.39009				
0.542674	2.96757	0.392332	2.12669	0.942072	5.16302							0.80005	4.37867				
0.544161	2.96062	0.394411	2.12721	0.945469	5.15531							0.802039	4.36728				
0.545651	2.95376	0.39649	2.12773	0.948847	5.14758							0.804014	4.35594				
0.547144	2.94697	0.398568	2.12824	0.952207	5.13983							0.805977	4.34465				
0.548639	2.94027	0.400647	2.12875	0.955549	5.13206							0.807928	4.3334				
0.550137	2.93365	0.402725	2.12926	0.958873	5.12427							0.809866	4.32219				
0.551638	2.92711	0.404804	2.12975	0.962178	5.11646							0.811792	4.31103				
0.553141	2.92065	0.406882	2.13025	0.965465	5.10863							0.813706	4.29993				
0.554648	2.91427	0.40896	2.13073	0.968734	5.10078							0.815609	4.28886				
0.556156	2.90796	0.411039	2.13122	0.971985	5.09291							0.817501	4.27785				
0.557668	2.90173	0.413117	2.1317	0.975218	5.08502							0.819381	4.26689				
0.559182	2.89557	0.415195	2.13217	0.978433	5.07712							0.82125	4.25598				
0.560698	2.88948	0.417274	2.13264	0.98163	5.06921							0.823109	4.24511				
0.562218	2.88346	0.419352	2.1331	0.98481	5.06128							0.824958	4.2343				
0.56374	2.87752	0.42143	2.13356	0.987972	5.05333							0.826796	4.22354				
0.565264	2.87165	0.423508	2.13402	0.991116	5.04537							0.828625	4.21283				
0.566792	2.86584	0.425586	2.13447	0.994243	5.0374							0.830444	4.20217				
0.568322	2.8601	0.427664	2.13491	0.997353	5.02941							0.832253	4.19157				
0.569854	2.85443	0.429742	2.13536	1.00045	5.02141							0.834053	4.18101				
0.57139	2.84883	0.43182	2.13579									0.835844	4.17051				
0.572928	2.84329	0.433898	2.13623									0.837626	4.16006				
0.574468	2.83781	0.435976	2.13666									0.839399	4.14967				
0.576011	2.8324	0.438054	2.13708									0.841164	4.13933				
0.577557	2.82705	0.440132	2.1375									0.842921	4.12904				
0.579106	2.82176	0.44221	2.13792									0.844669	4.11881				
0.580657	2.81653	0.444288	2.13834									0.84641	4.10863				
0.58221	2.81136	0.446366	2.13874									0.848143	4.09851				
0.583767	2.80625	0.448444	2.13915									0.849868	4.08844				
0.585325	2.8012	0.450521	2.13955									0.851586	4.07842				
0.586887	2.7962	0.452599	2.13995									0.853297	4.06846				
0.588451	2.79126	0.454677	2.14035									0.855001	4.05855				
0.590017	2.78638	0.456754	2.14074									0.856697	4.0487				
0.591586	2.78155	0.458832	2.14113									0.858388	4.03891				
0.593158	2.77678	0.46091	2.14151									0.860071	4.02917				
0.594732	2.77205	0.462987	2.14189									0.861749	4.01948				
0.596308	2.76738	0.465065	2.14227									0.86342	4.00985				
0.597887	2.76277	0.467143	2.14264									0.865085	4.00027				
0.599469	2.7582	0.46922	2.14302									0.866744	3.99075				
0.601053	2.75368	0.471298	2.14338									0.868398	3.98129				
0.60264	2.74922	0.473375	2.14375									0.870045	3.97187				
0.604229	2.7448	0.475453	2.14411									0.871688	3.96252				
0.60582	2.74043	0.47753	2.14447									0.873325	3.95322				
0.607414	2.73611	0.479608	2.14482									0.874957	3.94397				
0.60901	2.73184	0.481685	2.14518									0.876583	3.93478				
0.610609	2.72761	0.483762	2.14553									0.878205	3.92564				
0.61221	2.72343	0.48584	2.14587									0.879822	3.91656				
0.613814	2.71929	0.487917	2.14621									0.881435	3.90753				
0.61542	2.7152	0.489994	2.14655									0.883043	3.89856				
0.617028	2.71115	0.492072	2.14689									0.884646	3.88963				
0.618639	2.70714	0.494149	2.14723									0.886245	3.88077				
0.620252	2.70318	0.496226	2.14756									0.88784	3.87196				
0.621868	2.69926	0.498303	2.14789									0.889431	3.8632				
0.623485	2.69538	0.500381	2.14821									0.891018	3.85449				
0.625105	2.69155	0.502458	2.14854									0.892601	3.84584				
0.626728	2.68775	0.504535	2.14886									0.894181	3.83724				
0.628353	2.68399	0.506612	2.14918									0.895756	3.8287				
0.62998	2.68028	0.508689	2.14949									0.897329	3.8202				
0.631609	2.6766	0.510766	2.14981									0.898898	3.81176				
0.63324	2.67296	0.512843	2.15012									0.900463	3.80337				
0.634874	2.66936	0.514921	2.15043									0.902026	3.79504				
0.63651	2.66579	0.516998	2.15073									0.903585	3.78676				
0.638148	2.66227	0.519075	2.15104									0.905141	3.77852				
0.639789	2.65878	0.521152	2.15134									0.906694	3.77034				
0.641432	2.65532	0.523229	2.15164									0.908245	3.76221				
0.643076	2.6519	0.525306	2.15193									0.909792	3.75414				
0.644724	2.64852	0.527383	2.15223									0.911337	3.74611				
0.646373	2.64517	0.52946	2.15252									0.912879	3.73813				
0.648024	2.64185	0.531536	2.15281									0.914419	3.73021				
0.649678	2.63857	0.533613	2.15309									0.915957	3.72233				
0.651333	2.63533	0.53569	2.15338									0.917492	3.71451				
0.652991	2.63211	0.537767	2.15366									0.919025	3.70673				
0.654651	2.62893	0.539844	2.15394									0.920556	3.699				
0.656313	2.62578	0.541921	2.15422									0.922084	3.69133				
0.657977	2.62266	0.543998	2.1545									0.923611	3.6837				
0.659643	2.61957	0.546074	2.15477									0.925135	3.67612				
0.661312	2.61652	0.548151	2.15504									0.926658	3.66859				
0.662982	2.61349	0.550228	2.15531									0.928179	3.6611				
0.664654	2.6105	0.552305	2.15558									0.929698	3.65367				
0.666329	2.60753	0.554382	2.15585									0.931215	3.64628				
0.668005	2.60459	0.556458	2.15611									0.932731	3.63894				
0.669683	2.60169	0.558535	2.15637									0.934245	3.63165				
0.671364	2.59881	0.560612	2.15663									0.935758	3.6244				
0.673046	2.59596	0.562688	2.15689									0.937269	3.6172				
0.67473	2.59314	0.564765	2.15715									0.938779	3.61005				
0.676417	2.59034	0.566842	2.1574									0.940288	3.60294				
0.678105	2.58757	0.568918	2.15765									0.941795	3.59588				
0.679795	2.58483	0.570995	2.1579									0.943301	3.58886				
0.681487	2.58212	0.573071	2.15815									0.944806	3.58189				
0.683181	2.57943	0.575148	2.1584									0.94631	3.57497				
0.684877	2.57677	0.577225	2.15865									0.947813	3.56808				
0.686575	2.57414	0.579301	2.15889									0.949315	3.56125				
0.688275	2.57153	0.581378	2.15913									0.950815	3.55445				
0.689976	2.56894	0.583454	2.15937									0.952315	3.54771				
0.691679	2.56638	0.585531	2.15961									0.953815	3.541				
0.693385	2.56385	0.587607	2.15985									0.955313	3.53434				
0.695092	2.56133	0.589684	2.16008									0.95681	3.52772				
0.696801	2.55885	0.59176	2.16031									0.958307	3.52114				
0.698511	2.55638	0.593837	2.16055									0.959804	3.51461				
0.700224	2.55394	0.595913	2.16078									0.961299	3.50812				
0.701938	2.55152	0.597989	2.161									0.962794	3.50167				
0.703654	2.54913	0.600066	2.16123									0.964289	3.49526				
0.705372	2.54675	0.602142	2.16146									0.965783	3.48889				
0.707092	2.5444	0.604219	2.16168									0.967276	3.48256				
0.708813	2.54208	0.606295	2.1619									0.968769	3.47628				
0.710536	2.53977	0.608371	2.16212									0.970262	3.47003				
0.712261	2.53748	0.610448	2.16234									0.971754	3.46383				
0.713988	2.53522	0.612524	2.16256									0.973246	3.45766				
0.715716	2.53298	0.6146	2.16278									0.974738	3.45154				
0.717446	2.53075	0.616676	2.16299									0.97623	3.44545				
0.719178	2.52855	0.618753	2.16321									0.977721	3.43941				
0.720911	2.52637	0.620829	2.16342									0.979212	3.4334				
0.722646	2.52421	0.622905	2.16363									0.980703	3.42743				
0.724383	2.52207	0.624982	2.16384									0.982194	3.4215				
0.726121	2.51995	0.627058	2.16404									0.983685	3.41561				
0.727861	2.51784	0.629134	2.16425									0.985176	3.40975				
0.729603	2.51576	0.63121	2.16446									0.986667	3.40394				
0.731346	2.51369	0.633286	2.16466									0.988158	3.39816				
0.73309	2.51165	0.635362	2.16486									0.989648	3.39242				
0.734837	2.50962	0.637439	2.16506									0.991139	3.38671				
0.736585	2.50761	0.639515	2.16526									0.99263	3.38104				
0.738334	2.50562	0.641591	2.16546									0.994122	3.37541				
0.740085	2.50365	0.643667	2.16566									0.995613	3.36981				
0.741838	2.50169	0.645743	2.16585									0.997104	3.36425				
0.743592	2.49975	0.647819	2.16605									0.998596	3.35873				
0.745348	2.49783	0.649895	2.16624									1.00009	3.35324				
0.747105	2.49593	0.651971	2.16643														
0.748864	2.49404	0.654047	2.16662														
0.750624	2.49217	0.656124	2.16681														
0.752386	2.49032	0.6582	2.167														
0.75415	2.48848	0.660276	2.16719														
0.755914	2.48666	0.662352	2.16738														
0.757681	2.48485	0.664428	2.16756														
0.759448	2.48306	0.666504	2.16774														
0.761217	2.48129	0.66858	2.16793														
0.762988	2.47953	0.670656	2.16811														
0.76476	2.47778	0.672731	2.16829														
0.766534	2.47606	0.674807	2.16847														
0.768308	2.47434	0.676883	2.16865														
0.770085	2.47264	0.678959	2.16882														
0.771862	2.47096	0.681035	2.169														
0.773642	2.46929	0.683111	2.16917														
0.775422	2.46764	0.685187	2.16935														
0.777204	2.46599	0.687263	2.16952														
0.778987	2.46437	0.689339	2.16969														
0.780772	2.46275	0.691415	2.16986														
0.782558	2.46115	0.69349	2.17003														
0.784345	2.45957	0.695566	2.1702														
0.786134	2.458	0.697642	2.17037														
0.787924	2.45644	0.699718	2.17053														
0.789715	2.45489	0.701794	2.1707														
0.791507	2.45336	0.703869	2.17086														
0.793301	2.45184	0.705945	2.17103														
0.795096	2.45033	0.708021	2.17119														
0.796893	2.44883	0.710097	2.17135														
0.798691	2.44735	0.712172	2.17151														
0.80049	2.44588	0.714248	2.17167														
0.80229	2.44442	0.716324	2.17183														
0.804091	2.44298	0.7184	2.17199														
0.805894	2.44154	0.720475	2.17215														
0.807698	2.44012	0.722551	2.1723														
0.809503	2.43871	0.724627	2.17246														
0.81131	2.43731	0.726702	2.17261														
0.813117	2.43592	0.728778	2.17276														
0.814926	2.43455	0.730854	2.17292														
0.816736	2.43318	0.732929	2.17307														
0.818548	2.43183	0.735005	2.17322														
0.82036	2.43049	0.737081	2.17337														
0.822174	2.42915	0.739156	2.17352														
0.823989	2.42783	0.741232	2.17367														
0.825805	2.42652	0.743307	2.17381														
0.827622	2.42522	0.745383	2.17396														
0.82944	2.42393	0.747458	2.17411														
0.83126	2.42265	0.749534	2.17425														
0.83308	2.42138	0.75161	2.1744														
0.834902	2.42013	0.753685	2.17454														
0.836725	2.41888	0.755761	2.17468														
0.838549	2.41764	0.757836	2.17482														
0.840374	2.41641	0.759912	2.17496														
0.8422	2.41519	0.761987	2.1751														
0.844027	2.41398	0.764063	2.17524														
0.845855	2.41278	0.766138	2.17538														
0.847685	2.41159	0.768214	2.17552														
0.849515	2.41041	0.770289	2.17566														
0.851347	2.40924	0.772365	2.17579														
0.85318	2.40807	0.77444	2.17593														
0.855013	2.40692	0.776515	2.17606														
0.856848	2.40577	0.778591	2.1762														
0.858684	2.40464	0.780666	2.17633														
0.860521	2.40351	0.782742	2.17646														
0.862359	2.40239	0.784817	2.1766														
0.864198	2.40128	0.786892	2.17673														
0.866038	2.40018	0.788968	2.17686														
0.867878	2.39909	0.791043	2.17699														
0.86972	2.398	0.793119	2.17712														
0.871563	2.39693	0.795194	2.17725														
0.873407	2.39586	0.797269	2.17737														
0.875252	2.3948	0.799345	2.1775														
0.877098	2.39375	0.80142	2.17763														
0.878945	2.39271	0.803495	2.17775														
0.880793	2.39167	0.805571	2.17788														
0.882642	2.39064	0.807646	2.178														
0.884492	2.38962	0.809721	2.17813														
0.886342	2.38861	0.811796	2.17825														
0.888194	2.38761	0.813872	2.17837														
0.890047	2.38661	0.815947	2.17849														
0.8919	2.38562	0.818022	2.17862														
0.893755	2.38464	0.820097	2.17874														
0.895611	2.38366	0.822173	2.17886														
0.897467	2.38269	0.824248	2.17898														
0.899324	2.38173	0.826323	2.1791														
0.901182	2.38078	0.828398	2.17921														
0.903042	2.37984	0.830473	2.17933														
0.904902	2.3789	0.832549	2.17945														
0.906763	2.37796	0.834624	2.17956														
0.908624	2.37704	0.836699	2.17968														
0.910487	2.37612	0.838774	2.1798														
0.912351	2.37521	0.840849	2.17991														
0.914215	2.3743	0.842924	2.18002														
0.91608	2.3734	0.845	2.18014														
0.917947	2.37251	0.847075	2.18025														
0.919814	2.37163	0.84915	2.18036														
0.921682	2.37075	0.851225	2.18048														
0.92355	2.36988	0.8533	2.18059														
0.92542	2.36901	0.855375	2.1807														
0.92729	2.36815	0.85745	2.18081														
0.929162	2.3673	0.859525	2.18092														
0.931034	2.36645	0.8616	2.18103														
0.932907	2.36561	0.863675	2.18113														
0.934781	2.36477	0.86575	2.18124														
0.936655	2.36394	0.867825	2.18135														
0.938531	2.36312	0.8699	2.18146														
0.940407	2.3623	0.871976	2.18156														
0.942284	2.36149	0.874051	2.18167														
0.944162	2.36068	0.876126	2.18178														
0.94604	2.35988	0.878201	2.18188														
0.94792	2.35909	0.880276	2.18199														
0.9498	2.3583	0.882351	2.18209														
0.951681	2.35752	0.884426	2.18219														
0.953563	2.35674	0.8865	2.1823														
0.955445	2.35596	0.888575	2.1824														
0.957328	2.3552	0.89065	2.1825														
0.959212	2.35444	0.892725	2.1826														
0.961097	2.35368	0.8948	2.1827														
0.962983	2.35293	0.896875	2.1828														
0.964869	2.35218	0.89895	2.1829														
0.966756	2.35144	0.901025	2.183														
0.968644	2.35071	0.9031	2.1831														
0.970532	2.34998	0.905175	2.1832														
0.972422	2.34925	0.90725	2.1833														
0.974312	2.34853	0.909325	2.1834														
0.976202	2.34782	0.911399	2.18349														
0.978094	2.34711	0.913474	2.18359														
0.979986	2.3464	0.915549	2.18369														
0.981879	2.3457	0.917624	2.18378														
0.983772	2.345	0.919699	2.18388														
0.985667	2.34431	0.921774	2.18397														
0.987562	2.34363	0.923848	2.18407														
0.989457	2.34295	0.925923	2.18416														
0.991354	2.34227	0.927998	2.18426														
0.993251	2.3416	0.930073	2.18435														
0.995149	2.34093	0.932148	2.18444														
0.997047	2.34026	0.934222	2.18453														
0.998946	2.33961	0.936297	2.18463														
1.00085	2.33895	0.938372	2.18472														
		0.940447	2.18481														
		0.942521	2.1849														
		0.944596	2.18499														
		0.946671	2.18508														
		0.948746	2.18517														
		0.95082	2.18526														
		0.952895	2.18535														
		0.95497	2.18544														
		0.957044	2.18552														
		0.959119	2.18561														
		0.961194	2.1857														
		0.963269	2.18579														
		0.965343	2.18587														
		0.967418	2.18596														
		0.969492	2.18604														
		0.971567	2.18613														
		0.973642	2.18621														
		0.975716	2.1863														
		0.977791	2.18638														
		0.979866	2.18647														
		0.98194	2.18655														
		0.984015	2.18663														
		0.986089	2.18672														
		0.988164	2.1868														
		0.990239	2.18688														
		0.992313	2.18696														
		0.994388	2.18704														
		0.996462	2.18713														
		0.998537	2.18721														
		1.00061	2.18729														
