Sym0		Asym0		Sym1		Sym2		Sym3		Sym4		Asym1		Asym2		Asym3	
465  Points		495  Points		216  Points		184  Points		170  Points		119  Points		325  Points		195  Points		159  Points	
Freq (MHz)	Vph (m/ms)	Freq (MHz)	Vph (m/ms)	Freq (MHz)	Vph (m/ms)	Freq (MHz)	Vph (m/ms)	Freq (MHz)	Vph (m/ms)	Freq (MHz)	Vph (m/ms)	Freq (MHz)	Vph (m/ms)	Freq (MHz)	Vph (m/ms)	Freq (MHz)	Vph (m/ms)
0.000699072	5.60079	0.000427229	0.185904	0.27951	1429.3	0.48229	10490.5	0.559025	1042.98	0.838534	1130.69	0.13978	305.2	0.419269	973.994	0.698771	20786.5
0.00591713	5.60063	0.000840038	0.260089	0.279564	248.005	0.482302	493.319	0.559076	380.924	0.838571	501.145	0.139994	100.737	0.419323	307.837	0.698789	723.9
0.0111348	5.60044	0.00138637	0.333142	0.279694	135.843	0.482336	252.616	0.559175	233.05	0.838635	321.933	0.140421	60.4901	0.419433	182.851	0.698839	368.39
0.0163519	5.60017	0.00206164	0.404784	0.279899	93.5917	0.482392	169.793	0.559321	167.91	0.838728	237.15	0.141059	43.3617	0.4196	130.086	0.698922	247.082
0.0215682	5.5998	0.00286021	0.474733	0.28018	71.4319	0.48247	127.883	0.559514	131.256	0.838849	187.729	0.141904	33.9096	0.419822	100.986	0.699037	185.894
0.0267832	5.59932	0.00377601	0.542796	0.280536	57.7945	0.482571	102.578	0.559755	107.76	0.838998	155.367	0.142951	27.9394	0.420101	82.5517	0.699185	149.013
0.0319967	5.59874	0.00480233	0.608793	0.280967	48.5621	0.482693	85.6425	0.560043	91.4184	0.839175	132.534	0.144194	23.8409	0.420435	69.8324	0.699365	124.358
0.0372085	5.59805	0.00593232	0.6726	0.281472	41.9018	0.482839	73.5156	0.560379	79.3979	0.83938	115.562	0.145625	20.8636	0.420825	60.5301	0.699578	106.716
0.0424181	5.59725	0.0071587	0.7341	0.282051	36.8737	0.483007	64.4049	0.560761	70.1868	0.839613	102.452	0.147237	18.6104	0.421271	53.4335	0.699823	93.4696
0.0476253	5.59635	0.00847442	0.793235	0.282703	32.946	0.483198	57.3105	0.561189	62.9048	0.839874	92.0222	0.149023	16.8516	0.421772	47.8431	0.700101	83.1585
0.0528299	5.59534	0.00987231	0.849957	0.283428	29.7953	0.483412	51.6305	0.561665	57.0048	0.840163	83.5271	0.150974	15.445	0.422328	43.3271	0.700411	74.9057
0.0580313	5.59421	0.0113457	0.904273	0.284224	27.2136	0.48365	46.9809	0.562186	52.1284	0.84048	76.475	0.153081	14.2978	0.422938	39.6043	0.700754	68.1517
0.0632294	5.59297	0.0128879	0.956186	0.285091	25.061	0.483912	43.1052	0.562754	48.0316	0.840825	70.5275	0.155337	13.347	0.423604	36.4836	0.701128	62.5228
0.0684238	5.59162	0.0144927	1.00573	0.286029	23.24	0.484198	39.8255	0.563367	44.5419	0.841198	65.4443	0.157734	12.5484	0.424323	33.8308	0.701535	57.7602
0.0736141	5.59015	0.0161543	1.05295	0.287035	21.6805	0.484509	37.0145	0.564026	41.5344	0.841598	61.0502	0.160262	11.8698	0.425097	31.549	0.701974	53.6787
0.0788	5.58855	0.0178671	1.09792	0.288109	20.3309	0.484845	34.579	0.564729	38.9162	0.842027	57.2144	0.162916	11.2874	0.425924	29.566	0.702446	50.1423
0.0839811	5.58685	0.0196261	1.14071	0.28925	19.1523	0.485207	32.4486	0.565478	36.6169	0.842483	53.8371	0.165324	10.8442	0.426804	27.8273	0.702949	47.0491
0.089157	5.58501	0.0214266	1.18138	0.290458	18.1147	0.485595	30.5698	0.566272	34.5819	0.842966	50.8411	0.167443	10.5063	0.427737	26.2911	0.703484	44.3211
0.0943273	5.58304	0.0232643	1.22003	0.291729	17.1949	0.486009	28.9008	0.567109	32.7686	0.843478	48.1654	0.169241	10.2509	0.428723	24.9243	0.704051	41.8975
0.0994917	5.58095	0.0251352	1.25674	0.293065	16.3744	0.486451	27.4085	0.567991	31.1429	0.844017	45.7615	0.170689	10.0628	0.42976	23.7009	0.704649	39.7303
0.10465	5.57872	0.0270359	1.29161	0.294463	15.6384	0.48692	26.0666	0.568915	29.6776	0.844583	43.5902	0.171769	9.93168	0.430849	22.5997	0.705279	37.7811
0.109801	5.57635	0.028963	1.32471	0.295922	14.9749	0.487418	24.8536	0.569884	28.3502	0.845177	41.6196	0.172467	9.85073	0.43199	21.6037	0.705941	36.0189
0.114944	5.57384	0.0309136	1.35613	0.297441	14.3741	0.487944	23.752	0.570894	27.1424	0.845798	39.8231	0.173478	9.73824	0.43318	20.6989	0.706634	34.4181
0.12008	5.57119	0.0328851	1.38597	0.299018	13.8277	0.488499	22.7474	0.571948	26.0391	0.846447	38.1788	0.17459	9.6209	0.434421	19.8734	0.707359	32.9577
0.125208	5.56838	0.0348751	1.41431	0.300653	13.329	0.489085	21.8277	0.573043	25.0273	0.847122	36.6683	0.176119	9.46907	0.435712	19.1176	0.708114	31.6203
0.130326	5.56542	0.0368814	1.44122	0.302344	12.8723	0.489702	20.9827	0.57418	24.0965	0.847825	35.2761	0.178084	9.28887	0.437052	18.4233	0.708901	30.391
0.135436	5.56229	0.0389022	1.46678	0.304089	12.4527	0.490349	20.2039	0.575358	23.2373	0.848555	33.9889	0.180503	9.087	0.43844	17.7833	0.709718	29.2575
0.140535	5.559	0.0409356	1.49107	0.305888	12.066	0.491029	19.4839	0.576577	22.4421	0.849312	32.7953	0.183398	8.87018	0.439877	17.1919	0.710567	28.209
0.145623	5.55554	0.0427168	1.51125	0.307739	11.7087	0.491742	18.8166	0.577836	21.704	0.850096	31.6856	0.186792	8.64479	0.44136	16.6439	0.711446	27.2365
0.1507	5.55189	0.0442411	1.52777	0.30964	11.3777	0.492488	18.1964	0.579135	21.0173	0.850906	30.6514	0.190259	8.44126	0.442891	16.1347	0.712355	26.3321
0.155765	5.54806	0.0455054	1.54098	0.311592	11.0704	0.493268	17.6187	0.580474	20.3769	0.851744	29.6853	0.193794	8.2568	0.444469	15.6606	0.713295	25.489
0.160818	5.54403	0.0465073	1.55113	0.313331	10.8201	0.494084	17.0795	0.581852	19.7784	0.852607	28.7808	0.197394	8.08906	0.446091	15.2182	0.714265	24.7012
0.165856	5.5398	0.0472452	1.55845	0.314843	10.6185	0.494935	16.5751	0.583269	19.2179	0.853498	27.9324	0.201054	7.93604	0.44776	14.8046	0.715265	23.9637
0.170881	5.53536	0.0477179	1.56306	0.316112	10.4594	0.495822	16.1023	0.584724	18.6921	0.854415	27.135	0.204771	7.79605	0.449472	14.4171	0.716295	23.2718
0.17589	5.5307	0.0483981	1.5696	0.317128	10.3382	0.496747	15.6586	0.586217	18.1978	0.855358	26.3843	0.208541	7.66762	0.451229	14.0534	0.717355	22.6215
0.180883	5.52582	0.0491383	1.57659	0.317881	10.2516	0.497709	15.2413	0.587748	17.7325	0.856327	25.6763	0.212362	7.5495	0.453029	13.7116	0.718444	22.0092
0.185859	5.52069	0.0501462	1.58591	0.318367	10.1972	0.498711	14.8483	0.589316	17.2936	0.857323	25.0075	0.216231	7.44058	0.454872	13.3898	0.719563	21.4317
0.190816	5.51532	0.051423	1.59738	0.319068	10.1204	0.499751	14.4777	0.59092	16.8792	0.858344	24.3749	0.220144	7.33992	0.456758	13.0864	0.720711	20.8863
0.195755	5.50968	0.0529699	1.61079	0.319837	10.0389	0.500833	14.1277	0.592561	16.4873	0.859392	23.7756	0.2241	7.24669	0.458684	12.7999	0.721888	20.3704
0.200673	5.50377	0.0547879	1.62594	0.32089	9.93086	0.501955	13.7968	0.594238	16.1162	0.860465	23.2071	0.228095	7.16017	0.460652	12.5291	0.723094	19.8818
0.205569	5.49758	0.0568782	1.64255	0.322237	9.79899	0.50312	13.4835	0.59595	15.7643	0.861564	22.6671	0.232128	7.07971	0.46266	12.2727	0.724329	19.4183
0.210442	5.49108	0.0589723	1.65841	0.323888	9.64616	0.504327	13.1866	0.597698	15.4302	0.862689	22.1537	0.236196	7.00474	0.464708	12.0297	0.725592	18.9781
0.215291	5.48428	0.0610695	1.67354	0.325853	9.47557	0.505577	12.9049	0.59948	15.1127	0.863839	21.6649	0.240298	6.93477	0.466795	11.7992	0.726884	18.5596
0.220114	5.47714	0.0631694	1.68798	0.328147	9.29057	0.506872	12.6374	0.601297	14.8107	0.865014	21.199	0.244431	6.86935	0.46892	11.5802	0.728203	18.1613
0.224909	5.46967	0.0652716	1.70179	0.330481	9.11618	0.508212	12.3832	0.603147	14.523	0.866214	20.7545	0.248594	6.80808	0.471083	11.3719	0.729551	17.7817
0.229676	5.46183	0.0673757	1.71499	0.332855	8.9516	0.509598	12.1413	0.605031	14.2487	0.86744	20.33	0.252785	6.7506	0.473284	11.1737	0.730926	17.4196
0.234412	5.45362	0.0694813	1.72761	0.335267	8.79607	0.51103	11.911	0.606948	13.9869	0.868691	19.9243	0.257002	6.6966	0.475231	11.0087	0.732329	17.074
0.239115	5.44502	0.0715881	1.73969	0.337717	8.64894	0.512509	11.6916	0.608898	13.7369	0.869966	19.5361	0.261244	6.64579	0.476913	10.8733	0.73376	16.7436
0.243784	5.436	0.0736959	1.75127	0.340206	8.50962	0.514037	11.4824	0.610881	13.4979	0.871266	19.1643	0.265509	6.59792	0.478318	10.7649	0.735217	16.4276
0.248416	5.42656	0.0758045	1.76235	0.342731	8.37755	0.515612	11.2828	0.612895	13.2693	0.872591	18.808	0.269797	6.55275	0.479439	10.6813	0.736702	16.1251
0.25301	5.41666	0.0779135	1.77298	0.345293	8.25225	0.517026	11.1162	0.614941	13.0503	0.87394	18.4662	0.274105	6.51006	0.480268	10.6211	0.738213	15.8352
0.257563	5.4063	0.0800231	1.78318	0.347892	8.13326	0.518261	10.9794	0.617019	12.8405	0.875313	18.1382	0.278432	6.46968	0.480801	10.583	0.739751	15.5573
0.262073	5.39545	0.0821327	1.79297	0.350528	8.0202	0.519303	10.8697	0.619127	12.6393	0.876711	17.823	0.282778	6.43142	0.481571	10.529	0.741315	15.2906
0.266538	5.38409	0.0842425	1.80237	0.353201	7.91268	0.52014	10.785	0.621266	12.4463	0.878132	17.5201	0.28714	6.39513	0.482412	10.4712	0.742906	15.0345
0.270954	5.3722	0.0863523	1.8114	0.355911	7.81037	0.520763	10.724	0.623435	12.2609	0.879578	17.2287	0.291519	6.36067	0.483562	10.3941	0.744522	14.7884
0.275321	5.35977	0.088462	1.82008	0.358659	7.71297	0.521166	10.6854	0.625635	12.0827	0.881047	16.9482	0.295913	6.3279	0.485028	10.2989	0.746164	14.5517
0.279635	5.34677	0.0905714	1.82843	0.361445	7.62019	0.521749	10.6306	0.627863	11.9115	0.88254	16.678	0.300321	6.2967	0.486818	10.1872	0.747832	14.3239
0.283894	5.33319	0.0926805	1.83647	0.364269	7.53179	0.522389	10.572	0.630121	11.7467	0.884056	16.4176	0.304741	6.26696	0.488942	10.0607	0.749524	14.1047
0.288094	5.31901	0.0947894	1.84421	0.367133	7.44753	0.52327	10.4937	0.632408	11.588	0.885596	16.1664	0.309174	6.23859	0.491409	9.92128	0.751242	13.8934
0.292235	5.30422	0.0968978	1.85166	0.370037	7.3672	0.524402	10.3971	0.634724	11.4352	0.887159	15.9241	0.313618	6.21148	0.493908	9.78762	0.752985	13.6897
0.296313	5.2888	0.0990058	1.85885	0.372982	7.2906	0.525797	10.2836	0.636765	11.3066	0.888745	15.6902	0.318072	6.18556	0.496438	9.65943	0.754752	13.4933
0.300326	5.27275	0.101113	1.86578	0.375969	7.21755	0.52747	10.1551	0.638521	11.2002	0.890354	15.4642	0.322536	6.16074	0.499	9.53639	0.756544	13.3037
0.304272	5.25604	0.10322	1.87247	0.379	7.14789	0.529439	10.0134	0.639985	11.1143	0.891986	15.2459	0.327008	6.13696	0.501592	9.41822	0.75836	13.1207
0.308148	5.23869	0.105327	1.87893	0.382076	7.08147	0.531461	9.87758	0.64115	11.0477	0.89364	15.0347	0.331489	6.11413	0.504213	9.30467	0.7602	12.9439
0.311954	5.22069	0.107433	1.88516	0.385198	7.01814	0.533537	9.74737	0.642011	10.9994	0.895316	14.8305	0.335976	6.09221	0.506865	9.1955	0.762064	12.773
0.315686	5.20204	0.109538	1.89119	0.388368	6.95778	0.535666	9.62248	0.642563	10.9689	0.897015	14.6328	0.34047	6.07113	0.509545	9.09046	0.763952	12.6078
0.319343	5.18274	0.111643	1.89701	0.391586	6.90026	0.537848	9.50265	0.64336	10.9254	0.898737	14.4414	0.34497	6.05084	0.512253	8.98936	0.765862	12.4479
0.322926	5.16281	0.113747	1.90265	0.394854	6.84546	0.540085	9.38763	0.64423	10.8787	0.90048	14.256	0.349474	6.03128	0.514989	8.89199	0.767796	12.2932
0.326431	5.14226	0.115851	1.9081	0.398173	6.79327	0.542376	9.27721	0.645418	10.8161	0.902245	14.0763	0.353983	6.01242	0.517752	8.79816	0.769753	12.1433
0.329859	5.12111	0.117954	1.91338	0.401545	6.7436	0.54472	9.17115	0.64693	10.7384	0.904032	13.9021	0.358496	5.99421	0.520542	8.70771	0.771733	11.9982
0.33321	5.09937	0.120057	1.91849	0.404969	6.69634	0.547118	9.06927	0.648771	10.6467	0.90584	13.7331	0.363011	5.97661	0.523358	8.62047	0.773734	11.8576
0.336484	5.07707	0.122159	1.92344	0.408448	6.65139	0.54957	8.97136	0.65095	10.542	0.90767	13.5692	0.367529	5.95957	0.526201	8.53628	0.775759	11.7212
0.33968	5.05425	0.12426	1.92824	0.411982	6.60867	0.552076	8.87725	0.653475	10.4256	0.909521	13.4101	0.372049	5.94307	0.529068	8.45501	0.777541	11.6058
0.3428	5.03092	0.126361	1.9329	0.415571	6.56807	0.554635	8.78676	0.656025	10.313	0.911393	13.2556	0.376569	5.92707	0.531961	8.37652	0.779073	11.5098
0.345843	5.00713	0.128461	1.93742	0.419215	6.52952	0.557248	8.69973	0.658602	10.204	0.913286	13.1055	0.381091	5.91155	0.534878	8.30067	0.780349	11.432
0.348813	4.9829	0.130561	1.9418	0.422914	6.49292	0.559913	8.61602	0.661203	10.0985	0.9152	12.9597	0.385612	5.89646	0.537819	8.22736	0.781363	11.3714
0.351341	4.96147	0.13266	1.94605	0.426669	6.45818	0.56263	8.53546	0.66383	9.99641	0.917135	12.818	0.390132	5.88178	0.540784	8.15647	0.782113	11.3275
0.353452	4.94298	0.134759	1.95019	0.430477	6.42522	0.5654	8.45793	0.666481	9.89747	0.91909	12.6802	0.394651	5.8675	0.543773	8.08788	0.782594	11.2996
0.355169	4.92755	0.136857	1.9542	0.43434	6.39396	0.568221	8.38329	0.669157	9.80159	0.921065	12.5462	0.399168	5.85357	0.546784	8.02151	0.783287	11.2598
0.356508	4.91527	0.138955	1.95811	0.438255	6.3643	0.571093	8.31141	0.671857	9.70865	0.92306	12.4158	0.403683	5.83999	0.549818	7.95726	0.784043	11.2171
0.357483	4.90619	0.141052	1.9619	0.442222	6.33618	0.574015	8.24219	0.674581	9.61851	0.925076	12.2889	0.408194	5.82672	0.552874	7.89503	0.785076	11.1596
0.358102	4.90036	0.143149	1.96559	0.446239	6.3095	0.576988	8.17549	0.677329	9.53108	0.927111	12.1654	0.412702	5.81375	0.555952	7.83475	0.78639	11.088
0.358985	4.89196	0.145245	1.96919	0.450304	6.2842	0.580009	8.11122	0.6801	9.44623	0.929166	12.0451	0.417206	5.80105	0.559051	7.77632	0.787989	11.0032
0.359938	4.8828	0.147341	1.97268	0.454416	6.26019	0.583079	8.04928	0.682895	9.36387	0.930973	11.9428	0.421705	5.78862	0.562172	7.71969	0.789879	10.906
0.361219	4.87029	0.149437	1.97609	0.458573	6.23739	0.586197	7.98956	0.685712	9.2839	0.932525	11.8575	0.426198	5.77642	0.565314	7.66477	0.792067	10.7973
0.362818	4.85439	0.151532	1.9794	0.462773	6.21575	0.589361	7.93196	0.688553	9.20622	0.933817	11.7881	0.430686	5.76445	0.568476	7.61149	0.794276	10.6916
0.36472	4.83506	0.153626	1.98263	0.467013	6.19518	0.592572	7.87641	0.691416	9.13076	0.934843	11.734	0.435167	5.75269	0.571659	7.5598	0.796505	10.5888
0.366908	4.81227	0.15572	1.98578	0.471293	6.17562	0.595828	7.82282	0.694301	9.05742	0.9356	11.6947	0.439641	5.74112	0.574862	7.50963	0.798755	10.4888
0.369363	4.78598	0.157814	1.98885	0.475609	6.15701	0.599129	7.7711	0.697209	8.98613	0.936086	11.6697	0.444107	5.72974	0.578085	7.46093	0.801024	10.3915
0.37176	4.75959	0.159907	1.99184	0.47996	6.13929	0.602474	7.72117	0.700138	8.91681	0.936787	11.634	0.448565	5.71851	0.581327	7.41363	0.803312	10.2967
0.374102	4.73311	0.162	1.99476	0.484343	6.12239	0.605862	7.67297	0.703089	8.84939	0.93755	11.5956	0.453014	5.70744	0.584589	7.36769	0.80562	10.2044
0.376392	4.7066	0.164093	1.99761	0.488757	6.10628	0.609291	7.62642	0.706062	8.78381	0.938593	11.5439	0.457454	5.69651	0.587871	7.32305	0.807948	10.1145
0.37863	4.68007	0.166185	2.00039	0.4932	6.09088	0.612762	7.58145	0.709056	8.71998	0.939918	11.4794	0.461883	5.6857	0.591171	7.27967	0.810294	10.027
0.380821	4.65355	0.168277	2.00311	0.497669	6.07616	0.616273	7.53799	0.712072	8.65786	0.941529	11.4027	0.466302	5.67501	0.59449	7.23751	0.812659	9.9416
0.382965	4.62708	0.170368	2.00576	0.502162	6.06206	0.619824	7.496	0.715108	8.59739	0.943433	11.3145	0.47071	5.66443	0.597828	7.19652	0.815043	9.8584
0.385066	4.60067	0.172459	2.00835	0.506679	6.04855	0.623413	7.4554	0.718165	8.53851	0.945635	11.2155	0.475106	5.65394	0.601184	7.15666	0.817445	9.77728
0.387125	4.57434	0.17455	2.01088	0.511216	6.03559	0.62704	7.41614	0.721244	8.48115	0.947855	11.119	0.47949	5.64353	0.604559	7.11789	0.819866	9.69816
0.389143	4.54813	0.17664	2.01335	0.515773	6.02313	0.630703	7.37816	0.724342	8.42529	0.950093	11.0248	0.48386	5.6332	0.607953	7.08018	0.822305	9.62097
0.391124	4.52204	0.178731	2.01577	0.520347	6.01114	0.634402	7.34142	0.727461	8.37085	0.95235	10.9328	0.488217	5.62293	0.611364	7.04348	0.824762	9.54566
0.393069	4.49609	0.180821	2.01813	0.524937	5.99959	0.638136	7.30586	0.730601	8.3178	0.954624	10.8429	0.49256	5.61272	0.614794	7.00777	0.827237	9.47216
0.39498	4.47031	0.18291	2.02045	0.529542	5.98845	0.641905	7.27144	0.73376	8.26609	0.956916	10.7551	0.496888	5.60255	0.618242	6.97302	0.829729	9.40041
0.396859	4.4447	0.185	2.02271	0.534159	5.97769	0.645706	7.23811	0.73694	8.21568	0.959226	10.6693	0.5012	5.59243	0.621707	6.93919	0.832239	9.33036
0.398706	4.41928	0.187089	2.02492	0.538789	5.96728	0.64954	7.20583	0.74014	8.16653	0.961553	10.5855	0.505496	5.58233	0.625191	6.90625	0.834766	9.26195
0.400525	4.39406	0.189177	2.02709	0.543429	5.9572	0.653405	7.17455	0.743359	8.11859	0.963898	10.5036	0.509776	5.57226	0.628692	6.87418	0.83731	9.19512
0.402316	4.36905	0.191266	2.02921	0.548078	5.94742	0.6573	7.14424	0.746599	8.07183	0.966259	10.4235	0.514038	5.5622	0.632211	6.84295	0.839871	9.12983
0.40408	4.34426	0.193354	2.03128	0.552735	5.93792	0.661226	7.11486	0.749858	8.02622	0.968638	10.3452	0.518283	5.55216	0.635748	6.81253	0.842449	9.06604
0.40582	4.3197	0.195442	2.03332	0.557399	5.92868	0.66518	7.08636	0.753136	7.98172	0.971034	10.2686	0.522508	5.54211	0.639303	6.7829	0.845044	9.00368
0.407537	4.29537	0.19753	2.03531	0.562068	5.91969	0.669163	7.05873	0.756434	7.93829	0.973446	10.1937	0.526715	5.53206	0.642875	6.75404	0.847655	8.94273
0.409231	4.27128	0.199618	2.03726	0.566743	5.91092	0.673173	7.03191	0.759752	7.8959	0.975875	10.1204	0.530902	5.522	0.646466	6.72592	0.850282	8.88314
0.410904	4.24744	0.201705	2.03918	0.571421	5.90236	0.677209	7.00589	0.763089	7.85453	0.978321	10.0487	0.535069	5.51193	0.650073	6.69853	0.852926	8.82486
0.412558	4.22386	0.203792	2.04105	0.576102	5.89399	0.68127	6.98063	0.766446	7.81414	0.980782	9.97845	0.539215	5.50183	0.653699	6.67183	0.855586	8.76786
0.414192	4.20052	0.205879	2.04289	0.580785	5.8858	0.685357	6.95609	0.769822	7.77471	0.98326	9.90972	0.543339	5.4917	0.657342	6.64582	0.858263	8.71211
0.41581	4.17745	0.207966	2.04469	0.585469	5.87777	0.689468	6.93226	0.773217	7.7362	0.985754	9.84244	0.547441	5.48155	0.661003	6.62047	0.860954	8.65755
0.41741	4.15464	0.210052	2.04646	0.590154	5.86989	0.693602	6.90911	0.776632	7.6986	0.988264	9.77655	0.551521	5.47135	0.664682	6.59576	0.863662	8.60417
0.418995	4.13209	0.212138	2.0482	0.594838	5.86216	0.697758	6.8866	0.780066	7.66188	0.99079	9.71202	0.555577	5.46111	0.668378	6.57168	0.866385	8.55192
0.420564	4.10981	0.214225	2.0499	0.599521	5.85456	0.701937	6.86471	0.783519	7.62601	0.993331	9.64881	0.559609	5.45083	0.672092	6.54821	0.869124	8.50078
0.42212	4.0878	0.21631	2.05157	0.604202	5.84707	0.706136	6.84342	0.786992	7.59098	0.995887	9.58688	0.563618	5.4405	0.675823	6.52533	0.871879	8.45071
0.423663	4.06605	0.218396	2.0532	0.608881	5.83969	0.710356	6.82271	0.790484	7.55675	0.998459	9.5262	0.567601	5.43012	0.679572	6.50303	0.874648	8.40168
0.425193	4.04457	0.220482	2.05481	0.613556	5.83242	0.714595	6.80256	0.793996	7.52331	1.00105	9.46673	0.571559	5.41968	0.683339	6.48129	0.877433	8.35367
0.426711	4.02336	0.222567	2.05639	0.618228	5.82524	0.718853	6.78293	0.797527	7.49064			0.575492	5.40918	0.687123	6.46009	0.880232	8.30664
0.428219	4.00241	0.224652	2.05794	0.622895	5.81814	0.723129	6.76382	0.801078	7.45872			0.579398	5.39861	0.690924	6.43943	0.883047	8.26057
0.429716	3.98173	0.226737	2.05947	0.627558	5.81111	0.727423	6.7452	0.804648	7.42754			0.583277	5.38798	0.694743	6.41928	0.885877	8.21544
0.431204	3.96132	0.228822	2.06096	0.632215	5.80416	0.731733	6.72705	0.808238	7.39706			0.587129	5.37729	0.698579	6.39964	0.888721	8.17122
0.432682	3.94117	0.230907	2.06243	0.636866	5.79727	0.736059	6.70935	0.811848	7.36728			0.590954	5.36652	0.702433	6.38048	0.89158	8.12788
0.434152	3.92128	0.232992	2.06388	0.64151	5.79044	0.740401	6.69209	0.815478	7.33817			0.59475	5.35569	0.706304	6.3618	0.894454	8.0854
0.435614	3.90165	0.235076	2.0653	0.646147	5.78366	0.744757	6.67525	0.819128	7.30973			0.598519	5.34478	0.710192	6.34358	0.897342	8.04377
0.437069	3.88228	0.23716	2.06669	0.650777	5.77692	0.749127	6.65881	0.822798	7.28194			0.602258	5.3338	0.714097	6.32582	0.900245	8.00295
0.438517	3.86317	0.239245	2.06806	0.655399	5.77023	0.75351	6.64276	0.826488	7.25478			0.605969	5.32274	0.718018	6.30849	0.903162	7.96293
0.439958	3.84432	0.241329	2.06941	0.660013	5.76357	0.757906	6.62708	0.830199	7.22824			0.609651	5.31161	0.721956	6.29159	0.906093	7.92368
0.441394	3.82571	0.243413	2.07074	0.664617	5.75694	0.762314	6.61176	0.83393	7.2023			0.613303	5.30041	0.725911	6.2751	0.909039	7.88519
0.442823	3.80736	0.245496	2.07204	0.669213	5.75034	0.766733	6.59678	0.837683	7.17696			0.616925	5.28912	0.729882	6.25902	0.911999	7.84745
0.444248	3.78926	0.24758	2.07332	0.673799	5.74376	0.771163	6.58213	0.841456	7.15219			0.620518	5.27776	0.733869	6.24333	0.914972	7.81042
0.445668	3.7714	0.249663	2.07458	0.678374	5.7372	0.775602	6.5678	0.84525	7.12799			0.62408	5.26633	0.737872	6.22802	0.91796	7.77409
0.447084	3.75378	0.251747	2.07582	0.68294	5.73066	0.780051	6.55376	0.849065	7.10435			0.627612	5.25482	0.741891	6.21308	0.920962	7.73846
0.448495	3.7364	0.25383	2.07705	0.687494	5.72413	0.784509	6.54002	0.852902	7.08125			0.631114	5.24324	0.745925	6.1985	0.923977	7.70349
0.449903	3.71926	0.255913	2.07825	0.692038	5.7176	0.788974	6.52655	0.856761	7.05868			0.634586	5.23159	0.749974	6.18426	0.927007	7.66917
0.451308	3.70236	0.257996	2.07943	0.69657	5.71108	0.793447	6.51335	0.860641	7.03664			0.638026	5.21986	0.754038	6.17037	0.93005	7.63549
0.452709	3.68568	0.260079	2.08059	0.70109	5.70457	0.797927	6.50041	0.864543	7.01511			0.641437	5.20806	0.758116	6.1568	0.933107	7.60244
0.454108	3.66924	0.262162	2.08174	0.705598	5.69805	0.802412	6.48771	0.868468	6.99408			0.644817	5.1962	0.762208	6.14355	0.936177	7.56999
0.455504	3.65302	0.264245	2.08287	0.710094	5.69153	0.806903	6.47524	0.872415	6.97354			0.648166	5.18426	0.766314	6.13061	0.939261	7.53814
0.456898	3.63702	0.266327	2.08398	0.714576	5.68501	0.811399	6.463	0.876385	6.95349			0.651484	5.17226	0.770434	6.11797	0.942359	7.50686
0.45829	3.62125	0.26841	2.08507	0.719046	5.67848	0.8159	6.45097	0.880378	6.93391			0.654773	5.1602	0.774567	6.10561	0.94547	7.47616
0.45968	3.60569	0.270492	2.08615	0.723502	5.67194	0.820404	6.43915	0.884393	6.91479			0.658031	5.14808	0.778713	6.09354	0.948594	7.44601
0.461069	3.59034	0.272575	2.08721	0.727945	5.66538	0.824911	6.42752	0.888432	6.89614			0.661258	5.13589	0.782871	6.08174	0.951732	7.4164
0.462457	3.57521	0.274657	2.08826	0.732373	5.65882	0.82942	6.41608	0.892494	6.87793			0.664455	5.12365	0.787041	6.07019	0.954883	7.38732
0.463843	3.56029	0.276739	2.08929	0.736788	5.65223	0.833932	6.40482	0.89658	6.86016			0.667623	5.11135	0.791222	6.05891	0.958047	7.35876
0.465229	3.54557	0.278821	2.09031	0.741187	5.64563	0.838445	6.39373	0.90069	6.84283			0.67076	5.099	0.795415	6.04786	0.961225	7.33071
0.466614	3.53105	0.280903	2.09131	0.745572	5.63902	0.842959	6.38281	0.904824	6.82592			0.673868	5.0866	0.799618	6.03705	0.964416	7.30315
0.467998	3.51673	0.282985	2.09229	0.749942	5.63238	0.847474	6.37204	0.908982	6.80942			0.676946	5.07415	0.803831	6.02648	0.96762	7.27607
0.469382	3.50261	0.285066	2.09327	0.754297	5.62571	0.851988	6.36142	0.913164	6.79333			0.679995	5.06165	0.808055	6.01612	0.970837	7.24948
0.470767	3.48868	0.287148	2.09422	0.758636	5.61903	0.856502	6.35094	0.91737	6.77765			0.683015	5.04911	0.812288	6.00597	0.974067	7.22334
0.47215	3.47495	0.28923	2.09517	0.762959	5.61232	0.861015	6.3406	0.921601	6.76236			0.686006	5.03654	0.81653	5.99603	0.977309	7.19766
0.473535	3.4614	0.291311	2.0961	0.767266	5.60559	0.865527	6.33039	0.925856	6.74745			0.688969	5.02392	0.82078	5.98628	0.980565	7.17242
0.474919	3.44803	0.293393	2.09702	0.771557	5.59882	0.870037	6.32031	0.930136	6.73293			0.691903	5.01127	0.825038	5.97673	0.983834	7.14762
0.476304	3.43485	0.295474	2.09792	0.775831	5.59203	0.874545	6.31035	0.934441	6.71877			0.694809	4.99859	0.829304	5.96736	0.987116	7.12325
0.477689	3.42185	0.297555	2.09882	0.780089	5.58522	0.879051	6.3005	0.93877	6.70498			0.697687	4.98587	0.833577	5.95816	0.99041	7.09929
0.479076	3.40903	0.299637	2.0997	0.78433	5.57837	0.883553	6.29077	0.943123	6.69155			0.700538	4.97313	0.837857	5.94913	0.993717	7.07574
0.480462	3.39638	0.301718	2.10057	0.788553	5.57149	0.888053	6.28114	0.947502	6.67847			0.703361	4.96037	0.842144	5.94027	0.997037	7.05259
0.48185	3.38391	0.303799	2.10143	0.79276	5.56458	0.892549	6.27161	0.951904	6.66573			0.706158	4.94758	0.846436	5.93156	1.00037	7.02983
0.483239	3.3716	0.30588	2.10227	0.796949	5.55763	0.897042	6.26218	0.956332	6.65332			0.708928	4.93478	0.850733	5.92301		
0.484629	3.35946	0.307961	2.10311	0.80112	5.55066	0.901531	6.25285	0.960783	6.64124			0.711672	4.92196	0.855035	5.91459		
0.48602	3.34748	0.310042	2.10393	0.805273	5.54365	0.906016	6.24361	0.965258	6.62948			0.714389	4.90912	0.859342	5.90632		
0.487413	3.33567	0.312122	2.10474	0.809409	5.53661	0.910498	6.23447	0.969758	6.61803			0.717082	4.89627	0.863653	5.89818		
0.488807	3.32401	0.314203	2.10555	0.813526	5.52953	0.914974	6.22541	0.974281	6.60689			0.719748	4.88341	0.867967	5.89016		
0.490202	3.31252	0.316284	2.10634	0.817625	5.52242	0.919447	6.21643	0.978828	6.59605			0.72239	4.87055	0.872285	5.88227		
0.491599	3.30117	0.318364	2.10712	0.821705	5.51527	0.923915	6.20754	0.983397	6.5855			0.725008	4.85768	0.876605	5.8745		
0.492997	3.28998	0.320445	2.10789	0.825767	5.50809	0.928379	6.19873	0.98799	6.57523			0.727601	4.84481	0.880928	5.86684		
0.494398	3.27894	0.322525	2.10865	0.829811	5.50088	0.932839	6.18999	0.992606	6.56524			0.73017	4.83194	0.885252	5.85928		
0.4958	3.26804	0.324606	2.10941	0.833835	5.49362	0.937294	6.18134	0.997244	6.55552			0.732715	4.81907	0.889578	5.85183		
0.497203	3.25729	0.326686	2.11015	0.83784	5.48633	0.941744	6.17276	1.0019	6.54606			0.735237	4.80621	0.893906	5.84447		
0.498609	3.24668	0.328766	2.11088	0.841827	5.47901	0.946191	6.16426					0.737736	4.79335	0.898233	5.83721		
0.500017	3.23622	0.330847	2.11161	0.845794	5.47165	0.950633	6.15584					0.740213	4.78051	0.902561	5.83003		
0.501427	3.22589	0.332927	2.11232	0.849741	5.46426	0.955071	6.14749					0.742667	4.76767	0.906889	5.82295		
0.502838	3.21569	0.335007	2.11303	0.85367	5.45682	0.959504	6.13921					0.7451	4.75485	0.911216	5.81594		
0.504252	3.20564	0.337087	2.11373	0.857579	5.44936	0.963934	6.131					0.747511	4.74204	0.915543	5.80901		
0.505668	3.19571	0.339167	2.11442	0.861469	5.44186	0.968359	6.12287					0.749901	4.72925	0.919868	5.80215		
0.507086	3.18591	0.341247	2.1151	0.865338	5.43432	0.972781	6.1148					0.75227	4.71647	0.924191	5.79536		
0.508507	3.17624	0.343327	2.11577	0.869189	5.42675	0.977199	6.10681					0.754618	4.70372	0.928512	5.78864		
0.509929	3.1667	0.345407	2.11644	0.873019	5.41914	0.981614	6.09889					0.756946	4.69099	0.932831	5.78198		
0.511354	3.15728	0.347487	2.1171	0.87683	5.4115	0.986025	6.09103					0.759255	4.67828	0.937147	5.77538		
0.512782	3.14799	0.349567	2.11775	0.880621	5.40382	0.990432	6.08325					0.761544	4.6656	0.94146	5.76883		
0.514212	3.13881	0.351646	2.11839	0.884393	5.39611	0.994837	6.07553					0.763814	4.65295	0.945769	5.76234		
0.515644	3.12975	0.353726	2.11903	0.888144	5.38837	0.999238	6.06789					0.766064	4.64033	0.950075	5.7559		
0.517078	3.12081	0.355806	2.11965	0.891876	5.3806	1.00364	6.06031					0.768297	4.62773	0.954376	5.74951		
0.518515	3.11199	0.357885	2.12027	0.895587	5.37279							0.770511	4.61517	0.958673	5.74316		
0.519955	3.10327	0.359965	2.12089	0.899279	5.36495							0.772708	4.60264	0.962965	5.73685		
0.521397	3.09467	0.362044	2.12149	0.902951	5.35708							0.774887	4.59014	0.967252	5.73058		
0.522841	3.08618	0.364124	2.12209	0.906603	5.34918							0.777048	4.57768	0.971533	5.72435		
0.524289	3.0778	0.366203	2.12269	0.910235	5.34125							0.779193	4.56526	0.975808	5.71815		
0.525738	3.06952	0.368283	2.12327	0.913848	5.33329							0.781321	4.55288	0.980078	5.71198		
0.527191	3.06134	0.370362	2.12385	0.91744	5.3253							0.783433	4.54053	0.984341	5.70584		
0.528645	3.05327	0.372441	2.12443	0.921013	5.31728							0.785529	4.52823	0.988597	5.69973		
0.530103	3.0453	0.37452	2.12499	0.924566	5.30924							0.78761	4.51597	0.992846	5.69365		
0.531563	3.03743	0.3766	2.12555	0.9281	5.30116							0.789675	4.50375	0.997088	5.68758		
0.533026	3.02966	0.378679	2.12611	0.931613	5.29306							0.791725	4.49157	1.00132	5.68154		
0.534491	3.02199	0.380758	2.12666	0.935107	5.28494							0.79376	4.47944				
0.535959	3.01441	0.382837	2.1272	0.938581	5.27679							0.795781	4.46736				
0.53743	3.00693	0.384916	2.12774	0.942036	5.26862							0.797787	4.45532				
0.538904	2.99953	0.386995	2.12827	0.945472	5.26042							0.79978	4.44333				
0.54038	2.99223	0.389074	2.12879	0.948887	5.2522							0.801759	4.43139				
0.541859	2.98502	0.391153	2.12931	0.952284	5.24395							0.803725	4.41949				
0.54334	2.9779	0.393232	2.12983	0.955661	5.23569							0.805678	4.40765				
0.544825	2.97087	0.395311	2.13034	0.959019	5.2274							0.807617	4.39586				
0.546312	2.96392	0.39739	2.13084	0.962358	5.2191							0.809545	4.38412				
0.547801	2.95705	0.399469	2.13134	0.965678	5.21077							0.81146	4.37243				
0.549294	2.95027	0.401547	2.13183	0.968979	5.20243							0.813363	4.36079				
0.550789	2.94357	0.403626	2.13232	0.972261	5.19407							0.815254	4.3492				
0.552287	2.93695	0.405705	2.13281	0.975524	5.18569							0.817134	4.33767				
0.553787	2.93041	0.407784	2.13329	0.978768	5.17729							0.819003	4.32619				
0.555291	2.92395	0.409862	2.13376	0.981994	5.16888							0.820861	4.31477				
0.556797	2.91757	0.411941	2.13423	0.985201	5.16046							0.822708	4.30341				
0.558305	2.91126	0.414019	2.1347	0.988389	5.15201							0.824544	4.29209				
0.559817	2.90503	0.416098	2.13516	0.991559	5.14356							0.82637	4.28084				
0.561331	2.89887	0.418176	2.13561	0.994711	5.13509							0.828186	4.26964				
0.562848	2.89278	0.420255	2.13606	0.997845	5.12661							0.829992	4.25849				
0.564367	2.88677	0.422333	2.13651	1.00096	5.11812							0.831789	4.24741				
0.56589	2.88083	0.424412	2.13695									0.833576	4.23638				
0.567415	2.87496	0.42649	2.13739									0.835354	4.22541				
0.568942	2.86915	0.428569	2.13782									0.837123	4.21449				
0.570473	2.86342	0.430647	2.13825									0.838883	4.20364				
0.572006	2.85775	0.432725	2.13868									0.840635	4.19284				
0.573541	2.85214	0.434804	2.1391									0.842378	4.1821				
0.57508	2.8466	0.436882	2.13952									0.844113	4.17142				
0.576621	2.84113	0.43896	2.13993									0.84584	4.1608				
0.578164	2.83572	0.441038	2.14034									0.847559	4.15023				
0.57971	2.83037	0.443117	2.14075									0.849271	4.13973				
0.581259	2.82508	0.445195	2.14115									0.850975	4.12928				
0.582811	2.81985	0.447273	2.14155									0.852672	4.1189				
0.584365	2.81468	0.449351	2.14194									0.854362	4.10857				
0.585922	2.80957	0.451429	2.14233									0.856046	4.0983				
0.587481	2.80452	0.453507	2.14272									0.857722	4.08809				
0.589043	2.79952	0.455585	2.14311									0.859392	4.07794				
0.590608	2.79458	0.457663	2.14349									0.861055	4.06785				
0.592175	2.7897	0.459741	2.14386									0.862713	4.05782				
0.593745	2.78487	0.461819	2.14424									0.864364	4.04785				
0.595317	2.7801	0.463897	2.14461									0.866009	4.03793				
0.596892	2.77538	0.465975	2.14498									0.867648	4.02808				
0.598469	2.77071	0.468053	2.14534									0.869282	4.01828				
0.600049	2.76609	0.470131	2.1457									0.870911	4.00855				
0.601631	2.76152	0.472209	2.14606									0.872534	3.99887				
0.603216	2.75701	0.474287	2.14641									0.874152	3.98925				
0.604803	2.75254	0.476364	2.14677									0.875764	3.97969				
0.606393	2.74812	0.478442	2.14711									0.877372	3.97019				
0.607985	2.74376	0.48052	2.14746									0.878976	3.96074				
0.60958	2.73943	0.482598	2.1478									0.880574	3.95136				
0.611177	2.73516	0.484675	2.14814									0.882168	3.94203				
0.612777	2.73093	0.486753	2.14848									0.883758	3.93276				
0.614379	2.72675	0.488831	2.14881									0.885343	3.92355				
0.615983	2.72261	0.490908	2.14914									0.886924	3.91439				
0.61759	2.71852	0.492986	2.14947									0.888501	3.90529				
0.619199	2.71447	0.495064	2.1498									0.890074	3.89625				
0.620811	2.71046	0.497141	2.15012									0.891644	3.88727				
0.622425	2.7065	0.499219	2.15044									0.893209	3.87834				
0.624041	2.70258	0.501296	2.15076									0.894771	3.86947				
0.62566	2.6987	0.503374	2.15107									0.89633	3.86065				
0.627281	2.69486	0.505452	2.15139									0.897885	3.85189				
0.628904	2.69107	0.507529	2.15169									0.899437	3.84319				
0.63053	2.68731	0.509606	2.152									0.900985	3.83454				
0.632158	2.68359	0.511684	2.15231									0.902531	3.82595				
0.633788	2.67991	0.513761	2.15261									0.904074	3.81741				
0.635421	2.67627	0.515839	2.15291									0.905613	3.80893				
0.637055	2.67267	0.517916	2.15321									0.90715	3.8005				
0.638692	2.6691	0.519994	2.1535									0.908684	3.79212				
0.640332	2.66558	0.522071	2.15379									0.910216	3.7838				
0.641973	2.66208	0.524148	2.15409									0.911745	3.77554				
0.643617	2.65863	0.526226	2.15437									0.913272	3.76732				
0.645263	2.65521	0.528303	2.15466									0.914796	3.75916				
0.646911	2.65182	0.53038	2.15494									0.916318	3.75106				
0.648561	2.64847	0.532458	2.15522									0.917837	3.743				
0.650213	2.64516	0.534535	2.1555									0.919355	3.735				
0.651868	2.64187	0.536612	2.15578									0.92087	3.72705				
0.653524	2.63862	0.538689	2.15606									0.922384	3.71915				
0.655183	2.63541	0.540767	2.15633									0.923895	3.7113				
0.656844	2.63222	0.542844	2.1566									0.925405	3.7035				
0.658507	2.62907	0.544921	2.15687									0.926913	3.69576				
0.660172	2.62595	0.546998	2.15714									0.928419	3.68806				
0.661839	2.62286	0.549075	2.1574									0.929924	3.68042				
0.663509	2.61981	0.551153	2.15766									0.931427	3.67282				
0.66518	2.61678	0.55323	2.15792									0.932928	3.66528				
0.666853	2.61378	0.555307	2.15818									0.934428	3.65778				
0.668529	2.61081	0.557384	2.15844									0.935927	3.65034				
0.670206	2.60788	0.559461	2.15869									0.937424	3.64294				
0.671885	2.60497	0.561538	2.15895									0.93892	3.63559				
0.673567	2.60209	0.563615	2.1592									0.940415	3.62829				
0.67525	2.59923	0.565692	2.15945									0.941908	3.62103				
0.676936	2.59641	0.567769	2.1597									0.943401	3.61383				
0.678623	2.59361	0.569846	2.15994									0.944892	3.60667				
0.680312	2.59084	0.571923	2.16018									0.946383	3.59956				
0.682003	2.5881	0.574	2.16043									0.947873	3.59249				
0.683696	2.58538	0.576077	2.16067									0.949361	3.58547				
0.685392	2.5827	0.578154	2.16091									0.950849	3.5785				
0.687088	2.58003	0.580231	2.16114									0.952336	3.57157				
0.688787	2.57739	0.582308	2.16138									0.953822	3.56469				
0.690488	2.57478	0.584385	2.16161									0.955308	3.55786				
0.692191	2.57219	0.586462	2.16184									0.956793	3.55106				
0.693895	2.56963	0.588539	2.16207									0.958277	3.54432				
0.695601	2.56709	0.590615	2.1623									0.959761	3.53761				
0.697309	2.56458	0.592692	2.16253									0.961244	3.53095				
0.699019	2.56209	0.594769	2.16276									0.962727	3.52434				
0.700731	2.55962	0.596846	2.16298									0.964209	3.51777				
0.702445	2.55718	0.598923	2.1632									0.965691	3.51124				
0.70416	2.55476	0.601	2.16342									0.967172	3.50475				
0.705877	2.55236	0.603076	2.16364									0.968653	3.49831				
0.707596	2.54998	0.605153	2.16386									0.970134	3.49191				
0.709317	2.54763	0.60723	2.16408									0.971615	3.48555				
0.711039	2.5453	0.609307	2.16429									0.973095	3.47923				
0.712763	2.54299	0.611383	2.1645									0.974575	3.47295				
0.714489	2.5407	0.61346	2.16472									0.976056	3.46672				
0.716217	2.53843	0.615537	2.16493									0.977535	3.46052				
0.717946	2.53619	0.617614	2.16514									0.979015	3.45437				
0.719677	2.53396	0.61969	2.16534									0.980495	3.44825				
0.72141	2.53176	0.621767	2.16555									0.981975	3.44218				
0.723144	2.52957	0.623844	2.16576									0.983455	3.43614				
0.72488	2.52741	0.62592	2.16596									0.984934	3.43015				
0.726618	2.52527	0.627997	2.16616									0.986414	3.42419				
0.728357	2.52314	0.630074	2.16636									0.987894	3.41827				
0.730098	2.52103	0.63215	2.16656									0.989374	3.41239				
0.73184	2.51895	0.634227	2.16676									0.990855	3.40655				
0.733585	2.51688	0.636303	2.16696									0.992335	3.40075				
0.73533	2.51483	0.63838	2.16715									0.993816	3.39498				
0.737078	2.5128	0.640456	2.16735									0.995296	3.38925				
0.738827	2.51079	0.642533	2.16754									0.996778	3.38356				
0.740577	2.50879	0.64461	2.16773									0.998259	3.37791				
0.742329	2.50682	0.646686	2.16792									0.999741	3.37229				
0.744083	2.50486	0.648763	2.16811									1.00122	3.36671				
0.745838	2.50292	0.650839	2.1683														
0.747595	2.50099	0.652916	2.16849														
0.749353	2.49908	0.654992	2.16867														
0.751113	2.49719	0.657069	2.16886														
0.752874	2.49532	0.659145	2.16904														
0.754637	2.49346	0.661221	2.16922														
0.756401	2.49162	0.663298	2.1694														
0.758167	2.4898	0.665374	2.16958														
0.759934	2.48799	0.667451	2.16976														
0.761703	2.48619	0.669527	2.16994														
0.763473	2.48442	0.671603	2.17012														
0.765244	2.48265	0.67368	2.17029														
0.767017	2.48091	0.675756	2.17047														
0.768792	2.47918	0.677833	2.17064														
0.770568	2.47746	0.679909	2.17081														
0.772345	2.47576	0.681985	2.17098														
0.774124	2.47407	0.684062	2.17115														
0.775904	2.4724	0.686138	2.17132														
0.777685	2.47074	0.688214	2.17149														
0.779468	2.46909	0.690291	2.17166														
0.781252	2.46746	0.692367	2.17183														
0.783038	2.46585	0.694443	2.17199														
0.784825	2.46424	0.696519	2.17215														
0.786613	2.46265	0.698596	2.17232														
0.788402	2.46108	0.700672	2.17248														
0.790193	2.45951	0.702748	2.17264														
0.791985	2.45797	0.704824	2.1728														
0.793779	2.45643	0.706901	2.17296														
0.795574	2.4549	0.708977	2.17312														
0.79737	2.45339	0.711053	2.17328														
0.799167	2.4519	0.713129	2.17343														
0.800966	2.45041	0.715205	2.17359														
0.802766	2.44893	0.717282	2.17374														
0.804567	2.44747	0.719358	2.1739														
0.806369	2.44602	0.721434	2.17405														
0.808173	2.44459	0.72351	2.1742														
0.809978	2.44316	0.725586	2.17435														
0.811784	2.44175	0.727662	2.1745														
0.813591	2.44034	0.729738	2.17465														
0.8154	2.43895	0.731814	2.1748														
0.81721	2.43757	0.73389	2.17495														
0.819021	2.4362	0.735967	2.1751														
0.820833	2.43485	0.738043	2.17524														
0.822646	2.4335	0.740119	2.17539														
0.824461	2.43216	0.742195	2.17553														
0.826276	2.43084	0.744271	2.17568														
0.828093	2.42953	0.746347	2.17582														
0.829911	2.42822	0.748423	2.17596														
0.831731	2.42693	0.750499	2.1761														
0.833551	2.42565	0.752575	2.17624														
0.835372	2.42437	0.754651	2.17638														
0.837195	2.42311	0.756727	2.17652														
0.839019	2.42186	0.758803	2.17666														
0.840843	2.42062	0.760879	2.1768														
0.842669	2.41938	0.762955	2.17693														
0.844496	2.41816	0.765031	2.17707														
0.846324	2.41695	0.767107	2.1772														
0.848154	2.41574	0.769183	2.17734														
0.849984	2.41455	0.771258	2.17747														
0.851815	2.41336	0.773334	2.1776														
0.853648	2.41219	0.77541	2.17774														
0.855481	2.41102	0.777486	2.17787														
0.857316	2.40986	0.779562	2.178														
0.859152	2.40872	0.781638	2.17813														
0.860988	2.40758	0.783714	2.17826														
0.862826	2.40645	0.78579	2.17839														
0.864665	2.40532	0.787865	2.17851														
0.866504	2.40421	0.789941	2.17864														
0.868345	2.40311	0.792017	2.17877														
0.870187	2.40201	0.794093	2.17889														
0.87203	2.40092	0.796169	2.17902														
0.873873	2.39984	0.798245	2.17914														
0.875718	2.39877	0.80032	2.17927														
0.877564	2.39771	0.802396	2.17939														
0.879411	2.39665	0.804472	2.17951														
0.881259	2.3956	0.806548	2.17963														
0.883107	2.39457	0.808624	2.17976														
0.884957	2.39353	0.810699	2.17988														
0.886808	2.39251	0.812775	2.18														
0.888659	2.39149	0.814851	2.18012														
0.890512	2.39049	0.816927	2.18023														
0.892365	2.38949	0.819002	2.18035														
0.89422	2.38849	0.821078	2.18047														
0.896075	2.38751	0.823154	2.18059														
0.897931	2.38653	0.825229	2.1807														
0.899788	2.38556	0.827305	2.18082														
0.901647	2.38459	0.829381	2.18094														
0.903506	2.38364	0.831456	2.18105														
0.905365	2.38269	0.833532	2.18116														
0.907226	2.38174	0.835608	2.18128														
0.909088	2.38081	0.837683	2.18139														
0.910951	2.37988	0.839759	2.1815														
0.912814	2.37896	0.841835	2.18161														
0.914679	2.37804	0.84391	2.18173														
0.916544	2.37713	0.845986	2.18184														
0.91841	2.37623	0.848062	2.18195														
0.920277	2.37533	0.850137	2.18206														
0.922145	2.37445	0.852213	2.18217														
0.924013	2.37356	0.854288	2.18227														
0.925883	2.37269	0.856364	2.18238														
0.927753	2.37182	0.858439	2.18249														
0.929625	2.37095	0.860515	2.1826														
0.931497	2.3701	0.862591	2.1827														
0.93337	2.36925	0.864666	2.18281														
0.935243	2.3684	0.866742	2.18291														
0.937118	2.36756	0.868817	2.18302														
0.938993	2.36673	0.870893	2.18312														
0.940869	2.3659	0.872968	2.18323														
0.942746	2.36508	0.875044	2.18333														
0.944624	2.36426	0.877119	2.18343														
0.946503	2.36346	0.879195	2.18354														
0.948382	2.36265	0.88127	2.18364														
0.950262	2.36185	0.883346	2.18374														
0.952143	2.36106	0.885421	2.18384														
0.954025	2.36027	0.887497	2.18394														
0.955907	2.35949	0.889572	2.18404														
0.957791	2.35872	0.891648	2.18414														
0.959675	2.35795	0.893723	2.18424														
0.961559	2.35718	0.895798	2.18434														
0.963445	2.35642	0.897874	2.18443														
0.965331	2.35567	0.899949	2.18453														
0.967218	2.35492	0.902025	2.18463														
0.969106	2.35417	0.9041	2.18473														
0.970995	2.35343	0.906176	2.18482														
0.972884	2.3527	0.908251	2.18492														
0.974774	2.35197	0.910326	2.18501														
0.976665	2.35125	0.912402	2.18511														
0.978556	2.35053	0.914477	2.1852														
0.980448	2.34982	0.916552	2.1853														
0.982341	2.34911	0.918628	2.18539														
0.984235	2.3484	0.920703	2.18548														
0.986129	2.3477	0.922778	2.18558														
0.988024	2.34701	0.924854	2.18567														
0.98992	2.34632	0.926929	2.18576														
0.991816	2.34564	0.929004	2.18585														
0.993713	2.34495	0.93108	2.18594														
0.995611	2.34428	0.933155	2.18603														
0.99751	2.34361	0.93523	2.18612														
0.999409	2.34294	0.937306	2.18621														
1.00131	2.34228	0.939381	2.1863														
		0.941456	2.18639														
		0.943531	2.18648														
		0.945607	2.18657														
		0.947682	2.18666														
		0.949757	2.18674														
		0.951832	2.18683														
		0.953908	2.18692														
		0.955983	2.187														
		0.958058	2.18709														
		0.960133	2.18717														
		0.962208	2.18726														
		0.964284	2.18734														
		0.966359	2.18743														
		0.968434	2.18751														
		0.970509	2.1876														
		0.972584	2.18768														
		0.974659	2.18776														
		0.976735	2.18784														
		0.97881	2.18793														
		0.980885	2.18801														
		0.98296	2.18809														
		0.985035	2.18817														
		0.98711	2.18825														
		0.989185	2.18833														
		0.99126	2.18841														
		0.993336	2.18849														
		0.995411	2.18857														
		0.997486	2.18865														
		0.999561	2.18873														
		1.00164	2.18881														
