Sym0		Asym0		Sym1		Sym2		Sym3		Sym4		Asym1		Asym2		Asym3	
464  Points		495  Points		215  Points		182  Points		169  Points		118  Points		324  Points		194  Points		157  Points	
Freq (MHz)	Vph (m/ms)	Freq (MHz)	Vph (m/ms)	Freq (MHz)	Vph (m/ms)	Freq (MHz)	Vph (m/ms)	Freq (MHz)	Vph (m/ms)	Freq (MHz)	Vph (m/ms)	Freq (MHz)	Vph (m/ms)	Freq (MHz)	Vph (m/ms)	Freq (MHz)	Vph (m/ms)
0.00255964	5.63618	0.000355926	0.170279	0.27951	1540.46	0.482875	4232.06	0.559026	990.395	0.838535	1114.78	0.139783	291.924	0.419268	1027.92	0.698787	759.592
0.00781062	5.63602	0.000740841	0.245153	0.279563	251.148	0.482888	461.743	0.559079	373.68	0.838572	497.995	0.140004	99.2562	0.419322	313.025	0.698837	377.414
0.0130612	5.6358	0.00126091	0.318923	0.279694	136.781	0.482925	244.211	0.559181	230.32	0.838638	320.63	0.14044	59.9603	0.419432	184.668	0.698919	251.108
0.018311	5.63548	0.00191166	0.391305	0.279901	94.036	0.482983	166.02	0.55933	166.49	0.838732	236.443	0.14109	43.0952	0.419599	131.003	0.699034	188.163
0.0235597	5.63505	0.00268771	0.462041	0.280185	71.691	0.483064	125.769	0.559528	130.389	0.838855	187.287	0.141949	33.7524	0.419823	101.537	0.699182	150.467
0.0288072	5.63452	0.00358293	0.530904	0.280544	57.9647	0.483167	101.238	0.559773	107.176	0.839006	155.065	0.143012	27.838	0.420104	82.9203	0.699363	125.369
0.0340529	5.63388	0.00459065	0.597708	0.28098	48.6831	0.483293	84.7247	0.560066	90.9994	0.839185	132.314	0.144273	23.7721	0.420441	70.0963	0.699577	107.46
0.0392968	5.63313	0.00570384	0.662304	0.281491	41.9928	0.483441	72.8517	0.560407	79.083	0.839393	115.395	0.145724	20.8156	0.420835	60.7287	0.699824	94.0394
0.0445383	5.63227	0.00691535	0.72459	0.282077	36.9452	0.483613	63.9053	0.560796	69.942	0.83963	102.322	0.147357	18.5766	0.421285	53.5887	0.700104	83.6094
0.0497773	5.63129	0.00821787	0.784484	0.282737	33.0041	0.483808	56.923	0.561231	62.7095	0.839894	91.9178	0.149166	16.8281	0.42179	47.9681	0.700416	75.2715
0.0550133	5.6302	0.00960429	0.841949	0.28347	29.844	0.484027	51.3227	0.561714	56.8456	0.840187	83.4417	0.15114	15.4291	0.422352	43.4303	0.700762	68.4545
0.060246	5.629	0.0110676	0.896968	0.284276	27.2554	0.48427	46.7318	0.562243	51.9965	0.840509	76.404	0.153273	14.2879	0.422969	39.6911	0.70114	62.7778
0.0654752	5.62768	0.0126012	0.949555	0.285154	25.0976	0.484537	42.9005	0.562819	47.9208	0.840858	70.4677	0.155555	13.3419	0.423642	36.5579	0.701551	57.978
0.0707003	5.62624	0.0141986	0.999737	0.286102	23.2727	0.484829	39.6551	0.563442	44.4478	0.841236	65.3934	0.157979	12.5471	0.424369	33.8955	0.701994	53.867
0.0759212	5.62468	0.0158539	1.04757	0.287121	21.7102	0.485146	36.8713	0.56411	41.4538	0.841642	61.0066	0.160536	11.8717	0.425151	31.6059	0.70247	50.3069
0.0811374	5.623	0.0175614	1.0931	0.288208	20.3582	0.485488	34.4574	0.564825	38.8466	0.842076	57.1767	0.163218	11.292	0.425987	29.6168	0.702978	47.1944
0.0863485	5.62118	0.019316	1.13641	0.289364	19.1777	0.485857	32.3447	0.565584	36.5563	0.842538	53.8043	0.165652	10.8509	0.426877	27.8731	0.703518	44.4503
0.0915541	5.61924	0.0211128	1.17757	0.290586	18.1387	0.486252	30.4804	0.566389	34.529	0.843029	50.8124	0.167793	10.5145	0.42782	26.3328	0.704091	42.0133
0.0967537	5.61716	0.0229475	1.21668	0.291874	17.2177	0.486674	28.8235	0.567238	32.7222	0.843547	48.1402	0.169609	10.2603	0.428817	24.9626	0.704695	39.8348
0.101947	5.61495	0.0248161	1.25382	0.293226	16.3963	0.487123	27.3414	0.568132	31.1021	0.844093	45.7394	0.171073	10.0731	0.429866	23.7363	0.705332	37.876
0.107134	5.6126	0.0267149	1.28907	0.294641	15.6596	0.487601	26.0082	0.569069	29.6416	0.844667	43.5707	0.172164	9.94252	0.430967	22.6327	0.706001	36.1055
0.112313	5.6101	0.0286405	1.32253	0.296118	14.9955	0.488108	24.8026	0.570051	28.3184	0.845268	41.6024	0.172868	9.86193	0.43212	21.6347	0.706701	34.4976
0.117484	5.60746	0.03059	1.35429	0.297655	14.3943	0.488643	23.7074	0.571075	27.1144	0.845898	39.8079	0.17389	9.74996	0.433324	20.7281	0.707434	33.031
0.122647	5.60466	0.0325607	1.38443	0.299252	13.8476	0.489209	22.7084	0.572143	26.0143	0.846555	38.1654	0.175013	9.63316	0.434579	19.9012	0.708197	31.6882
0.127802	5.6017	0.0345501	1.41304	0.300906	13.3486	0.489805	21.7936	0.573253	25.0054	0.847239	36.6566	0.176558	9.48202	0.435884	19.1441	0.708993	30.4542
0.132947	5.59858	0.0365561	1.4402	0.302618	12.8917	0.490433	20.9529	0.574405	24.0772	0.847951	35.2658	0.178542	9.30264	0.437239	18.4487	0.709819	29.3164
0.138082	5.59529	0.0385767	1.466	0.304384	12.4719	0.491093	20.1779	0.575598	23.2204	0.84869	33.9799	0.180984	9.10169	0.438643	17.8079	0.710677	28.2642
0.143206	5.59182	0.0406101	1.4905	0.306204	12.0852	0.491785	19.4613	0.576833	22.4272	0.849457	32.7875	0.183907	8.88586	0.440096	17.2157	0.711566	27.2884
0.148319	5.58817	0.0423913	1.51085	0.308077	11.7278	0.49251	18.797	0.578109	21.6911	0.850251	31.6789	0.187334	8.66151	0.441596	16.6669	0.712485	26.3811
0.15342	5.58434	0.0439158	1.5275	0.310002	11.3969	0.49327	18.1795	0.579425	21.0061	0.851072	30.6457	0.190833	8.45892	0.443144	16.1572	0.713435	25.5354
0.158508	5.5803	0.0451803	1.54081	0.311976	11.0896	0.494065	17.6043	0.580781	20.3674	0.85192	29.6805	0.194401	8.27532	0.444739	15.6826	0.714416	24.7453
0.163583	5.57607	0.0461822	1.55105	0.313736	10.8394	0.494895	17.0673	0.582177	19.7703	0.852795	28.7769	0.198034	8.10837	0.44638	15.2398	0.715428	24.0056
0.168644	5.57161	0.0469202	1.55841	0.315266	10.6378	0.495762	16.565	0.583612	19.2112	0.853697	27.9292	0.201727	7.95608	0.448067	14.8258	0.716469	23.3118
0.173689	5.56694	0.047393	1.56306	0.31655	10.4788	0.496665	16.0941	0.585086	18.6866	0.854626	27.1326	0.205477	7.81676	0.449799	14.438	0.717541	22.6598
0.178718	5.56204	0.0480733	1.56965	0.317577	10.3576	0.497607	15.6521	0.586597	18.1935	0.855581	26.3825	0.209281	7.68894	0.451575	14.0741	0.718643	22.0459
0.18373	5.5569	0.0488136	1.57669	0.31834	10.271	0.498587	15.2364	0.588147	17.7293	0.856563	25.6752	0.213136	7.57138	0.453395	13.7321	0.719774	21.467
0.188724	5.5515	0.0498217	1.58607	0.318831	10.2167	0.499607	14.8449	0.589735	17.2915	0.857571	25.007	0.217038	7.46299	0.455259	13.4101	0.720935	20.9203
0.193699	5.54584	0.0510987	1.59762	0.319541	10.14	0.500668	14.4757	0.591359	16.8781	0.858605	24.3749	0.220985	7.36283	0.457165	13.1066	0.722126	20.4033
0.198653	5.53991	0.0526459	1.61113	0.320318	10.0584	0.501769	14.127	0.59302	16.4871	0.859666	23.7762	0.224974	7.27006	0.459112	12.82	0.723346	19.9135
0.203586	5.53368	0.0544643	1.62636	0.321384	9.95048	0.502913	13.7973	0.594718	16.1168	0.860753	23.2082	0.229003	7.18396	0.461102	12.549	0.724594	19.449
0.208495	5.52716	0.0565549	1.64308	0.322747	9.81869	0.504099	13.4851	0.596451	15.7657	0.861866	22.6687	0.233069	7.10389	0.463132	12.2926	0.725872	19.008
0.21338	5.52032	0.0586494	1.65902	0.324416	9.66596	0.505329	13.1893	0.59822	15.4324	0.863004	22.1558	0.237171	7.0293	0.465201	12.0495	0.727178	18.5887
0.21824	5.51315	0.060747	1.67423	0.326404	9.4955	0.506603	12.9086	0.600024	15.1156	0.864169	21.6674	0.241306	6.95968	0.467311	11.819	0.728513	18.1896
0.223072	5.50563	0.0628473	1.68876	0.328725	9.31065	0.507922	12.6421	0.601862	14.8142	0.865359	21.2019	0.245473	6.89458	0.469459	11.6	0.729876	17.8093
0.227875	5.49776	0.0649498	1.70263	0.331086	9.13642	0.509288	12.3888	0.603735	14.5272	0.866574	20.7579	0.249669	6.83361	0.471646	11.3917	0.731267	17.4466
0.232647	5.4895	0.0670543	1.71588	0.333487	8.972	0.5107	12.1478	0.605641	14.2535	0.867815	20.3338	0.253893	6.77641	0.473869	11.1935	0.732686	17.1004
0.237387	5.48085	0.0691602	1.72856	0.335927	8.81665	0.512159	11.9184	0.607581	13.9923	0.869081	19.9284	0.258143	6.72268	0.475838	11.0285	0.734133	16.7695
0.242092	5.47178	0.0712673	1.74069	0.338406	8.66971	0.513666	11.6998	0.609554	13.7429	0.870372	19.5405	0.262418	6.67212	0.477537	10.8932	0.735607	16.453
0.246761	5.46228	0.0733754	1.75231	0.340923	8.53057	0.515223	11.4914	0.61156	13.5045	0.871689	19.1691	0.266716	6.62448	0.478958	10.7848	0.737109	16.15
0.251391	5.45232	0.0754842	1.76343	0.343477	8.39869	0.516829	11.2926	0.613598	13.2763	0.87303	18.8132	0.271036	6.57952	0.48009	10.7012	0.738637	15.8598
0.255981	5.44189	0.0775936	1.77409	0.34607	8.27359	0.518269	11.1267	0.615668	13.0579	0.874395	18.4717	0.275377	6.53704	0.480928	10.641	0.740193	15.5815
0.260527	5.43097	0.0797033	1.78432	0.348699	8.15482	0.519527	10.9904	0.61777	12.8486	0.875786	18.144	0.279737	6.49685	0.481467	10.603	0.741775	15.3144
0.265028	5.41954	0.0818133	1.79413	0.351366	8.04196	0.520589	10.8811	0.619903	12.6478	0.8772	17.8292	0.284115	6.45877	0.482245	10.549	0.743383	15.058
0.269481	5.40757	0.0839232	1.80355	0.354071	7.93466	0.521442	10.7968	0.622067	12.4552	0.878639	17.5265	0.28851	6.42265	0.483094	10.4912	0.745018	14.8116
0.273884	5.39505	0.0860332	1.81261	0.356813	7.83258	0.522077	10.736	0.624261	12.2703	0.880103	17.2354	0.29292	6.38834	0.484257	10.4141	0.746679	14.5746
0.278233	5.38196	0.088143	1.82131	0.359594	7.73542	0.522487	10.6976	0.626486	12.0925	0.88159	16.9551	0.297346	6.35571	0.485738	10.3189	0.748365	14.3466
0.282528	5.36829	0.0902525	1.82967	0.362413	7.64289	0.523082	10.643	0.62874	11.9216	0.883101	16.6852	0.301785	6.32464	0.487547	10.2073	0.750077	14.1271
0.286764	5.354	0.0923618	1.83772	0.365272	7.55474	0.523734	10.5846	0.631024	11.7572	0.884636	16.4251	0.306237	6.29503	0.489692	10.0808	0.751814	13.9156
0.29094	5.33909	0.0944708	1.84547	0.368171	7.47074	0.524632	10.5067	0.633337	11.599	0.886194	16.1742	0.310701	6.26677	0.492185	9.94148	0.753577	13.7118
0.295053	5.32355	0.0965793	1.85294	0.371112	7.39068	0.525785	10.4104	0.635679	11.4466	0.887776	15.9322	0.315176	6.23977	0.49471	9.80791	0.755364	13.5152
0.299101	5.30737	0.0986874	1.86013	0.374094	7.31436	0.527206	10.2975	0.637743	11.3183	0.889381	15.6985	0.319661	6.21395	0.497266	9.67979	0.757176	13.3255
0.303081	5.29053	0.100795	1.86707	0.37712	7.24161	0.528911	10.1695	0.639519	11.2121	0.891009	15.4728	0.324156	6.18922	0.499854	9.55684	0.759013	13.1423
0.306991	5.27302	0.102902	1.87376	0.38019	7.17225	0.530917	10.0284	0.640999	11.1264	0.892661	15.2546	0.328658	6.16551	0.502473	9.43877	0.760874	12.9654
0.31083	5.25486	0.105009	1.88022	0.383307	7.10614	0.532977	9.89323	0.642177	11.0599	0.894335	15.0437	0.333169	6.14276	0.505121	9.32531	0.762758	12.7944
0.314595	5.23604	0.107115	1.88646	0.38647	7.04313	0.535091	9.76362	0.643048	11.0118	0.896031	14.8397	0.337686	6.1209	0.507799	9.21622	0.764667	12.629
0.318285	5.21656	0.10922	1.89249	0.389682	6.98309	0.53726	9.63932	0.643607	10.9814	0.897751	14.6422	0.342209	6.09988	0.510506	9.11128	0.766599	12.4691
0.321899	5.19644	0.111325	1.89832	0.392944	6.92591	0.539483	9.52007	0.644413	10.938	0.899492	14.4511	0.346738	6.07964	0.513241	9.01027	0.768555	12.3142
0.325435	5.17568	0.113429	1.90395	0.396256	6.87145	0.541761	9.40562	0.645292	10.8914	0.901256	14.2659	0.351272	6.06013	0.516004	8.913	0.770533	12.1644
0.328894	5.15431	0.115533	1.9094	0.399621	6.81962	0.544093	9.29576	0.646493	10.829	0.903042	14.0864	0.355809	6.0413	0.518795	8.81927	0.772535	12.0192
0.332274	5.13235	0.117636	1.91468	0.403039	6.7703	0.546481	9.19025	0.648022	10.7515	0.90485	13.9124	0.36035	6.02312	0.521613	8.72892	0.774559	11.8785
0.335576	5.10981	0.119739	1.91979	0.406511	6.7234	0.548922	9.08891	0.649884	10.66	0.90668	13.7436	0.364894	6.00554	0.524457	8.64178	0.776606	11.7421
0.338799	5.08673	0.121841	1.92474	0.410038	6.67881	0.551419	8.99153	0.652087	10.5555	0.908531	13.5799	0.369439	5.98853	0.527327	8.55769	0.778407	11.6266
0.341945	5.06314	0.123942	1.92953	0.41362	6.63644	0.553969	8.89794	0.65464	10.4394	0.910404	13.421	0.373987	5.97204	0.530223	8.47652	0.779957	11.5305
0.345015	5.03907	0.126043	1.93419	0.417258	6.59621	0.556574	8.80796	0.657219	10.3271	0.912298	13.2667	0.378534	5.95605	0.533143	8.39812	0.781247	11.4527
0.348009	5.01457	0.128143	1.9387	0.420951	6.55801	0.559232	8.72144	0.659824	10.2184	0.914213	13.1168	0.383082	5.94052	0.536089	8.32238	0.782273	11.3922
0.350928	4.98965	0.130243	1.94308	0.4247	6.52175	0.561944	8.63821	0.662454	10.1132	0.916149	12.9712	0.38763	5.92543	0.539059	8.24917	0.78303	11.3482
0.353413	4.96764	0.132342	1.94733	0.428505	6.48736	0.564708	8.55814	0.66511	10.0114	0.918106	12.8297	0.392176	5.91074	0.542052	8.17837	0.783517	11.3203
0.355489	4.94867	0.134441	1.95145	0.432364	6.45473	0.567526	8.48108	0.66779	9.91272	0.920084	12.6921	0.396721	5.89644	0.545069	8.10989	0.784218	11.2806
0.357177	4.93286	0.136539	1.95547	0.436276	6.42379	0.570395	8.40691	0.670495	9.81711	0.922082	12.5582	0.401263	5.88249	0.548109	8.04362	0.784982	11.2378
0.358493	4.92028	0.138637	1.95936	0.440241	6.39445	0.573315	8.33549	0.673225	9.72442	0.9241	12.428	0.405802	5.86888	0.551172	7.97947	0.786027	11.1803
0.35945	4.911	0.140734	1.96315	0.444257	6.36662	0.576287	8.26671	0.675979	9.63454	0.926139	12.3013	0.410338	5.85558	0.554257	7.91734	0.787354	11.1088
0.360058	4.90504	0.142831	1.96684	0.448322	6.34023	0.579308	8.20046	0.678757	9.54735	0.928198	12.178	0.41487	5.84257	0.557364	7.85715	0.788971	11.0239
0.360927	4.89645	0.144927	1.97043	0.452435	6.31519	0.582379	8.13662	0.681558	9.46274	0.930276	12.0578	0.419398	5.82984	0.560493	7.79883	0.790882	10.9267
0.361863	4.88708	0.147023	1.97391	0.456595	6.29143	0.585499	8.07509	0.684383	9.38062	0.932104	11.9557	0.423919	5.81735	0.563644	7.74229	0.793094	10.818
0.363122	4.8743	0.149118	1.97731	0.460798	6.26887	0.588667	8.01578	0.687232	9.30088	0.933673	11.8705	0.428436	5.80511	0.566815	7.68747	0.795327	10.7123
0.364694	4.85808	0.151213	1.98062	0.465044	6.24744	0.591882	7.95859	0.690103	9.22344	0.934979	11.8012	0.432945	5.79308	0.570007	7.6343	0.797581	10.6095
0.366563	4.83837	0.153308	1.98385	0.46933	6.22707	0.595143	7.90343	0.692997	9.1482	0.936017	11.7472	0.437448	5.78125	0.57322	7.58271	0.799855	10.5095
0.368714	4.81515	0.155402	1.98699	0.473653	6.2077	0.59845	7.85021	0.695914	9.07509	0.936783	11.7079	0.441943	5.76962	0.576453	7.53263	0.802148	10.4122
0.371127	4.78841	0.157495	1.99005	0.478013	6.18926	0.601802	7.79887	0.698853	9.00402	0.937275	11.683	0.44643	5.75815	0.579706	7.48403	0.804462	10.3174
0.373484	4.76158	0.159589	1.99304	0.482406	6.17169	0.605197	7.7493	0.701814	8.93492	0.937983	11.6473	0.450908	5.74685	0.582978	7.43683	0.806795	10.2252
0.375787	4.7347	0.161682	1.99595	0.486831	6.15493	0.608636	7.70146	0.704797	8.86771	0.938756	11.609	0.455376	5.73569	0.586271	7.39098	0.809147	10.1353
0.378039	4.70781	0.163774	1.99879	0.491285	6.13893	0.612116	7.65525	0.707802	8.80233	0.93981	11.5573	0.459835	5.72467	0.589582	7.34644	0.811519	10.0478
0.380242	4.68094	0.165866	2.00157	0.495767	6.12365	0.615638	7.61061	0.710829	8.73872	0.94115	11.4929	0.464283	5.71377	0.592914	7.30316	0.81391	9.96243
0.382398	4.6541	0.167958	2.00427	0.500274	6.10902	0.6192	7.56749	0.713877	8.67681	0.942779	11.4163	0.46872	5.70298	0.596264	7.2611	0.816319	9.87926
0.38451	4.62732	0.17005	2.00692	0.504805	6.095	0.622802	7.52581	0.716946	8.61654	0.944704	11.3283	0.473144	5.69229	0.599632	7.22021	0.818748	9.79817
0.386578	4.60064	0.172141	2.0095	0.509358	6.08156	0.626442	7.48552	0.720037	8.55786	0.946931	11.2295	0.477557	5.68169	0.60302	7.18044	0.821194	9.71908
0.388607	4.57406	0.174231	2.01203	0.513931	6.06865	0.630119	7.44656	0.723148	8.5007	0.949176	11.1331	0.481956	5.67117	0.606426	7.14177	0.823659	9.64194
0.390596	4.54761	0.176322	2.01449	0.518522	6.05624	0.633834	7.40888	0.72628	8.44503	0.951439	11.039	0.486342	5.66072	0.609851	7.10415	0.826142	9.56666
0.39255	4.5213	0.178412	2.0169	0.52313	6.04428	0.637584	7.37242	0.729433	8.39079	0.953721	10.9472	0.490713	5.65032	0.613295	7.06756	0.828644	9.4932
0.394468	4.49516	0.180502	2.01926	0.527753	6.03276	0.641368	7.33714	0.732607	8.33794	0.95602	10.8574	0.49507	5.63998	0.616756	7.03195	0.831162	9.4215
0.396353	4.46919	0.182592	2.02157	0.53239	6.02163	0.645187	7.30299	0.735801	8.28642	0.958338	10.7698	0.499411	5.62968	0.620236	6.99729	0.833699	9.35149
0.398207	4.44342	0.184681	2.02382	0.537039	6.01087	0.649039	7.26992	0.739015	8.23621	0.960673	10.6842	0.503736	5.61941	0.623734	6.96356	0.836253	9.28312
0.400032	4.41785	0.18677	2.02603	0.541699	6.00046	0.652922	7.23788	0.74225	8.18724	0.963026	10.6005	0.508044	5.60917	0.62725	6.93072	0.838824	9.21634
0.401828	4.39249	0.188859	2.02819	0.546369	5.99036	0.656837	7.20685	0.745505	8.1395	0.965396	10.5187	0.512334	5.59895	0.630784	6.89875	0.841412	9.1511
0.403598	4.36736	0.190947	2.03031	0.551047	5.98056	0.660783	7.17677	0.74878	8.09293	0.967784	10.4388	0.516607	5.58874	0.634336	6.86762	0.844017	9.08735
0.405342	4.34245	0.193035	2.03238	0.555733	5.97103	0.664758	7.14762	0.752075	8.0475	0.970188	10.3606	0.520861	5.57853	0.637906	6.83731	0.84664	9.02505
0.407063	4.31779	0.195124	2.0344	0.560424	5.96176	0.668761	7.11934	0.75539	8.00319	0.97261	10.2841	0.525095	5.56832	0.641494	6.80778	0.849278	8.96415
0.408761	4.29337	0.197211	2.03639	0.565121	5.95272	0.672792	7.09192	0.758725	7.95994	0.975049	10.2093	0.52931	5.5581	0.6451	6.77902	0.851934	8.90461
0.410438	4.2692	0.199299	2.03834	0.569821	5.9439	0.676851	7.06531	0.762079	7.91775	0.977504	10.1362	0.533504	5.54786	0.648724	6.75101	0.854606	8.84639
0.412094	4.24529	0.201386	2.04024	0.574525	5.93529	0.680935	7.03948	0.765454	7.87656	0.979976	10.0646	0.537677	5.53761	0.652366	6.72371	0.857294	8.78944
0.413732	4.22164	0.203473	2.04211	0.579231	5.92686	0.685045	7.01441	0.768848	7.83636	0.982464	9.99448	0.541829	5.52732	0.656026	6.69712	0.859998	8.73374
0.415351	4.19825	0.20556	2.04394	0.583939	5.9186	0.689179	6.99005	0.772262	7.79711	0.984969	9.92588	0.545958	5.51701	0.659703	6.67121	0.862718	8.67924
0.416954	4.17513	0.207647	2.04574	0.588647	5.9105	0.693337	6.96639	0.775696	7.7588	0.987489	9.85872	0.550064	5.50666	0.663399	6.64597	0.865454	8.62592
0.41854	4.15228	0.209733	2.0475	0.593354	5.90255	0.697518	6.9434	0.779149	7.72138	0.990026	9.79295	0.554146	5.49626	0.667112	6.62136	0.868206	8.57373
0.420111	4.1297	0.21182	2.04923	0.598061	5.89474	0.701721	6.92105	0.782623	7.68485	0.992578	9.72854	0.558205	5.48583	0.670843	6.59739	0.870973	8.52264
0.421669	4.10738	0.213906	2.05093	0.602766	5.88705	0.705945	6.89931	0.786116	7.64917	0.995146	9.66545	0.562239	5.47534	0.674592	6.57402	0.873756	8.47263
0.423212	4.08534	0.215992	2.05259	0.607469	5.87948	0.71019	6.87817	0.789629	7.61433	0.99773	9.60364	0.566248	5.46479	0.678359	6.55125	0.876555	8.42366
0.424743	4.06358	0.218078	2.05422	0.612168	5.87201	0.714455	6.85759	0.793162	7.58029	1.00033	9.54307	0.570232	5.45419	0.682144	6.52905	0.879368	8.37571
0.426262	4.04208	0.220163	2.05583	0.616864	5.86465	0.718738	6.83756	0.796715	7.54705			0.574189	5.44354	0.685946	6.50741	0.882197	8.32875
0.42777	4.02086	0.222249	2.0574	0.621555	5.85736	0.72304	6.81806	0.800288	7.51457			0.578119	5.43281	0.689766	6.48632	0.885041	8.28274
0.429268	3.9999	0.224334	2.05895	0.626242	5.85016	0.72736	6.79906	0.803881	7.48285			0.582023	5.42202	0.693603	6.46576	0.8879	8.23767
0.430756	3.97922	0.226419	2.06046	0.630923	5.84304	0.731696	6.78054	0.807494	7.45185			0.585899	5.41117	0.697459	6.44572	0.890774	8.19351
0.432234	3.9588	0.228504	2.06195	0.635598	5.83598	0.736049	6.76249	0.811128	7.42157			0.589747	5.40024	0.701331	6.42617	0.893663	8.15023
0.433704	3.93866	0.230589	2.06342	0.640267	5.82898	0.740417	6.74488	0.814782	7.39199			0.593567	5.38924	0.705221	6.40712	0.896566	8.10782
0.435165	3.91877	0.232673	2.06486	0.644928	5.82204	0.7448	6.72771	0.818457	7.36309			0.597359	5.37817	0.709129	6.38854	0.899485	8.06625
0.43662	3.89915	0.234758	2.06627	0.649582	5.81514	0.749196	6.71094	0.822152	7.33486			0.601121	5.36702	0.713053	6.37043	0.902417	8.02549
0.438067	3.8798	0.236842	2.06766	0.654228	5.80829	0.753606	6.69457	0.825868	7.30727			0.604854	5.3558	0.716995	6.35276	0.905364	7.98554
0.439507	3.8607	0.238926	2.06903	0.658866	5.80147	0.758028	6.67858	0.829605	7.28032			0.608557	5.3445	0.720953	6.33553	0.908326	7.94636
0.440942	3.84186	0.24101	2.07037	0.663495	5.79469	0.762463	6.66296	0.833364	7.25399			0.612231	5.33312	0.724928	6.31873	0.911302	7.90794
0.442371	3.82327	0.243094	2.07169	0.668114	5.78794	0.766908	6.64768	0.837143	7.22827			0.615874	5.32167	0.72892	6.30234	0.914292	7.87025
0.443794	3.80493	0.245178	2.07299	0.672724	5.78121	0.771364	6.63274	0.840944	7.20315			0.619487	5.31014	0.732927	6.28635	0.917296	7.83329
0.445213	3.78685	0.247262	2.07427	0.677324	5.77451	0.775829	6.61811	0.844767	7.1786			0.62307	5.29853	0.736951	6.27075	0.920315	7.79703
0.446627	3.76901	0.249345	2.07552	0.681913	5.76782	0.780304	6.6038	0.848612	7.15463			0.626622	5.28685	0.740991	6.25553	0.923347	7.76146
0.448037	3.75141	0.251429	2.07676	0.686491	5.76114	0.784787	6.58978	0.852478	7.13121			0.630143	5.27509	0.745046	6.24068	0.926394	7.72656
0.449444	3.73406	0.253512	2.07798	0.691058	5.75447	0.789278	6.57604	0.856368	7.10834			0.633633	5.26326	0.749116	6.22619	0.929454	7.69231
0.450847	3.71694	0.255595	2.07917	0.695614	5.74782	0.793776	6.56258	0.860279	7.08601			0.637092	5.25135	0.753202	6.21204	0.932529	7.65869
0.452247	3.70006	0.257678	2.08035	0.700157	5.74116	0.79828	6.54937	0.864213	7.0642			0.640521	5.23937	0.757302	6.19823	0.935617	7.62571
0.453644	3.68342	0.259761	2.08151	0.704689	5.73451	0.802791	6.53641	0.868171	7.04291			0.643918	5.22733	0.761416	6.18474	0.938719	7.59333
0.455038	3.667	0.261844	2.08265	0.709207	5.72785	0.807306	6.52368	0.872151	7.02213			0.647285	5.21521	0.765544	6.17157	0.941834	7.56154
0.45643	3.65081	0.263927	2.08378	0.713713	5.72119	0.811826	6.51119	0.876155	7.00184			0.65062	5.20303	0.769686	6.1587	0.944963	7.53034
0.45782	3.63484	0.266009	2.08488	0.718206	5.71452	0.81635	6.4989	0.880182	6.98204			0.653924	5.19078	0.773842	6.14613	0.948106	7.4997
0.459209	3.61909	0.268092	2.08597	0.722685	5.70785	0.820877	6.48683	0.884233	6.96271			0.657198	5.17847	0.77801	6.13384	0.951263	7.46961
0.460596	3.60356	0.270174	2.08705	0.72715	5.70116	0.825406	6.47495	0.888308	6.94386			0.660441	5.16609	0.78219	6.12183	0.954432	7.44007
0.461981	3.58824	0.272257	2.0881	0.731601	5.69446	0.829938	6.46327	0.892407	6.92546			0.663654	5.15366	0.786383	6.11009	0.957615	7.41106
0.463366	3.57314	0.274339	2.08915	0.736037	5.68775	0.834472	6.45176	0.896531	6.90752			0.666836	5.14117	0.790587	6.09861	0.960812	7.38257
0.464749	3.55824	0.276421	2.09017	0.740459	5.68102	0.839006	6.44042	0.900679	6.89002			0.669987	5.12863	0.794803	6.08738	0.964022	7.35458
0.466132	3.54355	0.278503	2.09118	0.744866	5.67427	0.843541	6.42925	0.904851	6.87295			0.673109	5.11604	0.799029	6.07639	0.967245	7.32709
0.467514	3.52907	0.280585	2.09218	0.749258	5.6675	0.848076	6.41824	0.909049	6.85632			0.676201	5.1034	0.803266	6.06563	0.970481	7.30008
0.468896	3.51478	0.282667	2.09316	0.753634	5.6607	0.85261	6.40738	0.913271	6.8401			0.679263	5.09071	0.807512	6.0551	0.973731	7.27355
0.470278	3.50069	0.284749	2.09413	0.757994	5.65389	0.857144	6.39666	0.917519	6.82429			0.682295	5.07798	0.811769	6.04478	0.976993	7.24748
0.47166	3.48679	0.286831	2.09508	0.762339	5.64705	0.861676	6.38608	0.921792	6.80889			0.685298	5.06521	0.816034	6.03467	0.980269	7.22187
0.473042	3.47309	0.288912	2.09602	0.766667	5.64019	0.866206	6.37563	0.92609	6.79388			0.688272	5.0524	0.820308	6.02477	0.983558	7.1967
0.474424	3.45957	0.290994	2.09695	0.770979	5.6333	0.870734	6.36531	0.930413	6.77926			0.691218	5.03956	0.824589	6.01506	0.986859	7.17196
0.475806	3.44624	0.293075	2.09787	0.775274	5.62638	0.87526	6.3551	0.934761	6.76501			0.694135	5.02668	0.828879	6.00553	0.990174	7.14765
0.477189	3.43309	0.295157	2.09877	0.779552	5.61943	0.879782	6.34502	0.939135	6.75115			0.697024	5.01377	0.833176	5.99619	0.993501	7.12376
0.478573	3.42012	0.297238	2.09966	0.783813	5.61245	0.884301	6.33504	0.943534	6.73764			0.699885	5.00084	0.837479	5.98701	0.996841	7.10028
0.479958	3.40732	0.299319	2.10053	0.788057	5.60544	0.888817	6.32518	0.947958	6.72449			0.702718	4.98788	0.841789	5.97801	1.00019	7.07719
0.481343	3.39471	0.3014	2.1014	0.792284	5.5984	0.893329	6.31541	0.952407	6.7117			0.705524	4.97489	0.846104	5.96916		
0.482729	3.38226	0.303482	2.10225	0.796492	5.59133	0.897838	6.30575	0.956881	6.69924			0.708304	4.96189	0.850425	5.96046		
0.484117	3.36998	0.305563	2.1031	0.800683	5.58423	0.902342	6.29619	0.96138	6.68712			0.711056	4.94888	0.854751	5.95192		
0.485506	3.35787	0.307644	2.10393	0.804856	5.57709	0.906842	6.28671	0.965903	6.67532			0.713783	4.93585	0.859082	5.94351		
0.486896	3.34592	0.309725	2.10475	0.80901	5.56992	0.911337	6.27733	0.970451	6.66384			0.716483	4.9228	0.863416	5.93524		
0.488287	3.33414	0.311805	2.10556	0.813146	5.56271	0.915828	6.26804	0.975023	6.65268			0.719158	4.90975	0.867754	5.9271		
0.48968	3.32251	0.313886	2.10636	0.817264	5.55547	0.920315	6.25884	0.979619	6.64181			0.721807	4.89669	0.872095	5.91908		
0.491075	3.31104	0.315967	2.10714	0.821362	5.54819	0.924797	6.24972	0.984239	6.63124			0.724432	4.88363	0.876439	5.91118		
0.492471	3.29973	0.318048	2.10792	0.825442	5.54088	0.929274	6.24068	0.988881	6.62096			0.727032	4.87056	0.880785	5.9034		
0.493868	3.28856	0.320128	2.10869	0.829503	5.53353	0.933747	6.23173	0.993547	6.61096			0.729607	4.8575	0.885132	5.89572		
0.495268	3.27755	0.322209	2.10945	0.833545	5.52615	0.938215	6.22286	0.998235	6.60123			0.732159	4.84444	0.889482	5.88815		
0.496669	3.26668	0.324289	2.1102	0.837568	5.51873	0.942679	6.21406	1.00295	6.59177			0.734687	4.83138	0.893832	5.88068		
0.498073	3.25596	0.32637	2.11094	0.841571	5.51127	0.947138	6.20535					0.737192	4.81834	0.898182	5.8733		
0.499478	3.24538	0.32845	2.11167	0.845555	5.50378	0.951593	6.19671					0.739674	4.8053	0.902533	5.86601		
0.500885	3.23494	0.33053	2.11239	0.849519	5.49626	0.956044	6.18815					0.742134	4.79227	0.906884	5.85881		
0.502294	3.22464	0.332611	2.1131	0.853464	5.48869	0.96049	6.17966					0.744572	4.77925	0.911234	5.85169		
0.503706	3.21447	0.334691	2.11381	0.857389	5.48109	0.964933	6.17125					0.746987	4.76626	0.915583	5.84465		
0.505119	3.20444	0.336771	2.1145	0.861294	5.47346	0.969371	6.16291					0.749381	4.75328	0.91993	5.83768		
0.506535	3.19454	0.338851	2.11519	0.86518	5.46579	0.973806	6.15465					0.751755	4.74032	0.924276	5.83079		
0.507953	3.18477	0.340931	2.11587	0.869045	5.45808	0.978237	6.14647					0.754107	4.72738	0.92862	5.82396		
0.509373	3.17512	0.343011	2.11654	0.872891	5.45034	0.982665	6.13835					0.756439	4.71446	0.932961	5.81719		
0.510796	3.16561	0.345091	2.1172	0.876717	5.44257	0.987089	6.13031					0.758751	4.70157	0.937299	5.81048		
0.512221	3.15621	0.347171	2.11786	0.880522	5.43476	0.99151	6.12234					0.761043	4.6887	0.941633	5.80384		
0.513648	3.14694	0.349251	2.1185	0.884307	5.42691	0.995929	6.11445					0.763316	4.67586	0.945964	5.79724		
0.515078	3.13779	0.351331	2.11914	0.888073	5.41903	1.00034	6.10662					0.76557	4.66306	0.950292	5.79069		
0.51651	3.12876	0.35341	2.11977	0.891818	5.41112							0.767805	4.65028	0.954614	5.7842		
0.517944	3.11984	0.35549	2.1204	0.895543	5.40318							0.770022	4.63754	0.958932	5.77774		
0.519381	3.11104	0.35757	2.12102	0.899248	5.39521							0.77222	4.62483	0.963245	5.77133		
0.520821	3.10235	0.359649	2.12163	0.902933	5.3872							0.774401	4.61216	0.967553	5.76496		
0.522263	3.09377	0.361729	2.12223	0.906597	5.37916							0.776565	4.59952	0.971855	5.75862		
0.523708	3.0853	0.363808	2.12283	0.910242	5.37109							0.778711	4.58692	0.976151	5.75232		
0.525155	3.07694	0.365888	2.12342	0.913866	5.363							0.780841	4.57436	0.980441	5.74605		
0.526605	3.06868	0.367967	2.124	0.91747	5.35487							0.782954	4.56184	0.984724	5.73981		
0.528058	3.06053	0.370047	2.12458	0.921055	5.34672							0.785052	4.54937	0.989	5.7336		
0.529513	3.05248	0.372126	2.12515	0.924619	5.33853							0.787133	4.53693	0.993269	5.72741		
0.530971	3.04453	0.374205	2.12571	0.928163	5.33032							0.789199	4.52454	0.997531	5.72125		
0.532431	3.03668	0.376285	2.12627	0.931687	5.32208							0.79125	4.5122	1.00178	5.71511		
0.533894	3.02893	0.378364	2.12682	0.935192	5.31382							0.793286	4.4999				
0.53536	3.02128	0.380443	2.12737	0.938676	5.30553							0.795307	4.48765				
0.536829	3.01372	0.382522	2.12791	0.942141	5.29722							0.797314	4.47544				
0.5383	3.00625	0.384602	2.12844	0.945586	5.28888							0.799307	4.46329				
0.539774	2.99888	0.386681	2.12897	0.949011	5.28052							0.801286	4.45118				
0.54125	2.9916	0.38876	2.1295	0.952417	5.27214							0.803251	4.43912				
0.54273	2.98441	0.390839	2.13001	0.955803	5.26374							0.805204	4.42712				
0.544212	2.9773	0.392918	2.13052	0.959169	5.25531							0.807144	4.41517				
0.545697	2.97029	0.394997	2.13103	0.962516	5.24687							0.809071	4.40327				
0.547184	2.96335	0.397076	2.13153	0.965844	5.23841							0.810985	4.39142				
0.548674	2.95651	0.399155	2.13203	0.969153	5.22992							0.812888	4.37963				
0.550167	2.94974	0.401233	2.13252	0.972442	5.22142							0.814778	4.36789				
0.551663	2.94306	0.403312	2.13301	0.975713	5.2129							0.816657	4.3562				
0.553161	2.93646	0.405391	2.13349	0.978964	5.20437							0.818525	4.34457				
0.554662	2.92994	0.40747	2.13397	0.982197	5.19582							0.820382	4.333				
0.556166	2.92349	0.409548	2.13444	0.985411	5.18725							0.822227	4.32148				
0.557673	2.91712	0.411627	2.1349	0.988606	5.17867							0.824063	4.31002				
0.559182	2.91083	0.413706	2.13537	0.991782	5.17008							0.825887	4.29862				
0.560694	2.90462	0.415785	2.13583	0.99494	5.16147							0.827702	4.28727				
0.562209	2.89847	0.417863	2.13628	0.998079	5.15285							0.829507	4.27599				
0.563727	2.89241	0.419942	2.13673	1.0012	5.14422							0.831302	4.26476				
0.565247	2.88641	0.42202	2.13717									0.833087	4.25359				
0.56677	2.88048	0.424099	2.13761									0.834864	4.24247				
0.568295	2.87462	0.426177	2.13805									0.836631	4.23142				
0.569823	2.86883	0.428256	2.13848									0.838389	4.22043				
0.571354	2.86311	0.430334	2.13891									0.840139	4.20949				
0.572888	2.85745	0.432413	2.13933									0.84188	4.19862				
0.574424	2.85186	0.434491	2.13975									0.843613	4.1878				
0.575963	2.84634	0.436569	2.14017									0.845339	4.17705				
0.577505	2.84088	0.438648	2.14058									0.847056	4.16635				
0.579049	2.83548	0.440726	2.14098									0.848765	4.15571				
0.580596	2.83014	0.442804	2.14139									0.850468	4.14514				
0.582146	2.82486	0.444882	2.14179									0.852162	4.13462				
0.583698	2.81965	0.446961	2.14219									0.85385	4.12417				
0.585253	2.81449	0.449039	2.14258									0.855531	4.11378				
0.586811	2.8094	0.451117	2.14297									0.857205	4.10344				
0.588371	2.80436	0.453195	2.14335									0.858872	4.09317				
0.589933	2.79937	0.455273	2.14374									0.860533	4.08296				
0.591499	2.79445	0.457351	2.14411									0.862188	4.0728				
0.593066	2.78957	0.45943	2.14449									0.863837	4.06271				
0.594637	2.78476	0.461508	2.14486									0.86548	4.05268				
0.59621	2.77999	0.463586	2.14523									0.867116	4.0427				
0.597785	2.77528	0.465664	2.1456									0.868748	4.03279				
0.599363	2.77062	0.467742	2.14596									0.870373	4.02294				
0.600944	2.76602	0.46982	2.14632									0.871994	4.01315				
0.602527	2.76146	0.471898	2.14667									0.873609	4.00342				
0.604113	2.75696	0.473976	2.14703									0.875219	3.99374				
0.605701	2.7525	0.476053	2.14738									0.876824	3.98413				
0.607291	2.74809	0.478131	2.14772									0.878425	3.97457				
0.608884	2.74373	0.480209	2.14807									0.88002	3.96508				
0.61048	2.73942	0.482287	2.14841									0.881612	3.95564				
0.612078	2.73516	0.484365	2.14875									0.883198	3.94626				
0.613678	2.73094	0.486443	2.14908									0.884781	3.93695				
0.615281	2.72677	0.48852	2.14941									0.886359	3.92769				
0.616886	2.72264	0.490598	2.14974									0.887933	3.91848				
0.618493	2.71855	0.492676	2.15007									0.889503	3.90934				
0.620103	2.71451	0.494754	2.15039									0.89107	3.90025				
0.621716	2.71052	0.496831	2.15071									0.892632	3.89122				
0.623331	2.70656	0.498909	2.15103									0.894192	3.88225				
0.624948	2.70265	0.500987	2.15135									0.895747	3.87334				
0.626567	2.69878	0.503064	2.15166									0.897299	3.86448				
0.628189	2.69495	0.505142	2.15197									0.898848	3.85568				
0.629813	2.69116	0.50722	2.15228									0.900394	3.84694				
0.631439	2.68741	0.509297	2.15259									0.901936	3.83825				
0.633068	2.6837	0.511375	2.15289									0.903476	3.82962				
0.634699	2.68003	0.513452	2.15319									0.905013	3.82104				
0.636332	2.6764	0.51553	2.15349									0.906547	3.81252				
0.637967	2.6728	0.517607	2.15378									0.908078	3.80405				
0.639605	2.66925	0.519685	2.15408									0.909606	3.79564				
0.641245	2.66572	0.521762	2.15437									0.911132	3.78728				
0.642887	2.66224	0.52384	2.15466									0.912656	3.77898				
0.644532	2.65879	0.525917	2.15494									0.914177	3.77073				
0.646178	2.65538	0.527995	2.15523									0.915696	3.76254				
0.647827	2.652	0.530072	2.15551									0.917212	3.7544				
0.649478	2.64866	0.532149	2.15579									0.918727	3.74631				
0.651131	2.64535	0.534227	2.15607									0.920239	3.73827				
0.652786	2.64207	0.536304	2.15634									0.921749	3.73029				
0.654444	2.63883	0.538381	2.15662									0.923258	3.72236				
0.656103	2.63562	0.540459	2.15689									0.924764	3.71448				
0.657765	2.63244	0.542536	2.15716									0.926269	3.70665				
0.659428	2.62929	0.544613	2.15743									0.927772	3.69888				
0.661094	2.62618	0.546691	2.15769									0.929274	3.69115				
0.662762	2.6231	0.548768	2.15795									0.930774	3.68348				
0.664432	2.62005	0.550845	2.15822									0.932272	3.67586				
0.666104	2.61702	0.552922	2.15847									0.933769	3.66828				
0.667778	2.61403	0.555	2.15873									0.935265	3.66076				
0.669454	2.61107	0.557077	2.15899									0.936759	3.65329				
0.671132	2.60814	0.559154	2.15924									0.938252	3.64586				
0.672812	2.60523	0.561231	2.15949									0.939743	3.63848				
0.674494	2.60236	0.563308	2.15974									0.941234	3.63116				
0.676178	2.59951	0.565386	2.15999									0.942723	3.62388				
0.677865	2.59669	0.567463	2.16024									0.944212	3.61665				
0.679553	2.5939	0.56954	2.16048									0.945699	3.60946				
0.681243	2.59114	0.571617	2.16072									0.947186	3.60233				
0.682934	2.5884	0.573694	2.16097									0.948671	3.59524				
0.684628	2.58569	0.575771	2.1612									0.950156	3.58819				
0.686324	2.583	0.577848	2.16144									0.95164	3.5812				
0.688021	2.58034	0.579925	2.16168									0.953123	3.57425				
0.689721	2.57771	0.582002	2.16191									0.954606	3.56734				
0.691422	2.5751	0.584079	2.16214									0.956088	3.56048				
0.693125	2.57252	0.586156	2.16237									0.957569	3.55367				
0.694831	2.56996	0.588233	2.1626									0.95905	3.5469				
0.696538	2.56743	0.59031	2.16283									0.96053	3.54018				
0.698246	2.56492	0.592387	2.16306									0.962009	3.5335				
0.699957	2.56243	0.594464	2.16328									0.963489	3.52686				
0.701669	2.55997	0.596541	2.1635									0.964968	3.52027				
0.703383	2.55753	0.598618	2.16373									0.966446	3.51372				
0.705099	2.55511	0.600695	2.16394									0.967924	3.50721				
0.706817	2.55272	0.602772	2.16416									0.969402	3.50075				
0.708537	2.55035	0.604849	2.16438									0.97088	3.49433				
0.710258	2.548	0.606925	2.16459									0.972357	3.48795				
0.711981	2.54567	0.609002	2.16481									0.973834	3.48161				
0.713706	2.54336	0.611079	2.16502									0.975311	3.47532				
0.715432	2.54108	0.613156	2.16523									0.976788	3.46906				
0.717161	2.53882	0.615233	2.16544									0.978265	3.46285				
0.71889	2.53657	0.61731	2.16565									0.979742	3.45668				
0.720622	2.53435	0.619386	2.16586									0.981219	3.45055				
0.722355	2.53215	0.621463	2.16606									0.982696	3.44445				
0.72409	2.52997	0.62354	2.16626									0.984173	3.4384				
0.725827	2.52781	0.625617	2.16647									0.98565	3.43239				
0.727565	2.52567	0.627693	2.16667									0.987127	3.42642				
0.729305	2.52355	0.62977	2.16687									0.988604	3.42048				
0.731047	2.52144	0.631847	2.16707									0.990081	3.41459				
0.73279	2.51936	0.633924	2.16726									0.991559	3.40873				
0.734535	2.5173	0.636	2.16746									0.993036	3.40291				
0.736281	2.51525	0.638077	2.16765									0.994514	3.39713				
0.738029	2.51322	0.640154	2.16785									0.995992	3.39138				
0.739778	2.51121	0.64223	2.16804									0.997471	3.38568				
0.74153	2.50922	0.644307	2.16823									0.99895	3.38001				
0.743282	2.50725	0.646384	2.16842									1.00043	3.37437				
0.745036	2.50529	0.64846	2.16861														
0.746792	2.50335	0.650537	2.1688														
0.74855	2.50143	0.652613	2.16898														
0.750308	2.49952	0.65469	2.16917														
0.752069	2.49764	0.656767	2.16935														
0.753831	2.49577	0.658843	2.16953														
0.755594	2.49391	0.66092	2.16971														
0.757359	2.49207	0.662996	2.16989														
0.759125	2.49025	0.665073	2.17007														
0.760893	2.48844	0.667149	2.17025														
0.762662	2.48665	0.669226	2.17043														
0.764433	2.48488	0.671302	2.1706														
0.766205	2.48312	0.673379	2.17078														
0.767978	2.48137	0.675455	2.17095														
0.769753	2.47964	0.677532	2.17112														
0.77153	2.47793	0.679608	2.17129														
0.773308	2.47623	0.681685	2.17146														
0.775087	2.47454	0.683761	2.17163														
0.776867	2.47287	0.685838	2.1718														
0.778649	2.47122	0.687914	2.17197														
0.780433	2.46957	0.689991	2.17214														
0.782217	2.46794	0.692067	2.1723														
0.784004	2.46633	0.694143	2.17247														
0.785791	2.46473	0.69622	2.17263														
0.78758	2.46314	0.698296	2.17279														
0.78937	2.46157	0.700372	2.17295														
0.791161	2.46001	0.702449	2.17311														
0.792954	2.45846	0.704525	2.17327														
0.794748	2.45692	0.706601	2.17343														
0.796543	2.4554	0.708678	2.17359														
0.79834	2.45389	0.710754	2.17374														
0.800138	2.45239	0.71283	2.1739														
0.801937	2.45091	0.714907	2.17405														
0.803737	2.44944	0.716983	2.17421														
0.805539	2.44798	0.719059	2.17436														
0.807342	2.44653	0.721136	2.17451														
0.809146	2.44509	0.723212	2.17466														
0.810951	2.44367	0.725288	2.17481														
0.812758	2.44226	0.727364	2.17496														
0.814566	2.44086	0.72944	2.17511														
0.816375	2.43947	0.731517	2.17526														
0.818185	2.43809	0.733593	2.17541														
0.819997	2.43672	0.735669	2.17555														
0.821809	2.43536	0.737745	2.1757														
0.823623	2.43402	0.739821	2.17584														
0.825438	2.43268	0.741898	2.17599														
0.827254	2.43136	0.743974	2.17613														
0.829072	2.43005	0.74605	2.17627														
0.83089	2.42875	0.748126	2.17641														
0.83271	2.42745	0.750202	2.17655														
0.834531	2.42617	0.752278	2.17669														
0.836353	2.4249	0.754354	2.17683														
0.838176	2.42364	0.756431	2.17697														
0.84	2.42239	0.758507	2.17711														
0.841825	2.42115	0.760583	2.17724														
0.843651	2.41991	0.762659	2.17738														
0.845479	2.41869	0.764735	2.17751														
0.847307	2.41748	0.766811	2.17765														
0.849137	2.41628	0.768887	2.17778														
0.850968	2.41508	0.770963	2.17791														
0.8528	2.4139	0.773039	2.17805														
0.854633	2.41273	0.775115	2.17818														
0.856467	2.41156	0.777191	2.17831														
0.858302	2.4104	0.779267	2.17844														
0.860138	2.40926	0.781343	2.17857														
0.861975	2.40812	0.783419	2.1787														
0.863813	2.40699	0.785495	2.17882														
0.865652	2.40587	0.787571	2.17895														
0.867492	2.40475	0.789647	2.17908														
0.869333	2.40365	0.791723	2.1792														
0.871176	2.40255	0.793799	2.17933														
0.873019	2.40147	0.795875	2.17945														
0.874863	2.40039	0.797951	2.17958														
0.876708	2.39932	0.800027	2.1797														
0.878554	2.39825	0.802103	2.17982														
0.880402	2.3972	0.804179	2.17994														
0.88225	2.39615	0.806254	2.18007														
0.884099	2.39512	0.80833	2.18019														
0.885949	2.39408	0.810406	2.18031														
0.8878	2.39306	0.812482	2.18043														
0.889652	2.39205	0.814558	2.18055														
0.891505	2.39104	0.816634	2.18066														
0.893359	2.39004	0.81871	2.18078														
0.895214	2.38905	0.820786	2.1809														
0.897069	2.38806	0.822861	2.18101														
0.898926	2.38708	0.824937	2.18113														
0.900784	2.38611	0.827013	2.18125														
0.902642	2.38515	0.829089	2.18136														
0.904502	2.38419	0.831165	2.18147														
0.906362	2.38324	0.83324	2.18159														
0.908223	2.3823	0.835316	2.1817														
0.910085	2.38137	0.837392	2.18181														
0.911948	2.38044	0.839468	2.18192														
0.913812	2.37952	0.841544	2.18204														
0.915677	2.3786	0.843619	2.18215														
0.917543	2.37769	0.845695	2.18226														
0.919409	2.37679	0.847771	2.18237														
0.921277	2.3759	0.849847	2.18247														
0.923145	2.37501	0.851922	2.18258														
0.925014	2.37412	0.853998	2.18269														
0.926884	2.37325	0.856074	2.1828														
0.928755	2.37238	0.858149	2.1829														
0.930626	2.37152	0.860225	2.18301														
0.932499	2.37066	0.862301	2.18312														
0.934372	2.36981	0.864376	2.18322														
0.936246	2.36896	0.866452	2.18333														
0.938121	2.36812	0.868528	2.18343														
0.939997	2.36729	0.870603	2.18354														
0.941873	2.36647	0.872679	2.18364														
0.94375	2.36564	0.874755	2.18374														
0.945629	2.36483	0.87683	2.18384														
0.947508	2.36402	0.878906	2.18395														
0.949387	2.36322	0.880982	2.18405														
0.951268	2.36242	0.883057	2.18415														
0.953149	2.36163	0.885133	2.18425														
0.955031	2.36084	0.887208	2.18435														
0.956914	2.36006	0.889284	2.18445														
0.958798	2.35928	0.89136	2.18455														
0.960682	2.35851	0.893435	2.18464														
0.962567	2.35775	0.895511	2.18474														
0.964453	2.35699	0.897586	2.18484														
0.96634	2.35623	0.899662	2.18494														
0.968227	2.35548	0.901737	2.18503														
0.970115	2.35474	0.903813	2.18513														
0.972004	2.354	0.905888	2.18522														
0.973894	2.35327	0.907964	2.18532														
0.975784	2.35254	0.910039	2.18541														
0.977675	2.35182	0.912115	2.18551														
0.979567	2.3511	0.91419	2.1856														
0.981459	2.35038	0.916266	2.1857														
0.983353	2.34968	0.918341	2.18579														
0.985247	2.34897	0.920417	2.18588														
0.987141	2.34827	0.922492	2.18597														
0.989037	2.34758	0.924568	2.18607														
0.990933	2.34689	0.926643	2.18616														
0.992829	2.3462	0.928719	2.18625														
0.994727	2.34552	0.930794	2.18634														
0.996625	2.34485	0.93287	2.18643														
0.998524	2.34418	0.934945	2.18652														
1.00042	2.34351	0.93702	2.18661														
		0.939096	2.1867														
		0.941171	2.18678														
		0.943247	2.18687														
		0.945322	2.18696														
		0.947397	2.18705														
		0.949473	2.18713														
		0.951548	2.18722														
		0.953624	2.18731														
		0.955699	2.18739														
		0.957774	2.18748														
		0.95985	2.18756														
		0.961925	2.18765														
		0.964	2.18773														
		0.966076	2.18782														
		0.968151	2.1879														
		0.970226	2.18798														
		0.972301	2.18807														
		0.974377	2.18815														
		0.976452	2.18823														
		0.978527	2.18831														
		0.980603	2.18839														
		0.982678	2.18847														
		0.984753	2.18855														
		0.986828	2.18863														
		0.988904	2.18871														
		0.990979	2.18879														
		0.993054	2.18887														
		0.995129	2.18895														
		0.997204	2.18903														
		0.99928	2.18911														
		1.00135	2.18919														
