Sym0		Asym0		Sym1		Sym2		Sym3		Sym4		Asym1		Asym2		Asym3	
465  Points		498  Points		224  Points		191  Points		178  Points		124  Points		328  Points		203  Points		166  Points	
Freq (MHz)	Vph (m/ms)	Freq (MHz)	Vph (m/ms)	Freq (MHz)	Vph (m/ms)	Freq (MHz)	Vph (m/ms)	Freq (MHz)	Vph (m/ms)	Freq (MHz)	Vph (m/ms)	Freq (MHz)	Vph (m/ms)	Freq (MHz)	Vph (m/ms)	Freq (MHz)	Vph (m/ms)
0.00430854	5.36609	4.95644e-008	0.00193223	0.279509	2534.09	0.478579	693.439	0.559022	1234.32	0.838536	979.117	0.139766	434.728	0.419266	1295.56	0.698771	16894.3
0.00930793	5.36599	7.13347e-005	0.074513	0.279552	268.285	0.478604	295.098	0.559065	403.775	0.838573	468.97	0.139935	111.662	0.41931	334.028	0.698788	718.137
0.0143069	5.36581	0.000277037	0.146655	0.279664	141.696	0.478649	187.445	0.559152	241.4	0.838636	308.343	0.140302	64.2148	0.419405	191.771	0.698834	366.89
0.0193052	5.36553	0.000615505	0.218207	0.279844	96.3193	0.478715	137.355	0.559282	172.194	0.838724	229.693	0.140866	45.1989	0.419552	134.528	0.69891	246.403
0.0243026	5.36516	0.00108398	0.288874	0.280094	72.9967	0.478801	108.401	0.559456	133.851	0.838838	183.024	0.141623	34.9835	0.41975	103.632	0.699015	185.507
0.0292989	5.36472	0.00167859	0.358356	0.280412	58.8017	0.478908	89.5385	0.559673	109.496	0.838978	152.129	0.142569	28.6283	0.42	84.3019	0.699151	148.761
0.0342937	5.36418	0.00239484	0.426445	0.280799	49.2589	0.479036	76.2757	0.559934	92.6571	0.839143	130.169	0.143697	24.3074	0.420301	71.0714	0.699316	124.179
0.0392869	5.36356	0.00322733	0.492909	0.281253	42.4074	0.479184	66.4425	0.560237	80.3235	0.839335	113.757	0.145003	21.1889	0.420653	61.4498	0.699511	106.58
0.0442783	5.36286	0.00417028	0.557583	0.281775	37.2528	0.479354	58.8618	0.560584	70.9021	0.839552	101.029	0.14648	18.8397	0.421056	54.14	0.699736	93.3614
0.0492675	5.36206	0.00521746	0.620321	0.282363	33.2366	0.479544	52.84	0.560974	63.4719	0.839794	90.8704	0.14812	17.012	0.42151	48.4001	0.699991	83.069
0.0542544	5.36118	0.00636243	0.681012	0.283018	30.0213	0.479757	47.9416	0.561407	57.4632	0.840063	82.5747	0.149916	15.554	0.422015	43.7749	0.700275	74.8292
0.0592387	5.36021	0.00759854	0.739568	0.283739	27.3907	0.479991	43.8797	0.561882	52.5047	0.840357	75.6733	0.151861	14.367	0.42257	39.9697	0.700589	68.0844
0.06422	5.35914	0.00891923	0.795934	0.284524	25.2	0.480247	40.4572	0.562399	48.3442	0.840677	69.8424	0.153947	13.3846	0.423176	36.7852	0.700932	62.4622
0.0691981	5.35798	0.0103181	0.850085	0.285374	23.3486	0.480526	37.5347	0.562959	44.804	0.841022	64.8514	0.156167	12.5602	0.423831	34.0819	0.701305	57.7045
0.0741728	5.35673	0.0117888	0.902019	0.286287	21.7642	0.480827	35.0103	0.563561	41.7557	0.841393	60.5312	0.158514	11.8602	0.424536	31.7592	0.701708	53.6265
0.0791436	5.35538	0.0133254	0.95174	0.287263	20.3939	0.481152	32.8083	0.564204	39.1039	0.841789	56.7555	0.16098	11.2598	0.42529	29.7426	0.70214	50.0928
0.0841104	5.35393	0.0149221	0.999288	0.2883	19.1977	0.4815	30.8708	0.564889	36.7766	0.842211	53.4278	0.163221	10.803	0.426094	27.9759	0.702601	47.0015
0.0890729	5.35238	0.0165737	1.0447	0.289399	18.1451	0.481872	29.1532	0.565615	34.7179	0.842658	50.473	0.165196	10.4548	0.426946	26.416	0.703091	44.2748
0.0940306	5.35073	0.0182748	1.08803	0.290557	17.2123	0.482269	27.6203	0.566381	32.8844	0.843131	47.832	0.166872	10.1917	0.427847	25.0289	0.703611	41.852
0.0989833	5.34897	0.020021	1.12935	0.291774	16.3803	0.48269	26.2441	0.567189	31.2413	0.843629	45.4575	0.168224	9.99796	0.428796	23.7879	0.704159	39.6853
0.103931	5.3471	0.0218079	1.16872	0.293048	15.6341	0.483137	25.0019	0.568036	29.7607	0.844152	43.3113	0.169232	9.86283	0.429792	22.6713	0.704737	37.7364
0.108872	5.34512	0.0236313	1.20622	0.29438	14.9614	0.48361	23.8752	0.568924	28.4199	0.8447	41.3622	0.169884	9.77943	0.430836	21.6618	0.705344	35.9741
0.113807	5.34302	0.0254878	1.24192	0.295767	14.3523	0.484109	22.8488	0.569851	27.2003	0.845274	39.5844	0.170829	9.66353	0.431927	20.7449	0.705979	34.3732
0.118736	5.34081	0.0273739	1.2759	0.297208	13.7984	0.484634	21.9102	0.570817	26.0863	0.845873	37.9564	0.171867	9.54265	0.433064	19.9086	0.706643	32.9125
0.123658	5.33847	0.0292864	1.30823	0.298703	13.2928	0.485187	21.0486	0.571822	25.065	0.846496	36.46	0.173297	9.38622	0.434247	19.1431	0.707336	31.5746
0.128573	5.33601	0.0312228	1.339	0.30025	12.8297	0.485768	20.2551	0.572866	24.1255	0.847145	35.0802	0.175135	9.20056	0.435476	18.4399	0.708057	30.3448
0.133479	5.33342	0.0331803	1.36828	0.301848	12.4042	0.486378	19.5221	0.573949	23.2585	0.847819	33.8039	0.177399	8.99255	0.43675	17.7919	0.708807	29.2106
0.138378	5.33069	0.0351568	1.39614	0.303497	12.012	0.487016	18.8431	0.575069	22.456	0.848517	32.62	0.180111	8.76911	0.438069	17.1931	0.709585	28.1613
0.143267	5.32782	0.0371501	1.42266	0.305193	11.6496	0.487685	18.2124	0.576227	21.7113	0.84924	31.5189	0.183294	8.53681	0.439432	16.6382	0.710391	27.188
0.148147	5.32481	0.0391584	1.44791	0.306938	11.3138	0.488383	17.6252	0.577422	21.0185	0.849988	30.4922	0.186547	8.32699	0.440839	16.1227	0.711226	26.2828
0.153018	5.32165	0.04118	1.47195	0.308729	11.002	0.489112	17.0773	0.578654	20.3724	0.850761	29.5328	0.189867	8.13679	0.442289	15.6427	0.712088	25.4388
0.157877	5.31833	0.0432134	1.49485	0.310327	10.748	0.489873	16.5651	0.579922	19.7687	0.851558	28.6344	0.19325	7.96379	0.443782	15.1948	0.712978	24.6501
0.162726	5.31485	0.0449939	1.51392	0.311716	10.5433	0.490667	16.0851	0.581227	19.2032	0.852379	27.7914	0.196692	7.80594	0.445317	14.776	0.713896	23.9116
0.167563	5.31121	0.0465173	1.52956	0.312882	10.3818	0.491492	15.6347	0.582567	18.6727	0.853225	26.9988	0.20019	7.66149	0.446894	14.3837	0.714841	23.2187
0.172387	5.30738	0.0477807	1.54208	0.313816	10.2588	0.492352	15.2112	0.583943	18.1741	0.854095	26.2523	0.203742	7.52893	0.448512	14.0155	0.715814	22.5674
0.177198	5.30338	0.0487817	1.55172	0.314509	10.1708	0.493246	14.8124	0.585354	17.7046	0.854989	25.5482	0.207343	7.40698	0.450171	13.6693	0.716814	21.954
0.181995	5.29918	0.0495188	1.55867	0.314956	10.1156	0.494174	14.4364	0.5868	17.2619	0.855908	24.8829	0.21099	7.29451	0.45187	13.3434	0.717842	21.3755
0.186777	5.29479	0.0499911	1.56306	0.315601	10.0376	0.495138	14.0813	0.588279	16.8438	0.85685	24.2534	0.214683	7.19055	0.453608	13.0361	0.718896	20.8291
0.191543	5.29018	0.0506706	1.56929	0.316308	9.95474	0.496138	13.7455	0.589793	16.4483	0.857817	23.6568	0.218417	7.09425	0.455386	12.7459	0.719977	20.3121
0.196293	5.28537	0.05141	1.57595	0.317278	9.84504	0.497175	13.4276	0.591341	16.0738	0.858807	23.0908	0.222191	7.00485	0.457202	12.4715	0.721085	19.8223
0.201026	5.28032	0.0524168	1.58482	0.318518	9.71106	0.49825	13.1264	0.592922	15.7187	0.859821	22.5531	0.226003	6.9217	0.459057	12.2117	0.722219	19.3577
0.205739	5.27504	0.0536921	1.59577	0.320037	9.55575	0.499362	12.8405	0.594535	15.3816	0.860858	22.0417	0.22985	6.84422	0.460949	11.9655	0.72338	18.9164
0.210433	5.2695	0.055237	1.6086	0.321848	9.38235	0.500514	12.569	0.596182	15.0611	0.861919	21.5547	0.23373	6.7719	0.462878	11.7318	0.724567	18.4968
0.215106	5.26371	0.0570527	1.6231	0.323961	9.19424	0.501705	12.3109	0.59786	14.7562	0.863004	21.0904	0.237642	6.70427	0.464843	11.5099	0.72578	18.0973
0.219757	5.25765	0.0591403	1.63904	0.326112	9.01686	0.502937	12.0653	0.59957	14.4658	0.864112	20.6473	0.241584	6.64093	0.466844	11.2987	0.727019	17.7166
0.224384	5.2513	0.0612316	1.65429	0.3283	8.84939	0.504209	11.8313	0.601312	14.1889	0.865243	20.2241	0.245555	6.58151	0.46888	11.0978	0.728283	17.3535
0.228986	5.24465	0.0633262	1.66887	0.330524	8.69107	0.505523	11.6084	0.603085	13.9246	0.866397	19.8195	0.249552	6.52569	0.470683	10.9304	0.729574	17.0066
0.233562	5.23769	0.0654234	1.68282	0.332783	8.54123	0.506879	11.3957	0.604889	13.6721	0.867574	19.4323	0.253575	6.47317	0.472241	10.7931	0.730889	16.6752
0.23811	5.2304	0.067523	1.69617	0.335078	8.39927	0.508278	11.1927	0.606723	13.4307	0.868774	19.0614	0.257622	6.4237	0.473543	10.6831	0.73223	16.358
0.242629	5.22277	0.0696245	1.70897	0.337406	8.26462	0.509533	11.0233	0.608588	13.1998	0.869997	18.7058	0.261691	6.37702	0.474582	10.5984	0.733596	16.0544
0.247116	5.21478	0.0717277	1.72123	0.339769	8.1368	0.510629	10.884	0.610482	12.9786	0.871243	18.3647	0.265782	6.33292	0.47535	10.5372	0.734987	15.7634
0.251571	5.20642	0.0738322	1.73298	0.342165	8.01534	0.511553	10.7723	0.612406	12.7666	0.872511	18.0372	0.269893	6.29121	0.475845	10.4986	0.736403	15.4844
0.25599	5.19766	0.0759379	1.74426	0.344594	7.89983	0.512296	10.6861	0.614359	12.5633	0.873801	17.7225	0.274023	6.25171	0.476558	10.4438	0.737843	15.2165
0.260373	5.1885	0.0780444	1.75509	0.347057	7.7899	0.51285	10.6239	0.61634	12.3682	0.875114	17.42	0.278171	6.21426	0.477337	10.3852	0.739307	14.9593
0.264717	5.17891	0.0801516	1.76549	0.349552	7.6852	0.513206	10.5846	0.61835	12.1808	0.876449	17.1289	0.282336	6.1787	0.478404	10.3069	0.740796	14.7121
0.26902	5.16887	0.0822593	1.77547	0.352081	7.58541	0.513724	10.5288	0.620389	12.0007	0.877806	16.8486	0.286517	6.14491	0.479764	10.2103	0.742308	14.4743
0.27328	5.15837	0.0843674	1.78508	0.354643	7.49026	0.514292	10.469	0.622455	11.8275	0.879186	16.5786	0.290713	6.11276	0.481425	10.0969	0.743844	14.2455
0.277494	5.1474	0.0864757	1.79431	0.357239	7.39948	0.515073	10.3893	0.624549	11.6608	0.880587	16.3183	0.294924	6.08214	0.483396	9.96851	0.745404	14.0251
0.281661	5.13593	0.088584	1.8032	0.359869	7.31282	0.516078	10.2907	0.62667	11.5004	0.882009	16.0673	0.299147	6.05294	0.485686	9.82694	0.746988	13.8127
0.285777	5.12394	0.0906924	1.81176	0.362533	7.23008	0.517315	10.175	0.628818	11.3458	0.883454	15.825	0.303384	6.02507	0.488007	9.69121	0.748594	13.608
0.289842	5.11143	0.0928007	1.82	0.365233	7.15105	0.5188	10.0438	0.630711	11.2157	0.884919	15.5911	0.307631	5.99844	0.490359	9.56101	0.750224	13.4105
0.293852	5.09838	0.0949088	1.82794	0.367969	7.07555	0.520547	9.89905	0.632341	11.1079	0.886407	15.365	0.31189	5.97296	0.49274	9.43602	0.751876	13.2199
0.297805	5.08477	0.0970167	1.8356	0.370742	7.0034	0.522342	9.76025	0.6337	11.021	0.887915	15.1466	0.316158	5.94857	0.49515	9.31596	0.753551	13.0358
0.301699	5.07059	0.0991242	1.84299	0.373552	6.93445	0.524184	9.62707	0.634781	10.9536	0.889444	14.9353	0.320436	5.92519	0.497589	9.20057	0.755249	12.8579
0.305532	5.05585	0.101231	1.85012	0.376402	6.86855	0.526074	9.49924	0.63558	10.9048	0.890995	14.7309	0.324723	5.90276	0.500056	9.0896	0.756969	12.686
0.309302	5.04052	0.103338	1.857	0.379292	6.80559	0.528013	9.3765	0.636093	10.8738	0.892566	14.533	0.329017	5.88122	0.502551	8.98282	0.758711	12.5197
0.313007	5.0246	0.105445	1.86366	0.382224	6.74542	0.53	9.2586	0.636833	10.8298	0.894158	14.3413	0.333319	5.86052	0.505074	8.88003	0.760474	12.3588
0.316645	5.0081	0.107551	1.87008	0.385198	6.68795	0.532035	9.14531	0.63764	10.7825	0.895771	14.1557	0.337628	5.84059	0.507623	8.781	0.76226	12.203
0.320215	4.99102	0.109656	1.8763	0.388217	6.63306	0.53412	9.03642	0.638743	10.7192	0.897404	13.9757	0.341942	5.82141	0.510198	8.68557	0.764067	12.0522
0.323715	4.97336	0.111761	1.88231	0.39128	6.58065	0.536253	8.93173	0.640147	10.6405	0.899057	13.8012	0.346262	5.80291	0.512799	8.59355	0.765895	11.906
0.327146	4.95513	0.113866	1.88813	0.394391	6.53063	0.538436	8.83104	0.641857	10.5476	0.900731	13.6319	0.350587	5.78506	0.515426	8.50478	0.767745	11.7644
0.330505	4.93635	0.11597	1.89376	0.397549	6.48291	0.540667	8.73417	0.643881	10.4416	0.902424	13.4677	0.354916	5.76782	0.518078	8.4191	0.769615	11.6271
0.333373	4.91954	0.118073	1.89921	0.400757	6.43741	0.542947	8.64095	0.646227	10.3236	0.904138	13.3082	0.359249	5.75115	0.520754	8.33637	0.771262	11.5107
0.335775	4.90489	0.120176	1.9045	0.404014	6.39404	0.545277	8.55122	0.648597	10.2095	0.905871	13.1533	0.363585	5.73503	0.523454	8.25646	0.772678	11.414
0.337732	4.89257	0.122279	1.90962	0.407323	6.35273	0.547654	8.46483	0.650991	10.0991	0.907624	13.0029	0.367923	5.71941	0.526179	8.17923	0.773857	11.3356
0.33926	4.88269	0.124381	1.91459	0.410683	6.31339	0.550081	8.38164	0.653409	9.99218	0.909396	12.8567	0.372264	5.70426	0.528926	8.10456	0.774796	11.2746
0.340372	4.87535	0.126482	1.91941	0.414095	6.27596	0.552556	8.30149	0.655851	9.88863	0.911188	12.7145	0.376606	5.68957	0.531697	8.03234	0.775488	11.2303
0.34108	4.87063	0.128583	1.92408	0.41756	6.24036	0.555078	8.22428	0.658316	9.78829	0.913	12.5763	0.380949	5.6753	0.53449	7.96247	0.775933	11.2022
0.34209	4.86379	0.130683	1.92862	0.421078	6.20652	0.557649	8.14986	0.660804	9.69104	0.91483	12.4418	0.385292	5.66142	0.537305	7.89483	0.776574	11.1621
0.343179	4.8563	0.132783	1.93303	0.424649	6.17436	0.560267	8.07812	0.663315	9.59673	0.916679	12.311	0.389636	5.64792	0.540142	7.82934	0.777274	11.119
0.344646	4.84603	0.134882	1.93732	0.428272	6.1438	0.562931	8.00895	0.665849	9.50526	0.918547	12.1836	0.393978	5.63477	0.543001	7.7659	0.778229	11.061
0.346477	4.83289	0.136981	1.94148	0.431947	6.11479	0.565643	7.94225	0.668405	9.41651	0.920434	12.0596	0.39832	5.62195	0.545881	7.70442	0.779444	10.9889
0.348657	4.81679	0.13908	1.94553	0.435672	6.08725	0.5684	7.8779	0.670983	9.33037	0.922339	11.9388	0.40266	5.60944	0.548782	7.64484	0.780923	10.9034
0.351165	4.79763	0.141177	1.94947	0.439448	6.06111	0.571203	7.81582	0.673583	9.24672	0.924015	11.8361	0.406998	5.59723	0.551703	7.58706	0.782672	10.8053
0.35398	4.7753	0.143275	1.9533	0.443273	6.03629	0.57405	7.75591	0.676205	9.16549	0.925454	11.7504	0.411333	5.58528	0.554644	7.53102	0.784697	10.6957
0.356728	4.75264	0.145372	1.95703	0.447145	6.01274	0.576942	7.69808	0.678849	9.08657	0.926652	11.6807	0.415666	5.5736	0.557606	7.47664	0.786742	10.5891
0.359412	4.72968	0.147468	1.96066	0.451064	5.99038	0.579878	7.64225	0.681513	9.00988	0.927604	11.6264	0.419994	5.56215	0.560587	7.42387	0.788805	10.4854
0.362032	4.70646	0.149564	1.96419	0.455027	5.96914	0.582857	7.58833	0.684199	8.93532	0.928306	11.5869	0.424319	5.55094	0.563587	7.37264	0.790888	10.3844
0.364591	4.683	0.151659	1.96764	0.459032	5.94898	0.585878	7.53625	0.686905	8.86283	0.928757	11.5618	0.428639	5.53993	0.566607	7.32289	0.792989	10.2862
0.367091	4.65935	0.153754	1.971	0.463078	5.92982	0.588941	7.48593	0.689632	8.79232	0.929407	11.5259	0.432954	5.52912	0.569645	7.27456	0.795109	10.1905
0.369533	4.63554	0.155849	1.97427	0.467164	5.9116	0.592045	7.43731	0.69238	8.72372	0.930115	11.4873	0.437264	5.51849	0.572702	7.22761	0.797247	10.0974
0.371921	4.61159	0.157943	1.97746	0.471286	5.89428	0.59519	7.39032	0.695148	8.65697	0.931083	11.4354	0.441567	5.50804	0.575778	7.18197	0.799404	10.0066
0.374255	4.58754	0.160037	1.98057	0.475444	5.87778	0.598374	7.34488	0.697936	8.592	0.932312	11.3705	0.445864	5.49774	0.578872	7.13761	0.801578	9.91815
0.376539	4.56342	0.16213	1.9836	0.479634	5.86207	0.601597	7.30095	0.700743	8.52874	0.933807	11.2934	0.450154	5.48759	0.581983	7.09448	0.80377	9.83193
0.378774	4.53925	0.164223	1.98657	0.483856	5.84709	0.604858	7.25846	0.70357	8.46714	0.935574	11.2048	0.454436	5.47758	0.585113	7.05253	0.80598	9.74787
0.380963	4.51506	0.166316	1.98946	0.488108	5.83279	0.608157	7.21735	0.706417	8.40713	0.937618	11.1053	0.45871	5.4677	0.58826	7.01172	0.808208	9.66589
0.383107	4.49088	0.168408	1.99228	0.492387	5.81914	0.611492	7.17756	0.709283	8.34867	0.939679	11.0083	0.462976	5.45793	0.591425	6.97202	0.810453	9.58593
0.385208	4.46673	0.1705	1.99504	0.496691	5.80608	0.614863	7.13906	0.712168	8.2917	0.941758	10.9135	0.467232	5.44827	0.594606	6.93337	0.812715	9.50791
0.387269	4.44264	0.172592	1.99774	0.50102	5.79358	0.618269	7.10178	0.715073	8.23617	0.943854	10.821	0.471479	5.43871	0.597806	6.89576	0.814994	9.43177
0.389292	4.41861	0.174683	2.00037	0.50537	5.7816	0.62171	7.06569	0.717996	8.18203	0.945966	10.7306	0.475716	5.42923	0.601022	6.85914	0.81729	9.35744
0.391277	4.39467	0.176774	2.00294	0.509742	5.77011	0.625184	7.03072	0.720937	8.12924	0.948096	10.6422	0.479943	5.41983	0.604255	6.82349	0.819603	9.28488
0.393228	4.37084	0.178865	2.00546	0.514132	5.75907	0.628691	6.99685	0.723898	8.07776	0.950242	10.5559	0.484158	5.41051	0.607505	6.78876	0.821932	9.21402
0.395145	4.34714	0.180955	2.00792	0.51854	5.74845	0.63223	6.96403	0.726876	8.02754	0.952405	10.4716	0.488361	5.40125	0.610771	6.75494	0.824278	9.1448
0.397032	4.32357	0.183045	2.01033	0.522964	5.73822	0.6358	6.93221	0.729873	7.97854	0.954584	10.3891	0.492552	5.39204	0.614054	6.72198	0.82664	9.07718
0.398888	4.30015	0.185135	2.01268	0.527402	5.72836	0.639401	6.90137	0.732888	7.93073	0.95678	10.3085	0.496731	5.38288	0.617354	6.68987	0.829018	9.0111
0.400715	4.2769	0.187224	2.01499	0.531854	5.71884	0.643032	6.87145	0.735921	7.88406	0.958992	10.2296	0.500896	5.37376	0.620671	6.65858	0.831412	8.94652
0.402516	4.25382	0.189313	2.01724	0.536317	5.70964	0.646691	6.84244	0.738971	7.8385	0.96122	10.1525	0.505048	5.36468	0.624003	6.62809	0.833822	8.88339
0.404291	4.23092	0.191402	2.01945	0.540792	5.70073	0.65038	6.81429	0.74204	7.79402	0.963464	10.077	0.509185	5.35562	0.627352	6.59836	0.836248	8.82167
0.406042	4.20822	0.19349	2.02162	0.545276	5.69209	0.654096	6.78697	0.745126	7.75059	0.965723	10.0032	0.513307	5.34658	0.630718	6.56938	0.838689	8.76131
0.407771	4.18571	0.195579	2.02374	0.549769	5.68371	0.657839	6.76045	0.74823	7.70817	0.967999	9.93092	0.517414	5.33756	0.6341	6.54113	0.841145	8.70227
0.409477	4.16341	0.197667	2.02581	0.554269	5.67557	0.661608	6.7347	0.751351	7.66674	0.970289	9.86018	0.521505	5.32855	0.637498	6.51358	0.843617	8.64452
0.411163	4.14132	0.199755	2.02785	0.558776	5.66765	0.665403	6.7097	0.75449	7.62626	0.972596	9.79091	0.52558	5.31954	0.640912	6.48671	0.846104	8.58802
0.41283	4.11945	0.201842	2.02984	0.563288	5.65993	0.669222	6.6854	0.757645	7.58671	0.974917	9.72309	0.529637	5.31053	0.644342	6.46051	0.848606	8.53272
0.414478	4.0978	0.203929	2.03179	0.567805	5.6524	0.673066	6.6618	0.760818	7.54807	0.977254	9.65666	0.533677	5.30151	0.647789	6.43496	0.851123	8.4786
0.416109	4.07637	0.206017	2.03371	0.572326	5.64505	0.676934	6.63886	0.764008	7.5103	0.979606	9.5916	0.537699	5.29248	0.651252	6.41004	0.853655	8.42562
0.417723	4.05518	0.208103	2.03559	0.57685	5.63786	0.680825	6.61656	0.767216	7.47338	0.981972	9.52785	0.541702	5.28343	0.654732	6.38572	0.856202	8.37375
0.419323	4.03421	0.21019	2.03743	0.581376	5.63082	0.684738	6.59487	0.77044	7.43729	0.984354	9.46539	0.545687	5.27437	0.658227	6.362	0.858763	8.32296
0.420907	4.01348	0.212276	2.03924	0.585904	5.62392	0.688672	6.57378	0.773681	7.402	0.98675	9.40418	0.549651	5.26527	0.661739	6.33886	0.861338	8.27321
0.422478	3.99299	0.214363	2.04101	0.590432	5.61715	0.692628	6.55326	0.776939	7.3675	0.989161	9.34418	0.553596	5.25614	0.665267	6.31629	0.863928	8.22449
0.424036	3.97273	0.216449	2.04275	0.59496	5.6105	0.696605	6.53329	0.780214	7.33376	0.991586	9.28537	0.55752	5.24699	0.668812	6.29426	0.866532	8.17676
0.425581	3.95271	0.218535	2.04446	0.599488	5.60396	0.700601	6.51385	0.783506	7.30076	0.994025	9.2277	0.561422	5.23779	0.672372	6.27277	0.869151	8.12999
0.427116	3.93292	0.22062	2.04614	0.604014	5.59752	0.704616	6.49492	0.786814	7.26849	0.996479	9.17116	0.565304	5.22855	0.675949	6.2518	0.871783	8.08416
0.428639	3.91338	0.222706	2.04778	0.608538	5.59117	0.708651	6.47649	0.79014	7.23692	0.998946	9.1157	0.569163	5.21927	0.679542	6.23133	0.874429	8.03924
0.430152	3.89407	0.224791	2.0494	0.61306	5.58491	0.712703	6.45853	0.793482	7.20604	1.00143	9.06131	0.572999	5.20994	0.683151	6.21136	0.87709	7.99521
0.431656	3.875	0.226876	2.05099	0.617579	5.57873	0.716773	6.44103	0.796841	7.17583			0.576813	5.20056	0.686777	6.19188	0.879764	7.95205
0.433151	3.85616	0.228961	2.05255	0.622095	5.57262	0.720861	6.42398	0.800217	7.14627			0.580603	5.19112	0.690419	6.17286	0.882451	7.90973
0.434637	3.83757	0.231046	2.05408	0.626606	5.56657	0.724964	6.40735	0.803609	7.11735			0.58437	5.18164	0.694077	6.1543	0.885153	7.86824
0.436116	3.8192	0.23313	2.05559	0.631113	5.56059	0.729084	6.39113	0.807019	7.08905			0.588112	5.17209	0.697751	6.13618	0.887868	7.82755
0.437587	3.80107	0.235215	2.05707	0.635615	5.55465	0.733219	6.37531	0.810445	7.06136			0.59183	5.16249	0.701441	6.1185	0.890596	7.78763
0.439051	3.78317	0.237299	2.05852	0.640111	5.54877	0.737369	6.35988	0.813889	7.03426			0.595523	5.15282	0.705147	6.10125	0.893338	7.74848
0.440509	3.76551	0.239383	2.05995	0.644601	5.54292	0.741534	6.34481	0.817349	7.00773			0.59919	5.14309	0.708869	6.0844	0.896093	7.71007
0.441961	3.74807	0.241467	2.06136	0.649085	5.53712	0.745712	6.3301	0.820826	6.98177			0.602832	5.1333	0.712607	6.06796	0.898862	7.67239
0.443407	3.73086	0.243551	2.06274	0.653562	5.53135	0.749904	6.31573	0.82432	6.95637			0.606448	5.12344	0.716361	6.05191	0.901644	7.63541
0.444849	3.71387	0.245635	2.0641	0.658032	5.52561	0.754108	6.30169	0.827831	6.9315			0.610038	5.11352	0.72013	6.03624	0.904438	7.59912
0.446285	3.69711	0.247718	2.06544	0.662494	5.51989	0.758325	6.28798	0.83136	6.90716			0.613601	5.10353	0.723915	6.02095	0.907246	7.5635
0.447718	3.68056	0.249802	2.06676	0.666948	5.5142	0.762554	6.27457	0.834906	6.88334			0.617138	5.09348	0.727716	6.00602	0.910067	7.52855
0.449146	3.66424	0.251885	2.06805	0.671394	5.50852	0.766794	6.26145	0.838469	6.86002			0.620648	5.08336	0.731531	5.99144	0.912901	7.49423
0.45057	3.64813	0.253968	2.06932	0.675831	5.50286	0.771045	6.24863	0.842049	6.83719			0.624131	5.07317	0.735362	5.9772	0.915748	7.46054
0.451992	3.63224	0.256051	2.07058	0.680259	5.49721	0.775307	6.23608	0.845647	6.81485			0.627586	5.06292	0.739207	5.96329	0.918608	7.42746
0.45341	3.61656	0.258134	2.07181	0.684678	5.49157	0.779578	6.22379	0.849263	6.79299			0.631014	5.05259	0.743067	5.94972	0.92148	7.39497
0.454825	3.60108	0.260217	2.07303	0.689086	5.48594	0.783859	6.21176	0.852896	6.77159			0.634415	5.04221	0.746942	5.93645	0.924365	7.36308
0.456237	3.58582	0.262299	2.07422	0.693485	5.4803	0.788149	6.19998	0.856547	6.75064			0.637788	5.03176	0.750831	5.9235	0.927263	7.33175
0.457648	3.57075	0.264382	2.0754	0.697873	5.47467	0.792447	6.18844	0.860216	6.73014			0.641133	5.02124	0.754734	5.91084	0.930174	7.30098
0.459056	3.55589	0.266464	2.07656	0.70225	5.46904	0.796753	6.17712	0.863904	6.71007			0.644451	5.01066	0.75865	5.89848	0.933098	7.27075
0.460463	3.54123	0.268547	2.0777	0.706616	5.4634	0.801067	6.16603	0.867609	6.69044			0.647741	5.00002	0.76258	5.88639	0.936033	7.24106
0.461868	3.52677	0.270629	2.07883	0.710971	5.45776	0.805388	6.15514	0.871333	6.67122			0.651003	4.98932	0.766524	5.87458	0.938982	7.21189
0.463272	3.5125	0.272711	2.07993	0.715315	5.4521	0.809715	6.14446	0.875075	6.65242			0.654237	4.97856	0.77048	5.86304	0.941943	7.18323
0.464675	3.49842	0.274793	2.08103	0.719646	5.44644	0.814049	6.13398	0.878836	6.63402			0.657444	4.96774	0.774449	5.85175	0.944917	7.15507
0.466076	3.48453	0.276875	2.0821	0.723965	5.44076	0.818388	6.12369	0.882615	6.61602			0.660623	4.95687	0.77843	5.84071	0.947902	7.12739
0.467477	3.47083	0.278957	2.08316	0.728272	5.43507	0.822733	6.11357	0.886414	6.59841			0.663775	4.94594	0.782423	5.82992	0.950901	7.1002
0.468878	3.45731	0.281038	2.08421	0.732566	5.42937	0.827082	6.10364	0.890231	6.58118			0.666899	4.93495	0.786427	5.81936	0.953912	7.07347
0.470278	3.44397	0.28312	2.08523	0.736847	5.42364	0.831436	6.09387	0.894068	6.56433			0.669995	4.92392	0.790443	5.80902	0.956935	7.0472
0.471677	3.43082	0.285201	2.08625	0.741114	5.4179	0.835793	6.08426	0.897923	6.54785			0.673064	4.91284	0.79447	5.79891	0.95997	7.02138
0.473077	3.41783	0.287283	2.08725	0.745369	5.41214	0.840155	6.0748	0.901799	6.53173			0.676107	4.90171	0.798507	5.78901	0.963018	6.99599
0.474477	3.40503	0.289364	2.08824	0.749609	5.40635	0.844519	6.0655	0.905693	6.51597			0.679122	4.89053	0.802554	5.77931	0.966077	6.97104
0.475877	3.39239	0.291445	2.08921	0.753836	5.40055	0.848886	6.05634	0.909608	6.50056			0.68211	4.87932	0.806611	5.76982	0.969149	6.94651
0.477277	3.37992	0.293526	2.09017	0.758048	5.39472	0.853255	6.04731	0.913542	6.48549			0.685072	4.86806	0.810678	5.76052	0.972234	6.92238
0.478678	3.36762	0.295608	2.09111	0.762246	5.38886	0.857626	6.03842	0.917496	6.47076			0.688007	4.85676	0.814753	5.7514	0.97533	6.89867
0.480079	3.35549	0.297689	2.09205	0.76643	5.38298	0.861999	6.02965	0.92147	6.45637			0.690916	4.84543	0.818837	5.74246	0.978438	6.87534
0.481481	3.34352	0.299769	2.09297	0.770598	5.37708	0.866373	6.02101	0.925465	6.4423			0.693799	4.83406	0.82293	5.7337	0.981559	6.85241
0.482884	3.3317	0.30185	2.09387	0.774752	5.37114	0.870748	6.01248	0.929479	6.42855			0.696657	4.82267	0.82703	5.7251	0.984691	6.82985
0.484288	3.32004	0.303931	2.09477	0.778891	5.36518	0.875123	6.00407	0.933514	6.41512			0.699489	4.81124	0.831138	5.71667	0.987836	6.80767
0.485693	3.30854	0.306012	2.09565	0.783014	5.35918	0.879498	5.99576	0.937569	6.402			0.702295	4.79978	0.835252	5.70839	0.990992	6.78585
0.487098	3.29719	0.308092	2.09652	0.787121	5.35316	0.883873	5.98755	0.941645	6.38918			0.705076	4.7883	0.839374	5.70026	0.994161	6.76439
0.488506	3.28599	0.310173	2.09738	0.791213	5.34711	0.888248	5.97945	0.945741	6.37666			0.707833	4.7768	0.843501	5.69227	0.997341	6.74328
0.489914	3.27494	0.312253	2.09823	0.795289	5.34103	0.892621	5.97144	0.949857	6.36443			0.710565	4.76527	0.847635	5.68442	1.00053	6.72252
0.491324	3.26404	0.314334	2.09907	0.799349	5.33491	0.896994	5.96352	0.953994	6.3525			0.713273	4.75373	0.851774	5.67671		
0.492735	3.25328	0.316414	2.0999	0.803393	5.32876	0.901365	5.95569	0.958152	6.34084			0.715957	4.74217	0.855918	5.66913		
0.494148	3.24266	0.318494	2.10071	0.80742	5.32258	0.905734	5.94794	0.96233	6.32947			0.718617	4.7306	0.860066	5.66167		
0.495562	3.23218	0.320574	2.10152	0.811431	5.31637	0.910102	5.94028	0.966529	6.31837			0.721254	4.71901	0.864219	5.65433		
0.496978	3.22184	0.322654	2.10231	0.815425	5.31012	0.914467	5.93269	0.970748	6.30753			0.723867	4.70742	0.868376	5.6471		
0.498396	3.21163	0.324734	2.1031	0.819403	5.30385	0.91883	5.92518	0.974988	6.29696			0.726458	4.69581	0.872536	5.63998		
0.499816	3.20156	0.326814	2.10388	0.823363	5.29753	0.923191	5.91775	0.979248	6.28664			0.729026	4.6842	0.876699	5.63297		
0.501237	3.19161	0.328894	2.10464	0.827307	5.29119	0.927549	5.91039	0.983528	6.27657			0.731572	4.67259	0.880865	5.62606		
0.50266	3.1818	0.330974	2.1054	0.831233	5.28481	0.931904	5.90309	0.987828	6.26676			0.734097	4.66098	0.885034	5.61924		
0.504086	3.17211	0.333054	2.10615	0.835142	5.27839	0.936256	5.89587	0.992148	6.25718			0.736599	4.64936	0.889204	5.61252		
0.505513	3.16255	0.335134	2.10688	0.839034	5.27195	0.940606	5.8887	0.996488	6.24784			0.73908	4.63775	0.893376	5.60589		
0.506942	3.15312	0.337213	2.10761	0.842908	5.26547	0.944952	5.88161	1.00085	6.23873			0.74154	4.62614	0.89755	5.59934		
0.508374	3.1438	0.339293	2.10833	0.846765	5.25895	0.949294	5.87457					0.74398	4.61454	0.901724	5.59287		
0.509807	3.13461	0.341373	2.10905	0.850604	5.2524	0.953634	5.86759					0.746399	4.60294	0.905898	5.58648		
0.511243	3.12553	0.343452	2.10975	0.854426	5.24582	0.95797	5.86068					0.748798	4.59135	0.910073	5.58017		
0.512681	3.11657	0.345531	2.11045	0.858229	5.2392	0.962303	5.85382					0.751177	4.57978	0.914248	5.57392		
0.514121	3.10772	0.347611	2.11113	0.862015	5.23255	0.966632	5.84701					0.753536	4.56821	0.918422	5.56774		
0.515564	3.09899	0.34969	2.11181	0.865783	5.22587	0.970958	5.84026					0.755877	4.55667	0.922595	5.56163		
0.517009	3.09037	0.351769	2.11248	0.869533	5.21916	0.97528	5.83357					0.758198	4.54513	0.926767	5.55558		
0.518456	3.08185	0.353849	2.11314	0.873266	5.21241	0.979599	5.82693					0.760501	4.53362	0.930938	5.54958		
0.519905	3.07345	0.355928	2.1138	0.87698	5.20563	0.983914	5.82034					0.762785	4.52212	0.935107	5.54364		
0.521357	3.06515	0.358007	2.11445	0.880676	5.19882	0.988226	5.81381					0.765052	4.51064	0.939273	5.53776		
0.522811	3.05696	0.360086	2.11509	0.884354	5.19197	0.992534	5.80732					0.767301	4.49918	0.943437	5.53192		
0.524268	3.04886	0.362165	2.11572	0.888014	5.1851	0.996839	5.80089					0.769532	4.48775	0.947598	5.52613		
0.525727	3.04087	0.364244	2.11635	0.891656	5.17819	1.00114	5.7945					0.771747	4.47634	0.951757	5.52038		
0.527189	3.03298	0.366323	2.11697	0.89528	5.17126							0.773944	4.46496	0.955911	5.51468		
0.528653	3.02519	0.368402	2.11758	0.898885	5.16429							0.776125	4.45361	0.960062	5.50902		
0.53012	3.0175	0.370481	2.11819	0.902473	5.1573							0.77829	4.44228	0.964209	5.50339		
0.531589	3.0099	0.37256	2.11878	0.906042	5.15028							0.780439	4.43098	0.968352	5.4978		
0.533061	3.00239	0.374638	2.11938	0.909594	5.14322							0.782572	4.41971	0.97249	5.49224		
0.534535	2.99498	0.376717	2.11996	0.913127	5.13614							0.78469	4.40847	0.976623	5.48671		
0.536012	2.98766	0.378796	2.12054	0.916642	5.12904							0.786792	4.39727	0.980751	5.48121		
0.537492	2.98043	0.380874	2.12111	0.920139	5.1219							0.78888	4.3861	0.984873	5.47574		
0.538974	2.97328	0.382953	2.12168	0.923618	5.11474							0.790953	4.37496	0.98899	5.47029		
0.540458	2.96623	0.385031	2.12224	0.927079	5.10756							0.793012	4.36386	0.993101	5.46487		
0.541945	2.95926	0.38711	2.1228	0.930522	5.10035							0.795057	4.3528	0.997206	5.45947		
0.543435	2.95237	0.389188	2.12335	0.933947	5.09311							0.797088	4.34177	1.0013	5.45408		
0.544928	2.94557	0.391267	2.12389	0.937355	5.08585							0.799106	4.33078				
0.546423	2.93885	0.393345	2.12443	0.940744	5.07857							0.80111	4.31984				
0.547921	2.93221	0.395424	2.12496	0.944116	5.07126							0.803102	4.30893				
0.549421	2.92566	0.397502	2.12549	0.94747	5.06393							0.805081	4.29806				
0.550924	2.91918	0.39958	2.12601	0.950806	5.05659							0.807047	4.28723				
0.552429	2.91277	0.401658	2.12652	0.954124	5.04922							0.809001	4.27644				
0.553938	2.90645	0.403737	2.12703	0.957425	5.04183							0.810943	4.2657				
0.555448	2.9002	0.405815	2.12754	0.960709	5.03442							0.812873	4.255				
0.556962	2.89402	0.407893	2.12804	0.963975	5.02699							0.814792	4.24435				
0.558478	2.88792	0.409971	2.12854	0.967223	5.01954							0.8167	4.23374				
0.559997	2.88189	0.412049	2.12903	0.970455	5.01207							0.818596	4.22317				
0.561518	2.87593	0.414127	2.12951	0.973669	5.00459							0.820482	4.21265				
0.563042	2.87004	0.416205	2.12999	0.976866	4.99709							0.822357	4.20218				
0.564569	2.86422	0.418283	2.13047	0.980045	4.98958							0.824222	4.19175				
0.566098	2.85846	0.420361	2.13094	0.983208	4.98205							0.826076	4.18137				
0.56763	2.85278	0.422439	2.13141	0.986354	4.97451							0.827921	4.17103				
0.569164	2.84716	0.424517	2.13187	0.989483	4.96695							0.829756	4.16075				
0.570702	2.8416	0.426594	2.13233	0.992595	4.95937							0.831582	4.15051				
0.572241	2.83611	0.428672	2.13278	0.995691	4.95179							0.833398	4.14032				
0.573784	2.83069	0.43075	2.13323	0.998769	4.94419							0.835205	4.13018				
0.575329	2.82532	0.432828	2.13367	1.00183	4.93658							0.837003	4.12009				
0.576876	2.82002	0.434905	2.13411									0.838792	4.11005				
0.578426	2.81478	0.436983	2.13455									0.840573	4.10006				
0.579979	2.80959	0.439061	2.13498									0.842346	4.09012				
0.581534	2.80447	0.441138	2.13541									0.84411	4.08023				
0.583092	2.7994	0.443216	2.13583									0.845867	4.07039				
0.584652	2.7944	0.445293	2.13626									0.847616	4.0606				
0.586215	2.78944	0.447371	2.13667									0.849357	4.05086				
0.58778	2.78455	0.449448	2.13708									0.851091	4.04117				
0.589348	2.77971	0.451526	2.13749									0.852817	4.03153				
0.590919	2.77492	0.453603	2.1379									0.854537	4.02195				
0.592492	2.77019	0.455681	2.1383									0.856249	4.01241				
0.594067	2.76551	0.457758	2.1387									0.857955	4.00293				
0.595645	2.76088	0.459836	2.13909									0.859654	3.9935				
0.597226	2.7563	0.461913	2.13948									0.861347	3.98412				
0.598809	2.75177	0.46399	2.13987									0.863034	3.97479				
0.600394	2.7473	0.466067	2.14025									0.864714	3.96551				
0.601982	2.74287	0.468145	2.14063									0.866389	3.95629				
0.603572	2.73849	0.470222	2.14101									0.868057	3.94711				
0.605165	2.73416	0.472299	2.14138									0.86972	3.93799				
0.60676	2.72987	0.474376	2.14175									0.871378	3.92892				
0.608358	2.72564	0.476454	2.14212									0.87303	3.9199				
0.609958	2.72144	0.478531	2.14249									0.874677	3.91094				
0.61156	2.7173	0.480608	2.14285									0.876318	3.90202				
0.613165	2.7132	0.482685	2.14321									0.877955	3.89316				
0.614772	2.70914	0.484762	2.14356									0.879587	3.88435				
0.616381	2.70512	0.486839	2.14391									0.881214	3.87559				
0.617993	2.70115	0.488916	2.14426									0.882836	3.86688				
0.619607	2.69722	0.490993	2.14461									0.884454	3.85822				
0.621224	2.69334	0.49307	2.14495									0.886068	3.84961				
0.622843	2.68949	0.495147	2.14529									0.887677	3.84106				
0.624464	2.68569	0.497224	2.14563									0.889282	3.83255				
0.626087	2.68192	0.499301	2.14596									0.890883	3.8241				
0.627713	2.6782	0.501378	2.14629									0.892481	3.81569				
0.629341	2.67451	0.503454	2.14662									0.894074	3.80734				
0.630971	2.67087	0.505531	2.14695									0.895664	3.79904				
0.632604	2.66726	0.507608	2.14727									0.89725	3.79078				
0.634239	2.66369	0.509685	2.14759									0.898832	3.78258				
0.635876	2.66015	0.511762	2.14791									0.900412	3.77443				
0.637515	2.65665	0.513838	2.14823									0.901988	3.76632				
0.639156	2.65319	0.515915	2.14854									0.90356	3.75827				
0.6408	2.64977	0.517992	2.14885									0.90513	3.75026				
0.642446	2.64638	0.520069	2.14916									0.906697	3.74231				
0.644094	2.64302	0.522145	2.14947									0.90826	3.7344				
0.645744	2.6397	0.524222	2.14977									0.909821	3.72654				
0.647396	2.63641	0.526299	2.15007									0.911379	3.71873				
0.64905	2.63316	0.528375	2.15037									0.912935	3.71097				
0.650707	2.62994	0.530452	2.15067									0.914487	3.70326				
0.652365	2.62675	0.532528	2.15096									0.916038	3.6956				
0.654026	2.6236	0.534605	2.15125									0.917586	3.68798				
0.655689	2.62047	0.536682	2.15154									0.919131	3.68041				
0.657354	2.61738	0.538758	2.15183									0.920675	3.67289				
0.659021	2.61432	0.540835	2.15211									0.922216	3.66541				
0.66069	2.61129	0.542911	2.1524									0.923755	3.65798				
0.662361	2.60829	0.544988	2.15268									0.925292	3.6506				
0.664034	2.60532	0.547064	2.15296									0.926827	3.64326				
0.665709	2.60238	0.54914	2.15323									0.92836	3.63597				
0.667386	2.59947	0.551217	2.15351									0.929891	3.62873				
0.669065	2.59658	0.553293	2.15378									0.93142	3.62153				
0.670746	2.59373	0.55537	2.15405									0.932948	3.61438				
0.672429	2.5909	0.557446	2.15432									0.934474	3.60727				
0.674114	2.5881	0.559522	2.15459									0.935999	3.60021				
0.675801	2.58533	0.561599	2.15485									0.937522	3.59319				
0.67749	2.58259	0.563675	2.15511									0.939044	3.58621				
0.679181	2.57987	0.565751	2.15537									0.940564	3.57928				
0.680873	2.57718	0.567828	2.15563									0.942083	3.5724				
0.682568	2.57452	0.569904	2.15589									0.9436	3.56555				
0.684264	2.57188	0.57198	2.15614									0.945117	3.55876				
0.685963	2.56926	0.574056	2.1564									0.946632	3.552				
0.687663	2.56667	0.576133	2.15665									0.948146	3.54529				
0.689365	2.56411	0.578209	2.1569									0.949659	3.53862				
0.691069	2.56157	0.580285	2.15714									0.951171	3.53199				
0.692775	2.55906	0.582361	2.15739									0.952682	3.5254				
0.694483	2.55657	0.584437	2.15763									0.954192	3.51886				
0.696192	2.5541	0.586513	2.15788									0.955701	3.51236				
0.697903	2.55166	0.588589	2.15812									0.95721	3.5059				
0.699616	2.54923	0.590666	2.15836									0.958717	3.49948				
0.701331	2.54684	0.592742	2.15859									0.960224	3.4931				
0.703048	2.54446	0.594818	2.15883									0.961731	3.48676				
0.704766	2.54211	0.596894	2.15906									0.963236	3.48046				
0.706486	2.53978	0.59897	2.1593									0.964741	3.4742				
0.708208	2.53747	0.601046	2.15953									0.966246	3.46798				
0.709932	2.53518	0.603122	2.15976									0.967749	3.46181				
0.711657	2.53292	0.605198	2.15998									0.969253	3.45567				
0.713384	2.53067	0.607274	2.16021									0.970756	3.44957				
0.715113	2.52845	0.60935	2.16043									0.972258	3.44351				
0.716843	2.52624	0.611426	2.16066									0.973761	3.43748				
0.718576	2.52406	0.613502	2.16088									0.975262	3.4315				
0.720309	2.5219	0.615578	2.1611									0.976764	3.42555				
0.722045	2.51975	0.617654	2.16132									0.978265	3.41964				
0.723782	2.51763	0.61973	2.16153									0.979766	3.41377				
0.725521	2.51552	0.621805	2.16175									0.981267	3.40794				
0.727261	2.51344	0.623881	2.16196									0.982768	3.40214				
0.729003	2.51137	0.625957	2.16218									0.984268	3.39638				
0.730746	2.50933	0.628033	2.16239									0.985769	3.39066				
0.732492	2.5073	0.630109	2.1626									0.987269	3.38497				
0.734238	2.50529	0.632185	2.16281									0.98877	3.37932				
0.735987	2.50329	0.63426	2.16301									0.99027	3.37371				
0.737737	2.50132	0.636336	2.16322									0.99177	3.36813				
0.739488	2.49936	0.638412	2.16342									0.993271	3.36258				
0.741241	2.49742	0.640488	2.16363									0.994771	3.35707				
0.742996	2.4955	0.642564	2.16383									0.996272	3.3516				
0.744752	2.4936	0.644639	2.16403									0.997772	3.34616				
0.746509	2.49171	0.646715	2.16423									0.999273	3.34075				
0.748268	2.48984	0.648791	2.16443									1.00077	3.33538				
0.750029	2.48798	0.650866	2.16462														
0.751791	2.48614	0.652942	2.16482														
0.753555	2.48432	0.655018	2.16501														
0.75532	2.48251	0.657093	2.1652														
0.757086	2.48072	0.659169	2.1654														
0.758855	2.47895	0.661245	2.16559														
0.760624	2.47719	0.66332	2.16578														
0.762395	2.47545	0.665396	2.16596														
0.764167	2.47372	0.667471	2.16615														
0.765941	2.472	0.669547	2.16634														
0.767716	2.47031	0.671623	2.16652														
0.769493	2.46862	0.673698	2.1667														
0.771271	2.46695	0.675774	2.16689														
0.77305	2.4653	0.677849	2.16707														
0.774831	2.46365	0.679925	2.16725														
0.776613	2.46203	0.682	2.16743														
0.778396	2.46041	0.684076	2.1676														
0.780181	2.45881	0.686151	2.16778														
0.781967	2.45723	0.688227	2.16796														
0.783755	2.45566	0.690302	2.16813														
0.785544	2.4541	0.692378	2.1683														
0.787334	2.45255	0.694453	2.16848														
0.789125	2.45102	0.696529	2.16865														
0.790918	2.4495	0.698604	2.16882														
0.792712	2.44799	0.700679	2.16899														
0.794508	2.4465	0.702755	2.16916														
0.796304	2.44501	0.70483	2.16932														
0.798102	2.44354	0.706906	2.16949														
0.799901	2.44209	0.708981	2.16966														
0.801702	2.44064	0.711056	2.16982														
0.803504	2.43921	0.713132	2.16998														
0.805307	2.43779	0.715207	2.17015														
0.807111	2.43638	0.717282	2.17031														
0.808916	2.43498	0.719358	2.17047														
0.810723	2.43359	0.721433	2.17063														
0.812531	2.43222	0.723508	2.17079														
0.81434	2.43085	0.725583	2.17095														
0.81615	2.4295	0.727659	2.1711														
0.817961	2.42816	0.729734	2.17126														
0.819774	2.42682	0.731809	2.17141														
0.821588	2.4255	0.733884	2.17157														
0.823403	2.42419	0.73596	2.17172														
0.825219	2.42289	0.738035	2.17187														
0.827036	2.42161	0.74011	2.17203														
0.828855	2.42033	0.742185	2.17218														
0.830674	2.41906	0.74426	2.17233														
0.832495	2.4178	0.746335	2.17247														
0.834317	2.41655	0.748411	2.17262														
0.83614	2.41532	0.750486	2.17277														
0.837964	2.41409	0.752561	2.17292														
0.839789	2.41287	0.754636	2.17306														
0.841615	2.41166	0.756711	2.17321														
0.843443	2.41046	0.758786	2.17335														
0.845271	2.40927	0.760861	2.1735														
0.847101	2.40809	0.762936	2.17364														
0.848931	2.40692	0.765011	2.17378														
0.850763	2.40576	0.767087	2.17392														
0.852596	2.40461	0.769162	2.17406														
0.854429	2.40346	0.771237	2.1742														
0.856264	2.40233	0.773312	2.17434														
0.8581	2.4012	0.775387	2.17448														
0.859937	2.40009	0.777462	2.17461														
0.861775	2.39898	0.779537	2.17475														
0.863614	2.39788	0.781612	2.17489														
0.865454	2.39679	0.783687	2.17502														
0.867295	2.3957	0.785762	2.17516														
0.869137	2.39463	0.787837	2.17529														
0.87098	2.39356	0.789912	2.17542														
0.872824	2.3925	0.791987	2.17555														
0.874669	2.39145	0.794061	2.17569														
0.876515	2.39041	0.796136	2.17582														
0.878362	2.38938	0.798211	2.17595														
0.88021	2.38835	0.800286	2.17608														
0.882059	2.38733	0.802361	2.17621														
0.883909	2.38632	0.804436	2.17633														
0.885759	2.38532	0.806511	2.17646														
0.887611	2.38432	0.808586	2.17659														
0.889464	2.38333	0.810661	2.17671														
0.891318	2.38235	0.812735	2.17684														
0.893172	2.38138	0.81481	2.17696														
0.895028	2.38041	0.816885	2.17709														
0.896884	2.37946	0.81896	2.17721														
0.898741	2.3785	0.821035	2.17733														
0.9006	2.37756	0.823109	2.17746														
0.902459	2.37662	0.825184	2.17758														
0.904319	2.37569	0.827259	2.1777														
0.90618	2.37477	0.829334	2.17782														
0.908042	2.37385	0.831408	2.17794														
0.909904	2.37294	0.833483	2.17806														
0.911768	2.37204	0.835558	2.17818														
0.913632	2.37114	0.837633	2.17829														
0.915498	2.37025	0.839707	2.17841														
0.917364	2.36937	0.841782	2.17853														
0.919231	2.36849	0.843857	2.17864														
0.921099	2.36762	0.845932	2.17876														
0.922968	2.36675	0.848006	2.17887														
0.924837	2.3659	0.850081	2.17899														
0.926708	2.36504	0.852156	2.1791														
0.928579	2.3642	0.85423	2.17922														
0.930451	2.36336	0.856305	2.17933														
0.932324	2.36252	0.85838	2.17944														
0.934198	2.3617	0.860454	2.17955														
0.936072	2.36087	0.862529	2.17966														
0.937948	2.36006	0.864603	2.17977														
0.939824	2.35925	0.866678	2.17988														
0.941701	2.35844	0.868753	2.17999														
0.943578	2.35765	0.870827	2.1801														
0.945457	2.35685	0.872902	2.18021														
0.947336	2.35607	0.874976	2.18032														
0.949216	2.35528	0.877051	2.18043														
0.951097	2.35451	0.879125	2.18053														
0.952979	2.35374	0.8812	2.18064														
0.954862	2.35297	0.883274	2.18074														
0.956745	2.35221	0.885349	2.18085														
0.958629	2.35146	0.887424	2.18095														
0.960513	2.35071	0.889498	2.18106														
0.962399	2.34997	0.891572	2.18116														
0.964285	2.34923	0.893647	2.18127														
0.966172	2.34849	0.895721	2.18137														
0.96806	2.34776	0.897796	2.18147														
0.969948	2.34704	0.89987	2.18157														
0.971838	2.34632	0.901945	2.18167														
0.973727	2.34561	0.904019	2.18177														
0.975618	2.3449	0.906094	2.18188														
0.977509	2.3442	0.908168	2.18198														
0.979402	2.3435	0.910243	2.18207														
0.981294	2.34281	0.912317	2.18217														
0.983188	2.34212	0.914391	2.18227														
0.985082	2.34143	0.916466	2.18237														
0.986977	2.34075	0.91854	2.18247														
0.988873	2.34008	0.920615	2.18256														
0.990769	2.33941	0.922689	2.18266														
0.992666	2.33874	0.924763	2.18276														
0.994563	2.33808	0.926838	2.18285														
0.996462	2.33742	0.928912	2.18295														
0.998361	2.33677	0.930986	2.18304														
1.00026	2.33612	0.933061	2.18314														
		0.935135	2.18323														
		0.937209	2.18333														
		0.939284	2.18342														
		0.941358	2.18351														
		0.943432	2.1836														
		0.945506	2.1837														
		0.947581	2.18379														
		0.949655	2.18388														
		0.951729	2.18397														
		0.953803	2.18406														
		0.955878	2.18415														
		0.957952	2.18424														
		0.960026	2.18433														
		0.9621	2.18442														
		0.964174	2.18451														
		0.966249	2.18459														
		0.968323	2.18468														
		0.970397	2.18477														
		0.972471	2.18486														
		0.974545	2.18494														
		0.97662	2.18503														
		0.978694	2.18511														
		0.980768	2.1852														
		0.982842	2.18528														
		0.984916	2.18537														
		0.98699	2.18545														
		0.989064	2.18554														
		0.991138	2.18562														
		0.993212	2.1857														
		0.995286	2.18579														
		0.997361	2.18587														
		0.999435	2.18595														
		1.00151	2.18603														
