Sym0		Asym0		Sym1		Sym2		Sym3		Sym4		Asym1		Asym2		Asym3	
466  Points		497  Points		223  Points		190  Points		177  Points		123  Points		328  Points		202  Points		165  Points	
Freq (MHz)	Vph (m/ms)	Freq (MHz)	Vph (m/ms)	Freq (MHz)	Vph (m/ms)	Freq (MHz)	Vph (m/ms)	Freq (MHz)	Vph (m/ms)	Freq (MHz)	Vph (m/ms)	Freq (MHz)	Vph (m/ms)	Freq (MHz)	Vph (m/ms)	Freq (MHz)	Vph (m/ms)
0.00153049	5.39086	4.97567e-005	0.0623536	0.279509	2277.33	0.478957	654.934	0.559023	1180.74	0.838535	1047.93	0.139767	416.34	0.419266	1233.39	0.698786	754.367
0.00655292	5.39069	0.000233461	0.134974	0.279553	265.122	0.478984	288.024	0.559067	397.871	0.838571	484.197	0.139941	110.415	0.419311	329.745	0.698831	376.117
0.0115751	5.39054	0.000550842	0.206977	0.279667	140.81	0.47903	184.619	0.559155	239.278	0.838632	314.852	0.140314	63.8053	0.419408	190.353	0.698906	250.53
0.0165967	5.3903	0.000999238	0.278102	0.279851	95.9109	0.479098	135.861	0.559288	171.113	0.838719	233.284	0.140885	44.9999	0.419558	133.83	0.699012	187.835
0.0216175	5.38997	0.00157509	0.348106	0.280104	72.7634	0.479185	107.487	0.559464	133.198	0.838833	185.297	0.141651	34.8681	0.419759	103.218	0.699147	150.254
0.0266373	5.38956	0.00227389	0.416734	0.280426	58.6517	0.479294	88.9264	0.559684	109.059	0.838973	153.696	0.142607	28.5546	0.420012	84.0291	0.699312	125.217
0.0316558	5.38907	0.00309029	0.483753	0.280817	49.1549	0.479424	75.8404	0.559948	92.3455	0.839138	131.313	0.143747	24.2575	0.420316	70.8785	0.699508	107.344
0.0366727	5.38848	0.0040185	0.548987	0.281277	42.3317	0.479574	66.1192	0.560256	80.0902	0.83933	114.63	0.145066	21.1541	0.420673	61.3065	0.699733	93.9468
0.041688	5.38781	0.00505229	0.612285	0.281805	37.1956	0.479746	58.6138	0.560607	70.7211	0.839547	101.717	0.146556	18.8152	0.42108	54.0298	0.699989	83.5321
0.0467011	5.38704	0.0061852	0.673532	0.2824	33.1924	0.479939	52.6448	0.561001	63.3277	0.839791	91.4263	0.148211	16.9948	0.42154	48.313	0.700274	75.2047
0.0517121	5.38619	0.00741056	0.732636	0.283062	29.9864	0.480154	47.7849	0.561439	57.3458	0.84006	83.0334	0.150023	15.5422	0.42205	43.7046	0.70059	68.3951
0.0567204	5.38525	0.00872174	0.789539	0.283791	27.3629	0.480392	43.7517	0.561919	52.4076	0.840355	76.0583	0.151985	14.3594	0.422611	39.912	0.700935	62.7237
0.0617259	5.38421	0.0101122	0.844207	0.284585	25.1777	0.480651	40.3514	0.562442	48.2626	0.840676	70.1703	0.154089	13.3804	0.423223	36.7372	0.70131	57.9276
0.0667283	5.38308	0.0115755	0.896633	0.285444	23.3306	0.480933	37.4461	0.563008	44.7347	0.841023	65.1339	0.156327	12.5587	0.423885	34.0416	0.701715	53.8193
0.0717273	5.38185	0.0131057	0.94683	0.286367	21.7497	0.481239	34.9356	0.563616	41.6963	0.841396	60.7773	0.158693	11.8609	0.424597	31.7251	0.702149	50.261
0.0767227	5.38052	0.014697	0.994829	0.287353	20.3823	0.481567	32.7447	0.564266	39.0526	0.841794	56.9719	0.161178	11.2624	0.42536	29.7135	0.702613	47.1497
0.081714	5.3791	0.0163438	1.04067	0.288402	19.1886	0.48192	30.8164	0.564958	36.7319	0.842219	53.6196	0.163437	10.8071	0.426171	27.9511	0.703106	44.4064
0.086701	5.37757	0.018041	1.0844	0.289511	18.1381	0.482296	29.1064	0.565691	34.6789	0.842668	50.6442	0.165426	10.46	0.427032	26.3946	0.703629	41.9698
0.0916834	5.37593	0.0197838	1.12609	0.290682	17.207	0.482698	27.5799	0.566466	32.8501	0.843144	47.9858	0.167115	10.1977	0.427942	25.0106	0.704182	39.7914
0.0966609	5.3742	0.0215679	1.16582	0.291911	16.3765	0.483124	26.209	0.567281	31.211	0.843645	45.5965	0.168476	10.0045	0.4289	23.7721	0.704763	37.8325
0.101633	5.37234	0.023389	1.20364	0.293199	15.6317	0.483576	24.9714	0.568137	29.7339	0.844171	43.4377	0.169492	9.86982	0.429906	22.6579	0.705374	36.0617
0.106599	5.37038	0.0252436	1.23964	0.294543	14.9603	0.484054	23.8487	0.569033	28.3962	0.844723	41.4776	0.170148	9.78668	0.43096	21.6503	0.706014	34.4533
0.11156	5.3683	0.0271281	1.2739	0.295944	14.3523	0.484559	22.8258	0.569969	27.1793	0.8453	39.6902	0.1711	9.67114	0.432061	20.7351	0.706683	32.9862
0.116514	5.3661	0.0290395	1.3065	0.2974	13.7994	0.485091	21.8901	0.570945	26.0677	0.845903	38.0537	0.172146	9.55063	0.43321	19.9004	0.707381	31.6426
0.121461	5.36378	0.0309749	1.33751	0.298909	13.2947	0.485651	21.0311	0.57196	25.0485	0.846531	36.5501	0.173587	9.39469	0.434404	19.1362	0.708108	30.4079
0.1264	5.36133	0.0329317	1.36701	0.300472	12.8324	0.486238	20.24	0.573014	24.1109	0.847184	35.1637	0.175438	9.2096	0.435645	18.4343	0.708863	29.2692
0.131332	5.35875	0.0349077	1.39508	0.302085	12.4076	0.486855	19.509	0.574107	23.2455	0.847862	33.8816	0.177718	9.00224	0.436931	17.7875	0.709647	28.2161
0.136256	5.35603	0.0369007	1.42179	0.303749	12.0161	0.487501	18.8318	0.575238	22.4446	0.848566	32.6925	0.180449	8.7795	0.438262	17.1897	0.710459	27.2394
0.141171	5.35318	0.0389088	1.44721	0.305462	11.6543	0.488178	18.2028	0.576407	21.7013	0.849294	31.5868	0.183654	8.54792	0.439638	16.6357	0.7113	26.331
0.146076	5.35017	0.0409304	1.47141	0.307223	11.3192	0.488885	17.6172	0.577613	21.0098	0.850047	30.556	0.186929	8.33877	0.441058	16.1211	0.712169	25.4842
0.150972	5.34702	0.0429638	1.49445	0.309031	11.0079	0.489623	17.0706	0.578856	20.3648	0.850825	29.5929	0.190272	8.14917	0.442521	15.6419	0.713066	24.6931
0.155857	5.34371	0.0447443	1.51364	0.310644	10.7543	0.490393	16.5596	0.580136	19.7621	0.851628	28.691	0.193677	7.97673	0.444028	15.1947	0.713991	23.9523
0.160731	5.34024	0.0462679	1.52937	0.312045	10.5501	0.491196	16.0808	0.581453	19.1977	0.852455	27.8449	0.197142	7.81939	0.445577	14.7766	0.714944	23.2573
0.165594	5.3366	0.0475313	1.54196	0.313223	10.3888	0.492032	15.6314	0.582806	18.6681	0.853307	27.0495	0.200663	7.67541	0.447168	14.3849	0.715924	22.6041
0.170444	5.33278	0.0485324	1.55166	0.314165	10.266	0.492902	15.2088	0.584194	18.1703	0.854184	26.3005	0.204237	7.54329	0.448801	14.0173	0.716932	21.9891
0.175281	5.32878	0.0492697	1.55865	0.314865	10.1782	0.493807	14.811	0.585618	17.7016	0.855085	25.5941	0.207861	7.42174	0.450474	13.6718	0.717967	21.4091
0.180104	5.32459	0.049742	1.56306	0.315315	10.1231	0.494747	14.4357	0.587076	17.2596	0.85601	24.9266	0.211532	7.30965	0.452188	13.3464	0.71903	20.8612
0.184912	5.32019	0.0504216	1.56932	0.315967	10.0453	0.495723	14.0814	0.588569	16.8422	0.856959	24.2951	0.215248	7.20604	0.453942	13.0396	0.72012	20.3429
0.189705	5.31559	0.051161	1.57601	0.31668	9.96254	0.496735	13.7464	0.590097	16.4474	0.857933	23.6968	0.219005	7.11006	0.455736	12.7499	0.721236	19.852
0.194481	5.31078	0.052168	1.58494	0.317658	9.85304	0.497785	13.4292	0.591658	16.0735	0.858931	23.1291	0.222802	7.02097	0.457568	12.4759	0.72238	19.3863
0.199239	5.30573	0.0534434	1.59594	0.318909	9.71931	0.498873	13.1286	0.593253	15.719	0.859952	22.5899	0.226637	6.93811	0.459439	12.2166	0.72355	18.944
0.203979	5.30044	0.0549886	1.60883	0.320442	9.5643	0.5	12.8433	0.594881	15.3824	0.860998	22.077	0.230507	6.8609	0.461347	11.9708	0.724746	18.5235
0.208699	5.29491	0.0568045	1.6234	0.322269	9.39123	0.501167	12.5724	0.596542	15.0624	0.862067	21.5887	0.234411	6.78883	0.463292	11.7375	0.725969	18.1232
0.213399	5.28912	0.0588924	1.63941	0.324401	9.20349	0.502373	12.3148	0.598235	14.758	0.86316	21.1232	0.238346	6.72143	0.465274	11.5159	0.727218	17.7417
0.218076	5.28305	0.060984	1.65472	0.326571	9.02646	0.50362	12.0697	0.59996	14.468	0.864276	20.679	0.242311	6.65832	0.467293	11.3051	0.728493	17.3778
0.22273	5.2767	0.0630789	1.66936	0.328779	8.85932	0.504909	11.8363	0.601717	14.1915	0.865416	20.2548	0.246305	6.59911	0.469346	11.1045	0.729794	17.0303
0.22736	5.27005	0.0651764	1.68336	0.331022	8.70133	0.50624	11.6139	0.603505	13.9277	0.866579	19.8492	0.250325	6.54348	0.471164	10.9374	0.73112	16.6982
0.231963	5.26308	0.0672763	1.69677	0.333302	8.55181	0.507614	11.4017	0.605324	13.6756	0.867765	19.461	0.254371	6.49115	0.472735	10.8004	0.732472	16.3805
0.236538	5.25579	0.0693781	1.70961	0.335616	8.41014	0.509031	11.1991	0.607174	13.4346	0.868974	19.0893	0.258441	6.44185	0.474048	10.6906	0.733849	16.0764
0.241084	5.24815	0.0714816	1.72191	0.337965	8.27579	0.510302	11.0301	0.609055	13.204	0.870207	18.733	0.262533	6.39533	0.475095	10.606	0.735251	15.7849
0.245599	5.24015	0.0735864	1.7337	0.340348	8.14825	0.511412	10.8911	0.610965	12.9832	0.871462	18.3911	0.266647	6.35139	0.47587	10.5449	0.736678	15.5054
0.250081	5.23178	0.0756923	1.74501	0.342765	8.02707	0.512348	10.7797	0.612905	12.7715	0.87274	18.0629	0.270781	6.30982	0.476369	10.5064	0.738129	15.2371
0.254528	5.22301	0.077799	1.75586	0.345216	7.91183	0.513101	10.6937	0.614874	12.5686	0.87404	17.7476	0.274934	6.27046	0.477088	10.4517	0.739606	14.9795
0.258938	5.21383	0.0799064	1.76629	0.3477	7.80217	0.513661	10.6317	0.616872	12.3738	0.875363	17.4445	0.279104	6.23313	0.477874	10.3932	0.741106	14.7319
0.26331	5.20423	0.0820143	1.7763	0.350218	7.69773	0.514023	10.5925	0.618899	12.1867	0.876709	17.1528	0.283292	6.1977	0.478949	10.315	0.742631	14.4938
0.267641	5.19418	0.0841226	1.78592	0.352769	7.59821	0.514547	10.5368	0.620955	12.0069	0.878077	16.872	0.287496	6.16402	0.48032	10.2186	0.74418	14.2646
0.271929	5.18366	0.0862311	1.79517	0.355354	7.50331	0.515122	10.4772	0.623038	11.8339	0.879467	16.6015	0.291714	6.13198	0.481995	10.1054	0.745752	14.044
0.276171	5.17267	0.0883396	1.80408	0.357974	7.41279	0.515914	10.3976	0.625149	11.6676	0.880878	16.3408	0.295947	6.10145	0.483982	9.97724	0.747348	13.8313
0.280366	5.16117	0.0904481	1.81265	0.360627	7.32639	0.516931	10.2993	0.627288	11.5074	0.882312	16.0893	0.300193	6.07235	0.486291	9.83592	0.748968	13.6264
0.284511	5.14916	0.0925565	1.8209	0.363316	7.24391	0.518185	10.1838	0.629453	11.3531	0.883768	15.8466	0.304451	6.04456	0.488631	9.70045	0.75061	13.4286
0.288604	5.13662	0.0946647	1.82886	0.366041	7.16513	0.519689	10.053	0.631362	11.2231	0.885245	15.6123	0.30872	6.01801	0.491001	9.57048	0.752276	13.2378
0.292642	5.12353	0.0967727	1.83652	0.368803	7.08989	0.521459	9.90863	0.633005	11.1156	0.886744	15.3859	0.313001	5.99261	0.493401	9.44573	0.753965	13.0535
0.296624	5.10989	0.0988804	1.84392	0.371602	7.018	0.523277	9.7702	0.634375	11.0288	0.888264	15.1671	0.317291	5.96828	0.49583	9.3259	0.755676	12.8754
0.300546	5.09567	0.100988	1.85106	0.37444	6.94932	0.525143	9.6374	0.635465	10.9615	0.889805	14.9555	0.32159	5.94497	0.498289	9.21072	0.75741	12.7033
0.304407	5.08088	0.103095	1.85795	0.377318	6.88369	0.527058	9.50993	0.636271	10.9128	0.891368	14.7507	0.325898	5.9226	0.500775	9.09997	0.759166	12.5368
0.308205	5.0655	0.105201	1.8646	0.380236	6.821	0.529021	9.38755	0.636788	10.8819	0.892951	14.5526	0.330214	5.90111	0.50329	8.9934	0.760943	12.3758
0.311938	5.04952	0.107307	1.87103	0.383197	6.76111	0.531034	9.27	0.637534	10.838	0.894556	14.3607	0.334537	5.88046	0.505831	8.8908	0.762743	12.2199
0.315604	5.03296	0.109413	1.87725	0.386201	6.70392	0.533096	9.15706	0.638348	10.7908	0.896181	14.1748	0.338866	5.86058	0.5084	8.79197	0.764565	12.0689
0.319201	5.0158	0.111518	1.88326	0.389251	6.64931	0.535207	9.04852	0.63946	10.7275	0.897827	13.9946	0.343202	5.84143	0.510995	8.69672	0.766408	11.9227
0.322729	4.99806	0.113623	1.88908	0.392346	6.59719	0.537368	8.94416	0.640875	10.649	0.899493	13.8198	0.347542	5.82297	0.513616	8.60489	0.768272	11.7809
0.326186	4.97974	0.115727	1.89471	0.395489	6.54746	0.539578	8.8438	0.642599	10.5562	0.90118	13.6503	0.351887	5.80516	0.516263	8.51629	0.770157	11.6435
0.329571	4.96086	0.11783	1.90017	0.39868	6.50003	0.541837	8.74726	0.644639	10.4504	0.902886	13.4859	0.356237	5.78794	0.518935	8.43079	0.771817	11.5271
0.332884	4.94143	0.119933	1.90545	0.401921	6.45483	0.544147	8.65437	0.647004	10.3326	0.904613	13.3262	0.36059	5.7713	0.521631	8.34823	0.773245	11.4302
0.335712	4.92406	0.122036	1.91058	0.405213	6.41176	0.546505	8.56496	0.649393	10.2187	0.90636	13.1712	0.364945	5.7552	0.524352	8.26848	0.774434	11.3518
0.338079	4.90894	0.124138	1.91554	0.408557	6.37074	0.548913	8.47889	0.651806	10.1085	0.908127	13.0206	0.369303	5.73959	0.527096	8.19142	0.775379	11.2907
0.340006	4.89624	0.126239	1.92036	0.411952	6.3317	0.551369	8.396	0.654243	10.0018	0.909913	12.8742	0.373663	5.72446	0.529864	8.1169	0.776078	11.2464
0.341511	4.88606	0.12834	1.92504	0.415401	6.29457	0.553875	8.31617	0.656704	9.89843	0.911719	12.7319	0.378024	5.70978	0.532655	8.04484	0.776526	11.2183
0.342606	4.87851	0.13044	1.92957	0.418902	6.25926	0.556428	8.23925	0.659189	9.79828	0.913544	12.5935	0.382386	5.69551	0.535469	7.97511	0.777172	11.1782
0.343302	4.87365	0.13254	1.93398	0.422457	6.2257	0.55903	8.16513	0.661697	9.7012	0.915388	12.4589	0.386749	5.68164	0.538305	7.90762	0.777877	11.135
0.344297	4.86662	0.134639	1.93826	0.426064	6.19381	0.561679	8.09369	0.664227	9.60708	0.917252	12.328	0.39111	5.66813	0.541162	7.84227	0.77884	11.0771
0.345369	4.85892	0.136738	1.94242	0.429724	6.16354	0.564376	8.02481	0.666781	9.51578	0.919134	12.2005	0.395471	5.65498	0.544042	7.77897	0.780064	11.0049
0.346813	4.84837	0.138836	1.94647	0.433435	6.13479	0.56712	7.95839	0.669357	9.4272	0.921036	12.0764	0.399831	5.64215	0.546943	7.71763	0.781555	10.9193
0.348615	4.83488	0.140934	1.9504	0.437198	6.1075	0.56991	7.89433	0.671956	9.34122	0.922956	11.9555	0.404189	5.62963	0.549864	7.65817	0.783318	10.8212
0.35076	4.81837	0.143032	1.95423	0.44101	6.08161	0.572745	7.83252	0.674576	9.25775	0.924644	11.8527	0.408544	5.6174	0.552806	7.60053	0.785359	10.7115
0.353227	4.79874	0.145128	1.95796	0.444871	6.05703	0.575626	7.77288	0.677219	9.17667	0.926094	11.7669	0.412897	5.60544	0.555769	7.54461	0.78742	10.6049
0.355995	4.7759	0.147225	1.96158	0.448779	6.0337	0.578551	7.71531	0.679883	9.09791	0.927301	11.6972	0.417246	5.59373	0.558751	7.49036	0.7895	10.5011
0.358698	4.75275	0.149321	1.96511	0.452733	6.01155	0.58152	7.65974	0.682568	9.02137	0.92826	11.6428	0.421592	5.58226	0.561754	7.43771	0.791599	10.4002
0.361337	4.72933	0.151416	1.96855	0.45673	5.99052	0.584533	7.60608	0.685275	8.94697	0.928968	11.6033	0.425933	5.57101	0.564775	7.3866	0.793716	10.3019
0.363914	4.70567	0.153511	1.97191	0.46077	5.97054	0.587588	7.55425	0.688002	8.87463	0.929423	11.5782	0.430269	5.55998	0.567816	7.33697	0.795853	10.2062
0.36643	4.68181	0.155606	1.97517	0.46485	5.95156	0.590685	7.50418	0.69075	8.80427	0.930078	11.5423	0.4346	5.54913	0.570876	7.28876	0.798008	10.113
0.368889	4.65778	0.1577	1.97836	0.468968	5.93351	0.593824	7.4558	0.693519	8.73582	0.930791	11.5037	0.438925	5.53847	0.573955	7.24192	0.800181	10.0222
0.371292	4.63361	0.159794	1.98147	0.473123	5.91633	0.597002	7.40904	0.696308	8.66921	0.931766	11.4517	0.443244	5.52797	0.577052	7.1964	0.802373	9.93372
0.373641	4.60933	0.161887	1.9845	0.477312	5.89998	0.600221	7.36384	0.699117	8.60437	0.933005	11.3868	0.447555	5.51763	0.580167	7.15215	0.804582	9.84749
0.375938	4.58497	0.16398	1.98746	0.481534	5.88439	0.603478	7.32013	0.701947	8.54125	0.934512	11.3096	0.45186	5.50744	0.5833	7.10912	0.806809	9.76342
0.378186	4.56057	0.166073	1.99034	0.485786	5.86953	0.606774	7.27785	0.704796	8.47979	0.936292	11.2209	0.456156	5.49737	0.586452	7.06728	0.809054	9.68143
0.380387	4.53614	0.168165	1.99316	0.490067	5.85534	0.610107	7.23696	0.707664	8.41992	0.938352	11.1214	0.460444	5.48744	0.589621	7.02657	0.811317	9.60145
0.382542	4.51172	0.170257	1.99592	0.494375	5.84177	0.613477	7.19739	0.710553	8.36159	0.940429	11.0243	0.464723	5.47761	0.592807	6.98697	0.813596	9.52342
0.384655	4.48732	0.172349	1.99861	0.498707	5.8288	0.616883	7.15909	0.71346	8.30475	0.942523	10.9295	0.468993	5.46789	0.596011	6.94843	0.815893	9.44728
0.386726	4.46297	0.17444	2.00124	0.503063	5.81637	0.620324	7.12202	0.716386	8.24935	0.944635	10.8369	0.473252	5.45826	0.599233	6.91092	0.818207	9.37295
0.388758	4.4387	0.176531	2.0038	0.507441	5.80446	0.623799	7.08612	0.719332	8.19534	0.946763	10.7465	0.477501	5.44872	0.602471	6.8744	0.820537	9.30039
0.390752	4.41451	0.178621	2.00632	0.511838	5.79302	0.627307	7.05134	0.722296	8.14268	0.948909	10.6581	0.481739	5.43925	0.605726	6.83885	0.822885	9.22953
0.392711	4.39043	0.180712	2.00877	0.516254	5.78203	0.630849	7.01766	0.725279	8.09132	0.951071	10.5718	0.485966	5.42985	0.608999	6.80422	0.825248	9.16031
0.394636	4.36647	0.182802	2.01118	0.520686	5.77145	0.634423	6.98502	0.72828	8.04122	0.953251	10.4874	0.49018	5.42051	0.612288	6.77049	0.827629	9.0927
0.39653	4.34265	0.184891	2.01353	0.525134	5.76125	0.638028	6.95338	0.7313	7.99235	0.955446	10.4049	0.494382	5.41123	0.615594	6.73763	0.830025	9.02663
0.398393	4.31898	0.186981	2.01583	0.529596	5.75142	0.641663	6.92271	0.734338	7.94465	0.957658	10.3242	0.498571	5.40198	0.618917	6.70562	0.832437	8.96206
0.400227	4.29548	0.18907	2.01808	0.534071	5.74191	0.645328	6.89296	0.737394	7.89811	0.959887	10.2453	0.502745	5.39278	0.622256	6.67442	0.834866	8.89894
0.402033	4.27215	0.191159	2.02028	0.538557	5.73272	0.649022	6.86411	0.740469	7.85267	0.962132	10.1682	0.506906	5.3836	0.625612	6.64402	0.83731	8.83723
0.403814	4.249	0.193247	2.02244	0.543054	5.72382	0.652745	6.83612	0.743561	7.80831	0.964392	10.0927	0.511052	5.37445	0.628984	6.61439	0.83977	8.77688
0.40557	4.22605	0.195335	2.02456	0.547559	5.71518	0.656495	6.80896	0.746671	7.765	0.966669	10.0188	0.515182	5.36532	0.632373	6.5855	0.842245	8.71786
0.407302	4.2033	0.197423	2.02663	0.552073	5.7068	0.660272	6.78259	0.749798	7.7227	0.968961	9.94653	0.519297	5.3562	0.635778	6.55734	0.844736	8.66013
0.409013	4.18076	0.199511	2.02866	0.556594	5.69865	0.664075	6.75699	0.752943	7.68138	0.971269	9.87577	0.523395	5.34709	0.6392	6.52988	0.847242	8.60364
0.410703	4.15843	0.201599	2.03065	0.56112	5.69071	0.667904	6.73212	0.756106	7.64102	0.973592	9.8065	0.527476	5.33797	0.642638	6.50311	0.849763	8.54836
0.412373	4.13632	0.203686	2.0326	0.565652	5.68297	0.671757	6.70797	0.759286	7.60158	0.975931	9.73866	0.53154	5.32885	0.646093	6.477	0.852299	8.49426
0.414025	4.11443	0.205773	2.03451	0.570188	5.67541	0.675635	6.6845	0.762484	7.56305	0.978285	9.67223	0.535586	5.31972	0.649564	6.45154	0.85485	8.4413
0.415658	4.09277	0.20786	2.03638	0.574727	5.66803	0.679536	6.66169	0.765699	7.52539	0.980655	9.60716	0.539613	5.31058	0.653051	6.42671	0.857416	8.38946
0.417276	4.07135	0.209947	2.03822	0.579269	5.66081	0.68346	6.63952	0.768931	7.48859	0.983039	9.5434	0.543621	5.30141	0.656555	6.40248	0.859996	8.33869
0.418877	4.05015	0.212033	2.04002	0.583812	5.65373	0.687406	6.61795	0.772181	7.45261	0.985438	9.48094	0.547609	5.29222	0.660075	6.37885	0.862591	8.28897
0.420464	4.0292	0.214119	2.04179	0.588357	5.64679	0.691374	6.59698	0.775447	7.41744	0.987851	9.41973	0.551577	5.283	0.663611	6.3558	0.865201	8.24027
0.422037	4.00848	0.216205	2.04353	0.592902	5.63998	0.695363	6.57657	0.778731	7.38305	0.99028	9.35973	0.555525	5.27375	0.667164	6.33332	0.867824	8.19256
0.423596	3.988	0.218291	2.04523	0.597446	5.63328	0.699372	6.55671	0.782032	7.34943	0.992723	9.30091	0.559451	5.26446	0.670733	6.31138	0.870462	8.14582
0.425143	3.96776	0.220377	2.04691	0.601989	5.62669	0.7034	6.53738	0.78535	7.31655	0.99518	9.24325	0.563356	5.25513	0.674319	6.28998	0.873115	8.10001
0.426678	3.94776	0.222462	2.04855	0.606531	5.6202	0.707448	6.51855	0.788685	7.28439	0.997651	9.18671	0.567238	5.24576	0.677921	6.26909	0.875781	8.05513
0.428203	3.92801	0.224548	2.05016	0.611071	5.6138	0.711514	6.50022	0.792037	7.25293	1.00014	9.13125	0.571098	5.23634	0.68154	6.24872	0.878461	8.01113
0.429717	3.90849	0.226633	2.05175	0.615607	5.60748	0.715599	6.48235	0.795406	7.22217			0.574935	5.22686	0.685175	6.22884	0.881155	7.968
0.431221	3.88922	0.228718	2.0533	0.62014	5.60124	0.7197	6.46494	0.798792	7.19207			0.578749	5.21734	0.688826	6.20943	0.883863	7.92571
0.432717	3.87018	0.230803	2.05483	0.62467	5.59506	0.723819	6.44798	0.802195	7.16262			0.582538	5.20776	0.692493	6.1905	0.886585	7.88425
0.434203	3.85139	0.232887	2.05633	0.629195	5.58895	0.727953	6.43143	0.805615	7.13382			0.586304	5.19813	0.696177	6.17203	0.88932	7.84358
0.435682	3.83283	0.234972	2.05781	0.633715	5.5829	0.732104	6.41529	0.809053	7.10563			0.590044	5.18843	0.699877	6.154	0.892069	7.8037
0.437153	3.8145	0.237056	2.05926	0.638229	5.57689	0.73627	6.39955	0.812507	7.07806			0.59376	5.17868	0.703593	6.1364	0.894832	7.76458
0.438617	3.79642	0.23914	2.06069	0.642738	5.57094	0.74045	6.38418	0.815979	7.05107			0.59745	5.16886	0.707326	6.11923	0.897607	7.72621
0.440075	3.77856	0.241224	2.06209	0.64724	5.56502	0.744644	6.36918	0.819468	7.02466			0.601114	5.15897	0.711074	6.10247	0.900397	7.68856
0.441527	3.76094	0.243308	2.06347	0.651736	5.55914	0.748852	6.35453	0.822974	6.99882			0.604752	5.14903	0.714838	6.08611	0.903199	7.65161
0.442973	3.74355	0.245392	2.06483	0.656224	5.55329	0.753073	6.34022	0.826498	6.97354			0.608364	5.13901	0.718618	6.07015	0.906015	7.61536
0.444414	3.72639	0.247475	2.06616	0.660705	5.54747	0.757306	6.32624	0.830039	6.94879			0.611949	5.12893	0.722414	6.05456	0.908844	7.57978
0.44585	3.70945	0.249559	2.06747	0.665178	5.54168	0.761552	6.31258	0.833598	6.92457			0.615507	5.11878	0.726225	6.03934	0.911686	7.54485
0.447281	3.69273	0.251642	2.06876	0.669643	5.5359	0.765809	6.29921	0.837174	6.90087			0.619038	5.10857	0.730052	6.02449	0.914541	7.51057
0.448709	3.67624	0.253725	2.07003	0.674098	5.53014	0.770077	6.28614	0.840768	6.87768			0.622542	5.09828	0.733894	6.00998	0.917409	7.47692
0.450132	3.65997	0.255808	2.07128	0.678545	5.5244	0.774355	6.27336	0.84438	6.85498			0.626019	5.08793	0.737751	5.99582	0.92029	7.44387
0.451553	3.64391	0.257891	2.07251	0.682982	5.51866	0.778644	6.26084	0.84801	6.83276			0.629467	5.07751	0.741623	5.98199	0.923184	7.41143
0.452969	3.62807	0.259974	2.07373	0.68741	5.51294	0.782942	6.24859	0.851658	6.81102			0.632888	5.06703	0.745509	5.96849	0.926091	7.37957
0.454384	3.61243	0.262057	2.07492	0.691827	5.50721	0.787248	6.23659	0.855324	6.78975			0.636281	5.05647	0.74941	5.9553	0.92901	7.34827
0.455795	3.59701	0.264139	2.07609	0.696234	5.50149	0.791564	6.22483	0.859008	6.76893			0.639647	5.04586	0.753325	5.94241	0.931943	7.31754
0.457204	3.5818	0.266222	2.07725	0.70063	5.49577	0.795887	6.21331	0.862711	6.74856			0.642984	5.03518	0.757254	5.92982	0.934888	7.28736
0.458612	3.56679	0.268304	2.07839	0.705015	5.49004	0.800218	6.20201	0.866432	6.72863			0.646293	5.02443	0.761197	5.91752	0.937846	7.2577
0.460017	3.55198	0.270386	2.07951	0.709389	5.48431	0.804556	6.19092	0.870172	6.70913			0.649574	5.01362	0.765153	5.9055	0.940816	7.22857
0.461421	3.53737	0.272468	2.08061	0.713751	5.47857	0.808901	6.18005	0.87393	6.69006			0.652827	5.00276	0.769122	5.89376	0.943799	7.19995
0.462823	3.52296	0.27455	2.0817	0.718101	5.47282	0.813252	6.16937	0.877708	6.67139			0.656052	4.99183	0.773104	5.88227	0.946795	7.17183
0.464224	3.50874	0.276632	2.08277	0.722439	5.46706	0.817608	6.15889	0.881505	6.65313			0.659249	4.98085	0.777098	5.87104	0.949803	7.14419
0.465624	3.49471	0.278714	2.08383	0.726765	5.46129	0.821969	6.14859	0.88532	6.63528			0.662419	4.96981	0.781104	5.86006	0.952823	7.11704
0.467024	3.48087	0.280796	2.08487	0.731077	5.4555	0.826336	6.13847	0.889156	6.61781			0.66556	4.95871	0.785122	5.84932	0.955856	7.09035
0.468422	3.46722	0.282877	2.0859	0.735377	5.4497	0.830706	6.12852	0.89301	6.60073			0.668674	4.94757	0.789151	5.83881	0.958902	7.06412
0.469821	3.45375	0.284959	2.08691	0.739663	5.44388	0.83508	6.11873	0.896885	6.58402			0.67176	4.93637	0.793192	5.82853	0.96196	7.03834
0.471219	3.44047	0.28704	2.08791	0.743936	5.43803	0.839458	6.10911	0.900779	6.56769			0.674818	4.92513	0.797243	5.81846	0.96503	7.01299
0.472617	3.42736	0.289122	2.08889	0.748195	5.43217	0.843839	6.09963	0.904693	6.55172			0.67785	4.91384	0.801305	5.80861	0.968112	6.98808
0.474015	3.41443	0.291203	2.08986	0.75244	5.42628	0.848222	6.09029	0.908628	6.53611			0.680854	4.90251	0.805376	5.79895	0.971207	6.96359
0.475413	3.40167	0.293284	2.09081	0.756671	5.42038	0.852607	6.0811	0.912582	6.52086			0.683831	4.89113	0.809457	5.7895	0.974314	6.9395
0.476811	3.38908	0.295365	2.09176	0.760887	5.41444	0.856994	6.07204	0.916557	6.50595			0.686782	4.87972	0.813547	5.78023	0.977433	6.91583
0.47821	3.37667	0.297446	2.09269	0.765089	5.40848	0.861383	6.06311	0.920552	6.49137			0.689705	4.86826	0.817646	5.77115	0.980564	6.89255
0.47961	3.36441	0.299527	2.0936	0.769276	5.4025	0.865772	6.0543	0.924568	6.47714			0.692603	4.85678	0.821753	5.76225	0.983708	6.86965
0.48101	3.35233	0.301608	2.09451	0.773447	5.39649	0.870162	6.04561	0.928604	6.46323			0.695475	4.84526	0.825868	5.75352	0.986863	6.84714
0.482411	3.3404	0.303689	2.0954	0.777604	5.39045	0.874552	6.03703	0.932661	6.44964			0.69832	4.83371	0.829991	5.74495	0.990031	6.825
0.483813	3.32863	0.30577	2.09628	0.781745	5.38438	0.878942	6.02856	0.936739	6.43637			0.70114	4.82213	0.834121	5.73654	0.99321	6.80322
0.485216	3.31702	0.30785	2.09715	0.78587	5.37828	0.883331	6.0202	0.940838	6.42341			0.703935	4.81052	0.838257	5.72828	0.996402	6.7818
0.48662	3.30557	0.309931	2.09801	0.78998	5.37215	0.88772	6.01194	0.944957	6.41076			0.706704	4.79889	0.8424	5.72018	0.999605	6.76073
0.488025	3.29426	0.312011	2.09885	0.794073	5.36599	0.892108	6.00377	0.949098	6.39841			0.709449	4.78724	0.846549	5.71221	1.00282	6.74001
0.489432	3.28311	0.314092	2.09969	0.798151	5.35979	0.896494	5.9957	0.953259	6.38635			0.712169	4.77558	0.850703	5.70438		
0.490839	3.2721	0.316172	2.10051	0.802212	5.35357	0.900879	5.98771	0.957442	6.37458			0.714865	4.76389	0.854863	5.69668		
0.492249	3.26124	0.318253	2.10133	0.806256	5.34731	0.905262	5.97981	0.961645	6.36309			0.717537	4.75219	0.859027	5.68911		
0.493659	3.25053	0.320333	2.10213	0.810284	5.34102	0.909643	5.97199	0.965869	6.35189			0.720185	4.74048	0.863196	5.68166		
0.495072	3.23995	0.322413	2.10292	0.814295	5.3347	0.914021	5.96426	0.970115	6.34095			0.72281	4.72875	0.867368	5.67433		
0.496486	3.22951	0.324493	2.10371	0.818289	5.32835	0.918397	5.9566	0.97438	6.33028			0.725411	4.71702	0.871545	5.6671		
0.497902	3.21921	0.326573	2.10448	0.822267	5.32196	0.922771	5.94902	0.978667	6.31988			0.72799	4.70528	0.875724	5.65999		
0.499319	3.20905	0.328653	2.10524	0.826227	5.31553	0.927141	5.9415	0.982974	6.30973			0.730546	4.69354	0.879906	5.65298		
0.500739	3.19901	0.330733	2.106	0.83017	5.30908	0.931509	5.93406	0.987302	6.29983			0.73308	4.6818	0.88409	5.64607		
0.50216	3.18911	0.332813	2.10674	0.834095	5.30259	0.935873	5.92669	0.991649	6.29018			0.735593	4.67005	0.888277	5.63925		
0.503583	3.17934	0.334892	2.10748	0.838003	5.29606	0.940234	5.91938	0.996017	6.28077			0.738083	4.65831	0.892465	5.63252		
0.505009	3.16969	0.336972	2.10821	0.841893	5.2895	0.944592	5.91214	1.00041	6.27159			0.740552	4.64657	0.896654	5.62588		
0.506436	3.16017	0.339052	2.10892	0.845766	5.28291	0.948946	5.90496					0.743	4.63484	0.900845	5.61932		
0.507865	3.15077	0.341131	2.10963	0.849621	5.27628	0.953297	5.89784					0.745428	4.62311	0.905035	5.61284		
0.509297	3.1415	0.343211	2.11034	0.853458	5.26962	0.957645	5.89078					0.747835	4.6114	0.909227	5.60644		
0.510731	3.13234	0.345291	2.11103	0.857277	5.26292	0.961989	5.88378					0.750222	4.59969	0.913417	5.60011		
0.512167	3.1233	0.34737	2.11171	0.861078	5.2562	0.966329	5.87684					0.75259	4.588	0.917608	5.59385		
0.513605	3.11437	0.349449	2.11239	0.864861	5.24943	0.970666	5.86995					0.754937	4.57632	0.921797	5.58765		
0.515046	3.10556	0.351529	2.11306	0.868626	5.24264	0.974999	5.86312					0.757266	4.56465	0.925985	5.58152		
0.516488	3.09686	0.353608	2.11372	0.872373	5.23581	0.979329	5.85635					0.759576	4.55301	0.930172	5.57544		
0.517933	3.08828	0.355687	2.11437	0.876102	5.22895	0.983655	5.84963					0.761868	4.54138	0.934357	5.56942		
0.519381	3.0798	0.357766	2.11502	0.879813	5.22206	0.987978	5.84296					0.764141	4.52977	0.93854	5.56346		
0.520831	3.07143	0.359846	2.11566	0.883505	5.21514	0.992297	5.83634					0.766396	4.51819	0.94272	5.55754		
0.522283	3.06316	0.361925	2.11629	0.887179	5.20818	0.996613	5.82978					0.768633	4.50662	0.946897	5.55167		
0.523738	3.055	0.364004	2.11691	0.890835	5.20119	1.00092	5.82327					0.770854	4.49509	0.951071	5.54585		
0.525195	3.04694	0.366083	2.11753	0.894472	5.19418							0.773057	4.48358	0.955242	5.54007		
0.526655	3.03898	0.368162	2.11814	0.898092	5.18713							0.775244	4.47209	0.959409	5.53434		
0.528117	3.03113	0.370241	2.11874	0.901692	5.18005							0.777414	4.46064	0.963571	5.52864		
0.529582	3.02337	0.372319	2.11934	0.905275	5.17294							0.779568	4.44921	0.96773	5.52297		
0.531049	3.0157	0.374398	2.11993	0.908839	5.16581							0.781706	4.43781	0.971884	5.51734		
0.532519	3.00813	0.376477	2.12051	0.912385	5.15865							0.783828	4.42645	0.976033	5.51174		
0.533991	3.00066	0.378556	2.12109	0.915913	5.15145							0.785935	4.41512	0.980176	5.50617		
0.535466	2.99327	0.380634	2.12166	0.919423	5.14424							0.788027	4.40382	0.984314	5.50063		
0.536944	2.98598	0.382713	2.12223	0.922914	5.13699							0.790105	4.39256	0.988447	5.49511		
0.538424	2.97878	0.384792	2.12279	0.926387	5.12972							0.792168	4.38134	0.992573	5.48962		
0.539907	2.97167	0.38687	2.12334	0.929842	5.12243							0.794216	4.37015	0.996693	5.48414		
0.541392	2.96464	0.388949	2.12389	0.933279	5.1151							0.796251	4.359	1.00081	5.47869		
0.54288	2.9577	0.391027	2.12443	0.936697	5.10776							0.798272	4.34789				
0.544371	2.95084	0.393106	2.12496	0.940098	5.10039							0.80028	4.33681				
0.545864	2.94406	0.395184	2.12549	0.943481	5.093							0.802275	4.32578				
0.54736	2.93737	0.397262	2.12602	0.946846	5.08559							0.804257	4.31479				
0.548858	2.93076	0.399341	2.12654	0.950193	5.07815							0.806226	4.30384				
0.550359	2.92423	0.401419	2.12705	0.953522	5.07069							0.808182	4.29294				
0.551863	2.91777	0.403497	2.12756	0.956833	5.06322							0.810127	4.28207				
0.55337	2.9114	0.405576	2.12806	0.960127	5.05572							0.81206	4.27126				
0.554879	2.90509	0.407654	2.12856	0.963403	5.0482							0.813981	4.26048				
0.55639	2.89887	0.409732	2.12906	0.966661	5.04067							0.81589	4.24975				
0.557905	2.89272	0.41181	2.12955	0.969902	5.03312							0.817789	4.23907				
0.559422	2.88664	0.413888	2.13003	0.973126	5.02555							0.819677	4.22843				
0.560941	2.88063	0.415966	2.13051	0.976332	5.01796							0.821553	4.21784				
0.562463	2.87469	0.418044	2.13098	0.979521	5.01036							0.82342	4.2073				
0.563988	2.86883	0.420122	2.13145	0.982692	5.00274							0.825276	4.19681				
0.565516	2.86303	0.4222	2.13192	0.985847	4.99511							0.827122	4.18636				
0.567046	2.8573	0.424278	2.13238	0.988984	4.98746							0.828958	4.17596				
0.568579	2.85163	0.426356	2.13283	0.992105	4.9798							0.830785	4.16561				
0.570114	2.84603	0.428434	2.13328	0.995208	4.97212							0.832602	4.15531				
0.571652	2.8405	0.430512	2.13373	0.998295	4.96444							0.83441	4.14506				
0.573193	2.83503	0.432589	2.13418	1.00137	4.95674							0.836209	4.13486				
0.574736	2.82962	0.434667	2.13461									0.837999	4.12471				
0.576282	2.82428	0.436745	2.13505									0.839781	4.11461				
0.57783	2.819	0.438823	2.13548									0.841554	4.10456				
0.579381	2.81377	0.4409	2.13591									0.843319	4.09456				
0.580935	2.80861	0.442978	2.13633									0.845076	4.08461				
0.582491	2.80351	0.445056	2.13675									0.846825	4.07472				
0.58405	2.79846	0.447133	2.13716									0.848567	4.06488				
0.585611	2.79347	0.449211	2.13757									0.850301	4.05508				
0.587175	2.78854	0.451288	2.13798									0.852027	4.04534				
0.588741	2.78366	0.453366	2.13838									0.853747	4.03565				
0.59031	2.77883	0.455443	2.13878									0.855459	4.02602				
0.591881	2.77406	0.457521	2.13918									0.857165	4.01643				
0.593455	2.76935	0.459598	2.13957									0.858864	4.0069				
0.595032	2.76468	0.461676	2.13996									0.860556	3.99742				
0.596611	2.76007	0.463753	2.14035									0.862242	3.988				
0.598192	2.75551	0.46583	2.14073									0.863922	3.97862				
0.599776	2.751	0.467908	2.14111									0.865596	3.9693				
0.601362	2.74654	0.469985	2.14149									0.867265	3.96003				
0.602951	2.74213	0.472062	2.14186									0.868927	3.95081				
0.604542	2.73776	0.47414	2.14223									0.870584	3.94165				
0.606136	2.73345	0.476217	2.14259									0.872235	3.93254				
0.607732	2.72918	0.478294	2.14296									0.873881	3.92348				
0.609331	2.72496	0.480371	2.14332									0.875522	3.91447				
0.610932	2.72078	0.482448	2.14367									0.877157	3.90551				
0.612535	2.71665	0.484526	2.14403									0.878788	3.89661				
0.614141	2.71256	0.486603	2.14438									0.880414	3.88776				
0.615749	2.70852	0.48868	2.14472									0.882036	3.87896				
0.617359	2.70452	0.490757	2.14507									0.883653	3.87021				
0.618972	2.70056	0.492834	2.14541									0.885265	3.86152				
0.620587	2.69664	0.494911	2.14575									0.886873	3.85287				
0.622204	2.69277	0.496988	2.14609									0.888477	3.84428				
0.623824	2.68894	0.499065	2.14642									0.890077	3.83574				
0.625446	2.68515	0.501142	2.14675									0.891673	3.82725				
0.627071	2.6814	0.503219	2.14708									0.893265	3.81881				
0.628697	2.67768	0.505296	2.1474									0.894854	3.81043				
0.630326	2.67401	0.507373	2.14772									0.896438	3.80209				
0.631957	2.67037	0.509449	2.14804									0.898019	3.79381				
0.633591	2.66678	0.511526	2.14836									0.899597	3.78557				
0.635226	2.66322	0.513603	2.14868									0.901172	3.77739				
0.636864	2.6597	0.51568	2.14899									0.902743	3.76925				
0.638504	2.65621	0.517757	2.1493									0.904311	3.76117				
0.640147	2.65276	0.519834	2.14961									0.905876	3.75313				
0.641791	2.64935	0.52191	2.14991									0.907438	3.74515				
0.643438	2.64597	0.523987	2.15021									0.908997	3.73721				
0.645087	2.64262	0.526064	2.15051									0.910553	3.72933				
0.646738	2.63931	0.528141	2.15081									0.912107	3.72149				
0.648391	2.63604	0.530217	2.15111									0.913658	3.7137				
0.650046	2.63279	0.532294	2.1514									0.915207	3.70596				
0.651703	2.62958	0.534371	2.15169									0.916753	3.69827				
0.653363	2.62641	0.536447	2.15198									0.918297	3.69063				
0.655024	2.62326	0.538524	2.15226									0.919838	3.68303				
0.656688	2.62015	0.5406	2.15255									0.921378	3.67548				
0.658354	2.61706	0.542677	2.15283									0.922915	3.66798				
0.660022	2.61401	0.544753	2.15311									0.92445	3.66053				
0.661691	2.61099	0.54683	2.15339									0.925983	3.65312				
0.663363	2.608	0.548907	2.15366									0.927514	3.64576				
0.665037	2.60504	0.550983	2.15394									0.929043	3.63845				
0.666713	2.60211	0.55306	2.15421									0.930571	3.63118				
0.668391	2.5992	0.555136	2.15448									0.932097	3.62396				
0.670071	2.59633	0.557212	2.15474									0.933621	3.61678				
0.671753	2.59348	0.559289	2.15501									0.935143	3.60965				
0.673437	2.59067	0.561365	2.15527									0.936664	3.60257				
0.675123	2.58788	0.563442	2.15553									0.938184	3.59553				
0.67681	2.58511	0.565518	2.15579									0.939702	3.58853				
0.6785	2.58238	0.567594	2.15605									0.941219	3.58158				
0.680192	2.57967	0.569671	2.15631									0.942735	3.57468				
0.681885	2.57699	0.571747	2.15656									0.944249	3.56781				
0.683581	2.57433	0.573823	2.15681									0.945762	3.56099				
0.685278	2.5717	0.5759	2.15706									0.947274	3.55422				
0.686977	2.56909	0.577976	2.15731									0.948785	3.54749				
0.688678	2.56651	0.580052	2.15756									0.950295	3.5408				
0.690381	2.56395	0.582129	2.1578									0.951804	3.53415				
0.692086	2.56142	0.584205	2.15805									0.953312	3.52755				
0.693793	2.55892	0.586281	2.15829									0.954819	3.52098				
0.695501	2.55643	0.588357	2.15853									0.956325	3.51446				
0.697211	2.55397	0.590433	2.15877									0.95783	3.50799				
0.698924	2.55154	0.59251	2.159									0.959335	3.50155				
0.700637	2.54912	0.594586	2.15924									0.960839	3.49515				
0.702353	2.54673	0.596662	2.15947									0.962343	3.4888				
0.70407	2.54436	0.598738	2.1597									0.963845	3.48248				
0.70579	2.54202	0.600814	2.15993									0.965348	3.47621				
0.70751	2.53969	0.60289	2.16016									0.966849	3.46997				
0.709233	2.53739	0.604966	2.16039									0.96835	3.46378				
0.710957	2.53511	0.607042	2.16061									0.969851	3.45762				
0.712684	2.53285	0.609119	2.16083									0.971352	3.45151				
0.714411	2.53061	0.611195	2.16106									0.972851	3.44543				
0.716141	2.52839	0.613271	2.16128									0.974351	3.43939				
0.717872	2.52619	0.615347	2.1615									0.97585	3.4334				
0.719605	2.52402	0.617423	2.16171									0.97735	3.42743				
0.721339	2.52186	0.619499	2.16193									0.978848	3.42151				
0.723076	2.51972	0.621575	2.16215									0.980347	3.41563				
0.724813	2.5176	0.623651	2.16236									0.981845	3.40978				
0.726553	2.5155	0.625726	2.16257									0.983344	3.40397				
0.728294	2.51342	0.627802	2.16278									0.984842	3.39819				
0.730037	2.51136	0.629878	2.16299									0.98634	3.39246				
0.731781	2.50932	0.631954	2.1632									0.987838	3.38676				
0.733527	2.5073	0.63403	2.1634									0.989336	3.38109				
0.735274	2.50529	0.636106	2.16361									0.990834	3.37546				
0.737023	2.50331	0.638182	2.16381									0.992332	3.36987				
0.738774	2.50134	0.640258	2.16401									0.993831	3.36432				
0.740526	2.49938	0.642334	2.16422									0.995329	3.35879				
0.74228	2.49745	0.644409	2.16441									0.996827	3.35331				
0.744035	2.49553	0.646485	2.16461									0.998326	3.34786				
0.745792	2.49363	0.648561	2.16481									0.999825	3.34244				
0.74755	2.49175	0.650637	2.16501									1.00132	3.33706				
0.74931	2.48988	0.652713	2.1652														
0.751071	2.48803	0.654788	2.16539														
0.752834	2.4862	0.656864	2.16559														
0.754598	2.48438	0.65894	2.16578														
0.756364	2.48258	0.661016	2.16597														
0.758131	2.48079	0.663091	2.16616														
0.7599	2.47902	0.665167	2.16634														
0.76167	2.47727	0.667243	2.16653														
0.763442	2.47553	0.669318	2.16671														
0.765215	2.4738	0.671394	2.1669														
0.766989	2.47209	0.67347	2.16708														
0.768765	2.4704	0.675545	2.16726														
0.770542	2.46872	0.677621	2.16744														
0.772321	2.46705	0.679697	2.16762														
0.774101	2.4654	0.681772	2.1678														
0.775882	2.46377	0.683848	2.16798														
0.777665	2.46214	0.685923	2.16815														
0.779449	2.46053	0.687999	2.16833														
0.781235	2.45894	0.690075	2.1685														
0.783021	2.45735	0.69215	2.16867														
0.78481	2.45579	0.694226	2.16885														
0.786599	2.45423	0.696301	2.16902														
0.78839	2.45269	0.698377	2.16919														
0.790182	2.45116	0.700452	2.16936														
0.791975	2.44964	0.702528	2.16952														
0.79377	2.44814	0.704603	2.16969														
0.795566	2.44665	0.706679	2.16986														
0.797363	2.44517	0.708754	2.17002														
0.799162	2.4437	0.710829	2.17018														
0.800962	2.44225	0.712905	2.17035														
0.802763	2.4408	0.71498	2.17051														
0.804565	2.43937	0.717056	2.17067														
0.806368	2.43795	0.719131	2.17083														
0.808173	2.43655	0.721207	2.17099														
0.809979	2.43515	0.723282	2.17115														
0.811786	2.43377	0.725357	2.1713														
0.813595	2.4324	0.727433	2.17146														
0.815404	2.43103	0.729508	2.17162														
0.817215	2.42968	0.731583	2.17177														
0.819027	2.42834	0.733659	2.17192														
0.82084	2.42702	0.735734	2.17208														
0.822655	2.4257	0.737809	2.17223														
0.82447	2.42439	0.739885	2.17238														
0.826287	2.4231	0.74196	2.17253														
0.828105	2.42181	0.744035	2.17268														
0.829924	2.42053	0.74611	2.17283														
0.831744	2.41927	0.748186	2.17298														
0.833565	2.41801	0.750261	2.17312														
0.835388	2.41677	0.752336	2.17327														
0.837211	2.41553	0.754411	2.17341														
0.839036	2.41431	0.756487	2.17356														
0.840861	2.41309	0.758562	2.1737														
0.842688	2.41188	0.760637	2.17384														
0.844516	2.41069	0.762712	2.17399														
0.846345	2.4095	0.764787	2.17413														
0.848175	2.40832	0.766862	2.17427														
0.850006	2.40715	0.768938	2.17441														
0.851839	2.40599	0.771013	2.17455														
0.853672	2.40484	0.773088	2.17468														
0.855506	2.4037	0.775163	2.17482														
0.857341	2.40257	0.777238	2.17496														
0.859178	2.40145	0.779313	2.17509														
0.861015	2.40033	0.781388	2.17523														
0.862854	2.39922	0.783463	2.17536														
0.864693	2.39813	0.785538	2.1755														
0.866534	2.39704	0.787614	2.17563														
0.868375	2.39596	0.789689	2.17576														
0.870218	2.39488	0.791764	2.17589														
0.872061	2.39382	0.793839	2.17603														
0.873906	2.39276	0.795914	2.17616														
0.875751	2.39171	0.797989	2.17629														
0.877598	2.39067	0.800064	2.17641														
0.879445	2.38964	0.802139	2.17654														
0.881294	2.38862	0.804214	2.17667														
0.883143	2.3876	0.806289	2.1768														
0.884993	2.38659	0.808364	2.17692														
0.886845	2.38559	0.810439	2.17705														
0.888697	2.3846	0.812513	2.17717														
0.89055	2.38361	0.814588	2.1773														
0.892404	2.38263	0.816663	2.17742														
0.894259	2.38166	0.818738	2.17754														
0.896115	2.38069	0.820813	2.17767														
0.897972	2.37974	0.822888	2.17779														
0.89983	2.37879	0.824963	2.17791														
0.901689	2.37784	0.827038	2.17803														
0.903548	2.37691	0.829113	2.17815														
0.905409	2.37598	0.831188	2.17827														
0.90727	2.37506	0.833262	2.17839														
0.909132	2.37414	0.835337	2.17851														
0.910995	2.37323	0.837412	2.17862														
0.912859	2.37233	0.839487	2.17874														
0.914724	2.37143	0.841562	2.17886														
0.91659	2.37055	0.843637	2.17897														
0.918457	2.36966	0.845711	2.17909														
0.920324	2.36879	0.847786	2.1792														
0.922193	2.36792	0.849861	2.17932														
0.924062	2.36705	0.851936	2.17943														
0.925932	2.3662	0.85401	2.17954														
0.927803	2.36535	0.856085	2.17965														
0.929674	2.3645	0.85816	2.17977														
0.931547	2.36366	0.860235	2.17988														
0.93342	2.36283	0.862309	2.17999														
0.935294	2.36201	0.864384	2.1801														
0.937169	2.36118	0.866459	2.18021														
0.939045	2.36037	0.868534	2.18032														
0.940922	2.35956	0.870608	2.18042														
0.942799	2.35876	0.872683	2.18053														
0.944677	2.35796	0.874758	2.18064														
0.946556	2.35717	0.876832	2.18075														
0.948436	2.35638	0.878907	2.18085														
0.950317	2.3556	0.880982	2.18096														
0.952198	2.35483	0.883056	2.18106														
0.95408	2.35406	0.885131	2.18117														
0.955963	2.35329	0.887206	2.18127														
0.957847	2.35253	0.88928	2.18138														
0.959731	2.35178	0.891355	2.18148														
0.961616	2.35103	0.893429	2.18158														
0.963502	2.35029	0.895504	2.18169														
0.965389	2.34955	0.897578	2.18179														
0.967276	2.34882	0.899653	2.18189														
0.969164	2.34809	0.901728	2.18199														
0.971053	2.34737	0.903802	2.18209														
0.972942	2.34665	0.905877	2.18219														
0.974833	2.34594	0.907951	2.18229														
0.976724	2.34523	0.910026	2.18239														
0.978616	2.34453	0.9121	2.18249														
0.980508	2.34383	0.914175	2.18259														
0.982401	2.34314	0.916249	2.18268														
0.984295	2.34245	0.918324	2.18278														
0.98619	2.34177	0.920398	2.18288														
0.988085	2.34109	0.922473	2.18297														
0.989981	2.34041	0.924547	2.18307														
0.991878	2.33974	0.926622	2.18316														
0.993775	2.33908	0.928696	2.18326														
0.995673	2.33842	0.930771	2.18335														
0.997572	2.33776	0.932845	2.18345														
0.999471	2.33711	0.934919	2.18354														
1.00137	2.33646	0.936994	2.18364														
		0.939068	2.18373														
		0.941143	2.18382														
		0.943217	2.18391														
		0.945291	2.184														
		0.947366	2.1841														
		0.94944	2.18419														
		0.951515	2.18428														
		0.953589	2.18437														
		0.955663	2.18446														
		0.957738	2.18455														
		0.959812	2.18463														
		0.961886	2.18472														
		0.963961	2.18481														
		0.966035	2.1849														
		0.968109	2.18499														
		0.970183	2.18507														
		0.972258	2.18516														
		0.974332	2.18524														
		0.976406	2.18533														
		0.978481	2.18542														
		0.980555	2.1855														
		0.982629	2.18558														
		0.984703	2.18567														
		0.986778	2.18575														
		0.988852	2.18584														
		0.990926	2.18592														
		0.993	2.186														
		0.995074	2.18608														
		0.997149	2.18617														
		0.999223	2.18625														
		1.0013	2.18633														
