Sym0		Asym0		Sym1		Sym2		Sym3		Sym4		Asym1		Asym2		Asym3	
465  Points		495  Points		222  Points		189  Points		176  Points		123  Points		327  Points		201  Points		165  Points	
Freq (MHz)	Vph (m/ms)	Freq (MHz)	Vph (m/ms)	Freq (MHz)	Vph (m/ms)	Freq (MHz)	Vph (m/ms)	Freq (MHz)	Vph (m/ms)	Freq (MHz)	Vph (m/ms)	Freq (MHz)	Vph (m/ms)	Freq (MHz)	Vph (m/ms)	Freq (MHz)	Vph (m/ms)
0.00395175	5.41924	0.000480612	0.193907	0.279509	2622.38	0.479399	650.467	0.559022	1262.11	0.838535	1033.07	0.139769	396.824	0.419267	1168.77	0.698771	77474.4
0.00900068	5.41915	0.000905816	0.265615	0.279552	269.245	0.479426	287.304	0.559065	406.705	0.838572	481.001	0.139947	109	0.419313	324.943	0.698787	742.826
0.0140492	5.41897	0.00145978	0.336203	0.279666	141.964	0.479473	184.385	0.559153	242.444	0.838634	313.498	0.140328	63.3359	0.419412	188.745	0.698833	373.226
0.019097	5.41869	0.0021382	0.405449	0.279851	96.4447	0.479541	135.767	0.559286	172.725	0.838723	232.541	0.140908	44.7709	0.419564	133.034	0.698909	249.245
0.0241439	5.4183	0.00293573	0.473097	0.280106	73.0704	0.47963	107.449	0.559462	134.173	0.838838	184.828	0.141684	34.735	0.419769	102.746	0.699016	187.113
0.0291896	5.41785	0.00384676	0.538985	0.280431	58.8514	0.47974	88.9151	0.559684	109.712	0.838979	153.374	0.142652	28.4695	0.420025	83.7171	0.699153	149.792
0.0342339	5.4173	0.00486493	0.602936	0.280825	49.2956	0.479871	75.8428	0.559949	92.8129	0.839147	131.079	0.143806	24.2	0.420334	70.6575	0.699321	124.897
0.0392765	5.41665	0.00598373	0.664827	0.281289	42.4366	0.480023	66.1291	0.560258	80.4415	0.839341	114.452	0.145139	21.114	0.420695	61.1424	0.699519	107.109
0.0443172	5.41592	0.0071965	0.724567	0.281822	37.2773	0.480197	58.628	0.560611	70.9951	0.839561	101.577	0.146646	18.7869	0.421109	53.9034	0.699748	93.7675
0.0493556	5.41509	0.00849647	0.782089	0.282423	33.2581	0.480392	52.6615	0.561009	63.5475	0.839807	91.3137	0.148318	16.975	0.421574	48.213	0.700007	83.391
0.0543915	5.41417	0.00987712	0.837362	0.283091	30.0409	0.48061	47.803	0.561449	57.5263	0.84008	82.941	0.150149	15.5286	0.42209	43.6239	0.700296	75.0909
0.0594248	5.41315	0.0113319	0.890366	0.283827	27.409	0.480849	43.7707	0.561933	52.5585	0.840379	75.9813	0.15213	14.3507	0.422659	39.8457	0.700615	68.3016
0.0644549	5.41204	0.0128546	0.941118	0.284629	25.2176	0.481112	40.3707	0.562461	48.3909	0.840703	70.1052	0.154254	13.3756	0.423278	36.6822	0.700964	62.6456
0.0694818	5.41083	0.0144394	0.989638	0.285497	23.3657	0.481397	37.4656	0.563031	44.8453	0.841054	65.0783	0.156514	12.557	0.423948	33.9954	0.701344	57.8616
0.074505	5.40952	0.0160807	1.03597	0.286429	21.7812	0.481705	34.955	0.563644	41.7927	0.841431	60.7294	0.158901	11.8619	0.424669	31.6859	0.701753	53.7629
0.0795243	5.40811	0.0177732	1.08017	0.287425	20.4108	0.482038	32.764	0.564299	39.1376	0.841834	56.9303	0.161409	11.2656	0.42544	29.6802	0.702193	50.2124
0.0845393	5.40659	0.0195121	1.12231	0.288484	19.2147	0.482394	30.8355	0.564997	36.8075	0.842263	53.5831	0.163688	10.8119	0.426261	27.9225	0.702662	47.1075
0.0895497	5.40497	0.0212928	1.16244	0.289605	18.1623	0.482775	29.1252	0.565736	34.7467	0.842718	50.6122	0.165695	10.4661	0.427132	26.3702	0.703162	44.3696
0.0945552	5.40324	0.0231113	1.20064	0.290787	17.2297	0.48318	27.5984	0.566517	32.9114	0.843199	47.9575	0.167398	10.2047	0.428052	24.9896	0.703691	41.9375
0.0995554	5.4014	0.0249636	1.237	0.292029	16.398	0.483612	26.2273	0.56734	31.2668	0.843706	45.5715	0.168771	10.0122	0.429021	23.7541	0.70425	39.7629
0.10455	5.39944	0.0268464	1.27159	0.29333	15.6522	0.484069	24.9895	0.568203	29.785	0.844238	43.4154	0.169796	9.878	0.430039	22.6424	0.704838	37.8073
0.109539	5.39737	0.0287563	1.30449	0.294689	14.98	0.484552	23.8665	0.569107	28.4433	0.844796	41.4577	0.170458	9.79515	0.431105	21.6371	0.705456	36.0393
0.114521	5.39517	0.0306907	1.33578	0.296104	14.3713	0.485063	22.8434	0.570052	27.2228	0.84538	39.6725	0.171418	9.68004	0.432219	20.7239	0.706104	34.4335
0.119496	5.39285	0.0326467	1.36554	0.297574	13.8178	0.485601	21.9075	0.571036	26.1082	0.845989	38.0379	0.172472	9.55996	0.43338	19.891	0.70678	32.9686
0.124464	5.3904	0.0346221	1.39385	0.299099	13.3127	0.486167	21.0483	0.572061	25.0864	0.846624	36.5359	0.173925	9.40457	0.434587	19.1285	0.707486	31.627
0.129424	5.38782	0.0366147	1.42077	0.300677	12.85	0.486762	20.2569	0.573124	24.1465	0.847284	35.1511	0.175791	9.22016	0.435841	18.428	0.708221	30.3939
0.134376	5.3851	0.0386226	1.4464	0.302307	12.4249	0.487386	19.5258	0.574226	23.2791	0.84797	33.8703	0.17809	9.01354	0.437142	17.7824	0.708985	29.2569
0.139319	5.38224	0.040644	1.47078	0.303988	12.0332	0.48804	18.8485	0.575367	22.4764	0.848681	32.6825	0.180843	8.79161	0.438487	17.1858	0.709778	28.2052
0.144253	5.37923	0.0426775	1.49399	0.305718	11.6713	0.488724	18.2193	0.576547	21.7316	0.849417	31.5778	0.184073	8.56088	0.439878	16.6329	0.710599	27.2297
0.149177	5.37607	0.0444581	1.51332	0.307496	11.336	0.489439	17.6335	0.577764	21.0386	0.850179	30.5481	0.187375	8.35249	0.441313	16.1193	0.71145	26.3225
0.154091	5.37275	0.0459817	1.52915	0.309322	11.0246	0.490187	17.0869	0.579018	20.3924	0.850965	29.5859	0.190743	8.1636	0.442792	15.6411	0.712328	25.4768
0.158993	5.36927	0.0472453	1.54183	0.310951	10.771	0.490966	16.5758	0.58031	19.7886	0.851777	28.6849	0.194175	7.9918	0.444314	15.1948	0.713235	24.6866
0.163884	5.36561	0.0482465	1.55159	0.312366	10.5667	0.491779	16.0969	0.581639	19.2232	0.852613	27.8396	0.197666	7.83505	0.44588	14.7775	0.714171	23.9468
0.168763	5.36178	0.0489839	1.55862	0.313555	10.4054	0.492626	15.6474	0.583003	18.6927	0.853474	27.0449	0.201214	7.69162	0.447488	14.3865	0.715134	23.2526
0.173628	5.35776	0.0494563	1.56306	0.314507	10.2826	0.493507	15.2248	0.584404	18.1941	0.85436	26.2966	0.204815	7.56	0.449137	14.0196	0.716125	22.6002
0.17848	5.35355	0.0501359	1.56936	0.315213	10.1948	0.494423	14.8269	0.585841	17.7247	0.855271	25.5908	0.208465	7.43892	0.450828	13.6747	0.717144	21.9859
0.183316	5.34914	0.0508755	1.57609	0.315668	10.1397	0.495375	14.4517	0.587312	17.2821	0.856206	24.924	0.212163	7.32727	0.45256	13.3499	0.718191	21.4066
0.188137	5.34451	0.0518826	1.58507	0.316326	10.0619	0.496363	14.0973	0.588819	16.8641	0.857166	24.293	0.215905	7.22406	0.454332	13.0437	0.719266	20.8593
0.192942	5.33967	0.0531583	1.59614	0.317046	9.97914	0.497389	13.7623	0.59036	16.4687	0.85815	23.6953	0.21969	7.12846	0.456143	12.7546	0.720367	20.3416
0.197729	5.3346	0.0547036	1.6091	0.318034	9.86965	0.498452	13.4451	0.591936	16.0944	0.859158	23.1281	0.223514	7.03972	0.457994	12.4812	0.721496	19.8513
0.202497	5.32928	0.0565199	1.62374	0.319298	9.73594	0.499555	13.1445	0.593545	15.7394	0.860191	22.5893	0.227375	6.95719	0.459884	12.2223	0.722652	19.3861
0.207246	5.32372	0.0586081	1.63984	0.320846	9.58095	0.500696	12.8593	0.595187	15.4024	0.861247	22.0769	0.231272	6.88029	0.461811	11.977	0.723835	18.9443
0.211973	5.31789	0.0607001	1.65523	0.32269	9.40793	0.501878	12.5884	0.596863	15.0822	0.862328	21.589	0.235203	6.80851	0.463776	11.7442	0.725044	18.5243
0.216679	5.31179	0.0627952	1.66993	0.324843	9.22024	0.503101	12.3309	0.598571	14.7774	0.863432	21.1239	0.239165	6.74139	0.465777	11.523	0.726281	18.1244
0.221361	5.3054	0.0648932	1.684	0.327034	9.04329	0.504364	12.0859	0.600312	14.4872	0.86456	20.6802	0.243157	6.67853	0.467815	11.3126	0.727543	17.7434
0.226019	5.29871	0.0669933	1.69746	0.329263	8.87623	0.505671	11.8526	0.602085	14.2104	0.865712	20.2563	0.247178	6.61956	0.469889	11.1124	0.728832	17.3799
0.23065	5.2917	0.0690955	1.71035	0.331528	8.71832	0.507019	11.6302	0.603889	13.9463	0.866887	19.851	0.251225	6.56417	0.471725	10.9457	0.730146	17.0328
0.235254	5.28436	0.0711992	1.72269	0.333829	8.56889	0.508412	11.4181	0.605724	13.6941	0.868086	19.4632	0.255298	6.51205	0.47331	10.8089	0.731487	16.7011
0.239827	5.27667	0.0733043	1.73452	0.336166	8.42733	0.509848	11.2157	0.607591	13.4529	0.869308	19.0918	0.259394	6.46294	0.474636	10.6993	0.732853	16.3838
0.24437	5.26862	0.0754105	1.74587	0.338538	8.29309	0.511136	11.0468	0.609488	13.2221	0.870553	18.7358	0.263513	6.41661	0.475693	10.6149	0.734245	16.08
0.24888	5.26019	0.0775175	1.75676	0.340944	8.16567	0.512261	10.9079	0.611415	13.0012	0.871821	18.3942	0.267653	6.37285	0.476476	10.554	0.735662	15.7888
0.253355	5.25136	0.0796252	1.76721	0.343384	8.04461	0.513211	10.7965	0.613372	12.7894	0.873113	18.0663	0.271813	6.33145	0.476979	10.5155	0.737104	15.5097
0.257794	5.24212	0.0817333	1.77725	0.345859	7.9295	0.513974	10.7106	0.615359	12.5863	0.874427	17.7513	0.275993	6.29224	0.477705	10.4609	0.738571	15.2417
0.262193	5.23245	0.0838417	1.78689	0.348367	7.81997	0.514542	10.6486	0.617375	12.3914	0.875764	17.4484	0.28019	6.25506	0.478498	10.4025	0.740063	14.9844
0.266551	5.22232	0.0859504	1.79617	0.35091	7.71567	0.514908	10.6095	0.61942	12.2042	0.877123	17.157	0.284403	6.21976	0.479584	10.3245	0.741579	14.7371
0.270866	5.21173	0.0880591	1.80509	0.353486	7.6163	0.51544	10.5538	0.621493	12.0244	0.878505	16.8765	0.288633	6.18621	0.480968	10.2283	0.74312	14.4993
0.275136	5.20065	0.0901678	1.81368	0.356097	7.52156	0.516023	10.4943	0.623595	11.8514	0.879909	16.6063	0.292877	6.15429	0.482658	10.1153	0.744685	14.2704
0.279358	5.18907	0.0922764	1.82194	0.358742	7.43119	0.516826	10.4148	0.625724	11.685	0.881335	16.3458	0.297136	6.12388	0.484664	9.98743	0.746274	14.05
0.28353	5.17697	0.0943847	1.82991	0.361423	7.34497	0.517857	10.3166	0.627882	11.5247	0.882784	16.0945	0.301407	6.09488	0.486994	9.84641	0.747886	13.8376
0.287649	5.16433	0.0964929	1.83759	0.36414	7.26266	0.519128	10.2012	0.630066	11.3704	0.884254	15.8521	0.305691	6.06719	0.489356	9.71123	0.749523	13.6329
0.291714	5.15114	0.0986007	1.84499	0.366893	7.18407	0.520652	10.0705	0.631992	11.2404	0.885747	15.6179	0.309986	6.04073	0.491748	9.58154	0.751182	13.4354
0.295721	5.13739	0.100708	1.85214	0.369683	7.10902	0.522447	9.92634	0.633649	11.1329	0.887261	15.3918	0.314291	6.01541	0.49417	9.45705	0.752865	13.2448
0.29967	5.12306	0.102815	1.85903	0.372512	7.03733	0.52429	9.78809	0.635031	11.0461	0.888796	15.1732	0.318606	5.99117	0.496622	9.33748	0.754571	13.0607
0.303556	5.10814	0.104922	1.86569	0.37538	6.96885	0.526182	9.65546	0.636131	10.9788	0.890353	14.9618	0.322931	5.96793	0.499102	9.22256	0.7563	12.8829
0.307379	5.09262	0.107028	1.87213	0.378289	6.90345	0.528124	9.52819	0.636943	10.93	0.891932	14.7573	0.327263	5.94562	0.501611	9.11205	0.758051	12.711
0.311136	5.07651	0.109134	1.87835	0.381239	6.84098	0.530114	9.406	0.637465	10.8992	0.893531	14.5593	0.331604	5.9242	0.504148	9.00572	0.759825	12.5447
0.314826	5.0598	0.111239	1.88436	0.384233	6.78132	0.532155	9.28865	0.638217	10.8552	0.895152	14.3676	0.335951	5.9036	0.506713	8.90335	0.761621	12.3839
0.318447	5.04249	0.113343	1.89018	0.387271	6.72437	0.534245	9.17591	0.639038	10.808	0.896793	14.1819	0.340304	5.88377	0.509304	8.80475	0.763439	12.2282
0.321998	5.02459	0.115447	1.89582	0.390355	6.67001	0.536386	9.06757	0.64016	10.7447	0.898455	14.0018	0.344664	5.86467	0.511922	8.70972	0.765279	12.0775
0.325477	5.0061	0.117551	1.90127	0.393485	6.61814	0.538576	8.96342	0.641588	10.6662	0.900138	13.8273	0.349028	5.84625	0.514567	8.6181	0.767141	11.9314
0.328884	4.98703	0.119654	1.90656	0.396664	6.56868	0.540817	8.86328	0.643327	10.5735	0.901842	13.658	0.353397	5.82847	0.517236	8.52971	0.769024	11.7898
0.332218	4.96741	0.121757	1.91168	0.399893	6.52152	0.543107	8.76695	0.645384	10.4676	0.903566	13.4937	0.357769	5.81129	0.519931	8.44441	0.770928	11.6526
0.335479	4.94725	0.123858	1.91664	0.403172	6.47659	0.545448	8.67428	0.647769	10.3499	0.905309	13.3342	0.362145	5.79467	0.522651	8.36205	0.772604	11.5364
0.338261	4.92926	0.12596	1.92146	0.406502	6.43379	0.547838	8.58509	0.650179	10.236	0.907074	13.1793	0.366524	5.77859	0.525395	8.28249	0.774046	11.4397
0.340589	4.91362	0.128061	1.92613	0.409885	6.39306	0.550278	8.49923	0.652613	10.1258	0.908858	13.0289	0.370905	5.763	0.528163	8.2056	0.775247	11.3613
0.342484	4.90049	0.130161	1.93067	0.41332	6.3543	0.552768	8.41657	0.655071	10.0191	0.910662	12.8827	0.375287	5.74788	0.530955	8.13127	0.776202	11.3004
0.343963	4.88999	0.132261	1.93507	0.416808	6.31744	0.555307	8.33696	0.657554	9.91579	0.912485	12.7406	0.37967	5.7332	0.53377	8.05939	0.776907	11.2561
0.345039	4.8822	0.13436	1.93935	0.42035	6.28241	0.557894	8.26026	0.66006	9.81568	0.914328	12.6023	0.384054	5.71894	0.536607	7.98983	0.77736	11.228
0.345723	4.87718	0.136459	1.94351	0.423945	6.24912	0.560531	8.18637	0.662589	9.71864	0.916191	12.4679	0.388438	5.70507	0.539467	7.92251	0.778013	11.188
0.3467	4.86994	0.138557	1.94755	0.427594	6.21751	0.563215	8.11515	0.665142	9.62455	0.918072	12.3371	0.392821	5.69156	0.542349	7.85732	0.778725	11.1449
0.347754	4.86201	0.140655	1.95148	0.431294	6.18749	0.565947	8.04649	0.667717	9.5333	0.919973	12.2098	0.397203	5.6784	0.545252	7.79418	0.779697	11.087
0.349172	4.85114	0.142752	1.9553	0.435047	6.159	0.568726	7.98029	0.670315	9.44476	0.921893	12.0858	0.401584	5.66556	0.548177	7.733	0.780934	11.0149
0.350942	4.83727	0.144849	1.95902	0.43885	6.13196	0.571552	7.91645	0.672936	9.35882	0.923832	11.9651	0.405962	5.65303	0.551123	7.6737	0.782439	10.9295
0.353047	4.82031	0.146946	1.96264	0.442702	6.1063	0.574424	7.85486	0.675579	9.27539	0.925536	11.8624	0.410338	5.64077	0.554089	7.6162	0.784219	10.8315
0.35547	4.80017	0.149042	1.96617	0.446603	6.08195	0.577341	7.79544	0.678244	9.19437	0.927	11.7767	0.41471	5.62879	0.557076	7.56043	0.786281	10.722
0.358187	4.77677	0.151137	1.96961	0.450551	6.05883	0.580303	7.73809	0.680931	9.11566	0.928219	11.7071	0.419079	5.61705	0.560083	7.50633	0.788361	10.6155
0.36084	4.75309	0.153232	1.97295	0.454544	6.03689	0.58331	7.68273	0.683639	9.03917	0.929188	11.6528	0.423444	5.60555	0.56311	7.45382	0.790462	10.5119
0.36343	4.72917	0.155327	1.97622	0.45858	6.01605	0.58636	7.62928	0.686369	8.96483	0.929902	11.6133	0.427803	5.59427	0.566157	7.40285	0.792581	10.4111
0.36596	4.70504	0.157421	1.9794	0.462657	5.99625	0.589452	7.57766	0.689119	8.89254	0.930361	11.5882	0.432158	5.58319	0.569222	7.35335	0.794719	10.313
0.36843	4.68074	0.159515	1.9825	0.466775	5.97744	0.592587	7.52779	0.691891	8.82224	0.931022	11.5524	0.436507	5.57231	0.572307	7.30528	0.796877	10.2174
0.370844	4.65629	0.161608	1.98553	0.47093	5.95954	0.595763	7.47962	0.694683	8.75384	0.931743	11.5138	0.44085	5.56159	0.57541	7.25857	0.799052	10.1244
0.373204	4.63173	0.163701	1.98848	0.47512	5.9425	0.59898	7.43306	0.697496	8.6873	0.932727	11.4618	0.445186	5.55105	0.578533	7.21317	0.801247	10.0337
0.375511	4.6071	0.165794	1.99136	0.479344	5.92628	0.602237	7.38805	0.700329	8.62253	0.933977	11.3971	0.449514	5.54065	0.581673	7.16905	0.803459	9.9454
0.377769	4.58241	0.167886	1.99417	0.4836	5.91081	0.605533	7.34454	0.703182	8.55947	0.935499	11.32	0.453835	5.5304	0.584832	7.12615	0.80569	9.85931
0.379978	4.5577	0.169978	1.99692	0.487886	5.89605	0.608867	7.30246	0.706056	8.49807	0.937296	11.2314	0.458148	5.52028	0.588008	7.08443	0.807938	9.77538
0.382142	4.533	0.172069	1.99961	0.4922	5.88196	0.612239	7.26175	0.708949	8.43826	0.939375	11.1321	0.462451	5.51028	0.591203	7.04385	0.810205	9.69352
0.384262	4.50832	0.174161	2.00223	0.49654	5.86848	0.615647	7.22237	0.711861	8.38	0.941472	11.0351	0.466746	5.50038	0.594415	7.00437	0.812489	9.61368
0.38634	4.48369	0.176252	2.0048	0.500904	5.85558	0.619091	7.18425	0.714793	8.32323	0.943586	10.9404	0.47103	5.49059	0.597645	6.96595	0.81479	9.53579
0.388378	4.45913	0.178342	2.0073	0.50529	5.84322	0.622571	7.14735	0.717745	8.2679	0.945717	10.8479	0.475304	5.48088	0.600892	6.92855	0.817108	9.45978
0.390379	4.43466	0.180432	2.00975	0.509698	5.83136	0.626085	7.11163	0.720715	8.21396	0.947866	10.7576	0.479567	5.47126	0.604156	6.89215	0.819444	9.38558
0.392344	4.4103	0.182522	2.01215	0.514124	5.81996	0.629632	7.07702	0.723705	8.16137	0.950032	10.6693	0.483818	5.4617	0.607438	6.85671	0.821797	9.31314
0.394274	4.38607	0.184612	2.0145	0.518569	5.80901	0.633213	7.04351	0.726713	8.11008	0.952215	10.5831	0.488058	5.45222	0.610736	6.82219	0.824166	9.24241
0.396172	4.36197	0.186701	2.01679	0.523029	5.79845	0.636825	7.01103	0.72974	8.06006	0.954414	10.4988	0.492284	5.44279	0.614052	6.78858	0.826552	9.17332
0.398039	4.33803	0.188791	2.01904	0.527504	5.78828	0.640469	6.97955	0.732785	8.01125	0.95663	10.4165	0.496498	5.4334	0.617384	6.75583	0.828954	9.10583
0.399877	4.31425	0.190879	2.02124	0.531993	5.77845	0.644143	6.94903	0.735849	7.96363	0.958863	10.3359	0.500698	5.42406	0.620733	6.72393	0.831373	9.03988
0.401688	4.29065	0.192968	2.02339	0.536493	5.76896	0.647846	6.91944	0.738932	7.91716	0.961112	10.2572	0.504884	5.41475	0.624099	6.69284	0.833808	8.97543
0.403471	4.26724	0.195056	2.0255	0.541005	5.75976	0.651579	6.89074	0.742032	7.8718	0.963378	10.1801	0.509054	5.40547	0.627482	6.66255	0.836259	8.91242
0.40523	4.24403	0.197144	2.02757	0.545526	5.75085	0.65534	6.86289	0.745151	7.82752	0.965659	10.1047	0.51321	5.39621	0.630881	6.63303	0.838726	8.85083
0.406966	4.22101	0.199232	2.02959	0.550055	5.74221	0.659129	6.83587	0.748288	7.78428	0.967957	10.031	0.517349	5.38696	0.634297	6.60425	0.841209	8.7906
0.408679	4.19821	0.20132	2.03157	0.554593	5.7338	0.662944	6.80964	0.751442	7.74206	0.97027	9.95879	0.521473	5.37772	0.63773	6.5762	0.843707	8.73169
0.410371	4.17563	0.203407	2.03352	0.559136	5.72562	0.666785	6.78417	0.754615	7.70082	0.972599	9.88814	0.525579	5.36849	0.641179	6.54885	0.84622	8.67407
0.412043	4.15327	0.205494	2.03543	0.563685	5.71766	0.670652	6.75944	0.757805	7.66054	0.974944	9.81897	0.529667	5.35925	0.644645	6.52218	0.84875	8.61769
0.413696	4.13113	0.207581	2.03729	0.568239	5.70988	0.674544	6.73541	0.761012	7.62119	0.977304	9.75124	0.533738	5.35	0.648127	6.49618	0.851294	8.56253
0.415331	4.10923	0.209668	2.03913	0.572796	5.70229	0.678459	6.71206	0.764238	7.58274	0.979679	9.68491	0.537789	5.34073	0.651626	6.47082	0.853853	8.50853
0.41695	4.08756	0.211754	2.04093	0.577356	5.69487	0.682398	6.68937	0.767481	7.54517	0.98207	9.61994	0.541822	5.33145	0.655142	6.44609	0.856428	8.45568
0.418552	4.06613	0.21384	2.04269	0.581918	5.6876	0.686359	6.66731	0.770741	7.50845	0.984476	9.55629	0.545835	5.32215	0.658674	6.42197	0.859017	8.40394
0.42014	4.04494	0.215926	2.04442	0.586482	5.68047	0.690343	6.64586	0.774019	7.47256	0.986896	9.49392	0.549827	5.31281	0.662223	6.39845	0.861621	8.35328
0.421713	4.024	0.218012	2.04612	0.591046	5.67348	0.694348	6.62499	0.777315	7.43747	0.989332	9.43281	0.553799	5.30344	0.665788	6.37551	0.86424	8.30366
0.423273	4.00329	0.220098	2.04779	0.595609	5.66661	0.698373	6.60469	0.780627	7.40317	0.991782	9.3729	0.55775	5.29404	0.66937	6.35312	0.866873	8.25506
0.42482	3.98283	0.222183	2.04943	0.600172	5.65985	0.702419	6.58492	0.783958	7.36964	0.994247	9.31419	0.561679	5.2846	0.672968	6.33129	0.869521	8.20746
0.426356	3.96261	0.224269	2.05104	0.604734	5.6532	0.706484	6.56569	0.787305	7.33685	0.996726	9.25662	0.565585	5.27511	0.676583	6.30999	0.872183	8.16082
0.42788	3.94264	0.226354	2.05262	0.609293	5.64664	0.710568	6.54695	0.79067	7.30478	0.999219	9.20017	0.569469	5.26558	0.680215	6.28921	0.874859	8.11511
0.429394	3.92291	0.228439	2.05417	0.61385	5.64017	0.71467	6.52871	0.794052	7.27342	1.00173	9.14481	0.573329	5.25599	0.683863	6.26893	0.87755	8.07033
0.430898	3.90343	0.230524	2.05569	0.618403	5.63377	0.71879	6.51093	0.797452	7.24275			0.577166	5.24636	0.687527	6.24915	0.880254	8.02642
0.432393	3.88418	0.232608	2.05719	0.622953	5.62746	0.722927	6.4936	0.800868	7.21275			0.580979	5.23667	0.691208	6.22985	0.882973	7.98339
0.433879	3.86518	0.234693	2.05866	0.627498	5.62121	0.727081	6.47671	0.804303	7.1834			0.584767	5.22692	0.694906	6.21102	0.885705	7.9412
0.435357	3.84643	0.236777	2.06011	0.632038	5.61501	0.731251	6.46024	0.807755	7.1547			0.58853	5.21711	0.698619	6.19265	0.888451	7.89983
0.436828	3.82791	0.238861	2.06153	0.636573	5.60888	0.735436	6.44417	0.811224	7.12661			0.592268	5.20724	0.70235	6.17472	0.891211	7.85926
0.438291	3.80963	0.240945	2.06293	0.641103	5.60279	0.739636	6.42849	0.814711	7.09914			0.595981	5.1973	0.706096	6.15722	0.893985	7.81948
0.439748	3.79159	0.243029	2.0643	0.645626	5.59675	0.74385	6.41318	0.818215	7.07226			0.599667	5.1873	0.709859	6.14015	0.896772	7.78045
0.441198	3.77378	0.245113	2.06566	0.650142	5.59074	0.748078	6.39824	0.821737	7.04596			0.603327	5.17724	0.713638	6.12348	0.899573	7.74217
0.442643	3.7562	0.247196	2.06699	0.654651	5.58478	0.752319	6.38364	0.825277	7.02023			0.60696	5.1671	0.717432	6.10722	0.902387	7.70461
0.444083	3.73886	0.24928	2.06829	0.659153	5.57884	0.756573	6.36938	0.828834	6.99505			0.610567	5.1569	0.721243	6.09135	0.905215	7.66775
0.445518	3.72175	0.251363	2.06958	0.663646	5.57292	0.760839	6.35544	0.832409	6.97041			0.614146	5.14663	0.725069	6.07585	0.908056	7.63159
0.446948	3.70486	0.253446	2.07085	0.668131	5.56703	0.765116	6.34182	0.836003	6.94631			0.617698	5.1363	0.728911	6.06073	0.91091	7.5961
0.448374	3.6882	0.255529	2.07209	0.672608	5.56116	0.769405	6.32849	0.839614	6.92272			0.621222	5.12589	0.732768	6.04596	0.913778	7.56126
0.449796	3.67175	0.257612	2.07332	0.677075	5.5553	0.773704	6.31546	0.843244	6.89965			0.624719	5.11542	0.736641	6.03155	0.916658	7.52707
0.451215	3.65553	0.259695	2.07453	0.681533	5.54946	0.778013	6.3027	0.846892	6.87707			0.628188	5.10487	0.740528	6.01748	0.919552	7.4935
0.45263	3.63953	0.261778	2.07572	0.685982	5.54362	0.782331	6.29021	0.850558	6.85498			0.631628	5.09426	0.744431	6.00373	0.922459	7.46055
0.454043	3.62374	0.26386	2.07689	0.69042	5.53779	0.786659	6.27797	0.854243	6.83336			0.63504	5.08358	0.748348	5.99031	0.925379	7.42819
0.455453	3.60816	0.265943	2.07804	0.694847	5.53196	0.790995	6.26599	0.857946	6.81222			0.638425	5.07284	0.752279	5.9772	0.928311	7.39641
0.45686	3.59279	0.268025	2.07917	0.699264	5.52614	0.795339	6.25424	0.861668	6.79153			0.64178	5.06203	0.756224	5.96439	0.931257	7.36521
0.458266	3.57763	0.270108	2.08029	0.70367	5.52031	0.79969	6.24272	0.86541	6.77129			0.645108	5.05115	0.760183	5.95188	0.934215	7.33456
0.459669	3.56268	0.27219	2.08139	0.708064	5.51447	0.804049	6.23142	0.86917	6.7515			0.648407	5.04022	0.764156	5.93966	0.937187	7.30446
0.461071	3.54792	0.274272	2.08248	0.712446	5.50863	0.808414	6.22033	0.872949	6.73214			0.651677	5.02922	0.768141	5.92771	0.940171	7.27489
0.462472	3.53337	0.276354	2.08355	0.716817	5.50278	0.812785	6.20945	0.876748	6.7132			0.654919	5.01816	0.77214	5.91603	0.943168	7.24584
0.463871	3.51901	0.278436	2.0846	0.721175	5.49692	0.817161	6.19876	0.880567	6.69468			0.658133	5.00704	0.776151	5.90462	0.946177	7.2173
0.46527	3.50484	0.280518	2.08564	0.725521	5.49105	0.821543	6.18826	0.884405	6.67656			0.661319	4.99586	0.780175	5.89345	0.949199	7.18926
0.466667	3.49087	0.282599	2.08666	0.729853	5.48517	0.825929	6.17794	0.888263	6.65885			0.664477	4.98463	0.78421	5.88254	0.952234	7.16171
0.468064	3.47709	0.284681	2.08767	0.734173	5.47926	0.830319	6.1678	0.892141	6.64153			0.667606	4.97335	0.788257	5.87186	0.955281	7.13463
0.46946	3.46349	0.286762	2.08866	0.738479	5.47334	0.834713	6.15782	0.896039	6.6246			0.670708	4.96201	0.792315	5.8614	0.958341	7.10802
0.470856	3.45007	0.288844	2.08964	0.742772	5.46741	0.839109	6.148	0.899957	6.60806			0.673781	4.95063	0.796384	5.85118	0.961413	7.08187
0.472252	3.43684	0.290925	2.09061	0.747051	5.46145	0.843509	6.13833	0.903896	6.59188			0.676827	4.9392	0.800464	5.84116	0.964498	7.05617
0.473648	3.42379	0.293006	2.09156	0.751315	5.45547	0.847911	6.12881	0.907855	6.57607			0.679846	4.92772	0.804553	5.83136	0.967595	7.0309
0.475045	3.41091	0.295088	2.0925	0.755566	5.44946	0.852315	6.11943	0.911835	6.56063			0.682837	4.9162	0.808652	5.82175	0.970705	7.00607
0.476441	3.3982	0.297169	2.09342	0.759802	5.44343	0.85672	6.11019	0.915836	6.54553			0.685801	4.90464	0.81276	5.81234	0.973827	6.98165
0.477838	3.38567	0.29925	2.09434	0.764023	5.43738	0.861127	6.10107	0.919857	6.53079			0.688739	4.89305	0.816877	5.80312	0.976961	6.95765
0.479235	3.3733	0.301331	2.09524	0.768229	5.4313	0.865534	6.09208	0.9239	6.51639			0.691649	4.88141	0.821003	5.79408	0.980108	6.93405
0.480634	3.3611	0.303411	2.09613	0.77242	5.42519	0.869941	6.08321	0.927964	6.50232			0.694533	4.86975	0.825136	5.78521	0.983266	6.91084
0.482033	3.34906	0.305492	2.09701	0.776595	5.41906	0.874348	6.07446	0.932049	6.48858			0.697391	4.85805	0.829277	5.77651	0.986437	6.88802
0.483432	3.33718	0.307573	2.09787	0.780755	5.4129	0.878755	6.06581	0.936155	6.47517			0.700223	4.84632	0.833426	5.76797	0.98962	6.86558
0.484833	3.32547	0.309653	2.09873	0.784899	5.4067	0.883161	6.05727	0.940283	6.46208			0.70303	4.83457	0.837581	5.75959	0.992816	6.84351
0.486235	3.3139	0.311734	2.09957	0.789027	5.40048	0.887566	6.04883	0.944432	6.4493			0.705811	4.8228	0.841743	5.75136	0.996023	6.82181
0.487638	3.3025	0.313814	2.1004	0.793139	5.39422	0.89197	6.04048	0.948602	6.43682			0.708566	4.811	0.84591	5.74328	0.999242	6.80047
0.489043	3.29124	0.315895	2.10122	0.797235	5.38794	0.896372	6.03224	0.952794	6.42465			0.711297	4.79918	0.850083	5.73533	1.00247	6.77947
0.490449	3.28013	0.317975	2.10203	0.801314	5.38162	0.900772	6.02408	0.957008	6.41277			0.714003	4.78734	0.854262	5.72752		
0.491856	3.26917	0.320055	2.10283	0.805377	5.37527	0.90517	6.016	0.961242	6.40119			0.716685	4.77549	0.858445	5.71983		
0.493265	3.25836	0.322136	2.10362	0.809423	5.36889	0.909566	6.00802	0.965498	6.38988			0.719343	4.76363	0.862632	5.71227		
0.494675	3.24769	0.324216	2.1044	0.813451	5.36247	0.913959	6.00011	0.969776	6.37886			0.721977	4.75176	0.866824	5.70483		
0.496087	3.23716	0.326296	2.10517	0.817463	5.35602	0.918349	5.99228	0.974074	6.3681			0.724588	4.73988	0.871019	5.69751		
0.497501	3.22677	0.328376	2.10594	0.821458	5.34954	0.922737	5.98452	0.978394	6.35762			0.727176	4.72799	0.875217	5.69029		
0.498916	3.21651	0.330456	2.10669	0.825435	5.34302	0.927121	5.97684	0.982734	6.3474			0.72974	4.71609	0.879418	5.68318		
0.500334	3.20639	0.332536	2.10743	0.829395	5.33647	0.931502	5.96923	0.987096	6.33743			0.732283	4.7042	0.883621	5.67616		
0.501753	3.1964	0.334616	2.10816	0.833337	5.32988	0.93588	5.96169	0.991478	6.32771			0.734803	4.6923	0.887827	5.66925		
0.503174	3.18654	0.336695	2.10889	0.837262	5.32326	0.940254	5.95422	0.99588	6.31824			0.737301	4.68041	0.892034	5.66242		
0.504597	3.17681	0.338775	2.1096	0.841169	5.31661	0.944625	5.94681	1.0003	6.30901			0.739778	4.66852	0.896242	5.65569		
0.506023	3.1672	0.340855	2.11031	0.845058	5.30992	0.948993	5.93947					0.742233	4.65664	0.900451	5.64903		
0.50745	3.15772	0.342934	2.11101	0.848929	5.3032	0.953356	5.93219					0.744668	4.64476	0.90466	5.64246		
0.508879	3.14837	0.345014	2.1117	0.852782	5.29644	0.957716	5.92497					0.747081	4.63289	0.90887	5.63597		
0.510311	3.13913	0.347093	2.11238	0.856617	5.28965	0.962073	5.91781					0.749475	4.62104	0.91308	5.62955		
0.511745	3.13001	0.349173	2.11305	0.860433	5.28283	0.966426	5.91071					0.751848	4.60919	0.917289	5.6232		
0.513181	3.12101	0.351252	2.11372	0.864232	5.27597	0.970775	5.90367					0.754202	4.59736	0.921497	5.61691		
0.51462	3.11212	0.353332	2.11438	0.868012	5.26908	0.97512	5.89669					0.756537	4.58555	0.925703	5.61069		
0.516061	3.10335	0.355411	2.11503	0.871774	5.26215	0.979462	5.88976					0.758852	4.57376	0.929909	5.60453		
0.517504	3.09469	0.35749	2.11567	0.875518	5.25519	0.9838	5.88289					0.761149	4.56198	0.934112	5.59842		
0.518949	3.08614	0.359569	2.11631	0.879243	5.2482	0.988135	5.87607					0.763427	4.55022	0.938313	5.59237		
0.520397	3.0777	0.361649	2.11694	0.88295	5.24118	0.992466	5.86931					0.765687	4.53849	0.942511	5.58638		
0.521848	3.06936	0.363728	2.11756	0.886638	5.23413	0.996794	5.8626					0.767929	4.52678	0.946707	5.58043		
0.5233	3.06113	0.365807	2.11817	0.890308	5.22704	1.00112	5.85594					0.770154	4.5151	0.950899	5.57452		
0.524756	3.05301	0.367886	2.11878	0.893959	5.21992							0.772361	4.50344	0.955087	5.56866		
0.526213	3.04498	0.369965	2.11938	0.897592	5.21278							0.774551	4.49181	0.959272	5.56284		
0.527674	3.03706	0.372044	2.11998	0.901206	5.2056							0.776725	4.48021	0.963453	5.55706		
0.529136	3.02923	0.374123	2.12056	0.904801	5.19839							0.778883	4.46864	0.967629	5.55132		
0.530602	3.02151	0.376201	2.12114	0.908379	5.19116							0.781024	4.4571	0.9718	5.54561		
0.53207	3.01388	0.37828	2.12172	0.911937	5.18389							0.78315	4.4456	0.975967	5.53993		
0.53354	3.00634	0.380359	2.12229	0.915478	5.1766							0.78526	4.43412	0.980127	5.53428		
0.535013	2.9989	0.382438	2.12285	0.918999	5.16928							0.787355	4.42269	0.984283	5.52866		
0.536489	2.99154	0.384516	2.12341	0.922503	5.16194							0.789435	4.41128	0.988432	5.52306		
0.537967	2.98428	0.386595	2.12396	0.925988	5.15456							0.791501	4.39992	0.992576	5.51749		
0.539448	2.97711	0.388674	2.1245	0.929454	5.14717							0.793552	4.38859	0.996713	5.51194		
0.540931	2.97003	0.390752	2.12504	0.932902	5.13974							0.795589	4.3773	1.00084	5.50641		
0.542418	2.96303	0.392831	2.12558	0.936332	5.1323							0.797612	4.36605				
0.543906	2.95612	0.394909	2.12611	0.939744	5.12482							0.799621	4.35484				
0.545398	2.94929	0.396988	2.12663	0.943138	5.11733							0.801618	4.34367				
0.546892	2.94254	0.399066	2.12715	0.946513	5.10981							0.803601	4.33255				
0.548388	2.93588	0.401144	2.12766	0.94987	5.10227							0.805572	4.32147				
0.549888	2.92929	0.403223	2.12816	0.95321	5.09471							0.80753	4.31043				
0.55139	2.92279	0.405301	2.12867	0.956531	5.08713							0.809476	4.29943				
0.552894	2.91636	0.407379	2.12916	0.959834	5.07953							0.81141	4.28848				
0.554402	2.91001	0.409458	2.12965	0.96312	5.07191							0.813332	4.27757				
0.555911	2.90373	0.411536	2.13014	0.966387	5.06427							0.815242	4.26672				
0.557424	2.89753	0.413614	2.13062	0.969637	5.05661							0.817141	4.2559				
0.558939	2.89141	0.415692	2.1311	0.97287	5.04894							0.819029	4.24514				
0.560457	2.88535	0.41777	2.13157	0.976085	5.04125							0.820907	4.23442				
0.561978	2.87937	0.419848	2.13204	0.979282	5.03354							0.822774	4.22375				
0.563501	2.87346	0.421926	2.1325	0.982462	5.02582							0.82463	4.21313				
0.565027	2.86761	0.424004	2.13296	0.985625	5.01808							0.826476	4.20256				
0.566555	2.86184	0.426082	2.13341	0.98877	5.01033							0.828313	4.19203				
0.568086	2.85613	0.42816	2.13386	0.991898	5.00256							0.830139	4.18156				
0.56962	2.85049	0.430238	2.13431	0.995009	4.99478							0.831956	4.17114				
0.571156	2.84491	0.432316	2.13475	0.998103	4.98699							0.833764	4.16077				
0.572695	2.8394	0.434394	2.13519	1.00118	4.97918							0.835563	4.15045				
0.574237	2.83395	0.436472	2.13562									0.837353	4.14018				
0.575781	2.82857	0.438549	2.13605									0.839134	4.12996				
0.577328	2.82325	0.440627	2.13647									0.840907	4.11979				
0.578877	2.81798	0.442705	2.1369									0.842671	4.10968				
0.580429	2.81278	0.444783	2.13731									0.844427	4.09961				
0.581984	2.80764	0.44686	2.13773									0.846176	4.0896				
0.583541	2.80255	0.448938	2.13814									0.847916	4.07964				
0.585101	2.79753	0.451016	2.13854									0.849649	4.06974				
0.586663	2.79256	0.453093	2.13894									0.851375	4.05989				
0.588228	2.78764	0.455171	2.13934									0.853093	4.05009				
0.589795	2.78278	0.457248	2.13974									0.854805	4.04034				
0.591365	2.77798	0.459326	2.14013									0.856509	4.03065				
0.592937	2.77323	0.461403	2.14051									0.858207	4.02101				
0.594512	2.76853	0.463481	2.1409									0.859898	4.01142				
0.59609	2.76388	0.465558	2.14128									0.861583	4.00189				
0.59767	2.75929	0.467636	2.14166									0.863262	3.99241				
0.599252	2.75474	0.469713	2.14203									0.864934	3.98298				
0.600837	2.75025	0.47179	2.1424									0.866601	3.9736				
0.602424	2.74581	0.473868	2.14277									0.868262	3.96428				
0.604014	2.74141	0.475945	2.14313									0.869917	3.95502				
0.605606	2.73706	0.478022	2.14349									0.871566	3.9458				
0.607201	2.73276	0.4801	2.14385									0.873211	3.93664				
0.608798	2.72851	0.482177	2.14421									0.87485	3.92754				
0.610398	2.7243	0.484254	2.14456									0.876484	3.91848				
0.612	2.72014	0.486331	2.14491									0.878113	3.90948				
0.613604	2.71603	0.488409	2.14525									0.879737	3.90053				
0.615211	2.71195	0.490486	2.1456									0.881357	3.89164				
0.61682	2.70792	0.492563	2.14594									0.882972	3.88279				
0.618431	2.70394	0.49464	2.14628									0.884582	3.874				
0.620045	2.7	0.496717	2.14661									0.886188	3.86527				
0.621661	2.6961	0.498794	2.14694									0.88779	3.85658				
0.62328	2.69224	0.500871	2.14727									0.889388	3.84795				
0.6249	2.68842	0.502948	2.1476									0.890982	3.83937				
0.626523	2.68464	0.505025	2.14792									0.892572	3.83084				
0.628149	2.6809	0.507102	2.14824									0.894158	3.82236				
0.629777	2.6772	0.509179	2.14856									0.895741	3.81394				
0.631406	2.67354	0.511256	2.14888									0.89732	3.80556				
0.633039	2.66992	0.513333	2.14919									0.898896	3.79724				
0.634673	2.66634	0.51541	2.1495									0.900468	3.78897				
0.63631	2.66279	0.517487	2.14981									0.902037	3.78075				
0.637948	2.65928	0.519564	2.15011									0.903602	3.77258				
0.63959	2.65581	0.521641	2.15042									0.905165	3.76446				
0.641233	2.65237	0.523717	2.15072									0.906725	3.75639				
0.642878	2.64896	0.525794	2.15102									0.908282	3.74838				
0.644526	2.6456	0.527871	2.15131									0.909836	3.74041				
0.646176	2.64226	0.529948	2.15161									0.911387	3.73249				
0.647828	2.63897	0.532025	2.1519									0.912936	3.72462				
0.649482	2.6357	0.534101	2.15219									0.914482	3.7168				
0.651138	2.63247	0.536178	2.15248									0.916026	3.70903				
0.652796	2.62927	0.538255	2.15276									0.917567	3.70131				
0.654457	2.6261	0.540331	2.15304									0.919106	3.69363				
0.656119	2.62297	0.542408	2.15332									0.920643	3.68601				
0.657784	2.61986	0.544485	2.1536									0.922178	3.67843				
0.65945	2.61679	0.546561	2.15388									0.923711	3.6709				
0.661119	2.61375	0.548638	2.15415									0.925241	3.66342				
0.66279	2.61074	0.550715	2.15443									0.92677	3.65599				
0.664463	2.60776	0.552791	2.1547									0.928297	3.6486				
0.666138	2.60481	0.554868	2.15496									0.929822	3.64126				
0.667815	2.60188	0.556944	2.15523									0.931345	3.63397				
0.669493	2.59899	0.559021	2.15549									0.932867	3.62672				
0.671174	2.59613	0.561097	2.15576									0.934387	3.61952				
0.672857	2.59329	0.563174	2.15602									0.935905	3.61236				
0.674542	2.59048	0.56525	2.15628									0.937422	3.60525				
0.676229	2.5877	0.567327	2.15653									0.938938	3.59819				
0.677917	2.58494	0.569403	2.15679									0.940452	3.59117				
0.679608	2.58222	0.57148	2.15704									0.941965	3.5842				
0.6813	2.57952	0.573556	2.15729									0.943477	3.57727				
0.682995	2.57684	0.575632	2.15754									0.944987	3.57038				
0.684691	2.57419	0.577709	2.15779									0.946497	3.56354				
0.686389	2.57157	0.579785	2.15803									0.948005	3.55674				
0.688089	2.56897	0.581862	2.15828									0.949512	3.54999				
0.689791	2.5664	0.583938	2.15852									0.951019	3.54328				
0.691495	2.56385	0.586014	2.15876									0.952524	3.53661				
0.693201	2.56133	0.588091	2.159									0.954029	3.52998				
0.694908	2.55883	0.590167	2.15923									0.955532	3.5234				
0.696618	2.55635	0.592243	2.15947									0.957035	3.51686				
0.698329	2.5539	0.594319	2.1597									0.958537	3.51036				
0.700042	2.55147	0.596396	2.15994									0.960039	3.50391				
0.701756	2.54906	0.598472	2.16017									0.96154	3.49749				
0.703473	2.54668	0.600548	2.16039									0.96304	3.49112				
0.705191	2.54432	0.602624	2.16062									0.964539	3.48478				
0.706911	2.54198	0.6047	2.16085									0.966038	3.47849				
0.708633	2.53966	0.606777	2.16107									0.967537	3.47224				
0.710356	2.53737	0.608853	2.16129									0.969035	3.46602				
0.712081	2.53509	0.610929	2.16151									0.970533	3.45985				
0.713808	2.53284	0.613005	2.16173									0.97203	3.45372				
0.715537	2.53061	0.615081	2.16195									0.973527	3.44762				
0.717267	2.52839	0.617157	2.16217									0.975024	3.44157				
0.718999	2.5262	0.619233	2.16238									0.97652	3.43555				
0.720733	2.52403	0.621309	2.1626									0.978017	3.42958				
0.722468	2.52188	0.623386	2.16281									0.979513	3.42364				
0.724205	2.51975	0.625462	2.16302									0.981009	3.41773				
0.725944	2.51764	0.627538	2.16323									0.982504	3.41187				
0.727684	2.51554	0.629614	2.16344									0.984	3.40604				
0.729426	2.51347	0.63169	2.16365									0.985495	3.40026				
0.731169	2.51141	0.633766	2.16385									0.986991	3.3945				
0.732914	2.50938	0.635842	2.16405									0.988486	3.38879				
0.734661	2.50736	0.637918	2.16426									0.989982	3.38311				
0.736409	2.50536	0.639994	2.16446									0.991478	3.37747				
0.738159	2.50338	0.64207	2.16466									0.992973	3.37186				
0.739911	2.50141	0.644146	2.16486									0.994469	3.36629				
0.741664	2.49947	0.646221	2.16506									0.995965	3.36075				
0.743418	2.49754	0.648297	2.16525									0.997461	3.35525				
0.745174	2.49563	0.650373	2.16545									0.998957	3.34979				
0.746932	2.49373	0.652449	2.16564									1.00045	3.34436				
0.748691	2.49185	0.654525	2.16583														
0.750451	2.48999	0.656601	2.16602														
0.752213	2.48815	0.658677	2.16621														
0.753977	2.48632	0.660753	2.1664														
0.755742	2.4845	0.662828	2.16659														
0.757508	2.48271	0.664904	2.16678														
0.759276	2.48092	0.66698	2.16696														
0.761046	2.47916	0.669056	2.16715														
0.762817	2.47741	0.671132	2.16733														
0.764589	2.47567	0.673207	2.16751														
0.766363	2.47395	0.675283	2.16769														
0.768138	2.47225	0.677359	2.16787														
0.769914	2.47056	0.679434	2.16805														
0.771692	2.46888	0.68151	2.16823														
0.773472	2.46722	0.683586	2.1684														
0.775252	2.46557	0.685662	2.16858														
0.777034	2.46394	0.687737	2.16875														
0.778818	2.46232	0.689813	2.16893														
0.780603	2.46071	0.691889	2.1691														
0.782389	2.45912	0.693964	2.16927														
0.784176	2.45754	0.69604	2.16944														
0.785965	2.45598	0.698116	2.16961														
0.787755	2.45443	0.700191	2.16978														
0.789547	2.45289	0.702267	2.16994														
0.791339	2.45136	0.704342	2.17011														
0.793133	2.44985	0.706418	2.17027														
0.794929	2.44835	0.708493	2.17044														
0.796725	2.44686	0.710569	2.1706														
0.798523	2.44539	0.712645	2.17076														
0.800322	2.44392	0.71472	2.17092														
0.802123	2.44247	0.716796	2.17108														
0.803925	2.44103	0.718871	2.17124														
0.805728	2.4396	0.720947	2.1714														
0.807532	2.43819	0.723022	2.17156														
0.809337	2.43679	0.725098	2.17172														
0.811144	2.43539	0.727173	2.17187														
0.812952	2.43401	0.729249	2.17203														
0.814761	2.43264	0.731324	2.17218														
0.816571	2.43128	0.733399	2.17233														
0.818382	2.42994	0.735475	2.17248														
0.820195	2.4286	0.73755	2.17264														
0.822009	2.42727	0.739626	2.17279														
0.823824	2.42596	0.741701	2.17294														
0.82564	2.42466	0.743776	2.17308														
0.827457	2.42336	0.745852	2.17323														
0.829276	2.42208	0.747927	2.17338														
0.831095	2.42081	0.750003	2.17352														
0.832916	2.41954	0.752078	2.17367														
0.834738	2.41829	0.754153	2.17381														
0.836561	2.41705	0.756229	2.17396														
0.838385	2.41581	0.758304	2.1741														
0.84021	2.41459	0.760379	2.17424														
0.842036	2.41338	0.762454	2.17438														
0.843864	2.41217	0.76453	2.17453														
0.845692	2.41098	0.766605	2.17467														
0.847522	2.40979	0.76868	2.1748														
0.849352	2.40862	0.770756	2.17494														
0.851184	2.40745	0.772831	2.17508														
0.853017	2.4063	0.774906	2.17522														
0.854851	2.40515	0.776981	2.17535														
0.856685	2.40401	0.779056	2.17549														
0.858521	2.40288	0.781132	2.17562														
0.860358	2.40176	0.783207	2.17576														
0.862196	2.40064	0.785282	2.17589														
0.864035	2.39954	0.787357	2.17602														
0.865875	2.39844	0.789432	2.17615														
0.867716	2.39736	0.791508	2.17628														
0.869558	2.39628	0.793583	2.17641														
0.871402	2.39521	0.795658	2.17654														
0.873246	2.39414	0.797733	2.17667														
0.875091	2.39309	0.799808	2.1768														
0.876937	2.39204	0.801883	2.17693														
0.878784	2.391	0.803958	2.17706														
0.880632	2.38997	0.806033	2.17718														
0.882481	2.38895	0.808109	2.17731														
0.88433	2.38794	0.810184	2.17743														
0.886181	2.38693	0.812259	2.17756														
0.888033	2.38593	0.814334	2.17768														
0.889886	2.38494	0.816409	2.1778														
0.89174	2.38395	0.818484	2.17793														
0.893594	2.38297	0.820559	2.17805														
0.89545	2.382	0.822634	2.17817														
0.897306	2.38104	0.824709	2.17829														
0.899164	2.38009	0.826784	2.17841														
0.901022	2.37914	0.828859	2.17853														
0.902881	2.3782	0.830934	2.17865														
0.904741	2.37726	0.833009	2.17877														
0.906602	2.37633	0.835084	2.17888														
0.908464	2.37541	0.837159	2.179														
0.910327	2.3745	0.839234	2.17912														
0.91219	2.37359	0.841309	2.17923														
0.914055	2.37269	0.843384	2.17935														
0.91592	2.3718	0.845458	2.17946														
0.917787	2.37091	0.847533	2.17958														
0.919654	2.37003	0.849608	2.17969														
0.921522	2.36915	0.851683	2.1798														
0.92339	2.36829	0.853758	2.17991														
0.92526	2.36742	0.855833	2.18003														
0.927131	2.36657	0.857908	2.18014														
0.929002	2.36572	0.859983	2.18025														
0.930874	2.36488	0.862057	2.18036														
0.932747	2.36404	0.864132	2.18047														
0.934621	2.36321	0.866207	2.18058														
0.936496	2.36238	0.868282	2.18068														
0.938371	2.36156	0.870357	2.18079														
0.940247	2.36075	0.872432	2.1809														
0.942124	2.35994	0.874506	2.18101														
0.944002	2.35914	0.876581	2.18111														
0.945881	2.35834	0.878656	2.18122														
0.94776	2.35755	0.880731	2.18132														
0.94964	2.35677	0.882805	2.18143														
0.951521	2.35599	0.88488	2.18153														
0.953403	2.35521	0.886955	2.18164														
0.955286	2.35445	0.88903	2.18174														
0.957169	2.35368	0.891104	2.18184														
0.959053	2.35292	0.893179	2.18195														
0.960938	2.35217	0.895254	2.18205														
0.962823	2.35143	0.897329	2.18215														
0.96471	2.35068	0.899403	2.18225														
0.966597	2.34995	0.901478	2.18235														
0.968485	2.34921	0.903553	2.18245														
0.970373	2.34849	0.905627	2.18255														
0.972262	2.34777	0.907702	2.18265														
0.974153	2.34705	0.909777	2.18275														
0.976043	2.34634	0.911851	2.18285														
0.977935	2.34563	0.913926	2.18294														
0.979827	2.34493	0.916001	2.18304														
0.98172	2.34423	0.918075	2.18314														
0.983613	2.34354	0.92015	2.18323														
0.985508	2.34285	0.922224	2.18333														
0.987403	2.34217	0.924299	2.18343														
0.989298	2.34149	0.926374	2.18352														
0.991195	2.34082	0.928448	2.18361														
0.993092	2.34015	0.930523	2.18371														
0.994989	2.33949	0.932597	2.1838														
0.996888	2.33883	0.934672	2.1839														
0.998787	2.33817	0.936746	2.18399														
1.00069	2.33752	0.938821	2.18408														
		0.940895	2.18417														
		0.94297	2.18426														
		0.945044	2.18436														
		0.947119	2.18445														
		0.949193	2.18454														
		0.951268	2.18463														
		0.953342	2.18472														
		0.955417	2.18481														
		0.957491	2.18489														
		0.959566	2.18498														
		0.96164	2.18507														
		0.963715	2.18516														
		0.965789	2.18525														
		0.967864	2.18533														
		0.969938	2.18542														
		0.972012	2.1855														
		0.974087	2.18559														
		0.976161	2.18568														
		0.978236	2.18576														
		0.98031	2.18585														
		0.982384	2.18593														
		0.984459	2.18601														
		0.986533	2.1861														
		0.988607	2.18618														
		0.990682	2.18626														
		0.992756	2.18634														
		0.99483	2.18643														
		0.996905	2.18651														
		0.998979	2.18659														
		1.00105	2.18667														
