Sym0		Asym0		Sym1		Sym2		Sym3		Sym4		Asym1		Asym2		Asym3	
464  Points		496  Points		213  Points		180  Points		166  Points		117  Points		323  Points		191  Points		156  Points	
Freq (MHz)	Vph (m/ms)	Freq (MHz)	Vph (m/ms)	Freq (MHz)	Vph (m/ms)	Freq (MHz)	Vph (m/ms)	Freq (MHz)	Vph (m/ms)	Freq (MHz)	Vph (m/ms)	Freq (MHz)	Vph (m/ms)	Freq (MHz)	Vph (m/ms)	Freq (MHz)	Vph (m/ms)
0.00126619	5.71744	3.98199e-005	0.0574488	0.279511	1239.31	0.484169	2106.7	0.559027	957.87	0.838534	1163.65	0.139788	274.627	0.41927	901.189	0.698771	21175
0.00659292	5.71728	0.000218476	0.134461	0.27957	241.585	0.484186	416.856	0.559083	368.956	0.838572	507.517	0.140021	97.1893	0.419329	300.177	0.698789	724.363
0.0119192	5.71707	0.000539015	0.210839	0.279708	133.9	0.484226	231.331	0.559188	228.519	0.838638	324.551	0.140476	59.2126	0.419446	180.125	0.698842	368.512
0.0172449	5.71677	0.000998379	0.286214	0.279925	92.6714	0.484289	160.1	0.559343	165.55	0.838734	238.569	0.14115	42.7196	0.419621	128.705	0.698928	247.138
0.0225695	5.71634	0.0015925	0.360301	0.280222	70.9006	0.484375	122.422	0.559547	129.813	0.83886	188.618	0.142037	33.5326	0.419856	100.156	0.699048	185.928
0.0278927	5.71579	0.00231624	0.432812	0.280597	57.452	0.484484	99.1109	0.559801	106.79	0.839014	155.977	0.143133	27.6989	0.420148	82.0007	0.699202	149.037
0.0332142	5.71513	0.00316357	0.503488	0.28105	48.3259	0.484616	83.2675	0.560104	90.7229	0.839198	132.979	0.144432	23.6805	0.420499	69.4418	0.699391	124.377
0.0385338	5.71436	0.00412787	0.572123	0.28158	41.7316	0.484772	71.8001	0.560456	78.8765	0.839411	115.901	0.145925	20.7548	0.420907	60.2406	0.699613	106.732
0.043851	5.71346	0.00520205	0.638547	0.282188	36.7475	0.484952	63.117	0.560856	69.7828	0.839653	102.72	0.147604	18.5372	0.421374	53.2118	0.699869	93.4833
0.0491654	5.71244	0.00637875	0.70263	0.282872	32.8509	0.485156	56.3147	0.561306	62.5838	0.839925	92.24	0.149462	16.8043	0.421898	47.6694	0.700158	83.1715
0.0544768	5.71131	0.00765051	0.76428	0.283632	29.723	0.485384	50.8427	0.561803	56.7446	0.840225	83.7081	0.151489	15.4172	0.422479	43.1886	0.700482	74.9183
0.0597848	5.71005	0.00901	0.823449	0.284466	27.1588	0.485637	46.3462	0.562349	51.9143	0.840555	76.6283	0.153677	14.2854	0.423118	39.4925	0.700839	68.1641
0.065089	5.70866	0.0104498	0.8801	0.285374	25.0199	0.485915	42.5862	0.562943	47.8532	0.840914	70.6594	0.156017	13.347	0.423813	36.3926	0.70123	62.5354
0.0703891	5.70715	0.0119632	0.934246	0.286356	23.21	0.486219	39.3959	0.563585	44.3919	0.841302	65.5595	0.158501	12.5585	0.424565	33.7565	0.701655	57.773
0.0756846	5.7055	0.0135433	0.985906	0.287409	21.6597	0.486548	36.6555	0.564273	41.4074	0.841718	61.1521	0.16112	11.8884	0.425372	31.4881	0.702113	53.6918
0.0809752	5.70373	0.0151838	1.03513	0.288533	20.3178	0.486905	34.2764	0.565009	38.8081	0.842164	57.3055	0.163867	11.3133	0.426236	29.5164	0.702604	50.1558
0.0862604	5.70182	0.0168789	1.08197	0.289727	19.1458	0.487288	32.1919	0.565791	36.5245	0.842639	53.9195	0.166358	10.8757	0.427155	27.7872	0.703129	47.0632
0.0915398	5.69977	0.0186232	1.1265	0.290989	18.1139	0.487698	30.3509	0.56662	34.5028	0.843142	50.9162	0.16855	10.542	0.428129	26.259	0.703687	44.3357
0.096813	5.69757	0.0204115	1.1688	0.292318	17.1992	0.488137	28.7134	0.567494	32.7008	0.843674	48.2344	0.170407	10.2898	0.429157	24.8992	0.704279	41.9126
0.102079	5.69523	0.0222393	1.20896	0.293714	16.3832	0.488604	27.2476	0.568414	31.085	0.844235	45.8255	0.171904	10.1041	0.430239	23.6819	0.704903	39.746
0.107339	5.69274	0.0241022	1.24707	0.295174	15.6512	0.489101	25.9281	0.56938	29.6282	0.844825	43.65	0.17302	9.97459	0.431375	22.5861	0.70556	37.7974
0.11259	5.69009	0.0259965	1.28323	0.296697	14.9914	0.489627	24.7344	0.57039	28.3083	0.845443	41.6758	0.173741	9.89466	0.432563	21.5949	0.70625	36.0358
0.117834	5.68729	0.0279188	1.31752	0.298283	14.3939	0.490184	23.6494	0.571444	27.1072	0.846089	39.8762	0.174785	9.7836	0.433805	20.6943	0.706973	34.4356
0.123068	5.68432	0.0298657	1.35004	0.299929	13.8506	0.490772	22.6592	0.572542	26.0098	0.846764	38.2293	0.175933	9.66775	0.435098	19.8727	0.707728	32.9759
0.128293	5.68118	0.0318345	1.38088	0.301634	13.3548	0.491391	21.7521	0.573684	25.0033	0.847468	36.7167	0.177512	9.51786	0.436443	19.1205	0.708516	31.6391
0.133508	5.67787	0.0338226	1.41013	0.303397	12.9007	0.492044	20.9183	0.574869	24.0773	0.848199	35.3225	0.17954	9.33997	0.437838	18.4294	0.709336	30.4105
0.138713	5.67437	0.0358278	1.43787	0.305217	12.4835	0.492729	20.1493	0.576097	23.2225	0.848959	34.0337	0.182036	9.14071	0.439284	17.7925	0.710189	29.2776
0.143906	5.67069	0.037848	1.4642	0.307092	12.0991	0.493449	19.4382	0.577367	22.4313	0.849747	32.8387	0.185022	8.92672	0.44078	17.2038	0.711073	28.2298
0.149088	5.66681	0.0398814	1.48919	0.30902	11.744	0.494204	18.7787	0.578679	21.6969	0.850562	31.7279	0.188522	8.7043	0.442324	16.6584	0.711989	27.2579
0.154256	5.66272	0.0416627	1.50993	0.311001	11.4151	0.494994	18.1656	0.580032	21.0135	0.851406	30.6926	0.192095	8.50348	0.443918	16.1516	0.712937	26.3542
0.159411	5.65843	0.0431874	1.52689	0.313033	11.1098	0.49582	17.5943	0.581426	20.3763	0.852278	29.7256	0.195738	8.32151	0.445559	15.6798	0.713917	25.5118
0.164552	5.65392	0.0444521	1.54043	0.314845	10.8611	0.496684	17.0609	0.582861	19.7807	0.853177	28.8205	0.199445	8.15606	0.447248	15.2396	0.714928	24.7247
0.169677	5.64917	0.0454544	1.55084	0.316418	10.6608	0.497586	16.5619	0.584335	19.2229	0.854103	27.9714	0.203213	8.00516	0.448983	14.828	0.715971	23.9878
0.174786	5.64419	0.0461926	1.55834	0.317739	10.5028	0.498526	16.0941	0.58585	18.6996	0.855057	27.1735	0.207039	7.86713	0.450764	14.4424	0.717044	23.2966
0.179878	5.63896	0.0466655	1.56306	0.318796	10.3824	0.499506	15.6548	0.587403	18.2077	0.856039	26.4224	0.210919	7.74051	0.452591	14.0806	0.718148	22.6469
0.184951	5.63348	0.0473461	1.56976	0.31958	10.2964	0.500527	15.2418	0.588996	17.7446	0.857048	25.7141	0.214849	7.62407	0.454462	13.7405	0.719283	22.0353
0.190006	5.62772	0.0480866	1.57692	0.320085	10.2424	0.501589	14.8527	0.590627	17.3079	0.858084	25.045	0.218827	7.51672	0.456378	13.4204	0.720449	21.4585
0.195039	5.62167	0.049095	1.58644	0.320815	10.1662	0.502693	14.4858	0.592295	16.8955	0.859147	24.4122	0.22285	7.41753	0.458337	13.1186	0.721645	20.9138
0.200051	5.61533	0.0503725	1.59817	0.321614	10.0852	0.50384	14.1392	0.594002	16.5055	0.860237	23.8128	0.226916	7.32566	0.460338	12.8336	0.722871	20.3985
0.20504	5.60868	0.0519203	1.61188	0.32271	9.97793	0.505031	13.8115	0.595745	16.1362	0.861353	23.2442	0.231021	7.24042	0.462382	12.5643	0.724128	19.9105
0.210004	5.60171	0.0537394	1.62733	0.324111	9.847	0.506267	13.5013	0.597525	15.7861	0.862497	22.7042	0.235164	7.16114	0.464467	12.3093	0.725414	19.4477
0.214942	5.5944	0.0558309	1.64428	0.325828	9.69528	0.507548	13.2073	0.599341	15.4537	0.863667	22.1908	0.239342	7.08729	0.466594	12.0677	0.726729	19.0082
0.219853	5.58673	0.0579262	1.66043	0.327872	9.52597	0.508875	12.9284	0.601193	15.1378	0.864863	21.702	0.243553	7.01837	0.46876	11.8384	0.728074	18.5903
0.224734	5.57869	0.0600247	1.67582	0.330257	9.34237	0.51025	12.6636	0.60308	14.8372	0.866085	21.2362	0.247795	6.95392	0.470966	11.6207	0.729449	18.1926
0.229584	5.57026	0.0621258	1.69051	0.332684	9.16935	0.511673	12.4119	0.605003	14.551	0.867334	20.7918	0.252067	6.89356	0.47321	11.4137	0.730852	17.8137
0.234401	5.56142	0.0642292	1.70453	0.335151	9.00609	0.513144	12.1725	0.60696	14.2781	0.868609	20.3675	0.256367	6.83694	0.475493	11.2167	0.732284	17.4523
0.239183	5.55215	0.0663343	1.71792	0.337659	8.85186	0.514665	11.9446	0.608951	14.0177	0.86991	19.9619	0.260693	6.78375	0.477513	11.0527	0.733745	17.1072
0.243929	5.54244	0.068441	1.73072	0.340206	8.706	0.516236	11.7274	0.610976	13.769	0.871236	19.5738	0.265043	6.73369	0.479257	10.9181	0.735234	16.7775
0.248635	5.53226	0.0705488	1.74296	0.342793	8.56791	0.517858	11.5205	0.613034	13.5313	0.872588	19.2023	0.269416	6.68652	0.480714	10.8104	0.736751	16.4621
0.2533	5.52159	0.0726575	1.75466	0.345418	8.43706	0.519532	11.323	0.615126	13.3038	0.873966	18.8462	0.273811	6.64201	0.481876	10.7273	0.738296	16.1602
0.257922	5.51042	0.074767	1.76587	0.348083	8.31296	0.521034	11.1583	0.61725	13.0861	0.875368	18.5046	0.278226	6.59994	0.482736	10.6675	0.739869	15.871
0.262497	5.49872	0.0768769	1.77661	0.350786	8.19516	0.522345	11.023	0.619406	12.8774	0.876796	18.1768	0.28266	6.56014	0.483289	10.6296	0.741469	15.5936
0.267024	5.48647	0.0789871	1.78691	0.353528	8.08328	0.523452	10.9145	0.621594	12.6774	0.87825	17.8619	0.287111	6.52242	0.484086	10.576	0.743097	15.3275
0.2715	5.47365	0.0810975	1.79678	0.356309	7.97693	0.524341	10.8309	0.623814	12.4854	0.879728	17.5593	0.291579	6.48663	0.484958	10.5186	0.744751	15.072
0.275922	5.46024	0.0832079	1.80625	0.359129	7.8758	0.525003	10.7705	0.626064	12.3011	0.88123	17.2681	0.296063	6.45263	0.48615	10.4419	0.746433	14.8265
0.280288	5.44622	0.0853183	1.81534	0.361989	7.77957	0.525431	10.7324	0.628346	12.1239	0.882758	16.9879	0.300561	6.42029	0.48767	10.3474	0.748141	14.5904
0.284595	5.43158	0.0874284	1.82408	0.364891	7.68798	0.52605	10.6783	0.630658	11.9537	0.884309	16.718	0.305073	6.3895	0.489524	10.2364	0.749875	14.3632
0.28884	5.41629	0.0895383	1.83248	0.367833	7.60077	0.52673	10.6203	0.633	11.7899	0.885885	16.4579	0.309596	6.36013	0.491724	10.1107	0.751636	14.1445
0.293022	5.40035	0.0916479	1.84056	0.370818	7.51772	0.527665	10.543	0.635372	11.6322	0.887486	16.2071	0.314131	6.3321	0.49428	9.97224	0.753422	13.9339
0.297137	5.38374	0.093757	1.84833	0.373846	7.4386	0.528867	10.4475	0.637773	11.4803	0.88911	15.9652	0.318677	6.30531	0.496868	9.8395	0.755234	13.7308
0.301183	5.36646	0.0958658	1.85582	0.376919	7.36324	0.530348	10.3355	0.639889	11.3525	0.890758	15.7316	0.323232	6.27968	0.499488	9.7122	0.757072	13.5349
0.305157	5.34849	0.0979741	1.86303	0.380037	7.29145	0.532124	10.2086	0.64171	11.2467	0.892429	15.506	0.327796	6.25512	0.50214	9.59002	0.758935	13.3459
0.309059	5.32984	0.100082	1.86998	0.383202	7.22306	0.534215	10.0687	0.643228	11.1613	0.894125	15.2879	0.332368	6.23157	0.504823	9.47271	0.760823	13.1635
0.312885	5.3105	0.102189	1.87668	0.386416	7.15793	0.536361	9.93471	0.644436	11.0952	0.895843	15.0771	0.336946	6.20896	0.507536	9.35998	0.762735	12.9872
0.316635	5.29048	0.104296	1.88315	0.389679	7.09591	0.538564	9.80627	0.645328	11.0473	0.897585	14.8732	0.341532	6.18722	0.510279	9.25161	0.764672	12.8169
0.320306	5.26979	0.106402	1.88939	0.392994	7.03688	0.540822	9.68313	0.645901	11.0169	0.89935	14.6759	0.346122	6.16631	0.513052	9.14735	0.766634	12.6521
0.323899	5.24844	0.108507	1.89542	0.39636	6.98069	0.543137	9.56502	0.646727	10.9737	0.901138	14.4848	0.350718	6.14616	0.515853	9.04701	0.768619	12.4928
0.327411	5.22645	0.110612	1.90125	0.399779	6.92725	0.545509	9.45171	0.647629	10.9273	0.902948	14.2998	0.355317	6.12673	0.518682	8.95039	0.770628	12.3386
0.330844	5.20385	0.112717	1.90688	0.403253	6.87643	0.547937	9.34295	0.64886	10.8651	0.904781	14.1205	0.35992	6.10797	0.521539	8.85729	0.772661	12.1893
0.334196	5.18065	0.11482	1.91233	0.406782	6.82813	0.550421	9.23855	0.650427	10.788	0.906637	13.9466	0.364526	6.08984	0.524424	8.76755	0.774717	12.0447
0.337467	5.15689	0.116923	1.9176	0.410367	6.78223	0.552962	9.13828	0.652336	10.6968	0.908514	13.778	0.369133	6.0723	0.527335	8.681	0.776797	11.9046
0.34066	5.1326	0.119026	1.92271	0.414009	6.73865	0.555559	9.04197	0.654594	10.5928	0.910414	13.6145	0.373742	6.05531	0.530273	8.59749	0.778899	11.7688
0.343773	5.1078	0.121128	1.92765	0.417706	6.69728	0.558211	8.94944	0.65721	10.4772	0.912336	13.4558	0.378351	6.03883	0.533236	8.51688	0.78075	11.6538
0.346809	5.08255	0.123229	1.93244	0.421461	6.65802	0.560919	8.8605	0.659853	10.3654	0.914279	13.3016	0.38296	6.02283	0.536224	8.43903	0.782341	11.5581
0.349768	5.05688	0.12533	1.93708	0.425272	6.62077	0.563682	8.775	0.662523	10.2572	0.916244	13.1519	0.387569	6.00729	0.539238	8.36382	0.783665	11.4806
0.352653	5.03082	0.127431	1.94158	0.429139	6.58545	0.566499	8.69278	0.665218	10.1525	0.91823	13.0065	0.392176	5.99217	0.542276	8.29113	0.784719	11.4204
0.355465	5.00442	0.12953	1.94595	0.433061	6.55196	0.569371	8.6137	0.66794	10.0511	0.920238	12.8652	0.396782	5.97744	0.545338	8.22084	0.785497	11.3766
0.357858	4.98117	0.131629	1.95019	0.437037	6.52021	0.572296	8.53761	0.670686	9.95288	0.922267	12.7277	0.401385	5.96309	0.548424	8.15285	0.785996	11.3488
0.359856	4.96119	0.133728	1.95431	0.441066	6.49011	0.575274	8.46439	0.673458	9.85772	0.924317	12.5941	0.405984	5.94907	0.551533	8.08706	0.786716	11.3092
0.361481	4.94457	0.135826	1.95831	0.445147	6.46157	0.578305	8.39392	0.676255	9.76548	0.926387	12.4641	0.41058	5.93538	0.554666	8.02338	0.787501	11.2666
0.362747	4.93137	0.137924	1.96219	0.449278	6.43451	0.581387	8.32606	0.679077	9.67605	0.928478	12.3376	0.415171	5.92199	0.55782	7.96171	0.788574	11.2094
0.363669	4.92163	0.140021	1.96597	0.453457	6.40884	0.58452	8.26071	0.681923	9.5893	0.930589	12.2144	0.419757	5.90888	0.560997	7.90198	0.789937	11.1382
0.364254	4.91539	0.142118	1.96964	0.457682	6.38449	0.587704	8.19775	0.684793	9.50513	0.932721	12.0945	0.424338	5.89603	0.564196	7.8441	0.791597	11.0537
0.36509	4.9064	0.144214	1.97321	0.461951	6.36137	0.590936	8.1371	0.687688	9.42344	0.934595	11.9925	0.428912	5.88342	0.567417	7.78799	0.793558	10.9569
0.365991	4.89661	0.146309	1.97669	0.466263	6.3394	0.594218	8.07864	0.690606	9.34412	0.936205	11.9074	0.433479	5.87104	0.570659	7.73359	0.79583	10.8487
0.367204	4.88327	0.148405	1.98007	0.470614	6.31853	0.597547	8.02228	0.693547	9.2671	0.937544	11.8383	0.438038	5.85886	0.573922	7.68083	0.798122	10.7435
0.368717	4.86635	0.1505	1.98336	0.475004	6.29867	0.600922	7.96793	0.696512	9.19228	0.938608	11.7844	0.44259	5.84687	0.577206	7.62965	0.800435	10.6411
0.370517	4.84584	0.152594	1.98657	0.479429	6.27976	0.604344	7.91552	0.6995	9.11958	0.939394	11.7452	0.447132	5.83507	0.58051	7.57998	0.802768	10.5416
0.372588	4.82174	0.154688	1.9897	0.483887	6.26175	0.607811	7.86495	0.702511	9.04892	0.939898	11.7203	0.451665	5.82342	0.583835	7.53176	0.805122	10.4447
0.374913	4.79402	0.156782	1.99275	0.488377	6.24456	0.611322	7.81614	0.705545	8.98023	0.940624	11.6847	0.456188	5.81192	0.58718	7.48495	0.807496	10.3504
0.377186	4.7663	0.158875	1.99572	0.492896	6.22815	0.614876	7.76904	0.708601	8.91342	0.941416	11.6464	0.460701	5.80055	0.590545	7.43948	0.80989	10.2586
0.379408	4.73858	0.160968	1.99862	0.497443	6.21246	0.618472	7.72355	0.711679	8.84845	0.942497	11.5949	0.465202	5.78931	0.593929	7.39532	0.812304	10.1691
0.381581	4.71091	0.16306	2.00145	0.502015	6.19744	0.622109	7.67962	0.71478	8.78523	0.94387	11.5306	0.469691	5.77818	0.597333	7.35241	0.814737	10.082
0.383709	4.68331	0.165152	2.00421	0.506609	6.18305	0.625787	7.63718	0.717903	8.72371	0.945541	11.4542	0.474167	5.76715	0.600757	7.31071	0.81719	9.99711
0.385792	4.6558	0.167244	2.0069	0.511226	6.16924	0.629503	7.59617	0.721048	8.66384	0.947515	11.3663	0.47863	5.7562	0.6042	7.27018	0.819662	9.91434
0.387834	4.6284	0.169335	2.00953	0.515862	6.15597	0.633259	7.55653	0.724214	8.60555	0.949797	11.2677	0.483079	5.74533	0.607661	7.23077	0.822153	9.83365
0.389837	4.60113	0.171426	2.0121	0.520515	6.14321	0.637051	7.5182	0.727402	8.54878	0.952098	11.1715	0.487514	5.73453	0.611142	7.19245	0.824662	9.75496
0.391801	4.57402	0.173517	2.0146	0.525186	6.13091	0.64088	7.48113	0.730611	8.4935	0.954418	11.0777	0.491933	5.72379	0.614642	7.15518	0.827191	9.6782
0.39373	4.54708	0.175607	2.01706	0.52987	6.11904	0.644744	7.44526	0.733842	8.43965	0.956756	10.986	0.496337	5.71309	0.618161	7.11893	0.829737	9.60331
0.395625	4.52033	0.177698	2.01945	0.534568	6.10758	0.648643	7.41055	0.737094	8.38718	0.959113	10.8965	0.500724	5.70243	0.621698	7.08366	0.832302	9.53023
0.397488	4.49378	0.179787	2.0218	0.539278	6.09649	0.652575	7.37696	0.740367	8.33605	0.961488	10.8091	0.505094	5.69181	0.625254	7.04934	0.834885	9.4589
0.39932	4.46743	0.181877	2.02409	0.543998	6.08575	0.65654	7.34442	0.743661	8.28622	0.963881	10.7236	0.509446	5.6812	0.628828	7.01595	0.837486	9.38926
0.401123	4.44131	0.183966	2.02633	0.548727	6.07533	0.660537	7.31291	0.746977	8.23764	0.966292	10.6402	0.51378	5.67061	0.632422	6.98344	0.840105	9.32125
0.402899	4.41543	0.186055	2.02852	0.553464	6.06521	0.664564	7.28238	0.750313	8.19027	0.968721	10.5586	0.518094	5.66003	0.636033	6.9518	0.842741	9.25483
0.404649	4.38978	0.188144	2.03067	0.558207	6.05537	0.668621	7.25279	0.75367	8.14409	0.971167	10.4788	0.522389	5.64944	0.639663	6.921	0.845394	9.18994
0.406374	4.36439	0.190233	2.03277	0.562956	6.04578	0.672707	7.2241	0.757048	8.09905	0.973631	10.4009	0.526663	5.63885	0.643312	6.89101	0.848065	9.12654
0.408077	4.33925	0.192321	2.03482	0.56771	6.03643	0.676821	7.19628	0.760446	8.05512	0.976112	10.3246	0.530916	5.62824	0.646979	6.86181	0.850753	9.06458
0.409757	4.31437	0.194409	2.03684	0.572467	6.0273	0.680962	7.16929	0.763865	8.01227	0.97861	10.25	0.535148	5.61762	0.650665	6.83338	0.853458	9.00402
0.411416	4.28976	0.196497	2.03881	0.577226	6.01838	0.685129	7.1431	0.767306	7.97046	0.981125	10.177	0.539357	5.60696	0.654369	6.80568	0.85618	8.94481
0.413056	4.26542	0.198584	2.04074	0.581988	6.00964	0.689322	7.11767	0.770766	7.92966	0.983657	10.1056	0.543543	5.59628	0.658091	6.77871	0.858919	8.88692
0.414677	4.24136	0.200672	2.04263	0.58675	6.00108	0.693539	7.09298	0.774248	7.88985	0.986205	10.0358	0.547706	5.58556	0.661831	6.75244	0.861674	8.8303
0.416281	4.21757	0.202759	2.04449	0.591511	5.99268	0.69778	7.06899	0.77775	7.851	0.98877	9.96736	0.551844	5.57479	0.66559	6.72685	0.864445	8.77492
0.417869	4.19407	0.204846	2.04631	0.596272	5.98442	0.702043	7.04568	0.781273	7.81308	0.991351	9.9004	0.555958	5.56398	0.669368	6.70191	0.867233	8.72074
0.41944	4.17084	0.206932	2.04809	0.601032	5.97631	0.706328	7.02302	0.784817	7.77607	0.993949	9.83483	0.560047	5.55312	0.673163	6.67763	0.870037	8.66773
0.420998	4.14789	0.209019	2.04984	0.605789	5.96831	0.710635	7.00098	0.788382	7.73994	0.996563	9.77062	0.564109	5.5422	0.676977	6.65396	0.872857	8.61585
0.422541	4.12523	0.211105	2.05155	0.610543	5.96044	0.714961	6.97954	0.791967	7.70467	0.999192	9.70772	0.568145	5.53123	0.68081	6.63091	0.875693	8.56508
0.424071	4.10285	0.213191	2.05324	0.615293	5.95267	0.719307	6.95867	0.795574	7.67024	1.00184	9.64611	0.572155	5.52019	0.68466	6.60844	0.878545	8.51537
0.42559	4.08076	0.215277	2.05489	0.620038	5.945	0.723672	6.93836	0.799202	7.63662			0.576137	5.50909	0.688529	6.58655	0.881412	8.4667
0.427096	4.05894	0.217363	2.05651	0.624779	5.93741	0.728055	6.91858	0.802851	7.60379			0.580091	5.49791	0.692415	6.56521	0.884295	8.41905
0.428592	4.03741	0.219449	2.0581	0.629515	5.92991	0.732454	6.8993	0.806522	7.57174			0.584016	5.48667	0.69632	6.54442	0.887193	8.37238
0.430078	4.01616	0.221534	2.05966	0.634244	5.92248	0.73687	6.88051	0.810214	7.54045			0.587913	5.47536	0.700243	6.52416	0.890107	8.32666
0.431554	3.99519	0.223619	2.06119	0.638966	5.91511	0.741301	6.86218	0.813928	7.50989			0.591781	5.46396	0.704183	6.50441	0.893036	8.28188
0.433022	3.97449	0.225704	2.0627	0.643681	5.90781	0.745746	6.84431	0.817663	7.48006			0.595619	5.4525	0.708141	6.48516	0.89598	8.23801
0.434481	3.95407	0.227789	2.06418	0.648389	5.90056	0.750206	6.82686	0.82142	7.45092			0.599427	5.44095	0.712117	6.4664	0.89894	8.19502
0.435932	3.93392	0.229874	2.06563	0.653088	5.89336	0.754678	6.80982	0.8252	7.42248			0.603205	5.42933	0.71611	6.4481	0.901914	8.15288
0.437376	3.91405	0.231959	2.06705	0.657779	5.8862	0.759163	6.79318	0.829002	7.3947			0.606952	5.41762	0.72012	6.43027	0.904904	8.11159
0.438814	3.89444	0.234043	2.06846	0.662461	5.87907	0.76366	6.77692	0.832826	7.36759			0.610669	5.40584	0.724148	6.41288	0.907908	8.07111
0.440245	3.8751	0.236128	2.06983	0.667133	5.87199	0.768167	6.76101	0.836673	7.34111			0.614354	5.39398	0.728192	6.39592	0.910927	8.03143
0.44167	3.85602	0.238212	2.07119	0.671795	5.86492	0.772684	6.74546	0.840543	7.31527			0.618008	5.38203	0.732253	6.37939	0.91396	7.99252
0.44309	3.8372	0.240296	2.07252	0.676447	5.85789	0.777211	6.73023	0.844436	7.29004			0.62163	5.37001	0.73633	6.36326	0.917008	7.95436
0.444505	3.81865	0.24238	2.07383	0.681088	5.85087	0.781745	6.71532	0.848353	7.26541			0.625221	5.35791	0.740424	6.34753	0.920071	7.91695
0.445915	3.80034	0.244464	2.07512	0.685717	5.84387	0.786288	6.70072	0.852293	7.24137			0.628781	5.34573	0.744533	6.33218	0.923148	7.88025
0.447321	3.78229	0.246548	2.07638	0.690336	5.83688	0.790838	6.6864	0.856257	7.21791			0.632308	5.33347	0.748658	6.3172	0.926239	7.84425
0.448724	3.76449	0.248631	2.07763	0.694942	5.8299	0.795394	6.67236	0.860245	7.19502			0.635803	5.32113	0.752798	6.30259	0.929345	7.80894
0.450122	3.74694	0.250715	2.07885	0.699536	5.82293	0.799956	6.65859	0.864257	7.17269			0.639267	5.30872	0.756953	6.28833	0.932465	7.77429
0.451518	3.72963	0.252798	2.08006	0.704117	5.81596	0.804522	6.64506	0.868294	7.1509			0.642698	5.29624	0.761123	6.2744	0.935599	7.7403
0.45291	3.71256	0.254881	2.08125	0.708685	5.80899	0.809093	6.63178	0.872356	7.12964			0.646097	5.28369	0.765307	6.26081	0.938748	7.70694
0.4543	3.69573	0.256964	2.08241	0.71324	5.80202	0.813667	6.61873	0.876442	7.10891			0.649465	5.27106	0.769505	6.24753	0.94191	7.6742
0.455687	3.67913	0.259047	2.08356	0.717782	5.79504	0.818244	6.6059	0.880554	7.0887			0.652801	5.25837	0.773716	6.23456	0.945086	7.64207
0.457073	3.66276	0.26113	2.08469	0.722309	5.78805	0.822824	6.59327	0.884692	7.06898			0.656104	5.24562	0.77794	6.22189	0.948276	7.61053
0.458456	3.64662	0.263213	2.08581	0.726823	5.78106	0.827405	6.58085	0.888855	7.04977			0.659376	5.2328	0.782177	6.2095	0.95148	7.57957
0.459838	3.63071	0.265296	2.0869	0.731321	5.77405	0.831987	6.56862	0.893044	7.03104			0.662617	5.21992	0.786426	6.19739	0.954698	7.54917
0.461219	3.61502	0.267379	2.08798	0.735805	5.76703	0.836569	6.55657	0.89726	7.01278			0.665826	5.20699	0.790687	6.18556	0.95793	7.51933
0.462598	3.59954	0.269461	2.08905	0.740273	5.75999	0.841151	6.54469	0.901501	6.99499			0.669004	5.19399	0.794959	6.17398	0.961175	7.49002
0.463977	3.58428	0.271543	2.09009	0.744727	5.75293	0.845733	6.53298	0.905769	6.97767			0.672151	5.18095	0.799242	6.16265	0.964434	7.46125
0.465355	3.56924	0.273626	2.09113	0.749164	5.74586	0.850313	6.52143	0.910063	6.96079			0.675267	5.16786	0.803536	6.15156	0.967707	7.43299
0.466732	3.5544	0.275708	2.09214	0.753585	5.73876	0.854892	6.51002	0.914384	6.94435			0.678353	5.15471	0.807839	6.14071	0.970993	7.40523
0.468108	3.53977	0.27779	2.09314	0.757991	5.73164	0.859468	6.49877	0.918732	6.92835			0.681408	5.14153	0.812152	6.13008	0.974292	7.37797
0.469485	3.52534	0.279872	2.09413	0.762379	5.7245	0.864042	6.48765	0.923107	6.91277			0.684433	5.1283	0.816474	6.11966	0.977605	7.35119
0.470862	3.51111	0.281954	2.0951	0.766751	5.71733	0.868613	6.47666	0.927508	6.8976			0.687428	5.11504	0.820805	6.10946	0.980931	7.32489
0.472238	3.49708	0.284036	2.09606	0.771106	5.71013	0.873181	6.4658	0.931936	6.88284			0.690394	5.10173	0.825143	6.09945	0.984271	7.29904
0.473615	3.48325	0.286118	2.09701	0.775444	5.70291	0.877745	6.45506	0.936391	6.86848			0.69333	5.0884	0.829489	6.08964	0.987623	7.27365
0.474992	3.4696	0.2882	2.09794	0.779765	5.69565	0.882305	6.44444	0.940872	6.85451			0.696237	5.07503	0.833843	6.08001	0.990989	7.2487
0.47637	3.45614	0.290281	2.09886	0.784067	5.68837	0.88686	6.43393	0.945381	6.84092			0.699116	5.06164	0.838203	6.07056	0.994368	7.22419
0.477748	3.44287	0.292363	2.09976	0.788352	5.68106	0.891412	6.42353	0.949915	6.8277			0.701966	5.04823	0.842569	6.06128	0.997761	7.20009
0.479128	3.42978	0.294445	2.10066	0.792619	5.67371	0.895959	6.41324	0.954476	6.81484			0.704789	5.03479	0.846941	6.05217	1.00117	7.17642
0.480508	3.41687	0.296526	2.10154	0.796868	5.66633	0.900501	6.40305	0.959063	6.80234			0.707583	5.02133	0.851317	6.04321		
0.481889	3.40414	0.298607	2.10241	0.801098	5.65892	0.905038	6.39296	0.963676	6.79019			0.71035	5.00786	0.855699	6.03441		
0.483271	3.39158	0.300689	2.10326	0.805309	5.65148	0.90957	6.38297	0.968314	6.77837			0.713091	4.99437	0.860085	6.02575		
0.484654	3.3792	0.30277	2.10411	0.809502	5.644	0.914098	6.37307	0.972977	6.76688			0.715804	4.98088	0.864475	6.01722		
0.486039	3.36698	0.304851	2.10494	0.813676	5.63648	0.91862	6.36326	0.977666	6.75572			0.718492	4.96737	0.868868	6.00883		
0.487425	3.35493	0.306932	2.10577	0.81783	5.62893	0.923137	6.35355	0.982379	6.74486			0.721153	4.95386	0.873264	6.00057		
0.488813	3.34304	0.309013	2.10658	0.821965	5.62135	0.92765	6.34393	0.987116	6.73431			0.723789	4.94035	0.877662	5.99243		
0.490202	3.33131	0.311094	2.10738	0.826081	5.61372	0.932157	6.33439	0.991877	6.72405			0.726399	4.92683	0.882063	5.98441		
0.491592	3.31974	0.313175	2.10817	0.830177	5.60607	0.93666	6.32494	0.996662	6.71408			0.728985	4.91332	0.886465	5.97649		
0.492985	3.30833	0.315256	2.10895	0.834254	5.59837	0.941158	6.31558	1.00147	6.70438			0.731546	4.89982	0.890868	5.96869		
0.494379	3.29707	0.317337	2.10972	0.83831	5.59064	0.945651	6.30631					0.734083	4.88632	0.895271	5.96098		
0.495775	3.28596	0.319418	2.11048	0.842347	5.58287	0.95014	6.29712					0.736596	4.87282	0.899675	5.95337		
0.497173	3.27501	0.321498	2.11123	0.846364	5.57507	0.954625	6.28801					0.739086	4.85934	0.904079	5.94585		
0.498573	3.26419	0.323579	2.11197	0.85036	5.56722	0.959105	6.27899					0.741553	4.84588	0.908482	5.93842		
0.499975	3.25353	0.325659	2.11271	0.854336	5.55934	0.963581	6.27005					0.743997	4.83243	0.912884	5.93108		
0.501379	3.243	0.32774	2.11343	0.858292	5.55143	0.968054	6.26119					0.746418	4.819	0.917285	5.92381		
0.502785	3.23262	0.32982	2.11414	0.862227	5.54348	0.972523	6.25242					0.748818	4.80558	0.921683	5.91662		
0.504193	3.22237	0.331901	2.11485	0.866142	5.53549	0.976988	6.24373					0.751196	4.79219	0.92608	5.90949		
0.505604	3.21225	0.333981	2.11554	0.870037	5.52746	0.98145	6.23512					0.753553	4.77882	0.930474	5.90244		
0.507016	3.20227	0.336061	2.11623	0.87391	5.51941	0.985909	6.22659					0.755889	4.76548	0.934865	5.89545		
0.508432	3.19243	0.338142	2.11691	0.877764	5.51131	0.990365	6.21814					0.758205	4.75217	0.939252	5.88852		
0.509849	3.18271	0.340222	2.11758	0.881596	5.50318	0.994818	6.20978					0.7605	4.73888	0.943636	5.88165		
0.511269	3.17311	0.342302	2.11825	0.885408	5.49502	0.999268	6.20149					0.762776	4.72562	0.948016	5.87483		
0.512691	3.16365	0.344382	2.1189	0.889199	5.48682	1.00372	6.19328					0.765032	4.7124	0.952391	5.86806		
0.514115	3.1543	0.346462	2.11955	0.892969	5.47858							0.767269	4.69921	0.956761	5.86134		
0.515543	3.14508	0.348542	2.12019	0.896718	5.47032							0.769487	4.68606	0.961126	5.85467		
0.516972	3.13598	0.350622	2.12082	0.900447	5.46202							0.771687	4.67294	0.965486	5.84804		
0.518404	3.12699	0.352702	2.12145	0.904155	5.45369							0.773869	4.65986	0.96984	5.84144		
0.519839	3.11812	0.354782	2.12207	0.907842	5.44533							0.776033	4.64682	0.974187	5.83488		
0.521276	3.10937	0.356862	2.12268	0.911508	5.43694							0.77818	4.63383	0.978528	5.82836		
0.522716	3.10072	0.358941	2.12328	0.915154	5.42851							0.780309	4.62087	0.982863	5.82187		
0.524158	3.09219	0.361021	2.12388	0.918779	5.42006							0.782422	4.60796	0.98719	5.81541		
0.525603	3.08376	0.363101	2.12447	0.922383	5.41158							0.784518	4.59509	0.991509	5.80897		
0.527051	3.07545	0.36518	2.12505	0.925967	5.40307							0.786599	4.58227	0.995821	5.80256		
0.528501	3.06723	0.36726	2.12563	0.92953	5.39453							0.788663	4.56949	1.00013	5.79617		
0.529954	3.05912	0.36934	2.1262	0.933072	5.38597							0.790712	4.55677				
0.53141	3.05112	0.371419	2.12676	0.936594	5.37738							0.792746	4.54409				
0.532868	3.04321	0.373499	2.12732	0.940096	5.36876							0.794765	4.53146				
0.534329	3.0354	0.375578	2.12787	0.943577	5.36012							0.796769	4.51889				
0.535793	3.0277	0.377658	2.12842	0.947038	5.35146							0.79876	4.50636				
0.53726	3.02008	0.379737	2.12896	0.950478	5.34277							0.800736	4.49389				
0.538729	3.01256	0.381816	2.12949	0.953899	5.33407							0.802698	4.48147				
0.540201	3.00514	0.383896	2.13002	0.957299	5.32533							0.804647	4.46911				
0.541675	2.9978	0.385975	2.13055	0.960679	5.31658							0.806583	4.4568				
0.543153	2.99056	0.388054	2.13106	0.964039	5.30781							0.808507	4.44454				
0.544633	2.98341	0.390133	2.13157	0.96738	5.29902							0.810417	4.43234				
0.546116	2.97634	0.392212	2.13208	0.9707	5.29021							0.812316	4.4202				
0.547602	2.96936	0.394292	2.13258	0.974001	5.28138							0.814202	4.40812				
0.54909	2.96246	0.396371	2.13308	0.977283	5.27254							0.816076	4.39609				
0.550581	2.95565	0.39845	2.13357	0.980544	5.26368							0.817939	4.38412				
0.552075	2.94892	0.400529	2.13406	0.983787	5.2548							0.819791	4.37221				
0.553572	2.94227	0.402608	2.13454	0.98701	5.24591							0.821632	4.36037				
0.555072	2.93571	0.404687	2.13501	0.990214	5.23701							0.823462	4.34858				
0.556574	2.92922	0.406766	2.13548	0.993398	5.22809							0.825281	4.33685				
0.558079	2.92281	0.408845	2.13595	0.996564	5.21916							0.827091	4.32518				
0.559587	2.91647	0.410923	2.13641	0.999711	5.21021							0.82889	4.31357				
0.561097	2.91021	0.413002	2.13687	1.00284	5.20126							0.830679	4.30202				
0.56261	2.90403	0.415081	2.13732									0.832459	4.29054				
0.564126	2.89792	0.41716	2.13777									0.834229	4.27911				
0.565645	2.89188	0.419239	2.13821									0.83599	4.26775				
0.567167	2.88591	0.421317	2.13865									0.837743	4.25645				
0.568691	2.88001	0.423396	2.13909									0.839486	4.24521				
0.570218	2.87418	0.425475	2.13952									0.841221	4.23404				
0.571747	2.86842	0.427553	2.13995									0.842948	4.22293				
0.57328	2.86273	0.429632	2.14037									0.844667	4.21188				
0.574815	2.8571	0.431711	2.14079									0.846377	4.20089				
0.576352	2.85154	0.433789	2.1412									0.84808	4.18997				
0.577893	2.84604	0.435868	2.14161									0.849776	4.17911				
0.579436	2.84061	0.437946	2.14202									0.851464	4.16831				
0.580981	2.83523	0.440025	2.14242									0.853144	4.15758				
0.58253	2.82992	0.442103	2.14282									0.854818	4.1469				
0.584081	2.82467	0.444182	2.14322									0.856485	4.1363				
0.585634	2.81948	0.44626	2.14361									0.858146	4.12575				
0.587191	2.81435	0.448339	2.144									0.8598	4.11527				
0.58875	2.80928	0.450417	2.14438									0.861447	4.10485				
0.590311	2.80426	0.452495	2.14476									0.863089	4.09449				
0.591875	2.7993	0.454574	2.14514									0.864724	4.0842				
0.593442	2.7944	0.456652	2.14552									0.866354	4.07397				
0.595011	2.78955	0.45873	2.14589									0.867978	4.0638				
0.596583	2.78476	0.460808	2.14626									0.869597	4.0537				
0.598158	2.78001	0.462887	2.14662									0.87121	4.04365				
0.599735	2.77533	0.464965	2.14698									0.872817	4.03367				
0.601314	2.77069	0.467043	2.14734									0.87442	4.02375				
0.602896	2.7661	0.469121	2.14769									0.876018	4.0139				
0.604481	2.76157	0.471199	2.14805									0.877611	4.0041				
0.606068	2.75708	0.473278	2.14839									0.879199	3.99437				
0.607657	2.75265	0.475356	2.14874									0.880783	3.9847				
0.609249	2.74826	0.477434	2.14908									0.882362	3.97509				
0.610844	2.74392	0.479512	2.14942									0.883937	3.96554				
0.612441	2.73963	0.48159	2.14976									0.885507	3.95605				
0.61404	2.73538	0.483668	2.15009									0.887074	3.94662				
0.615642	2.73118	0.485746	2.15042									0.888637	3.93725				
0.617246	2.72703	0.487824	2.15075									0.890195	3.92794				
0.618853	2.72292	0.489902	2.15108									0.891751	3.9187				
0.620462	2.71885	0.49198	2.1514									0.893302	3.90951				
0.622074	2.71483	0.494058	2.15172									0.89485	3.90038				
0.623688	2.71085	0.496136	2.15204									0.896395	3.89131				
0.625304	2.70692	0.498214	2.15235									0.897936	3.8823				
0.626922	2.70302	0.500291	2.15266									0.899474	3.87334				
0.628543	2.69917	0.502369	2.15297									0.901009	3.86445				
0.630166	2.69535	0.504447	2.15328									0.902541	3.85561				
0.631792	2.69158	0.506525	2.15359									0.90407	3.84683				
0.63342	2.68785	0.508603	2.15389									0.905596	3.83811				
0.63505	2.68415	0.51068	2.15419									0.90712	3.82945				
0.636683	2.6805	0.512758	2.15448									0.908641	3.82084				
0.638317	2.67688	0.514836	2.15478									0.910159	3.81229				
0.639954	2.6733	0.516914	2.15507									0.911675	3.80379				
0.641593	2.66975	0.518991	2.15536									0.913188	3.79536				
0.643235	2.66625	0.521069	2.15565									0.9147	3.78697				
0.644879	2.66278	0.523147	2.15593									0.916209	3.77864				
0.646524	2.65934	0.525224	2.15622									0.917716	3.77037				
0.648172	2.65594	0.527302	2.1565									0.91922	3.76215				
0.649823	2.65258	0.52938	2.15678									0.920723	3.75399				
0.651475	2.64925	0.531457	2.15705									0.922224	3.74588				
0.65313	2.64595	0.533535	2.15733									0.923723	3.73782				
0.654786	2.64269	0.535613	2.1576									0.925221	3.72982				
0.656445	2.63946	0.53769	2.15787									0.926716	3.72187				
0.658106	2.63626	0.539768	2.15814									0.92821	3.71397				
0.659769	2.6331	0.541845	2.15841									0.929703	3.70613				
0.661434	2.62996	0.543923	2.15867									0.931194	3.69834				
0.663102	2.62686	0.546	2.15893									0.932683	3.6906				
0.664771	2.62379	0.548078	2.15919									0.934171	3.68291				
0.666442	2.62075	0.550155	2.15945									0.935658	3.67527				
0.668116	2.61774	0.552233	2.15971									0.937144	3.66768				
0.669791	2.61476	0.55431	2.15996									0.938628	3.66014				
0.671469	2.61181	0.556387	2.16021									0.940111	3.65266				
0.673148	2.60888	0.558465	2.16046									0.941593	3.64522				
0.67483	2.60599	0.560542	2.16071									0.943075	3.63783				
0.676513	2.60313	0.56262	2.16096									0.944555	3.6305				
0.678199	2.60029	0.564697	2.1612									0.946034	3.62321				
0.679886	2.59748	0.566774	2.16145									0.947512	3.61597				
0.681576	2.5947	0.568852	2.16169									0.94899	3.60877				
0.683267	2.59194	0.570929	2.16193									0.950467	3.60163				
0.68496	2.58922	0.573006	2.16217									0.951943	3.59453				
0.686655	2.58652	0.575084	2.1624									0.953418	3.58748				
0.688352	2.58384	0.577161	2.16264									0.954893	3.58048				
0.690051	2.58119	0.579238	2.16287									0.956367	3.57352				
0.691752	2.57857	0.581316	2.1631									0.95784	3.56661				
0.693455	2.57597	0.583393	2.16333									0.959314	3.55975				
0.69516	2.57339	0.58547	2.16356									0.960786	3.55293				
0.696866	2.57084	0.587547	2.16378									0.962258	3.54615				
0.698574	2.56832	0.589624	2.16401									0.96373	3.53942				
0.700284	2.56582	0.591702	2.16423									0.965202	3.53274				
0.701996	2.56334	0.593779	2.16445									0.966673	3.5261				
0.70371	2.56088	0.595856	2.16467									0.968144	3.51951				
0.705426	2.55845	0.597933	2.16489									0.969615	3.51295				
0.707143	2.55604	0.60001	2.16511									0.971085	3.50644				
0.708862	2.55366	0.602087	2.16532									0.972555	3.49998				
0.710583	2.55129	0.604165	2.16554									0.974026	3.49356				
0.712305	2.54895	0.606242	2.16575									0.975496	3.48718				
0.71403	2.54663	0.608319	2.16596									0.976966	3.48084				
0.715756	2.54433	0.610396	2.16617									0.978436	3.47454				
0.717484	2.54205	0.612473	2.16638									0.979906	3.46829				
0.719213	2.5398	0.61455	2.16659									0.981376	3.46207				
0.720944	2.53756	0.616627	2.16679									0.982846	3.4559				
0.722677	2.53535	0.618704	2.167									0.984316	3.44977				
0.724412	2.53315	0.620781	2.1672									0.985787	3.44368				
0.726148	2.53098	0.622858	2.1674									0.987257	3.43763				
0.727886	2.52882	0.624935	2.1676									0.988728	3.43162				
0.729625	2.52669	0.627012	2.1678									0.990199	3.42564				
0.731367	2.52457	0.629089	2.168									0.99167	3.41971				
0.733109	2.52248	0.631166	2.16819									0.993142	3.41382				
0.734854	2.5204	0.633243	2.16839									0.994613	3.40796				
0.7366	2.51834	0.63532	2.16858									0.996085	3.40214				
0.738347	2.5163	0.637397	2.16877									0.997558	3.39636				
0.740097	2.51428	0.639474	2.16896									0.99903	3.39062				
0.741847	2.51227	0.641551	2.16915									1.0005	3.38492				
0.7436	2.51029	0.643627	2.16934														
0.745354	2.50832	0.645704	2.16953														
0.747109	2.50637	0.647781	2.16971														
0.748866	2.50443	0.649858	2.1699														
0.750624	2.50252	0.651935	2.17008														
0.752384	2.50062	0.654012	2.17027														
0.754146	2.49873	0.656089	2.17045														
0.755909	2.49687	0.658165	2.17063														
0.757674	2.49502	0.660242	2.17081														
0.75944	2.49318	0.662319	2.17098														
0.761207	2.49137	0.664396	2.17116														
0.762976	2.48956	0.666473	2.17134														
0.764746	2.48778	0.668549	2.17151														
0.766518	2.48601	0.670626	2.17168														
0.768292	2.48425	0.672703	2.17186														
0.770066	2.48251	0.67478	2.17203														
0.771842	2.48079	0.676856	2.1722														
0.77362	2.47908	0.678933	2.17237														
0.775399	2.47738	0.68101	2.17254														
0.777179	2.4757	0.683087	2.1727														
0.778961	2.47403	0.685163	2.17287														
0.780744	2.47238	0.68724	2.17303														
0.782528	2.47074	0.689317	2.1732														
0.784314	2.46911	0.691393	2.17336														
0.786101	2.4675	0.69347	2.17352														
0.78789	2.46591	0.695546	2.17368														
0.78968	2.46432	0.697623	2.17384														
0.791471	2.46275	0.6997	2.174														
0.793263	2.46119	0.701776	2.17416														
0.795057	2.45965	0.703853	2.17432														
0.796852	2.45812	0.705929	2.17448														
0.798648	2.4566	0.708006	2.17463														
0.800446	2.45509	0.710083	2.17479														
0.802245	2.4536	0.712159	2.17494														
0.804045	2.45212	0.714236	2.17509														
0.805847	2.45065	0.716312	2.17524														
0.807649	2.44919	0.718389	2.1754														
0.809453	2.44774	0.720465	2.17555														
0.811259	2.44631	0.722542	2.17569														
0.813065	2.44489	0.724618	2.17584														
0.814873	2.44348	0.726695	2.17599														
0.816682	2.44208	0.728771	2.17614														
0.818492	2.44069	0.730848	2.17628														
0.820303	2.43932	0.732924	2.17643														
0.822115	2.43795	0.735001	2.17657														
0.823929	2.4366	0.737077	2.17672														
0.825744	2.43526	0.739154	2.17686														
0.82756	2.43392	0.74123	2.177														
0.829377	2.4326	0.743307	2.17714														
0.831195	2.43129	0.745383	2.17728														
0.833015	2.42999	0.747459	2.17742														
0.834835	2.4287	0.749536	2.17756														
0.836657	2.42742	0.751612	2.1777														
0.83848	2.42615	0.753689	2.17783														
0.840304	2.42489	0.755765	2.17797														
0.842129	2.42364	0.757841	2.17811														
0.843956	2.4224	0.759918	2.17824														
0.845783	2.42117	0.761994	2.17838														
0.847611	2.41995	0.76407	2.17851														
0.849441	2.41874	0.766147	2.17864														
0.851271	2.41754	0.768223	2.17877														
0.853103	2.41635	0.770299	2.1789														
0.854936	2.41517	0.772376	2.17903														
0.85677	2.414	0.774452	2.17916														
0.858605	2.41283	0.776528	2.17929														
0.86044	2.41168	0.778604	2.17942														
0.862277	2.41053	0.780681	2.17955														
0.864115	2.40939	0.782757	2.17968														
0.865955	2.40826	0.784833	2.1798														
0.867795	2.40714	0.786909	2.17993														
0.869636	2.40603	0.788986	2.18005														
0.871478	2.40493	0.791062	2.18018														
0.873321	2.40384	0.793138	2.1803														
0.875165	2.40275	0.795214	2.18042														
0.87701	2.40167	0.797291	2.18055														
0.878856	2.4006	0.799367	2.18067														
0.880703	2.39954	0.801443	2.18079														
0.882551	2.39849	0.803519	2.18091														
0.8844	2.39744	0.805595	2.18103														
0.88625	2.39641	0.807672	2.18115														
0.888101	2.39538	0.809748	2.18127														
0.889953	2.39435	0.811824	2.18138														
0.891806	2.39334	0.8139	2.1815														
0.89366	2.39233	0.815976	2.18162														
0.895515	2.39133	0.818052	2.18173														
0.89737	2.39034	0.820128	2.18185														
0.899227	2.38936	0.822204	2.18196														
0.901084	2.38838	0.824281	2.18208														
0.902943	2.38741	0.826357	2.18219														
0.904802	2.38645	0.828433	2.18231														
0.906662	2.38549	0.830509	2.18242														
0.908524	2.38454	0.832585	2.18253														
0.910386	2.3836	0.834661	2.18264														
0.912249	2.38267	0.836737	2.18275														
0.914112	2.38174	0.838813	2.18286														
0.915977	2.38082	0.840889	2.18297														
0.917843	2.3799	0.842965	2.18308														
0.919709	2.379	0.845041	2.18319														
0.921576	2.3781	0.847117	2.1833														
0.923445	2.3772	0.849193	2.18341														
0.925314	2.37631	0.851269	2.18351														
0.927183	2.37543	0.853345	2.18362														
0.929054	2.37456	0.855421	2.18373														
0.930926	2.37369	0.857497	2.18383														
0.932798	2.37282	0.859573	2.18394														
0.934671	2.37197	0.861649	2.18404														
0.936545	2.37112	0.863725	2.18414														
0.93842	2.37027	0.865801	2.18425														
0.940296	2.36943	0.867877	2.18435														
0.942173	2.3686	0.869953	2.18445														
0.94405	2.36778	0.872029	2.18456														
0.945928	2.36696	0.874105	2.18466														
0.947807	2.36614	0.876181	2.18476														
0.949687	2.36533	0.878257	2.18486														
0.951567	2.36453	0.880333	2.18496														
0.953448	2.36373	0.882408	2.18506														
0.95533	2.36294	0.884484	2.18516														
0.957213	2.36215	0.88656	2.18526														
0.959097	2.36137	0.888636	2.18535														
0.960981	2.3606	0.890712	2.18545														
0.962866	2.35983	0.892788	2.18555														
0.964752	2.35906	0.894864	2.18564														
0.966639	2.3583	0.896939	2.18574														
0.968526	2.35755	0.899015	2.18584														
0.970414	2.3568	0.901091	2.18593														
0.972303	2.35605	0.903167	2.18603														
0.974193	2.35532	0.905243	2.18612														
0.976083	2.35458	0.907319	2.18622														
0.977974	2.35385	0.909394	2.18631														
0.979866	2.35313	0.91147	2.1864														
0.981758	2.35241	0.913546	2.1865														
0.983652	2.3517	0.915622	2.18659														
0.985546	2.35099	0.917698	2.18668														
0.98744	2.35029	0.919773	2.18677														
0.989336	2.34959	0.921849	2.18686														
0.991232	2.34889	0.923925	2.18695														
0.993128	2.3482	0.926001	2.18704														
0.995026	2.34752	0.928076	2.18713														
0.996924	2.34684	0.930152	2.18722														
0.998823	2.34616	0.932228	2.18731														
1.00072	2.34549	0.934304	2.1874														
		0.936379	2.18749														
		0.938455	2.18757														
		0.940531	2.18766														
		0.942606	2.18775														
		0.944682	2.18784														
		0.946758	2.18792														
		0.948833	2.18801														
		0.950909	2.18809														
		0.952985	2.18818														
		0.95506	2.18826														
		0.957136	2.18835														
		0.959212	2.18843														
		0.961287	2.18851														
		0.963363	2.1886														
		0.965439	2.18868														
		0.967514	2.18876														
		0.96959	2.18884														
		0.971665	2.18893														
		0.973741	2.18901														
		0.975817	2.18909														
		0.977892	2.18917														
		0.979968	2.18925														
		0.982043	2.18933														
		0.984119	2.18941														
		0.986194	2.18949														
		0.98827	2.18957														
		0.990345	2.18965														
		0.992421	2.18972														
		0.994497	2.1898														
		0.996572	2.18988														
		0.998648	2.18996														
		1.00072	2.19003														
