Sym0		Asym0		Sym1		Sym2		Sym3		Sym4		Asym1		Asym2		Asym3	
465  Points		496  Points		218  Points		185  Points		172  Points		120  Points		325  Points		197  Points		161  Points	
Freq (MHz)	Vph (m/ms)	Freq (MHz)	Vph (m/ms)	Freq (MHz)	Vph (m/ms)	Freq (MHz)	Vph (m/ms)	Freq (MHz)	Vph (m/ms)	Freq (MHz)	Vph (m/ms)	Freq (MHz)	Vph (m/ms)	Freq (MHz)	Vph (m/ms)	Freq (MHz)	Vph (m/ms)
0.00242802	5.54107	5.03715e-005	0.0636347	0.27951	1677.68	0.48133	529.12	0.559023	1145.89	0.838535	1062.02	0.139776	330.416	0.419268	1066.35	0.698771	97103.5
0.00759037	5.5409	0.000238161	0.138203	0.27956	254.539	0.481362	261.414	0.559071	393.838	0.838573	487.186	0.139978	103.325	0.419318	316.497	0.698787	744.269
0.0127524	5.54073	0.000563303	0.21217	0.279684	137.776	0.481415	173.604	0.559165	237.817	0.838637	316.115	0.140389	61.4012	0.419424	185.868	0.698836	373.592
0.0179137	5.54042	0.00102299	0.28522	0.279883	94.5011	0.48149	129.965	0.559306	170.368	0.838729	233.978	0.141008	43.8168	0.419585	131.603	0.698916	249.409
0.0230741	5.54004	0.00161323	0.357039	0.280155	71.9567	0.481587	103.87	0.559493	132.75	0.838849	185.736	0.14183	34.1773	0.419801	101.894	0.699027	187.207
0.0282332	5.53955	0.0023292	0.427372	0.280501	58.1339	0.481705	86.5108	0.559726	108.762	0.838996	154	0.14285	28.1117	0.420071	83.1551	0.699171	149.854
0.0333908	5.53896	0.00316533	0.495998	0.280919	48.7981	0.481846	74.1319	0.560006	92.1362	0.839171	131.537	0.144063	23.9578	0.420396	70.261	0.699347	124.942
0.0385467	5.53827	0.00411541	0.562719	0.281411	42.074	0.482009	64.8599	0.560331	79.9364	0.839373	114.803	0.145461	20.9451	0.420776	60.8493	0.699554	107.145
0.0437005	5.53749	0.00517274	0.627369	0.281974	37.0037	0.482194	57.6564	0.560703	70.605	0.839602	101.855	0.147039	18.6678	0.42121	53.6796	0.699793	93.7965
0.0488518	5.53659	0.00633048	0.689833	0.282609	33.0466	0.482403	51.8995	0.56112	63.2383	0.839859	91.5396	0.148787	16.8917	0.421698	48.0379	0.700064	83.4159
0.0540005	5.5356	0.0075816	0.750021	0.283315	29.8744	0.482634	47.1938	0.561583	57.2763	0.840144	83.1289	0.150697	15.472	0.42224	43.4845	0.700366	75.1132
0.0591462	5.53449	0.00891907	0.807871	0.284092	27.2765	0.482888	43.2761	0.562091	52.3533	0.840455	76.1406	0.152763	14.3148	0.422836	39.7334	0.700701	68.3221
0.0642886	5.53329	0.0103361	0.863366	0.284937	25.1113	0.483167	39.9641	0.562644	48.2204	0.840794	70.2424	0.154975	13.356	0.423485	36.5908	0.701066	62.6649
0.0694274	5.53197	0.0118262	0.9165	0.285851	23.2804	0.483469	37.1279	0.563242	44.7022	0.841161	65.1982	0.157326	12.5509	0.424187	33.9208	0.701463	57.8802
0.0745622	5.53053	0.0133826	0.967282	0.286833	21.7127	0.483796	34.6723	0.563885	41.6718	0.841554	60.8354	0.159807	11.8668	0.424942	31.625	0.701892	53.781
0.0796927	5.52899	0.0149997	1.01576	0.287881	20.3564	0.484148	32.5257	0.564572	39.0349	0.841975	57.0251	0.162413	11.2799	0.42575	29.6306	0.702352	50.2304
0.0848186	5.52733	0.0166717	1.06198	0.288995	19.1721	0.484526	30.6336	0.565303	36.72	0.842423	53.6688	0.164778	10.8333	0.42661	27.8825	0.702843	47.1254
0.0899394	5.52555	0.0183933	1.106	0.290173	18.1297	0.484929	28.9536	0.566077	34.6719	0.842897	50.6903	0.16686	10.4927	0.427522	26.3382	0.703366	44.3876
0.0950548	5.52365	0.0201596	1.14791	0.291416	17.2057	0.485359	27.4521	0.566895	32.8476	0.843399	48.0294	0.168626	10.2354	0.428485	24.9646	0.70392	41.9557
0.100164	5.52163	0.0219661	1.18776	0.29272	16.3816	0.485815	26.1024	0.567756	31.2124	0.843928	45.6381	0.17005	10.0459	0.429499	23.7353	0.704505	39.7814
0.105268	5.51947	0.0238088	1.22565	0.294086	15.6424	0.486299	24.8828	0.56866	29.7389	0.844484	43.4775	0.171111	9.91369	0.430563	22.629	0.70512	37.8261
0.110365	5.51719	0.0256837	1.26165	0.295511	14.9761	0.486811	23.7756	0.569606	28.4044	0.845067	41.5161	0.171797	9.83212	0.431678	21.6285	0.705767	36.0586
0.115454	5.51477	0.0275875	1.29586	0.296996	14.3727	0.487352	22.766	0.570594	27.1904	0.845676	39.7276	0.172792	9.71876	0.432842	20.7196	0.706444	34.4531
0.120536	5.51221	0.029517	1.32837	0.298538	13.824	0.487922	21.842	0.571623	26.0815	0.846312	38.0904	0.173884	9.60053	0.434056	19.8906	0.707152	32.9887
0.12561	5.5095	0.0314695	1.35924	0.300136	13.3232	0.488521	20.9933	0.572694	25.0648	0.846975	36.586	0.175388	9.44753	0.435319	19.1316	0.70789	31.6476
0.130676	5.50665	0.0334423	1.38857	0.301789	12.8646	0.489152	20.2112	0.573805	24.1295	0.847665	35.1992	0.177321	9.26595	0.436629	18.4344	0.708659	30.4151
0.135732	5.50364	0.0354332	1.41644	0.303496	12.4431	0.489813	19.4883	0.574958	23.2664	0.848381	33.9167	0.1797	9.06251	0.437988	17.7919	0.709458	29.2786
0.140779	5.50048	0.03744	1.44292	0.305256	12.0548	0.490506	18.8182	0.57615	22.4676	0.849123	32.7274	0.182548	8.84402	0.439393	17.1981	0.710288	28.2275
0.145815	5.49715	0.039461	1.4681	0.307067	11.696	0.491231	18.1957	0.577382	21.7262	0.849892	31.6215	0.185888	8.61687	0.440845	16.6478	0.711147	27.2526
0.150841	5.49365	0.0414945	1.49203	0.308928	11.3636	0.49199	17.6158	0.578653	21.0366	0.850687	30.5906	0.1893	8.41175	0.442344	16.1367	0.712036	26.346
0.155855	5.48996	0.0432755	1.51193	0.310838	11.055	0.492782	17.0746	0.579963	20.3934	0.851508	29.6275	0.19278	8.22584	0.443888	15.6607	0.712955	25.5009
0.160856	5.4861	0.0447996	1.52823	0.31254	10.8036	0.49361	16.5684	0.581312	19.7924	0.852355	28.7258	0.196324	8.05677	0.445477	15.2166	0.713904	24.7113
0.165845	5.48204	0.0460637	1.54126	0.31402	10.6011	0.494472	16.094	0.582698	19.2296	0.853228	27.8798	0.199928	7.90253	0.44711	14.8013	0.714882	23.9721
0.17082	5.47778	0.0470654	1.55128	0.315263	10.4413	0.49537	15.6487	0.584123	18.7016	0.854127	27.0846	0.203589	7.76141	0.448787	14.4123	0.715889	23.2786
0.17578	5.47332	0.0478031	1.55851	0.316257	10.3196	0.496306	15.23	0.585584	18.2054	0.855052	26.3359	0.207304	7.63194	0.450508	14.0473	0.716925	22.6268
0.180725	5.46863	0.0482757	1.56306	0.316995	10.2326	0.497278	14.8357	0.587083	17.7382	0.856003	25.6297	0.211069	7.51285	0.452271	13.7042	0.717991	22.0131
0.185653	5.46372	0.0489557	1.56952	0.31747	10.1779	0.498289	14.4638	0.588618	17.2976	0.856979	24.9626	0.214881	7.40304	0.454077	13.3811	0.719085	21.4344
0.190564	5.45857	0.0496957	1.57643	0.318158	10.1008	0.49934	14.1127	0.59019	16.8816	0.857981	24.3314	0.218738	7.30155	0.455924	13.0765	0.720208	20.8878
0.195456	5.45317	0.0507034	1.58563	0.31891	10.0189	0.50043	13.7806	0.591797	16.4881	0.859008	23.7334	0.222637	7.20755	0.457812	12.7889	0.72136	20.3707
0.200329	5.44752	0.0519798	1.59697	0.319942	9.91039	0.50156	13.4662	0.593439	16.1156	0.86006	23.1662	0.226576	7.1203	0.45974	12.517	0.72254	19.881
0.20518	5.44159	0.0535262	1.61024	0.321261	9.77791	0.502732	13.1683	0.595116	15.7623	0.861138	22.6274	0.230553	7.03916	0.461708	12.2596	0.723747	19.4164
0.21001	5.43538	0.0553436	1.62522	0.322878	9.62438	0.503946	12.8856	0.596828	15.427	0.86224	22.1149	0.234565	6.96357	0.463716	12.0156	0.724984	18.9753
0.214817	5.42887	0.0574333	1.64167	0.324803	9.45299	0.505203	12.6172	0.598574	15.1083	0.863368	21.627	0.23861	6.89301	0.465762	11.7842	0.726247	18.5559
0.219599	5.42204	0.0595267	1.65736	0.32705	9.26711	0.506504	12.362	0.600354	14.805	0.86452	21.162	0.242687	6.82703	0.467845	11.5643	0.727539	18.1567
0.224354	5.4149	0.0616233	1.67236	0.329337	9.09188	0.507848	12.1193	0.602168	14.5162	0.865698	20.7183	0.246794	6.76525	0.469967	11.3552	0.728858	17.7762
0.229082	5.40741	0.0637226	1.68668	0.331662	8.92648	0.509238	11.8881	0.604014	14.2409	0.866899	20.2946	0.250929	6.70729	0.472125	11.1562	0.730204	17.4134
0.23378	5.39956	0.0658241	1.70037	0.334026	8.77017	0.510674	11.6678	0.605893	13.9781	0.868126	19.8895	0.25509	6.65284	0.474035	10.9905	0.731577	17.0669
0.238447	5.39134	0.0679275	1.71347	0.336427	8.62228	0.512156	11.4578	0.607804	13.7272	0.869376	19.5018	0.259276	6.6016	0.475684	10.8546	0.732977	16.7358
0.243082	5.38273	0.0700326	1.72601	0.338865	8.48222	0.513685	11.2574	0.609748	13.4872	0.870651	19.1306	0.263486	6.55333	0.477063	10.7457	0.734404	16.4191
0.247681	5.37371	0.0721388	1.73801	0.341339	8.34943	0.515056	11.0901	0.611723	13.2577	0.87195	18.7748	0.267718	6.50779	0.478162	10.6618	0.735857	16.1159
0.252243	5.36426	0.0742462	1.74951	0.343849	8.22343	0.516254	10.9527	0.613729	13.0379	0.873273	18.4335	0.271971	6.46475	0.478976	10.6013	0.737336	15.8254
0.256767	5.35436	0.0763542	1.76053	0.346396	8.10376	0.517265	10.8425	0.615766	12.8273	0.87462	18.1058	0.276243	6.42404	0.479499	10.563	0.738842	15.5468
0.261249	5.344	0.0784629	1.7711	0.348978	7.99002	0.518078	10.7574	0.617833	12.6253	0.87599	17.791	0.280535	6.38548	0.480254	10.5088	0.740373	15.2795
0.265687	5.33316	0.0805719	1.78125	0.351596	7.88183	0.518683	10.6961	0.619931	12.4315	0.877384	17.4884	0.284843	6.34891	0.481079	10.4508	0.741931	15.0228
0.27008	5.32181	0.0826813	1.79099	0.35425	7.77886	0.519073	10.6574	0.622058	12.2454	0.878802	17.1973	0.289168	6.31418	0.482208	10.3733	0.743513	14.7761
0.274425	5.30993	0.0847907	1.80035	0.356941	7.68079	0.519639	10.6023	0.624215	12.0665	0.880243	16.9171	0.293508	6.28116	0.483647	10.2777	0.745121	14.5388
0.278719	5.29752	0.0869001	1.80934	0.359668	7.58736	0.52026	10.5434	0.626401	11.8946	0.881707	16.6471	0.297862	6.24973	0.485403	10.1655	0.746754	14.3105
0.28296	5.28455	0.0890095	1.818	0.362432	7.49831	0.521115	10.4648	0.628616	11.7291	0.883194	16.387	0.302229	6.21978	0.487487	10.0385	0.748412	14.0907
0.287146	5.271	0.0911186	1.82632	0.365235	7.41339	0.522213	10.3677	0.630859	11.5698	0.884704	16.136	0.306609	6.19121	0.489909	9.89844	0.750095	13.8789
0.291273	5.25686	0.0932276	1.83434	0.368076	7.33239	0.523566	10.2536	0.633131	11.4164	0.886237	15.8939	0.311001	6.16392	0.492362	9.7642	0.751802	13.6748
0.295341	5.24212	0.0953361	1.84206	0.370957	7.25512	0.52519	10.1244	0.635133	11.2873	0.887793	15.6601	0.315403	6.13783	0.494846	9.63544	0.753533	13.4779
0.299345	5.22677	0.0974444	1.8495	0.373878	7.1814	0.5271	9.982	0.636856	11.1804	0.889371	15.4343	0.319815	6.11285	0.497361	9.51185	0.755288	13.2878
0.303285	5.21079	0.0995523	1.85667	0.376842	7.11106	0.529063	9.84545	0.638292	11.0941	0.890971	15.2161	0.324236	6.08892	0.499906	9.39316	0.757067	13.1043
0.307157	5.19417	0.10166	1.86359	0.379848	7.04395	0.531077	9.7145	0.639435	11.0273	0.892594	15.005	0.328665	6.06597	0.502481	9.27909	0.75887	12.9271
0.310961	5.17693	0.103766	1.87027	0.382898	6.97992	0.533143	9.58888	0.64028	10.9788	0.894239	14.8009	0.333102	6.04393	0.505085	9.16941	0.760696	12.7557
0.314694	5.15905	0.105873	1.87672	0.385994	6.91885	0.535262	9.46832	0.640822	10.9482	0.895905	14.6032	0.337546	6.02275	0.507717	9.06389	0.762546	12.59
0.318354	5.14054	0.107979	1.88295	0.389137	6.86061	0.537433	9.35259	0.641604	10.9045	0.897594	14.4119	0.341996	6.00236	0.510378	8.96232	0.764418	12.4297
0.321941	5.12141	0.110084	1.88898	0.392328	6.80509	0.539657	9.24145	0.642457	10.8576	0.899304	14.2265	0.346451	5.98273	0.513066	8.86449	0.766313	12.2746
0.325453	5.10166	0.112189	1.8948	0.395569	6.75218	0.541933	9.13468	0.643623	10.7947	0.901035	14.0469	0.350912	5.9638	0.515781	8.77022	0.768231	12.1244
0.328889	5.08132	0.114293	1.90044	0.39886	6.70178	0.544262	9.0321	0.645107	10.7167	0.902788	13.8727	0.355376	5.94553	0.518522	8.67933	0.770171	11.9789
0.33225	5.0604	0.116397	1.90589	0.402203	6.65378	0.546644	8.93349	0.646914	10.6246	0.904562	13.7038	0.359844	5.92787	0.52129	8.59167	0.772133	11.8378
0.335534	5.03892	0.1185	1.91117	0.405599	6.60811	0.549078	8.83869	0.649052	10.5194	0.906358	13.5399	0.364314	5.9108	0.524083	8.50708	0.774117	11.7011
0.338742	5.0169	0.120603	1.91628	0.409048	6.56465	0.551564	8.74752	0.65153	10.4025	0.908174	13.3808	0.368787	5.89427	0.526901	8.4254	0.775863	11.5853
0.341875	4.99439	0.122705	1.92124	0.412551	6.52333	0.554103	8.65983	0.654033	10.2894	0.910011	13.2263	0.373262	5.87825	0.529745	8.34652	0.777365	11.489
0.344934	4.9714	0.124806	1.92605	0.416109	6.48406	0.556693	8.57544	0.656562	10.18	0.911868	13.0762	0.377738	5.86272	0.532612	8.2703	0.778616	11.411
0.347538	4.95101	0.126907	1.93071	0.419721	6.44676	0.559335	8.49423	0.659115	10.0741	0.913746	12.9304	0.382214	5.84763	0.535504	8.19662	0.779611	11.3503
0.349715	4.93337	0.129007	1.93523	0.423388	6.41133	0.562028	8.41604	0.661693	9.97147	0.915645	12.7886	0.38669	5.83296	0.538419	8.12536	0.780346	11.3062
0.351485	4.91863	0.131107	1.93962	0.427109	6.37771	0.564771	8.34076	0.664296	9.87208	0.917563	12.6508	0.391165	5.81869	0.541357	8.05643	0.780817	11.2782
0.352866	4.90688	0.133206	1.94389	0.430885	6.34579	0.567565	8.26825	0.666923	9.77576	0.919502	12.5167	0.395639	5.8048	0.544318	7.98971	0.781497	11.2384
0.353871	4.89819	0.135305	1.94803	0.434713	6.31551	0.570409	8.1984	0.669573	9.68238	0.92146	12.3863	0.400111	5.79125	0.547302	7.92512	0.782238	11.1955
0.354509	4.8926	0.137403	1.95205	0.438593	6.28679	0.573301	8.13109	0.672248	9.59183	0.923438	12.2594	0.404581	5.77803	0.550307	7.86256	0.783251	11.1378
0.35542	4.88454	0.139501	1.95596	0.442524	6.25954	0.576243	8.06622	0.674945	9.50398	0.925436	12.1358	0.409048	5.76511	0.553334	7.80196	0.784539	11.0661
0.356403	4.87574	0.141598	1.95977	0.446504	6.23369	0.579232	8.00368	0.677666	9.41872	0.927453	12.0154	0.413511	5.75248	0.556383	7.74322	0.786107	10.981
0.357725	4.86372	0.143695	1.96347	0.450533	6.20916	0.582268	7.94337	0.68041	9.33596	0.929226	11.9131	0.417971	5.74011	0.559452	7.68628	0.78796	10.8834
0.359374	4.84842	0.145791	1.96707	0.454607	6.18589	0.585351	7.88521	0.683176	9.2556	0.93075	11.8277	0.422425	5.728	0.562543	7.63105	0.790106	10.7744
0.361336	4.82978	0.147887	1.97058	0.458726	6.16379	0.58848	7.82909	0.685965	9.17754	0.932017	11.7583	0.426875	5.71612	0.565654	7.57748	0.792272	10.6684
0.363592	4.80777	0.149983	1.97399	0.462887	6.1428	0.591654	7.77495	0.688776	9.10169	0.933025	11.7041	0.431319	5.70446	0.568785	7.5255	0.794458	10.5653
0.366123	4.78232	0.152078	1.97732	0.467088	6.12285	0.594872	7.72268	0.69161	9.02798	0.933768	11.6648	0.435756	5.69299	0.571936	7.47504	0.796664	10.465
0.368595	4.75671	0.154172	1.98056	0.471328	6.10388	0.598133	7.67223	0.694464	8.95632	0.934245	11.6398	0.440187	5.68172	0.575106	7.42606	0.798889	10.3673
0.371008	4.73098	0.156266	1.98372	0.475604	6.08583	0.601438	7.62351	0.697341	8.88664	0.934933	11.6041	0.44461	5.67062	0.578296	7.37848	0.801134	10.2723
0.373367	4.70515	0.15836	1.9868	0.479915	6.06863	0.604784	7.57645	0.700239	8.81886	0.935683	11.5656	0.449025	5.65968	0.581506	7.33227	0.803398	10.1797
0.375672	4.67926	0.160453	1.9898	0.484257	6.05225	0.608171	7.53098	0.703158	8.75292	0.936706	11.5139	0.453432	5.64889	0.584734	7.28736	0.805681	10.0895
0.377927	4.65334	0.162546	1.99273	0.48863	6.03661	0.611599	7.48704	0.706098	8.68875	0.938007	11.4493	0.45783	5.63823	0.587981	7.24372	0.807983	10.0016
0.380133	4.62742	0.164639	1.99559	0.493032	6.02167	0.615065	7.44457	0.709059	8.62629	0.939589	11.3725	0.462218	5.6277	0.591247	7.2013	0.810303	9.91599
0.382292	4.60152	0.166731	1.99839	0.497459	6.00738	0.618571	7.40351	0.712041	8.56547	0.941457	11.2843	0.466596	5.61728	0.594531	7.16005	0.812642	9.8325
0.384407	4.57566	0.168823	2.00111	0.501911	5.99371	0.622114	7.3638	0.715043	8.50625	0.943619	11.1853	0.470963	5.60696	0.597834	7.11994	0.814999	9.7511
0.38648	4.54988	0.170914	2.00377	0.506386	5.9806	0.625693	7.32538	0.718066	8.44857	0.945799	11.0887	0.475318	5.59674	0.601155	7.08091	0.817374	9.6717
0.388513	4.52419	0.173006	2.00637	0.510881	5.96802	0.629309	7.28822	0.721108	8.39237	0.947997	10.9943	0.479662	5.58659	0.604494	7.04295	0.819767	9.59424
0.390507	4.49861	0.175097	2.00892	0.515396	5.95594	0.63296	7.25224	0.724171	8.33761	0.950212	10.9022	0.483993	5.57653	0.607851	7.00601	0.822178	9.51867
0.392466	4.47315	0.177187	2.0114	0.519928	5.94431	0.636645	7.21742	0.727254	8.28423	0.952446	10.8123	0.488311	5.56652	0.611225	6.97006	0.824606	9.4449
0.394389	4.44785	0.179277	2.01383	0.524476	5.93311	0.640363	7.18369	0.730356	8.23221	0.954697	10.7244	0.492616	5.55657	0.614618	6.93506	0.827052	9.37289
0.39628	4.4227	0.181367	2.0162	0.529039	5.92231	0.644114	7.15103	0.733478	8.18148	0.956965	10.6385	0.496906	5.54667	0.618028	6.90099	0.829515	9.30258
0.39814	4.39773	0.183457	2.01853	0.533615	5.91187	0.647896	7.11938	0.73662	8.13201	0.95925	10.5546	0.501181	5.53681	0.621456	6.86782	0.831995	9.23391
0.399971	4.37295	0.185546	2.0208	0.538202	5.90178	0.65171	7.08871	0.739781	8.08376	0.961553	10.4726	0.50544	5.52698	0.624901	6.83551	0.834492	9.16684
0.401773	4.34836	0.187635	2.02302	0.5428	5.89201	0.655553	7.05898	0.742961	8.03669	0.963873	10.3924	0.509684	5.51718	0.628363	6.80404	0.837006	9.1013
0.403549	4.32398	0.189724	2.0252	0.547408	5.88253	0.659426	7.03015	0.74616	7.99076	0.966209	10.314	0.513911	5.50739	0.631844	6.77339	0.839536	9.03726
0.4053	4.29981	0.191813	2.02733	0.552024	5.87332	0.663327	7.00219	0.749379	7.94595	0.968562	10.2373	0.518121	5.49761	0.635341	6.74353	0.842083	8.97467
0.407027	4.27587	0.193901	2.02942	0.556646	5.86437	0.667255	6.97506	0.752616	7.90221	0.970932	10.1623	0.522313	5.48784	0.638856	6.71444	0.844646	8.91348
0.408731	4.25216	0.195989	2.03146	0.561275	5.85566	0.671211	6.94873	0.755873	7.85952	0.973318	10.0888	0.526486	5.47806	0.642388	6.68609	0.847226	8.85365
0.410415	4.22868	0.198077	2.03347	0.565908	5.84717	0.675193	6.92317	0.759148	7.81784	0.97572	10.017	0.53064	5.46828	0.645938	6.65847	0.849821	8.79514
0.412078	4.20545	0.200164	2.03543	0.570546	5.83888	0.6792	6.89836	0.762443	7.77714	0.978138	9.94669	0.534775	5.45848	0.649504	6.63155	0.852432	8.73791
0.413722	4.18246	0.202252	2.03735	0.575187	5.83077	0.683231	6.87426	0.765756	7.73741	0.980572	9.87786	0.53889	5.44866	0.653089	6.60531	0.85506	8.68192
0.415348	4.15972	0.204339	2.03924	0.57983	5.82284	0.687287	6.85084	0.769087	7.6986	0.983023	9.81047	0.542984	5.43882	0.65669	6.57973	0.857702	8.62714
0.416958	4.13723	0.206426	2.04109	0.584474	5.81508	0.691365	6.82808	0.772438	7.66069	0.985488	9.74447	0.547056	5.42894	0.660309	6.5548	0.860361	8.57354
0.418551	4.115	0.208512	2.0429	0.589119	5.80746	0.695466	6.80595	0.775807	7.62366	0.98797	9.67983	0.551107	5.41904	0.663945	6.53049	0.863035	8.52107
0.420129	4.09303	0.210599	2.04468	0.593764	5.79998	0.699588	6.78444	0.779195	7.58748	0.990467	9.61651	0.555135	5.40909	0.667598	6.5068	0.865724	8.46971
0.421693	4.07131	0.212685	2.04642	0.598408	5.79262	0.703732	6.76351	0.782602	7.55214	0.992979	9.55447	0.55914	5.3991	0.671269	6.4837	0.868428	8.41942
0.423244	4.04985	0.214771	2.04813	0.603051	5.78538	0.707896	6.74315	0.786027	7.5176	0.995506	9.49368	0.563122	5.38907	0.674957	6.46117	0.871147	8.37018
0.424782	4.02865	0.216857	2.04981	0.607691	5.77825	0.712079	6.72333	0.789471	7.48385	0.998048	9.4341	0.56708	5.37899	0.678662	6.43921	0.873882	8.32195
0.426308	4.00772	0.218943	2.05146	0.612329	5.77122	0.716281	6.70403	0.792933	7.45087	1.00061	9.3757	0.571013	5.36885	0.682384	6.4178	0.876631	8.27472
0.427823	3.98704	0.221028	2.05308	0.616963	5.76428	0.720502	6.68523	0.796415	7.41864			0.574922	5.35865	0.686124	6.39691	0.879395	8.22844
0.429328	3.96662	0.223114	2.05467	0.621593	5.75742	0.724739	6.66692	0.799915	7.38713			0.578805	5.3484	0.689881	6.37655	0.882174	8.1831
0.430823	3.94646	0.225199	2.05623	0.626218	5.75064	0.728994	6.64907	0.803434	7.35633			0.582662	5.33808	0.693655	6.35669	0.884967	8.13867
0.432308	3.92655	0.227284	2.05776	0.630839	5.74392	0.733265	6.63167	0.806972	7.32623			0.586492	5.3277	0.697446	6.33732	0.887775	8.09513
0.433785	3.9069	0.229369	2.05927	0.635453	5.73727	0.737552	6.6147	0.810529	7.2968			0.590297	5.31726	0.701254	6.31843	0.890597	8.05246
0.435254	3.88751	0.231454	2.06075	0.640062	5.73067	0.741853	6.59815	0.814105	7.26803			0.594074	5.30674	0.705078	6.30001	0.893433	8.01062
0.436715	3.86837	0.233538	2.0622	0.644664	5.72413	0.746169	6.58199	0.8177	7.23991			0.597823	5.29616	0.70892	6.28204	0.896284	7.96961
0.438169	3.84948	0.235623	2.06363	0.649258	5.71762	0.750499	6.56622	0.821314	7.21241			0.601545	5.28551	0.712778	6.26451	0.899149	7.92939
0.439617	3.83084	0.237707	2.06503	0.653846	5.71116	0.754841	6.55081	0.824948	7.18553			0.605239	5.27478	0.716653	6.24741	0.902028	7.88995
0.441058	3.81245	0.239791	2.06641	0.658425	5.70474	0.759196	6.53576	0.828601	7.15925			0.608904	5.26398	0.720545	6.23072	0.904921	7.85127
0.442494	3.7943	0.241875	2.06777	0.662996	5.69834	0.763563	6.52105	0.832274	7.13356			0.612541	5.25311	0.724452	6.21444	0.907828	7.81333
0.443924	3.7764	0.243959	2.0691	0.667558	5.69197	0.76794	6.50666	0.835966	7.10844			0.616149	5.24216	0.728376	6.19856	0.910748	7.77612
0.44535	3.75874	0.246042	2.07041	0.672111	5.68562	0.772329	6.49259	0.839679	7.08389			0.619727	5.23114	0.732316	6.18307	0.913683	7.7396
0.446771	3.74131	0.248126	2.0717	0.676654	5.67929	0.776727	6.47882	0.843411	7.05988			0.623277	5.22005	0.736271	6.16794	0.916631	7.70378
0.448188	3.72412	0.250209	2.07297	0.681187	5.67298	0.781134	6.46534	0.847164	7.03642			0.626797	5.20889	0.740242	6.15318	0.919593	7.66862
0.449601	3.70716	0.252293	2.07422	0.68571	5.66668	0.785551	6.45213	0.850936	7.01348			0.630287	5.19765	0.744228	6.13877	0.922569	7.63412
0.451011	3.69044	0.254376	2.07545	0.690222	5.66038	0.789975	6.4392	0.85473	6.99106			0.633748	5.18634	0.748229	6.12471	0.925558	7.60026
0.452417	3.67394	0.256459	2.07666	0.694723	5.65409	0.794407	6.42652	0.858544	6.96915			0.637179	5.17497	0.752245	6.11097	0.928561	7.56703
0.453821	3.65766	0.258542	2.07785	0.699213	5.64781	0.798846	6.41409	0.862379	6.94773			0.640581	5.16352	0.756275	6.09756	0.931577	7.5344
0.455222	3.64161	0.260625	2.07903	0.703691	5.64152	0.803291	6.40189	0.866235	6.9268			0.643952	5.152	0.76032	6.08447	0.934607	7.50237
0.456621	3.62577	0.262708	2.08018	0.708157	5.63523	0.807743	6.38991	0.870112	6.90635			0.647294	5.14042	0.764378	6.07167	0.937649	7.47092
0.458018	3.61016	0.26479	2.08132	0.71261	5.62894	0.812199	6.37816	0.87401	6.88637			0.650605	5.12877	0.76845	6.05917	0.940706	7.44004
0.459413	3.59475	0.266873	2.08243	0.717051	5.62264	0.81666	6.36661	0.87793	6.86685			0.653887	5.11706	0.772535	6.04696	0.943775	7.40972
0.460806	3.57956	0.268955	2.08354	0.721479	5.61633	0.821125	6.35526	0.881872	6.84778			0.65714	5.10529	0.776632	6.03502	0.946858	7.37994
0.462198	3.56457	0.271038	2.08462	0.725894	5.61001	0.825594	6.3441	0.885836	6.82915			0.660362	5.09346	0.780743	6.02335	0.949953	7.35069
0.463589	3.54979	0.27312	2.08569	0.730295	5.60367	0.830066	6.33312	0.889822	6.81096			0.663555	5.08157	0.784865	6.01194	0.953062	7.32196
0.464978	3.53521	0.275202	2.08674	0.734683	5.59732	0.83454	6.32231	0.89383	6.79319			0.666719	5.06962	0.788999	6.00078	0.956184	7.29373
0.466368	3.52083	0.277284	2.08778	0.739056	5.59096	0.839017	6.31168	0.897861	6.77584			0.669853	5.05762	0.793144	5.98986	0.959319	7.26601
0.467756	3.50665	0.279366	2.0888	0.743415	5.58457	0.843495	6.3012	0.901914	6.75891			0.672958	5.04558	0.7973	5.97918	0.962467	7.23877
0.469144	3.49266	0.281448	2.08981	0.747759	5.57816	0.847974	6.29087	0.90599	6.74238			0.676034	5.03348	0.801467	5.96872	0.965628	7.212
0.470532	3.47887	0.28353	2.09081	0.752089	5.57174	0.852453	6.2807	0.910089	6.72625			0.679082	5.02134	0.805643	5.95848	0.968801	7.1857
0.47192	3.46526	0.285611	2.09178	0.756403	5.56529	0.856933	6.27066	0.914211	6.7105			0.682101	5.00915	0.809829	5.94845	0.971988	7.15986
0.473308	3.45183	0.287693	2.09275	0.760703	5.55881	0.861413	6.26075	0.918356	6.69514			0.685091	4.99692	0.814025	5.93863	0.975187	7.13446
0.474696	3.43859	0.289774	2.0937	0.764986	5.55231	0.865892	6.25098	0.922525	6.68016			0.688054	4.98466	0.818229	5.929	0.978399	7.1095
0.476085	3.42553	0.291856	2.09464	0.769254	5.54579	0.870369	6.24132	0.926717	6.66555			0.690988	4.97235	0.822441	5.91956	0.981624	7.08497
0.477473	3.41265	0.293937	2.09557	0.773506	5.53923	0.874846	6.23179	0.930932	6.65129			0.693895	4.96002	0.826662	5.9103	0.984861	7.06085
0.478863	3.39994	0.296019	2.09648	0.777742	5.53265	0.87932	6.22236	0.935171	6.63739			0.696775	4.94765	0.83089	5.90122	0.988111	7.03714
0.480253	3.3874	0.2981	2.09738	0.781961	5.52604	0.883793	6.21305	0.939433	6.62384			0.699627	4.93526	0.835124	5.89231	0.991373	7.01384
0.481645	3.37504	0.300181	2.09827	0.786164	5.5194	0.888263	6.20384	0.943719	6.61064			0.702453	4.92283	0.839366	5.88356	0.994648	6.99093
0.483037	3.36284	0.302262	2.09914	0.790349	5.51273	0.89273	6.19473	0.948029	6.59776			0.705252	4.91039	0.843614	5.87496	0.997936	6.9684
0.48443	3.3508	0.304343	2.10001	0.794518	5.50602	0.897194	6.18572	0.952361	6.58522			0.708026	4.89792	0.847867	5.86652	1.00124	6.94625
0.485825	3.33893	0.306424	2.10086	0.79867	5.49929	0.901655	6.1768	0.956718	6.573			0.710773	4.88544	0.852126	5.85822		
0.48722	3.32722	0.308505	2.1017	0.802804	5.49252	0.906113	6.16797	0.961097	6.56109			0.713494	4.87294	0.856389	5.85006		
0.488617	3.31566	0.310585	2.10253	0.806921	5.48572	0.910567	6.15923	0.9655	6.54949			0.71619	4.86043	0.860657	5.84203		
0.490015	3.30426	0.312666	2.10335	0.811021	5.47888	0.915018	6.15057	0.969926	6.53819			0.718861	4.8479	0.864929	5.83413		
0.491415	3.29301	0.314747	2.10416	0.815102	5.47202	0.919465	6.14199	0.974375	6.52718			0.721508	4.83537	0.869204	5.82636		
0.492817	3.28191	0.316827	2.10496	0.819165	5.46511	0.923908	6.1335	0.978847	6.51647			0.72413	4.82283	0.873483	5.8187		
0.49422	3.27096	0.318908	2.10574	0.823211	5.45817	0.928346	6.12508	0.983341	6.50603			0.726728	4.81028	0.877764	5.81115		
0.495625	3.26015	0.320988	2.10652	0.827238	5.4512	0.932781	6.11674	0.987857	6.49587			0.729303	4.79774	0.882048	5.80371		
0.497032	3.24949	0.323069	2.10729	0.831247	5.44419	0.937212	6.10847	0.992395	6.48598			0.731854	4.78519	0.886334	5.79638		
0.49844	3.23897	0.325149	2.10805	0.835237	5.43715	0.941638	6.10028	0.996956	6.47634			0.734382	4.77265	0.890621	5.78914		
0.49985	3.22859	0.327229	2.1088	0.839209	5.43007	0.94606	6.09216	1.00154	6.46697			0.736888	4.76011	0.894909	5.782		
0.501263	3.21835	0.329309	2.10954	0.843162	5.42296	0.950478	6.0841					0.739371	4.74757	0.899198	5.77494		
0.502677	3.20823	0.331389	2.11027	0.847097	5.41581	0.954892	6.07612					0.741832	4.73505	0.903487	5.76798		
0.504094	3.19826	0.33347	2.11099	0.851012	5.40862	0.959302	6.06821					0.744272	4.72254	0.907776	5.76109		
0.505512	3.18841	0.33555	2.1117	0.854909	5.4014	0.963708	6.06036					0.74669	4.71003	0.912065	5.75428		
0.506933	3.17869	0.33763	2.1124	0.858786	5.39415	0.96811	6.05258					0.749087	4.69755	0.916352	5.74755		
0.508356	3.1691	0.339709	2.1131	0.862645	5.38686	0.972509	6.04487					0.751463	4.68508	0.920639	5.74089		
0.509781	3.15963	0.341789	2.11379	0.866484	5.37954	0.976903	6.03722					0.753819	4.67262	0.924924	5.7343		
0.511208	3.15029	0.343869	2.11447	0.870304	5.37218	0.981294	6.02964					0.756155	4.66019	0.929207	5.72776		
0.512638	3.14106	0.345949	2.11514	0.874105	5.36479	0.985681	6.02212					0.758472	4.64778	0.933488	5.72129		
0.51407	3.13196	0.348029	2.1158	0.877886	5.35736	0.990065	6.01467					0.760769	4.63539	0.937766	5.71488		
0.515505	3.12297	0.350108	2.11645	0.881648	5.3499	0.994445	6.00727					0.763047	4.62303	0.942042	5.70852		
0.516942	3.1141	0.352188	2.1171	0.885391	5.34241	0.998822	5.99995					0.765306	4.61069	0.946313	5.70222		
0.518381	3.10534	0.354267	2.11774	0.889115	5.33488	1.0032	5.99268					0.767547	4.59838	0.950582	5.69596		
0.519823	3.09669	0.356347	2.11837	0.892819	5.32733							0.76977	4.5861	0.954846	5.68974		
0.521267	3.08816	0.358426	2.119	0.896503	5.31974							0.771975	4.57384	0.959106	5.68357		
0.522713	3.07973	0.360506	2.11962	0.900168	5.31212							0.774162	4.56162	0.963361	5.67745		
0.524163	3.07141	0.362585	2.12023	0.903814	5.30447							0.776333	4.54944	0.967611	5.67135		
0.525615	3.06319	0.364665	2.12083	0.90744	5.29679							0.778487	4.53729	0.971857	5.6653		
0.527069	3.05508	0.366744	2.12143	0.911047	5.28908							0.780624	4.52517	0.976096	5.65927		
0.528526	3.04707	0.368823	2.12202	0.914635	5.28134							0.782745	4.51309	0.98033	5.65328		
0.529985	3.03916	0.370902	2.12261	0.918203	5.27357							0.78485	4.50105	0.984557	5.64732		
0.531447	3.03135	0.372982	2.12319	0.921752	5.26578							0.78694	4.48905	0.988778	5.64138		
0.532912	3.02363	0.375061	2.12376	0.925281	5.25795							0.789014	4.47709	0.992992	5.63547		
0.53438	3.01601	0.37714	2.12432	0.928792	5.2501							0.791074	4.46517	0.9972	5.62958		
0.53585	3.00849	0.379219	2.12488	0.932283	5.24223							0.793118	4.45329	1.0014	5.62371		
0.537322	3.00106	0.381298	2.12544	0.935754	5.23433							0.795148	4.44145				
0.538798	2.99372	0.383377	2.12598	0.939207	5.2264							0.797164	4.42966				
0.540276	2.98647	0.385456	2.12652	0.942641	5.21846							0.799166	4.41791				
0.541756	2.97931	0.387535	2.12706	0.946055	5.21048							0.801155	4.40621				
0.54324	2.97224	0.389613	2.12759	0.949451	5.20249							0.80313	4.39456				
0.544726	2.96526	0.391692	2.12811	0.952827	5.19447							0.805093	4.38295				
0.546214	2.95836	0.393771	2.12863	0.956185	5.18643							0.807042	4.37139				
0.547706	2.95154	0.39585	2.12915	0.959524	5.17838							0.808979	4.35988				
0.5492	2.94481	0.397929	2.12966	0.962844	5.1703							0.810904	4.34842				
0.550697	2.93816	0.400007	2.13016	0.966146	5.1622							0.812816	4.337				
0.552196	2.93158	0.402086	2.13066	0.969429	5.15408							0.814717	4.32564				
0.553698	2.92509	0.404164	2.13115	0.972694	5.14595							0.816607	4.31433				
0.555203	2.91867	0.406243	2.13164	0.97594	5.1378							0.818485	4.30307				
0.556711	2.91234	0.408322	2.13212	0.979168	5.12963							0.820352	4.29187				
0.558221	2.90607	0.4104	2.1326	0.982377	5.12145							0.822208	4.28071				
0.559734	2.89988	0.412478	2.13307	0.985569	5.11325							0.824054	4.26961				
0.56125	2.89377	0.414557	2.13354	0.988742	5.10504							0.82589	4.25857				
0.562768	2.88772	0.416635	2.13401	0.991897	5.09681							0.827715	4.24757				
0.564289	2.88175	0.418714	2.13447	0.995035	5.08857							0.829531	4.23663				
0.565813	2.87585	0.420792	2.13492	0.998154	5.08032							0.831337	4.22575				
0.567339	2.87002	0.42287	2.13537	1.00126	5.07206							0.833133	4.21492				
0.568868	2.86425	0.424949	2.13582									0.83492	4.20414				
0.5704	2.85856	0.427027	2.13626									0.836699	4.19343				
0.571935	2.85292	0.429105	2.1367									0.838468	4.18276				
0.573472	2.84736	0.431183	2.13713									0.840229	4.17216				
0.575011	2.84186	0.433262	2.13756									0.841981	4.1616				
0.576554	2.83642	0.43534	2.13798									0.843725	4.15111				
0.578099	2.83104	0.437418	2.13841									0.845462	4.14067				
0.579646	2.82573	0.439496	2.13882									0.84719	4.13029				
0.581196	2.82048	0.441574	2.13924									0.848911	4.11996				
0.582749	2.81528	0.443652	2.13965									0.850624	4.1097				
0.584305	2.81015	0.44573	2.14005									0.85233	4.09949				
0.585863	2.80507	0.447808	2.14045									0.854029	4.08933				
0.587423	2.80005	0.449886	2.14085									0.855721	4.07923				
0.588986	2.79509	0.451964	2.14125									0.857406	4.0692				
0.590552	2.79019	0.454042	2.14164									0.859085	4.05921				
0.592121	2.78533	0.45612	2.14203									0.860757	4.04929				
0.593691	2.78054	0.458198	2.14241									0.862423	4.03942				
0.595265	2.77579	0.460275	2.14279									0.864083	4.02961				
0.596841	2.7711	0.462353	2.14317									0.865736	4.01986				
0.598419	2.76646	0.464431	2.14354									0.867384	4.01016				
0.6	2.76188	0.466509	2.14391									0.869027	4.00052				
0.601584	2.75734	0.468587	2.14428									0.870663	3.99094				
0.60317	2.75285	0.470664	2.14464									0.872295	3.98141				
0.604758	2.74842	0.472742	2.145									0.873921	3.97194				
0.606349	2.74403	0.47482	2.14536									0.875542	3.96253				
0.607942	2.73969	0.476897	2.14572									0.877158	3.95318				
0.609538	2.73539	0.478975	2.14607									0.87877	3.94388				
0.611136	2.73115	0.481053	2.14642									0.880376	3.93464				
0.612737	2.72695	0.48313	2.14676									0.881978	3.92545				
0.61434	2.72279	0.485208	2.14711									0.883576	3.91632				
0.615946	2.71868	0.487285	2.14745									0.885169	3.90725				
0.617553	2.71461	0.489363	2.14778									0.886758	3.89823				
0.619164	2.71059	0.49144	2.14812									0.888343	3.88927				
0.620776	2.70661	0.493518	2.14845									0.889924	3.88036				
0.622391	2.70267	0.495595	2.14878									0.891501	3.87151				
0.624009	2.69878	0.497673	2.1491									0.893074	3.86271				
0.625628	2.69492	0.49975	2.14942									0.894644	3.85397				
0.62725	2.69111	0.501827	2.14974									0.89621	3.84528				
0.628874	2.68734	0.503905	2.15006									0.897772	3.83665				
0.630501	2.6836	0.505982	2.15038									0.899332	3.82807				
0.63213	2.67991	0.50806	2.15069									0.900888	3.81955				
0.633761	2.67625	0.510137	2.151									0.902441	3.81108				
0.635394	2.67263	0.512214	2.15131									0.903991	3.80266				
0.63703	2.66905	0.514291	2.15161									0.905538	3.7943				
0.638668	2.66551	0.516369	2.15192									0.907082	3.78599				
0.640308	2.662	0.518446	2.15222									0.908623	3.77773				
0.64195	2.65853	0.520523	2.15251									0.910162	3.76953				
0.643595	2.6551	0.5226	2.15281									0.911698	3.76137				
0.645241	2.6517	0.524678	2.1531									0.913231	3.75327				
0.64689	2.64834	0.526755	2.15339									0.914762	3.74523				
0.648541	2.64501	0.528832	2.15368									0.916291	3.73723				
0.650195	2.64171	0.530909	2.15397									0.917818	3.72928				
0.65185	2.63845	0.532986	2.15425									0.919342	3.72139				
0.653507	2.63522	0.535063	2.15453									0.920864	3.71355				
0.655167	2.63203	0.53714	2.15481									0.922384	3.70575				
0.656829	2.62886	0.539217	2.15509									0.923903	3.69801				
0.658492	2.62573	0.541294	2.15537									0.925419	3.69032				
0.660158	2.62263	0.543372	2.15564									0.926933	3.68267				
0.661826	2.61956	0.545449	2.15591									0.928446	3.67508				
0.663496	2.61652	0.547526	2.15618									0.929957	3.66754				
0.665168	2.61351	0.549603	2.15645									0.931466	3.66004				
0.666842	2.61053	0.551679	2.15671									0.932974	3.65259				
0.668518	2.60758	0.553756	2.15698									0.934481	3.64519				
0.670197	2.60466	0.555833	2.15724									0.935986	3.63784				
0.671877	2.60177	0.55791	2.1575									0.937489	3.63054				
0.673559	2.59891	0.559987	2.15775									0.938991	3.62328				
0.675243	2.59607	0.562064	2.15801									0.940492	3.61608				
0.676929	2.59327	0.564141	2.15826									0.941992	3.60891				
0.678617	2.59049	0.566218	2.15851									0.943491	3.6018				
0.680307	2.58773	0.568295	2.15876									0.944988	3.59473				
0.681999	2.58501	0.570371	2.15901									0.946485	3.58771				
0.683692	2.58231	0.572448	2.15926									0.94798	3.58073				
0.685388	2.57964	0.574525	2.1595									0.949475	3.5738				
0.687086	2.57699	0.576602	2.15975									0.950968	3.56691				
0.688785	2.57437	0.578679	2.15999									0.952461	3.56007				
0.690486	2.57177	0.580755	2.16023									0.953953	3.55327				
0.69219	2.5692	0.582832	2.16046									0.955445	3.54652				
0.693895	2.56665	0.584909	2.1607									0.956935	3.53981				
0.695602	2.56413	0.586986	2.16093									0.958425	3.53315				
0.69731	2.56163	0.589062	2.16117									0.959915	3.52652				
0.699021	2.55915	0.591139	2.1614									0.961403	3.51995				
0.700733	2.5567	0.593216	2.16163									0.962892	3.51341				
0.702447	2.55427	0.595292	2.16185									0.964379	3.50692				
0.704163	2.55187	0.597369	2.16208									0.965867	3.50047				
0.705881	2.54948	0.599446	2.1623									0.967354	3.49406				
0.7076	2.54712	0.601522	2.16253									0.96884	3.48769				
0.709322	2.54478	0.603599	2.16275									0.970326	3.48136				
0.711045	2.54247	0.605675	2.16297									0.971812	3.47508				
0.712769	2.54017	0.607752	2.16319									0.973298	3.46883				
0.714496	2.5379	0.609828	2.1634									0.974783	3.46263				
0.716224	2.53564	0.611905	2.16362									0.976269	3.45647				
0.717954	2.53341	0.613982	2.16383									0.977754	3.45034				
0.719685	2.5312	0.616058	2.16404									0.979239	3.44426				
0.721418	2.52901	0.618135	2.16426									0.980724	3.43821				
0.723153	2.52684	0.620211	2.16447									0.982209	3.43221				
0.72489	2.52469	0.622288	2.16467									0.983693	3.42624				
0.726628	2.52255	0.624364	2.16488									0.985178	3.42032				
0.728368	2.52044	0.62644	2.16509									0.986663	3.41443				
0.730109	2.51835	0.628517	2.16529									0.988148	3.40857				
0.731852	2.51627	0.630593	2.16549									0.989633	3.40276				
0.733597	2.51422	0.63267	2.16569									0.991118	3.39698				
0.735343	2.51218	0.634746	2.16589									0.992603	3.39125				
0.737091	2.51016	0.636823	2.16609									0.994089	3.38554				
0.73884	2.50816	0.638899	2.16629									0.995574	3.37988				
0.740591	2.50618	0.640975	2.16649									0.99706	3.37425				
0.742344	2.50422	0.643052	2.16668									0.998546	3.36866				
0.744098	2.50227	0.645128	2.16688									1.00003	3.3631				
0.745854	2.50034	0.647204	2.16707														
0.747611	2.49843	0.649281	2.16726														
0.74937	2.49653	0.651357	2.16745														
0.75113	2.49465	0.653433	2.16764														
0.752892	2.49279	0.65551	2.16783														
0.754655	2.49094	0.657586	2.16801														
0.756419	2.48911	0.659662	2.1682														
0.758186	2.4873	0.661738	2.16838														
0.759953	2.4855	0.663815	2.16856														
0.761722	2.48372	0.665891	2.16875														
0.763493	2.48195	0.667967	2.16893														
0.765265	2.4802	0.670043	2.1691														
0.767038	2.47846	0.672119	2.16928														
0.768813	2.47674	0.674196	2.16946														
0.770589	2.47504	0.676272	2.16964														
0.772367	2.47334	0.678348	2.16981														
0.774146	2.47167	0.680424	2.16999														
0.775927	2.47	0.6825	2.17016														
0.777708	2.46835	0.684576	2.17033														
0.779492	2.46672	0.686653	2.1705														
0.781276	2.4651	0.688729	2.17067														
0.783062	2.46349	0.690805	2.17084														
0.784849	2.4619	0.692881	2.17101														
0.786638	2.46032	0.694957	2.17117														
0.788428	2.45875	0.697033	2.17134														
0.790219	2.4572	0.699109	2.1715														
0.792011	2.45566	0.701185	2.17167														
0.793805	2.45413	0.703261	2.17183														
0.7956	2.45262	0.705337	2.17199														
0.797397	2.45111	0.707413	2.17215														
0.799195	2.44962	0.709489	2.17231														
0.800994	2.44815	0.711565	2.17247														
0.802794	2.44668	0.713641	2.17263														
0.804595	2.44523	0.715717	2.17279														
0.806398	2.44379	0.717793	2.17294														
0.808202	2.44236	0.719869	2.1731														
0.810007	2.44094	0.721945	2.17325														
0.811814	2.43954	0.724021	2.17341														
0.813621	2.43814	0.726097	2.17356														
0.81543	2.43676	0.728173	2.17371														
0.81724	2.43539	0.730249	2.17386														
0.819052	2.43403	0.732324	2.17401														
0.820864	2.43268	0.7344	2.17416														
0.822678	2.43134	0.736476	2.17431														
0.824493	2.43001	0.738552	2.17446														
0.826309	2.4287	0.740628	2.1746														
0.828126	2.42739	0.742704	2.17475														
0.829944	2.42609	0.74478	2.17489														
0.831763	2.42481	0.746855	2.17504														
0.833584	2.42353	0.748931	2.17518														
0.835406	2.42227	0.751007	2.17532														
0.837229	2.42101	0.753083	2.17547														
0.839053	2.41977	0.755159	2.17561														
0.840878	2.41853	0.757234	2.17575														
0.842704	2.41731	0.75931	2.17589														
0.844531	2.41609	0.761386	2.17602														
0.846359	2.41489	0.763462	2.17616														
0.848189	2.41369	0.765537	2.1763														
0.850019	2.4125	0.767613	2.17644														
0.851851	2.41132	0.769689	2.17657														
0.853684	2.41016	0.771765	2.17671														
0.855518	2.409	0.77384	2.17684														
0.857352	2.40785	0.775916	2.17697														
0.859188	2.4067	0.777992	2.17711														
0.861025	2.40557	0.780067	2.17724														
0.862863	2.40445	0.782143	2.17737														
0.864702	2.40333	0.784219	2.1775														
0.866542	2.40223	0.786294	2.17763														
0.868383	2.40113	0.78837	2.17776														
0.870225	2.40004	0.790446	2.17789														
0.872068	2.39896	0.792521	2.17802														
0.873912	2.39788	0.794597	2.17814														
0.875757	2.39682	0.796672	2.17827														
0.877603	2.39576	0.798748	2.17839														
0.87945	2.39471	0.800824	2.17852														
0.881298	2.39367	0.802899	2.17864														
0.883147	2.39264	0.804975	2.17877														
0.884997	2.39161	0.80705	2.17889														
0.886847	2.3906	0.809126	2.17901														
0.888699	2.38959	0.811201	2.17914														
0.890552	2.38858	0.813277	2.17926														
0.892406	2.38759	0.815352	2.17938														
0.89426	2.3866	0.817428	2.1795														
0.896116	2.38562	0.819503	2.17962														
0.897972	2.38465	0.821579	2.17974														
0.899829	2.38368	0.823654	2.17985														
0.901688	2.38273	0.82573	2.17997														
0.903547	2.38178	0.827805	2.18009														
0.905407	2.38083	0.829881	2.1802														
0.907268	2.37989	0.831956	2.18032														
0.90913	2.37896	0.834032	2.18044														
0.910993	2.37804	0.836107	2.18055														
0.912856	2.37712	0.838183	2.18066														
0.914721	2.37622	0.840258	2.18078														
0.916586	2.37531	0.842333	2.18089														
0.918453	2.37442	0.844409	2.181														
0.92032	2.37353	0.846484	2.18111														
0.922188	2.37264	0.84856	2.18123														
0.924057	2.37176	0.850635	2.18134														
0.925926	2.37089	0.85271	2.18145														
0.927797	2.37003	0.854786	2.18156														
0.929668	2.36917	0.856861	2.18166														
0.93154	2.36832	0.858936	2.18177														
0.933413	2.36747	0.861012	2.18188														
0.935287	2.36663	0.863087	2.18199														
0.937162	2.3658	0.865162	2.1821														
0.939037	2.36497	0.867238	2.1822														
0.940914	2.36415	0.869313	2.18231														
0.942791	2.36333	0.871388	2.18241														
0.944669	2.36252	0.873464	2.18252														
0.946547	2.36172	0.875539	2.18262														
0.948427	2.36092	0.877614	2.18273														
0.950307	2.36013	0.879689	2.18283														
0.952188	2.35934	0.881765	2.18293														
0.95407	2.35856	0.88384	2.18303														
0.955953	2.35778	0.885915	2.18314														
0.957836	2.35701	0.88799	2.18324														
0.95972	2.35624	0.890066	2.18334														
0.961605	2.35548	0.892141	2.18344														
0.963491	2.35473	0.894216	2.18354														
0.965377	2.35398	0.896291	2.18364														
0.967264	2.35323	0.898367	2.18374														
0.969152	2.35249	0.900442	2.18384														
0.971041	2.35176	0.902517	2.18393														
0.97293	2.35103	0.904592	2.18403														
0.97482	2.35031	0.906667	2.18413														
0.976711	2.34959	0.908742	2.18422														
0.978603	2.34887	0.910818	2.18432														
0.980495	2.34816	0.912893	2.18442														
0.982388	2.34746	0.914968	2.18451														
0.984282	2.34676	0.917043	2.18461														
0.986176	2.34607	0.919118	2.1847														
0.988071	2.34538	0.921193	2.1848														
0.989967	2.34469	0.923268	2.18489														
0.991863	2.34401	0.925343	2.18498														
0.993761	2.34333	0.927418	2.18507														
0.995658	2.34266	0.929493	2.18517														
0.997557	2.34199	0.931569	2.18526														
0.999456	2.34133	0.933644	2.18535														
1.00136	2.34067	0.935719	2.18544														
		0.937794	2.18553														
		0.939869	2.18562														
		0.941944	2.18571														
		0.944019	2.1858														
		0.946094	2.18589														
		0.948169	2.18598														
		0.950244	2.18607														
		0.952319	2.18615														
		0.954394	2.18624														
		0.956469	2.18633														
		0.958544	2.18642														
		0.960619	2.1865														
		0.962694	2.18659														
		0.964769	2.18667														
		0.966844	2.18676														
		0.968919	2.18684														
		0.970994	2.18693														
		0.973068	2.18701														
		0.975143	2.1871														
		0.977218	2.18718														
		0.979293	2.18726														
		0.981368	2.18734														
		0.983443	2.18743														
		0.985518	2.18751														
		0.987593	2.18759														
		0.989668	2.18767														
		0.991742	2.18775														
		0.993817	2.18783														
		0.995892	2.18791														
		0.997967	2.18799														
		1.00004	2.18807														
