Sym0		Asym0		Sym1		Sym2		Sym3		Sym4		Asym1		Asym2		Asym3	
466  Points		495  Points		222  Points		189  Points		176  Points		122  Points		327  Points		201  Points		164  Points	
Freq (MHz)	Vph (m/ms)	Freq (MHz)	Vph (m/ms)	Freq (MHz)	Vph (m/ms)	Freq (MHz)	Vph (m/ms)	Freq (MHz)	Vph (m/ms)	Freq (MHz)	Vph (m/ms)	Freq (MHz)	Vph (m/ms)	Freq (MHz)	Vph (m/ms)	Freq (MHz)	Vph (m/ms)
0.000182554	5.43626	0.000443433	0.186575	0.279509	2439.51	0.47965	627.325	0.559022	1225.49	0.838536	1025.09	0.13977	386.611	0.419267	1135.5	0.698771	41107.3
0.00524659	5.43533	0.000855489	0.258581	0.279553	267.19	0.479678	282.78	0.559067	402.827	0.838572	479.265	0.139951	108.219	0.419314	322.319	0.698787	736.578
0.0103104	5.4352	0.00139708	0.329492	0.279669	141.392	0.479726	182.545	0.559156	241.062	0.838635	312.76	0.140335	63.0745	0.419415	187.857	0.698834	371.643
0.0153737	5.43497	0.00206398	0.399085	0.279855	96.1813	0.479795	134.786	0.55929	172.023	0.838725	232.135	0.14092	44.643	0.419568	132.593	0.698911	248.538
0.0204362	5.43464	0.0028509	0.467094	0.280112	72.9201	0.479885	106.846	0.559468	133.75	0.838841	184.572	0.141703	34.6605	0.419774	102.484	0.699019	186.715
0.0254978	5.43425	0.00375217	0.533344	0.28044	58.7548	0.479996	88.51	0.559691	109.429	0.838983	153.197	0.142677	28.4218	0.420033	83.5436	0.699157	149.537
0.0305581	5.43375	0.00476147	0.597658	0.280837	49.2287	0.480128	75.554	0.559958	92.6113	0.839152	130.95	0.143839	24.1677	0.420344	70.5346	0.699326	124.72
0.0356168	5.43317	0.00587233	0.659919	0.281305	42.3879	0.480282	65.9143	0.56027	80.2906	0.839347	114.354	0.145181	21.0915	0.420708	61.051	0.699526	106.98
0.0406738	5.43249	0.00707797	0.720018	0.281841	37.2405	0.480457	58.4629	0.560626	70.8781	0.839569	101.501	0.146697	18.771	0.421125	53.833	0.699756	93.6685
0.0457287	5.43171	0.0083716	0.777889	0.282447	33.2297	0.480654	52.5314	0.561026	63.4543	0.839817	91.252	0.148379	16.9639	0.421593	48.1574	0.700016	83.3129
0.0507814	5.43086	0.00974666	0.8335	0.28312	30.0185	0.480873	47.6984	0.56147	57.4505	0.840091	82.8904	0.15022	15.5211	0.422113	43.5789	0.700307	75.028
0.0558314	5.42989	0.0111965	0.886828	0.283861	27.3912	0.481115	43.6852	0.561958	52.4958	0.840392	75.9391	0.152212	14.3459	0.422685	39.8088	0.700629	68.2499
0.0608786	5.42884	0.0127151	0.937893	0.284669	25.2033	0.48138	40.2999	0.562489	48.3383	0.840719	70.0695	0.154348	13.3729	0.423309	36.6515	0.700981	62.6024
0.0659226	5.42769	0.0142962	0.986709	0.285543	23.3542	0.481667	37.4063	0.563063	44.8006	0.841072	65.0479	0.156619	12.5561	0.423984	33.9696	0.701363	57.8251
0.0709632	5.42643	0.0159343	1.03332	0.286482	21.7719	0.481978	34.9049	0.56368	41.7544	0.841451	60.7032	0.159019	11.8624	0.424709	31.6641	0.701775	53.7317
0.076	5.42508	0.0176242	1.07779	0.287485	20.4035	0.482313	32.7213	0.56434	39.1045	0.841857	56.9075	0.16154	11.2674	0.425486	29.6616	0.702218	50.1856
0.0810326	5.42362	0.0193608	1.12017	0.288551	19.2089	0.482672	30.7989	0.565042	36.7787	0.842289	53.5632	0.16383	10.8147	0.426312	27.9067	0.70269	47.0842
0.0860609	5.42205	0.0211396	1.16053	0.289679	18.1579	0.483056	29.0938	0.565787	34.7215	0.842746	50.5947	0.165847	10.4695	0.427189	26.3566	0.703193	44.3492
0.0910846	5.42038	0.0229565	1.19895	0.290869	17.2264	0.483465	27.5713	0.566573	32.8893	0.84323	47.9421	0.167558	10.2087	0.428115	24.9779	0.703726	41.9196
0.096103	5.4186	0.0248077	1.23551	0.292119	16.3957	0.483899	26.2038	0.567401	31.2473	0.84374	45.5578	0.168938	10.0166	0.42909	23.7441	0.704288	39.7472
0.101116	5.41669	0.0266894	1.27028	0.293429	15.6508	0.48436	24.969	0.56827	29.7678	0.844276	43.4032	0.169967	9.88263	0.430114	22.6339	0.704881	37.7934
0.106123	5.41468	0.0285986	1.30335	0.294796	14.9793	0.484848	23.8486	0.56918	28.4281	0.844837	41.4469	0.170632	9.79995	0.431187	21.6298	0.705502	36.027
0.111124	5.41254	0.0305322	1.3348	0.29622	14.3713	0.485362	22.8278	0.57013	27.2094	0.845425	39.6628	0.171597	9.68507	0.432307	20.7177	0.706154	34.4225
0.116118	5.41028	0.0324879	1.36471	0.2977	13.8185	0.485904	21.8939	0.571121	26.0963	0.846038	38.0293	0.172657	9.56524	0.433475	19.8858	0.706835	32.9589
0.121106	5.40789	0.0344629	1.39315	0.299235	13.314	0.486475	21.0365	0.572151	25.0758	0.846676	36.5282	0.174116	9.41016	0.434691	19.1242	0.707545	31.6184
0.126085	5.40537	0.0364553	1.4202	0.300822	12.8518	0.487074	20.2467	0.573221	24.1371	0.847341	35.1442	0.175991	9.22612	0.435953	18.4245	0.708285	30.3863
0.131057	5.40271	0.038463	1.44594	0.302462	12.4272	0.487703	19.517	0.57433	23.2709	0.848031	33.8642	0.1783	9.01992	0.437261	17.7797	0.709054	29.2501
0.13602	5.39992	0.0404844	1.47042	0.304153	12.036	0.488362	18.8409	0.575478	22.4692	0.848746	32.677	0.181066	8.79845	0.438614	17.1837	0.709852	28.1992
0.140974	5.39697	0.0425179	1.49374	0.305894	11.6744	0.489052	18.2128	0.576665	21.7252	0.849487	31.573	0.18431	8.56819	0.440013	16.6315	0.710678	27.2244
0.145919	5.39388	0.0442986	1.51313	0.307684	11.3395	0.489773	17.628	0.577889	21.033	0.850253	30.5438	0.187626	8.36024	0.441457	16.1184	0.711534	26.3179
0.150854	5.39062	0.0458223	1.52903	0.30952	11.0285	0.490526	17.0823	0.579151	20.3876	0.851044	29.5821	0.191009	8.17174	0.442945	15.6407	0.712418	25.4728
0.155777	5.38721	0.0470859	1.54175	0.311159	10.7752	0.491312	16.572	0.580451	19.7845	0.851861	28.6816	0.194456	8.0003	0.444476	15.1948	0.713331	24.6831
0.16069	5.38363	0.0480873	1.55155	0.312583	10.5711	0.492132	16.0939	0.581787	19.2197	0.852702	27.8367	0.197962	7.84388	0.446051	14.778	0.714272	23.9438
0.16559	5.37987	0.0488246	1.55861	0.313779	10.4101	0.492985	15.6451	0.58316	18.6898	0.853568	27.0425	0.201525	7.70076	0.447668	14.3875	0.715241	23.2501
0.170477	5.37593	0.049297	1.56306	0.314736	10.2874	0.493873	15.2232	0.584569	18.1917	0.85446	26.2946	0.20514	7.56943	0.449327	14.0209	0.716239	22.5981
0.175351	5.37179	0.0499767	1.56938	0.315447	10.1997	0.494797	14.8258	0.586014	17.7228	0.855376	25.5891	0.208806	7.44861	0.451028	13.6764	0.717264	21.9842
0.18021	5.36746	0.0507163	1.57614	0.315904	10.1446	0.495756	14.4512	0.587495	17.2807	0.856317	24.9226	0.212519	7.3372	0.45277	13.352	0.718318	21.4052
0.185055	5.36292	0.0517235	1.58514	0.316566	10.0669	0.496753	14.0974	0.58901	16.8631	0.857282	24.292	0.216276	7.23423	0.454552	13.0461	0.719399	20.8584
0.189883	5.35817	0.0529993	1.59625	0.31729	9.9843	0.497787	13.7628	0.59056	16.4682	0.858272	23.6945	0.220076	7.13884	0.456374	12.7573	0.720507	20.341
0.194694	5.35319	0.0545448	1.60925	0.318284	9.87495	0.498859	13.4461	0.592144	16.0943	0.859286	23.1276	0.223915	7.0503	0.458235	12.4841	0.721643	19.8509
0.199487	5.34797	0.0563612	1.62394	0.319555	9.7414	0.499971	13.1459	0.593763	15.7397	0.860325	22.5891	0.227792	6.96795	0.460135	12.2256	0.722806	19.3861
0.20426	5.3425	0.0584497	1.64008	0.321112	9.5866	0.501122	12.8611	0.595415	15.403	0.861388	22.077	0.231704	6.89123	0.462073	11.9805	0.723996	18.9446
0.209014	5.33678	0.0605418	1.65551	0.322967	9.4138	0.502313	12.5906	0.5971	15.0831	0.862475	21.5893	0.23565	6.81961	0.464048	11.7479	0.725213	18.5248
0.213746	5.33078	0.0626372	1.67025	0.325132	9.22635	0.503546	12.3335	0.598818	14.7787	0.863586	21.1244	0.239627	6.75264	0.466061	11.527	0.726456	18.1252
0.218455	5.32451	0.0647352	1.68435	0.327335	9.04962	0.504821	12.0889	0.600568	14.4887	0.86472	20.6809	0.243634	6.68992	0.46811	11.3169	0.727726	17.7444
0.223139	5.31793	0.0668356	1.69784	0.329577	8.88278	0.506138	11.8559	0.60235	14.2123	0.865879	20.2572	0.24767	6.63109	0.470195	11.1169	0.729023	17.3812
0.227799	5.31104	0.0689379	1.71076	0.331855	8.72509	0.507498	11.6338	0.604165	13.9484	0.867061	19.8521	0.251732	6.57582	0.472041	10.9503	0.730345	17.0343
0.232431	5.30383	0.0710419	1.72313	0.334169	8.57586	0.508902	11.4221	0.60601	13.6964	0.868267	19.4645	0.25582	6.52382	0.473635	10.8137	0.731694	16.7028
0.237034	5.29627	0.0731472	1.73499	0.336519	8.4345	0.51035	11.22	0.607887	13.4555	0.869496	19.0933	0.259931	6.47482	0.474968	10.7043	0.733068	16.3857
0.241607	5.28836	0.0752535	1.74635	0.338904	8.30045	0.511649	11.0513	0.609795	13.225	0.870749	18.7374	0.264065	6.4286	0.476031	10.6199	0.734468	16.0821
0.246148	5.28007	0.0773606	1.75726	0.341324	8.17321	0.512784	10.9126	0.611732	13.0043	0.872024	18.3961	0.26822	6.38493	0.476817	10.5591	0.735894	15.7911
0.250655	5.2714	0.0794684	1.76773	0.343779	8.05233	0.513742	10.8014	0.6137	12.7927	0.873323	18.0683	0.272395	6.34363	0.477323	10.5207	0.737344	15.5121
0.255126	5.26231	0.0815767	1.77778	0.346267	7.93741	0.514511	10.7157	0.615698	12.5898	0.874645	17.7535	0.276589	6.3045	0.478053	10.4661	0.73882	15.2444
0.259559	5.2528	0.0836853	1.78744	0.34879	7.82805	0.515084	10.6538	0.617725	12.3951	0.875989	17.4507	0.280801	6.26741	0.478851	10.4078	0.74032	14.9872
0.263952	5.24284	0.085794	1.79672	0.351347	7.72393	0.515454	10.6147	0.61978	12.2082	0.877356	17.1595	0.28503	6.23219	0.479942	10.3299	0.741846	14.7401
0.268302	5.23243	0.0879028	1.80566	0.353938	7.62472	0.515989	10.5591	0.621865	12.0285	0.878746	16.8791	0.289274	6.19871	0.481334	10.2338	0.743396	14.5024
0.272608	5.22153	0.0900116	1.81425	0.356564	7.53015	0.516578	10.4997	0.623978	11.8557	0.880159	16.609	0.293533	6.16685	0.483033	10.121	0.74497	14.2737
0.276867	5.21013	0.0921203	1.82253	0.359225	7.43996	0.517387	10.4203	0.626119	11.6894	0.881593	16.3486	0.297806	6.1365	0.485049	9.9932	0.746568	14.0534
0.281078	5.19822	0.0942287	1.8305	0.361922	7.3539	0.518427	10.3222	0.628288	11.5294	0.88305	16.0975	0.302091	6.10756	0.487391	9.85235	0.74819	13.8412
0.285236	5.18577	0.0963369	1.83819	0.364654	7.27176	0.519709	10.2071	0.630484	11.3752	0.884529	15.8552	0.306389	6.07993	0.489765	9.71732	0.749836	13.6366
0.289341	5.17278	0.0984448	1.84559	0.367424	7.19335	0.521246	10.0766	0.63242	11.2454	0.88603	15.6212	0.310698	6.05352	0.49217	9.58779	0.751505	13.4392
0.293389	5.15922	0.100552	1.85274	0.370231	7.11846	0.523056	9.9327	0.634086	11.138	0.887552	15.3952	0.315018	6.02825	0.494604	9.46346	0.753198	13.2488
0.297379	5.14509	0.102659	1.85964	0.373077	7.04695	0.524915	9.7947	0.635475	11.0513	0.889097	15.1767	0.319347	6.00405	0.497068	9.34403	0.754913	13.0648
0.301309	5.13037	0.104766	1.86631	0.375964	6.97865	0.526823	9.66233	0.636581	10.984	0.890662	14.9654	0.323685	5.98085	0.499561	9.22925	0.756652	12.8871
0.305175	5.11506	0.106872	1.87274	0.378891	6.91342	0.528781	9.5353	0.637397	10.9353	0.89225	14.761	0.328032	5.95858	0.502083	9.11888	0.758413	12.7154
0.308976	5.09914	0.108978	1.87896	0.38186	6.85114	0.530788	9.41334	0.637922	10.9045	0.893858	14.5631	0.332386	5.93719	0.504633	9.01268	0.760197	12.5492
0.312711	5.08263	0.111083	1.88498	0.384873	6.79166	0.532846	9.29623	0.638678	10.8606	0.895488	14.3715	0.336747	5.91662	0.50721	8.91044	0.762004	12.3885
0.316377	5.0655	0.113188	1.8908	0.387931	6.7349	0.534954	9.18372	0.639503	10.8134	0.897139	14.1859	0.341114	5.89682	0.509814	8.81196	0.763832	12.2329
0.319973	5.04778	0.115292	1.89644	0.391035	6.68073	0.537112	9.07561	0.640631	10.7503	0.89881	14.006	0.345487	5.87774	0.512445	8.71706	0.765682	12.0823
0.323498	5.02946	0.117395	1.90189	0.394187	6.62905	0.53932	8.97169	0.642066	10.6718	0.900502	13.8315	0.349864	5.85934	0.515103	8.62555	0.767554	11.9363
0.32695	5.01056	0.119498	1.90717	0.397387	6.57978	0.541579	8.87177	0.643814	10.5792	0.902215	13.6623	0.354246	5.84158	0.517785	8.53728	0.769448	11.7949
0.33033	4.99108	0.121601	1.91229	0.400637	6.53281	0.543889	8.77566	0.645883	10.4735	0.903949	13.4981	0.358632	5.82442	0.520493	8.45209	0.771363	11.6578
0.333636	4.97106	0.123703	1.91726	0.403939	6.48807	0.546249	8.6832	0.64828	10.3559	0.905702	13.3388	0.363021	5.80782	0.523226	8.36984	0.773049	11.5416
0.336868	4.9505	0.125804	1.92207	0.407292	6.44547	0.548658	8.59423	0.650702	10.2421	0.907476	13.184	0.367412	5.79174	0.525984	8.29039	0.774498	11.445
0.339625	4.93217	0.127905	1.92674	0.410697	6.40493	0.551118	8.50858	0.653148	10.132	0.90927	13.0336	0.371806	5.77616	0.528765	8.21361	0.775706	11.3667
0.341931	4.91625	0.130006	1.93128	0.414156	6.36637	0.553628	8.42613	0.655619	10.0255	0.911084	12.8875	0.376201	5.76105	0.53157	8.13938	0.776666	11.3058
0.343808	4.90289	0.132105	1.93568	0.417668	6.3297	0.556187	8.34672	0.658115	9.92227	0.912917	12.7455	0.380596	5.74638	0.534398	8.06759	0.777375	11.2616
0.345273	4.8922	0.134205	1.93996	0.421233	6.29485	0.558795	8.27022	0.660633	9.82227	0.91477	12.6073	0.384992	5.73212	0.537249	7.99813	0.777831	11.2335
0.346339	4.88428	0.136304	1.94411	0.424852	6.26175	0.561452	8.19652	0.663176	9.72535	0.916643	12.473	0.389388	5.71824	0.540122	7.93091	0.778487	11.1935
0.347017	4.87919	0.138402	1.94815	0.428524	6.23032	0.564157	8.1255	0.665741	9.63138	0.918535	12.3423	0.393783	5.70474	0.543017	7.86581	0.779203	11.1505
0.347985	4.87182	0.1405	1.95208	0.432249	6.20048	0.566911	8.05703	0.66833	9.54024	0.920446	12.215	0.398177	5.69157	0.545935	7.80276	0.780181	11.0926
0.349028	4.86377	0.142597	1.9559	0.436025	6.17216	0.569711	7.99102	0.670941	9.45181	0.922376	12.0911	0.402569	5.67872	0.548873	7.74167	0.781424	11.0206
0.350432	4.85273	0.144694	1.95962	0.439852	6.14528	0.572559	7.92736	0.673575	9.36599	0.924326	11.9705	0.406959	5.66617	0.551833	7.68245	0.782938	10.9352
0.352184	4.83865	0.14679	1.96324	0.443728	6.11977	0.575452	7.86596	0.676232	9.28267	0.926039	11.8679	0.411346	5.65391	0.554813	7.62504	0.784728	10.8373
0.354269	4.82145	0.148886	1.96676	0.447652	6.09557	0.578391	7.80671	0.67891	9.20175	0.927512	11.7823	0.415729	5.64191	0.557813	7.56936	0.7868	10.7279
0.356667	4.80103	0.150981	1.97019	0.451623	6.07259	0.581375	7.74953	0.68161	9.12314	0.928737	11.7127	0.420109	5.63016	0.560834	7.51533	0.788893	10.6215
0.359358	4.77734	0.153077	1.97354	0.455638	6.05078	0.584404	7.69435	0.684332	9.04675	0.92971	11.6584	0.424484	5.61864	0.563875	7.46291	0.791004	10.518
0.361984	4.75337	0.155171	1.9768	0.459697	6.03007	0.587476	7.64106	0.687075	8.97251	0.930429	11.6189	0.428855	5.60734	0.566935	7.41201	0.793135	10.4173
0.364548	4.72918	0.157265	1.97998	0.463796	6.01039	0.590591	7.58961	0.68984	8.90032	0.93089	11.5939	0.43322	5.59624	0.570015	7.36259	0.795285	10.3192
0.367052	4.7048	0.159359	1.98308	0.467935	5.99168	0.593748	7.5399	0.692625	8.83011	0.931555	11.5581	0.437579	5.58532	0.573113	7.31459	0.797454	10.2238
0.369498	4.68026	0.161452	1.9861	0.472111	5.97388	0.596947	7.49189	0.695432	8.76182	0.93228	11.5195	0.441931	5.57458	0.576231	7.26795	0.799641	10.1308
0.371889	4.6556	0.163545	1.98905	0.476322	5.95694	0.600187	7.44548	0.698259	8.69536	0.933269	11.4676	0.446277	5.56401	0.579367	7.22263	0.801847	10.0403
0.374225	4.63084	0.165638	1.99193	0.480566	5.9408	0.603466	7.40063	0.701106	8.63068	0.934526	11.4029	0.450615	5.55358	0.582522	7.17858	0.804072	9.95201
0.37651	4.60601	0.16773	1.99474	0.484842	5.92541	0.606784	7.35726	0.703973	8.56772	0.936055	11.3259	0.454945	5.5433	0.585695	7.13575	0.806314	9.86599
0.378747	4.58115	0.169822	1.99748	0.489147	5.91072	0.610141	7.31532	0.706861	8.5064	0.937862	11.2374	0.459266	5.53314	0.588886	7.0941	0.808575	9.78213
0.380936	4.55628	0.171914	2.00017	0.49348	5.89669	0.613536	7.27475	0.709768	8.44669	0.939952	11.1381	0.463579	5.5231	0.592094	7.05359	0.810853	9.70036
0.383079	4.53143	0.174005	2.00279	0.497838	5.88326	0.616967	7.23551	0.712695	8.38851	0.94206	11.0411	0.467881	5.51316	0.595321	7.01418	0.813149	9.6206
0.385181	4.50662	0.176096	2.00535	0.50222	5.87041	0.620434	7.19752	0.715642	8.33183	0.944185	10.9465	0.472174	5.50332	0.598565	6.97582	0.815463	9.54278
0.387241	4.48186	0.178186	2.00785	0.506624	5.85809	0.623936	7.16075	0.718608	8.27658	0.946328	10.8541	0.476456	5.49357	0.601827	6.93849	0.817794	9.46684
0.389262	4.45719	0.180277	2.0103	0.511048	5.84627	0.627473	7.12516	0.721593	8.22273	0.948488	10.7639	0.480726	5.4839	0.605106	6.90216	0.820142	9.39271
0.391246	4.43262	0.182367	2.0127	0.515491	5.83491	0.631043	7.09068	0.724598	8.17022	0.950665	10.6757	0.484985	5.4743	0.608402	6.86678	0.822507	9.32035
0.393195	4.40817	0.184456	2.01504	0.519952	5.82398	0.634646	7.05728	0.727621	8.11901	0.952859	10.5895	0.489232	5.46476	0.611715	6.83233	0.824889	9.24968
0.39511	4.38386	0.186546	2.01733	0.524428	5.81344	0.638281	7.02492	0.730663	8.06907	0.95507	10.5053	0.493465	5.45528	0.615045	6.79878	0.827287	9.18066
0.396994	4.35969	0.188635	2.01957	0.528918	5.80328	0.641947	6.99356	0.733724	8.02035	0.957298	10.423	0.497685	5.44584	0.618393	6.76609	0.829702	9.11324
0.398847	4.33568	0.190724	2.02177	0.533422	5.79347	0.645644	6.96315	0.736803	7.97281	0.959543	10.3425	0.501891	5.43644	0.621757	6.73425	0.832133	9.04736
0.400672	4.31185	0.192812	2.02392	0.537937	5.78398	0.64937	6.93367	0.739901	7.92642	0.961803	10.2638	0.506083	5.42707	0.625138	6.70323	0.834581	8.98297
0.40247	4.2882	0.1949	2.02603	0.542462	5.77479	0.653125	6.90507	0.743017	7.88114	0.96408	10.1868	0.510259	5.41773	0.628536	6.673	0.837045	8.92004
0.404242	4.26474	0.196989	2.02809	0.546997	5.76588	0.656908	6.87733	0.746151	7.83693	0.966374	10.1115	0.51442	5.40841	0.631951	6.64354	0.839524	8.85851
0.405989	4.24149	0.199076	2.03011	0.551541	5.75723	0.660719	6.8504	0.749303	7.79378	0.968683	10.0378	0.518565	5.39909	0.635382	6.61482	0.84202	8.79835
0.407714	4.21844	0.201164	2.03209	0.556091	5.74882	0.664557	6.82427	0.752474	7.75163	0.971008	9.96572	0.522692	5.38979	0.63883	6.58683	0.844531	8.7395
0.409417	4.19562	0.203251	2.03403	0.560647	5.74063	0.66842	6.79889	0.755662	7.71047	0.973349	9.89513	0.526803	5.38048	0.642295	6.55954	0.847058	8.68194
0.411099	4.17301	0.205338	2.03594	0.565209	5.73265	0.672309	6.77425	0.758868	7.67027	0.975706	9.82602	0.530895	5.37116	0.645776	6.53293	0.8496	8.62563
0.412761	4.15063	0.207425	2.0378	0.569775	5.72486	0.676222	6.75031	0.762092	7.63099	0.978078	9.75835	0.534969	5.36184	0.649274	6.50699	0.852157	8.57052
0.414406	4.12849	0.209512	2.03964	0.574344	5.71724	0.680159	6.72705	0.765334	7.59262	0.980465	9.69207	0.539024	5.3525	0.652789	6.48169	0.85473	8.51659
0.416032	4.10657	0.211598	2.04143	0.578915	5.7098	0.68412	6.70444	0.768593	7.55512	0.982868	9.62716	0.54306	5.34314	0.656321	6.45702	0.857317	8.4638
0.417642	4.0849	0.213685	2.04319	0.583489	5.7025	0.688103	6.68246	0.77187	7.51848	0.985286	9.56356	0.547075	5.33375	0.659869	6.43296	0.85992	8.41212
0.419237	4.06347	0.215771	2.04492	0.588063	5.69535	0.692108	6.66108	0.775165	7.48266	0.987719	9.50125	0.55107	5.32434	0.663433	6.4095	0.862537	8.36151
0.420817	4.04228	0.217857	2.04662	0.592638	5.68833	0.696134	6.64029	0.778477	7.44766	0.990166	9.44019	0.555043	5.31488	0.667015	6.38661	0.865169	8.31196
0.422383	4.02133	0.219942	2.04828	0.597212	5.68143	0.700181	6.62005	0.781807	7.41343	0.992629	9.38035	0.558995	5.3054	0.670613	6.36429	0.867816	8.26342
0.423936	4.00063	0.222028	2.04992	0.601785	5.67463	0.704248	6.60036	0.785155	7.37997	0.995106	9.32168	0.562925	5.29586	0.674228	6.34251	0.870477	8.21587
0.425477	3.98018	0.224113	2.05153	0.606357	5.66795	0.708334	6.58119	0.788519	7.34726	0.997597	9.26417	0.566833	5.28629	0.677859	6.32127	0.873153	8.16928
0.427007	3.95997	0.226198	2.0531	0.610926	5.66135	0.712438	6.56252	0.791902	7.31527	1.0001	9.20777	0.570717	5.27666	0.681507	6.30055	0.875843	8.12364
0.428525	3.94001	0.228283	2.05465	0.615492	5.65484	0.716561	6.54433	0.795302	7.28398			0.574577	5.26699	0.685172	6.28033	0.878547	8.0789
0.430034	3.9203	0.230368	2.05617	0.620055	5.64841	0.720702	6.52661	0.798719	7.25339			0.578414	5.25725	0.688853	6.26061	0.881265	8.03506
0.431532	3.90083	0.232453	2.05767	0.624613	5.64205	0.724859	6.50934	0.802154	7.22347			0.582226	5.24747	0.692551	6.24137	0.883997	7.99208
0.433022	3.88161	0.234537	2.05914	0.629167	5.63575	0.729033	6.4925	0.805607	7.1942			0.586013	5.23762	0.696265	6.22259	0.886744	7.94994
0.434503	3.86263	0.236621	2.06058	0.633716	5.62952	0.733223	6.47608	0.809077	7.16557			0.589775	5.22771	0.699996	6.20427	0.889504	7.90863
0.435977	3.84389	0.238706	2.062	0.638259	5.62334	0.737427	6.46005	0.812565	7.13756			0.593512	5.21774	0.703743	6.1864	0.892277	7.86811
0.437443	3.82539	0.24079	2.0634	0.642796	5.6172	0.741647	6.44442	0.816071	7.11017			0.597222	5.2077	0.707507	6.16896	0.895065	7.82838
0.438902	3.80713	0.242873	2.06477	0.647327	5.61111	0.74588	6.42915	0.819594	7.08337			0.600906	5.1976	0.711286	6.15194	0.897866	7.7894
0.440355	3.78911	0.244957	2.06612	0.651851	5.60506	0.750127	6.41425	0.823135	7.05715			0.604563	5.18743	0.715082	6.13533	0.900681	7.75117
0.441802	3.77133	0.247041	2.06745	0.656367	5.59904	0.754387	6.39969	0.826695	7.0315			0.608194	5.17719	0.718894	6.11912	0.90351	7.71366
0.443244	3.75378	0.249124	2.06875	0.660876	5.59305	0.758659	6.38546	0.830272	7.0064			0.611797	5.16689	0.722722	6.1033	0.906351	7.67686
0.44468	3.73646	0.251208	2.07004	0.665377	5.58708	0.762943	6.37156	0.833867	6.98185			0.615373	5.15651	0.726565	6.08786	0.909207	7.64075
0.446111	3.71937	0.253291	2.0713	0.669869	5.58114	0.767239	6.35796	0.837481	6.95783			0.618921	5.14607	0.730424	6.07278	0.912075	7.60531
0.447539	3.70251	0.255374	2.07255	0.674352	5.57521	0.771545	6.34466	0.841113	6.93433			0.622441	5.13555	0.734299	6.05807	0.914957	7.57052
0.448962	3.68587	0.257457	2.07377	0.678825	5.56929	0.775862	6.33164	0.844764	6.91134			0.625934	5.12497	0.738189	6.0437	0.917852	7.53638
0.450381	3.66946	0.25954	2.07498	0.683289	5.56339	0.780188	6.31891	0.848433	6.88884			0.629398	5.11432	0.742093	6.02968	0.92076	7.50286
0.451797	3.65326	0.261623	2.07616	0.687743	5.5575	0.784523	6.30643	0.85212	6.86684			0.632833	5.1036	0.746013	6.01598	0.923681	7.46995
0.45321	3.63729	0.263705	2.07733	0.692187	5.55161	0.788867	6.29421	0.855827	6.84531			0.636241	5.09281	0.749947	6.00261	0.926616	7.43764
0.45462	3.62152	0.265788	2.07848	0.69662	5.54572	0.79322	6.28224	0.859552	6.82426			0.639619	5.08196	0.753895	5.98954	0.929563	7.40591
0.456028	3.60597	0.26787	2.07961	0.701042	5.53984	0.79758	6.2705	0.863297	6.80366			0.64297	5.07104	0.757857	5.97678	0.932523	7.37476
0.457433	3.59063	0.269952	2.08073	0.705452	5.53395	0.801947	6.25898	0.867061	6.78351			0.646291	5.06005	0.761833	5.96431	0.935497	7.34416
0.458837	3.5755	0.272035	2.08183	0.709851	5.52805	0.80632	6.24769	0.870844	6.76381			0.649585	5.04901	0.765822	5.95213	0.938483	7.3141
0.460239	3.56057	0.274117	2.08291	0.714238	5.52215	0.8107	6.2366	0.874647	6.74454			0.652849	5.0379	0.769825	5.94022	0.941482	7.28458
0.461639	3.54585	0.276199	2.08398	0.718613	5.51624	0.815086	6.22572	0.87847	6.7257			0.656085	5.02673	0.77384	5.92858	0.944493	7.25558
0.463038	3.53132	0.278281	2.08503	0.722976	5.51031	0.819476	6.21502	0.882312	6.70727			0.659293	5.0155	0.777868	5.9172	0.947518	7.22708
0.464435	3.51699	0.280362	2.08606	0.727325	5.50438	0.823872	6.20452	0.886175	6.68926			0.662472	5.00422	0.781908	5.90608	0.950555	7.19909
0.465832	3.50285	0.282444	2.08708	0.731662	5.49843	0.828271	6.19419	0.890058	6.67164			0.665623	4.99288	0.785959	5.89519	0.953604	7.17158
0.467228	3.48891	0.284526	2.08809	0.735985	5.49246	0.832674	6.18403	0.893961	6.65443			0.668745	4.98149	0.790023	5.88454	0.956667	7.14455
0.468624	3.47515	0.286607	2.08908	0.740295	5.48648	0.83708	6.17403	0.897884	6.6376			0.67184	4.97005	0.794097	5.87413	0.959742	7.11799
0.470019	3.46158	0.288689	2.09006	0.744591	5.48047	0.84149	6.16419	0.901828	6.62115			0.674907	4.95856	0.798181	5.86393	0.962829	7.09188
0.471414	3.44819	0.29077	2.09102	0.748872	5.47444	0.845901	6.1545	0.905793	6.60508			0.677945	4.94702	0.802276	5.85394	0.965929	7.06622
0.472809	3.43499	0.292851	2.09197	0.75314	5.4684	0.850315	6.14496	0.909779	6.58938			0.680957	4.93544	0.806381	5.84416	0.969042	7.041
0.474204	3.42196	0.294933	2.09291	0.757393	5.46232	0.85473	6.13555	0.913786	6.57403			0.683941	4.92382	0.810496	5.83459	0.972167	7.01621
0.475599	3.40911	0.297014	2.09384	0.761631	5.45623	0.859146	6.12628	0.917814	6.55905			0.686898	4.91216	0.814619	5.8252	0.975304	6.99184
0.476994	3.39643	0.299095	2.09475	0.765854	5.45011	0.863562	6.11714	0.921863	6.54441			0.689827	4.90046	0.818751	5.816	0.978453	6.96788
0.478391	3.38392	0.301176	2.09565	0.770063	5.44396	0.867979	6.10811	0.925934	6.53012			0.69273	4.88872	0.822892	5.80698	0.981615	6.94432
0.479787	3.37158	0.303256	2.09653	0.774255	5.43778	0.872396	6.0992	0.930026	6.51616			0.695607	4.87696	0.82704	5.79813	0.984789	6.92116
0.481185	3.3594	0.305337	2.09741	0.778433	5.43158	0.876813	6.09041	0.934139	6.50254			0.698457	4.86516	0.831195	5.78945	0.987976	6.89838
0.482583	3.34739	0.307418	2.09827	0.782594	5.42534	0.881228	6.08172	0.938274	6.48924			0.701282	4.85334	0.835358	5.78093	0.991174	6.87598
0.483982	3.33554	0.309499	2.09913	0.786739	5.41908	0.885643	6.07314	0.942431	6.47625			0.70408	4.84149	0.839527	5.77256	0.994385	6.85396
0.485382	3.32385	0.311579	2.09997	0.790869	5.41279	0.890056	6.06466	0.94661	6.46358			0.706853	4.82961	0.843703	5.76434	0.997608	6.83229
0.486784	3.31231	0.31366	2.1008	0.794982	5.40646	0.894468	6.05627	0.95081	6.45122			0.709601	4.81772	0.847884	5.75627	1.00084	6.81099
0.488187	3.30093	0.31574	2.10162	0.799078	5.4001	0.898878	6.04797	0.955032	6.43916			0.712324	4.80581	0.852071	5.74833		
0.489591	3.2897	0.317821	2.10243	0.803158	5.39371	0.903285	6.03977	0.959276	6.4274			0.715022	4.79388	0.856263	5.74053		
0.490996	3.27862	0.319901	2.10323	0.807221	5.38729	0.90769	6.03164	0.963541	6.41593			0.717696	4.78194	0.860459	5.73285		
0.492403	3.26768	0.321981	2.10401	0.811267	5.38084	0.912092	6.0236	0.967828	6.40474			0.720346	4.76998	0.864659	5.7253		
0.493811	3.25689	0.324061	2.10479	0.815296	5.37435	0.916492	6.01564	0.972136	6.39382			0.722973	4.75802	0.868863	5.71786		
0.495221	3.24625	0.326141	2.10556	0.819308	5.36783	0.920888	6.00776	0.976465	6.38319			0.725576	4.74605	0.87307	5.71053		
0.496633	3.23574	0.328221	2.10632	0.823302	5.36127	0.925282	5.99995	0.980816	6.37281			0.728155	4.73407	0.877281	5.70332		
0.498047	3.22537	0.330301	2.10707	0.827279	5.35468	0.929672	5.99222	0.985188	6.3627			0.730712	4.72209	0.881494	5.6962		
0.499462	3.21514	0.332381	2.10781	0.831238	5.34805	0.934058	5.98455	0.989581	6.35285			0.733247	4.71011	0.885709	5.68919		
0.500879	3.20504	0.334461	2.10854	0.83518	5.3414	0.938441	5.97696	0.993995	6.34324			0.735759	4.69813	0.889926	5.68227		
0.502298	3.19507	0.336541	2.10927	0.839103	5.3347	0.942821	5.96943	0.998429	6.33388			0.738249	4.68615	0.894144	5.67544		
0.50372	3.18523	0.338621	2.10998	0.843009	5.32797	0.947197	5.96197	1.00288	6.32475			0.740718	4.67418	0.898363	5.6687		
0.505143	3.17552	0.3407	2.11068	0.846897	5.32121	0.951569	5.95457					0.743166	4.66222	0.902583	5.66204		
0.506568	3.16594	0.34278	2.11138	0.850767	5.31442	0.955938	5.94723					0.745593	4.65026	0.906804	5.65546		
0.507996	3.15648	0.34486	2.11207	0.854618	5.30758	0.960303	5.93996					0.747999	4.63831	0.911024	5.64896		
0.509425	3.14714	0.346939	2.11275	0.858452	5.30072	0.964664	5.93274					0.750385	4.62638	0.915244	5.64252		
0.510857	3.13793	0.349019	2.11342	0.862266	5.29382	0.969021	5.92559					0.752751	4.61446	0.919462	5.63616		
0.512291	3.12883	0.351098	2.11409	0.866063	5.28689	0.973375	5.91849					0.755097	4.60256	0.92368	5.62986		
0.513727	3.11985	0.353178	2.11474	0.869841	5.27992	0.977725	5.91145					0.757424	4.59067	0.927897	5.62362		
0.515166	3.11098	0.355257	2.11539	0.873601	5.27292	0.982072	5.90447					0.759732	4.5788	0.932111	5.61745		
0.516607	3.10223	0.357336	2.11604	0.877342	5.26589	0.986415	5.89755					0.762021	4.56695	0.936323	5.61133		
0.51805	3.09359	0.359415	2.11667	0.881065	5.25883	0.990754	5.89068					0.764292	4.55513	0.940533	5.60526		
0.519496	3.08506	0.361495	2.1173	0.884769	5.25173	0.99509	5.88386					0.766544	4.54332	0.94474	5.59924		
0.520944	3.07664	0.363574	2.11792	0.888454	5.2446	0.999423	5.8771					0.768779	4.53155	0.948944	5.59327		
0.522395	3.06832	0.365653	2.11853	0.892121	5.23744	1.00375	5.8704					0.770996	4.51979	0.953144	5.58734		
0.523848	3.06011	0.367732	2.11914	0.895769	5.23025							0.773197	4.50807	0.957341	5.58146		
0.525303	3.052	0.369811	2.11974	0.899399	5.22303							0.77538	4.49637	0.961533	5.57561		
0.526761	3.04399	0.37189	2.12033	0.90301	5.21578							0.777547	4.48471	0.965721	5.56981		
0.528222	3.03609	0.373969	2.12092	0.906602	5.2085							0.779697	4.47308	0.969905	5.56404		
0.529685	3.02828	0.376048	2.1215	0.910176	5.20119							0.781832	4.46147	0.974083	5.5583		
0.53115	3.02057	0.378127	2.12207	0.913731	5.19386							0.78395	4.44991	0.978256	5.55259		
0.532619	3.01296	0.380205	2.12264	0.917268	5.18649							0.786054	4.43837	0.982424	5.54691		
0.53409	3.00544	0.382284	2.1232	0.920786	5.1791							0.788142	4.42687	0.986586	5.54126		
0.535563	2.99801	0.384363	2.12376	0.924285	5.17168							0.790215	4.41541	0.990741	5.53563		
0.537039	2.99067	0.386442	2.12431	0.927766	5.16423							0.792274	4.40399	0.99489	5.53003		
0.538518	2.98343	0.38852	2.12485	0.931229	5.15676							0.794319	4.39261	0.999033	5.52445		
0.539999	2.97627	0.390599	2.12539	0.934673	5.14927							0.796349	4.38126	1.00317	5.51888		
0.541483	2.9692	0.392677	2.12592	0.938098	5.14175							0.798366	4.36996				
0.542969	2.96222	0.394756	2.12645	0.941505	5.13421							0.800369	4.35869				
0.544458	2.95532	0.396834	2.12697	0.944895	5.12664							0.802359	4.34747				
0.54595	2.94851	0.398913	2.12748	0.948265	5.11905							0.804336	4.33629				
0.547445	2.94178	0.400991	2.12799	0.951618	5.11144							0.806301	4.32516				
0.548942	2.93513	0.40307	2.1285	0.954952	5.10381							0.808253	4.31407				
0.550441	2.92856	0.405148	2.129	0.958269	5.09616							0.810192	4.30302				
0.551944	2.92207	0.407226	2.1295	0.961567	5.08849							0.81212	4.29202				
0.553449	2.91565	0.409305	2.12999	0.964848	5.0808							0.814036	4.28107				
0.554957	2.90932	0.411383	2.13047	0.968111	5.07309							0.815941	4.27016				
0.556467	2.90306	0.413461	2.13095	0.971355	5.06536							0.817834	4.25931				
0.55798	2.89687	0.415539	2.13143	0.974583	5.05762							0.819717	4.24849				
0.559496	2.89075	0.417617	2.1319	0.977792	5.04986							0.821588	4.23773				
0.561014	2.88471	0.419695	2.13237	0.980984	5.04208							0.823449	4.22702				
0.562535	2.87874	0.421773	2.13283	0.984159	5.03429							0.8253	4.21635				
0.564059	2.87284	0.423852	2.13329	0.987316	5.02649							0.827141	4.20574				
0.565585	2.86701	0.42593	2.13374	0.990456	5.01867							0.828972	4.19517				
0.567114	2.86125	0.428008	2.13419	0.993578	5.01083							0.830793	4.18466				
0.568646	2.85555	0.430086	2.13463	0.996684	5.00299							0.832605	4.1742				
0.57018	2.84992	0.432163	2.13507	0.999772	4.99513							0.834408	4.16379				
0.571717	2.84436	0.434241	2.13551	1.00284	4.98726							0.836201	4.15343				
0.573256	2.83886	0.436319	2.13594									0.837986	4.14312				
0.574798	2.83342	0.438397	2.13637									0.839762	4.13286				
0.576343	2.82805	0.440475	2.13679									0.84153	4.12266				
0.57789	2.82274	0.442553	2.13721									0.843289	4.1125				
0.57944	2.81749	0.44463	2.13763									0.845041	4.10241				
0.580993	2.81229	0.446708	2.13804									0.846784	4.09236				
0.582548	2.80716	0.448786	2.13845									0.84852	4.08237				
0.584106	2.80209	0.450863	2.13885									0.850249	4.07243				
0.585666	2.79707	0.452941	2.13925									0.85197	4.06254				
0.587229	2.79211	0.455019	2.13965									0.853683	4.05271				
0.588794	2.78721	0.457096	2.14004									0.85539	4.04293				
0.590362	2.78236	0.459174	2.14043									0.85709	4.03321				
0.591932	2.77756	0.461251	2.14082									0.858784	4.02353				
0.593505	2.77282	0.463329	2.1412									0.860471	4.01392				
0.595081	2.76813	0.465406	2.14158									0.862151	4.00435				
0.596659	2.76349	0.467484	2.14196									0.863826	3.99484				
0.598239	2.75891	0.469561	2.14233									0.865494	3.98539				
0.599822	2.75437	0.471639	2.1427									0.867157	3.97598				
0.601408	2.74989	0.473716	2.14307									0.868814	3.96664				
0.602995	2.74545	0.475794	2.14343									0.870465	3.95734				
0.604586	2.74107	0.477871	2.14379									0.872111	3.9481				
0.606179	2.73673	0.479948	2.14415									0.873751	3.93891				
0.607774	2.73244	0.482025	2.14451									0.875386	3.92978				
0.609371	2.72819	0.484103	2.14486									0.877017	3.9207				
0.610972	2.72399	0.48618	2.14521									0.878642	3.91167				
0.612574	2.71984	0.488257	2.14555									0.880263	3.9027				
0.614179	2.71573	0.490334	2.14589									0.881878	3.89378				
0.615786	2.71167	0.492412	2.14623									0.88349	3.88491				
0.617396	2.70765	0.494489	2.14657									0.885097	3.8761				
0.619008	2.70367	0.496566	2.1469									0.8867	3.86734				
0.620622	2.69973	0.498643	2.14723									0.888298	3.85863				
0.622239	2.69584	0.50072	2.14756									0.889893	3.84998				
0.623858	2.69199	0.502797	2.14789									0.891483	3.84137				
0.625479	2.68818	0.504874	2.14821									0.89307	3.83282				
0.627103	2.6844	0.506951	2.14853									0.894653	3.82433				
0.628728	2.68067	0.509028	2.14885									0.896232	3.81588				
0.630357	2.67698	0.511105	2.14916									0.897808	3.80749				
0.631987	2.67333	0.513182	2.14948									0.899381	3.79914				
0.63362	2.66971	0.515259	2.14979									0.90095	3.79085				
0.635255	2.66613	0.517336	2.15009									0.902516	3.78261				
0.636892	2.66259	0.519413	2.1504									0.904079	3.77442				
0.638531	2.65909	0.52149	2.1507									0.905638	3.76629				
0.640173	2.65562	0.523567	2.151									0.907195	3.7582				
0.641816	2.65219	0.525644	2.1513									0.908749	3.75016				
0.643462	2.6488	0.527721	2.15159									0.9103	3.74217				
0.645111	2.64543	0.529798	2.15189									0.911849	3.73424				
0.646761	2.64211	0.531874	2.15218									0.913395	3.72635				
0.648413	2.63881	0.533951	2.15247									0.914939	3.71851				
0.650068	2.63555	0.536028	2.15275									0.91648	3.71073				
0.651725	2.63233	0.538105	2.15304									0.918018	3.70299				
0.653384	2.62913	0.540181	2.15332									0.919555	3.6953				
0.655044	2.62597	0.542258	2.1536									0.921089	3.68766				
0.656707	2.62284	0.544335	2.15388									0.922621	3.68006				
0.658373	2.61974	0.546412	2.15415									0.924151	3.67252				
0.66004	2.61668	0.548488	2.15443									0.92568	3.66502				
0.661709	2.61364	0.550565	2.1547									0.927206	3.65757				
0.66338	2.61064	0.552641	2.15497									0.92873	3.65017				
0.665054	2.60766	0.554718	2.15524									0.930253	3.64282				
0.666729	2.60471	0.556795	2.1555									0.931774	3.63551				
0.668406	2.6018	0.558871	2.15577									0.933293	3.62825				
0.670086	2.59891	0.560948	2.15603									0.934811	3.62103				
0.671767	2.59605	0.563024	2.15629									0.936327	3.61386				
0.67345	2.59322	0.565101	2.15654									0.937842	3.60674				
0.675135	2.59041	0.567178	2.1568									0.939356	3.59966				
0.676823	2.58763	0.569254	2.15705									0.940868	3.59263				
0.678512	2.58489	0.57133	2.15731									0.942378	3.58564				
0.680203	2.58216	0.573407	2.15756									0.943888	3.5787				
0.681896	2.57947	0.575483	2.1578									0.945397	3.5718				
0.683591	2.5768	0.57756	2.15805									0.946904	3.56495				
0.685288	2.57415	0.579636	2.1583									0.94841	3.55814				
0.686986	2.57153	0.581713	2.15854									0.949915	3.55137				
0.688687	2.56894	0.583789	2.15878									0.95142	3.54465				
0.690389	2.56637	0.585865	2.15902									0.952923	3.53797				
0.692094	2.56383	0.587942	2.15926									0.954426	3.53133				
0.6938	2.56131	0.590018	2.1595									0.955928	3.52474				
0.695508	2.55881	0.592095	2.15973									0.957429	3.51819				
0.697217	2.55634	0.594171	2.15996									0.958929	3.51168				
0.698929	2.55389	0.596247	2.16019									0.960429	3.50521				
0.700642	2.55146	0.598323	2.16042									0.961928	3.49878				
0.702357	2.54906	0.6004	2.16065									0.963426	3.4924				
0.704074	2.54668	0.602476	2.16088									0.964924	3.48605				
0.705793	2.54432	0.604552	2.1611									0.966421	3.47975				
0.707513	2.54199	0.606628	2.16133									0.967918	3.47349				
0.709236	2.53967	0.608705	2.16155									0.969415	3.46727				
0.71096	2.53738	0.610781	2.16177									0.970911	3.46108				
0.712685	2.53511	0.612857	2.16199									0.972406	3.45494				
0.714413	2.53286	0.614933	2.16221									0.973902	3.44884				
0.716142	2.53063	0.617009	2.16242									0.975397	3.44277				
0.717872	2.52842	0.619086	2.16264									0.976892	3.43675				
0.719605	2.52623	0.621162	2.16285									0.978386	3.43076				
0.721339	2.52407	0.623238	2.16306									0.979881	3.42481				
0.723075	2.52192	0.625314	2.16327									0.981375	3.4189				
0.724812	2.51979	0.62739	2.16348									0.982869	3.41303				
0.726551	2.51768	0.629466	2.16369									0.984364	3.40719				
0.728292	2.51559	0.631542	2.1639									0.985858	3.4014				
0.730034	2.51352	0.633618	2.1641									0.987352	3.39563				
0.731778	2.51147	0.635694	2.1643									0.988846	3.38991				
0.733523	2.50943	0.63777	2.16451									0.99034	3.38422				
0.73527	2.50742	0.639846	2.16471									0.991834	3.37857				
0.737019	2.50542	0.641922	2.16491									0.993328	3.37296				
0.738769	2.50344	0.643998	2.1651									0.994823	3.36738				
0.740521	2.50148	0.646074	2.1653									0.996317	3.36184				
0.742274	2.49954	0.64815	2.1655									0.997812	3.35633				
0.744029	2.49761	0.650226	2.16569									0.999307	3.35085				
0.745786	2.4957	0.652302	2.16588									1.0008	3.34542				
0.747544	2.49381	0.654378	2.16608														
0.749303	2.49193	0.656454	2.16627														
0.751064	2.49007	0.65853	2.16646														
0.752827	2.48823	0.660606	2.16664														
0.754591	2.4864	0.662682	2.16683														
0.756356	2.48459	0.664758	2.16702														
0.758123	2.4828	0.666833	2.1672														
0.759891	2.48102	0.668909	2.16739														
0.761661	2.47926	0.670985	2.16757														
0.763432	2.47751	0.673061	2.16775														
0.765205	2.47578	0.675137	2.16793														
0.766979	2.47406	0.677213	2.16811														
0.768754	2.47235	0.679288	2.16829														
0.770531	2.47067	0.681364	2.16846														
0.77231	2.46899	0.68344	2.16864														
0.774089	2.46733	0.685516	2.16881														
0.77587	2.46569	0.687591	2.16899														
0.777653	2.46406	0.689667	2.16916														
0.779437	2.46244	0.691743	2.16933														
0.781222	2.46084	0.693818	2.1695														
0.783008	2.45925	0.695894	2.16967														
0.784796	2.45767	0.69797	2.16984														
0.786585	2.45611	0.700046	2.17001														
0.788376	2.45456	0.702121	2.17018														
0.790168	2.45302	0.704197	2.17034														
0.791961	2.45149	0.706272	2.17051														
0.793755	2.44998	0.708348	2.17067														
0.795551	2.44848	0.710424	2.17083														
0.797348	2.447	0.712499	2.17099														
0.799146	2.44552	0.714575	2.17115														
0.800946	2.44406	0.716651	2.17131														
0.802746	2.44261	0.718726	2.17147														
0.804549	2.44118	0.720802	2.17163														
0.806352	2.43975	0.722877	2.17179														
0.808156	2.43834	0.724953	2.17194														
0.809962	2.43693	0.727028	2.1721														
0.811769	2.43554	0.729104	2.17225														
0.813577	2.43416	0.731179	2.17241														
0.815386	2.4328	0.733255	2.17256														
0.817197	2.43144	0.73533	2.17271														
0.819009	2.43009	0.737406	2.17286														
0.820822	2.42876	0.739481	2.17301														
0.822636	2.42743	0.741557	2.17316														
0.824451	2.42612	0.743632	2.17331														
0.826268	2.42482	0.745708	2.17346														
0.828085	2.42353	0.747783	2.1736														
0.829904	2.42224	0.749858	2.17375														
0.831724	2.42097	0.751934	2.17389														
0.833545	2.41971	0.754009	2.17404														
0.835367	2.41846	0.756085	2.17418														
0.83719	2.41722	0.75816	2.17432														
0.839015	2.41599	0.760235	2.17447														
0.84084	2.41476	0.762311	2.17461														
0.842667	2.41355	0.764386	2.17475														
0.844495	2.41235	0.766461	2.17489														
0.846323	2.41116	0.768537	2.17502														
0.848153	2.40997	0.770612	2.17516														
0.849984	2.4088	0.772687	2.1753														
0.851816	2.40763	0.774763	2.17544														
0.853649	2.40648	0.776838	2.17557														
0.855483	2.40533	0.778913	2.17571														
0.857319	2.40419	0.780989	2.17584														
0.859155	2.40306	0.783064	2.17597														
0.860992	2.40194	0.785139	2.17611														
0.86283	2.40083	0.787214	2.17624														
0.86467	2.39973	0.789289	2.17637														
0.86651	2.39863	0.791365	2.1765														
0.868351	2.39755	0.79344	2.17663														
0.870194	2.39647	0.795515	2.17676														
0.872037	2.3954	0.79759	2.17689														
0.873881	2.39434	0.799665	2.17702														
0.875727	2.39328	0.801741	2.17714														
0.877573	2.39224	0.803816	2.17727														
0.87942	2.3912	0.805891	2.1774														
0.881269	2.39017	0.807966	2.17752														
0.883118	2.38915	0.810041	2.17765														
0.884968	2.38813	0.812116	2.17777														
0.886819	2.38713	0.814192	2.17789														
0.888671	2.38613	0.816267	2.17802														
0.890524	2.38514	0.818342	2.17814														
0.892378	2.38415	0.820417	2.17826														
0.894233	2.38318	0.822492	2.17838														
0.896089	2.38221	0.824567	2.1785														
0.897946	2.38125	0.826642	2.17862														
0.899803	2.38029	0.828717	2.17874														
0.901662	2.37934	0.830792	2.17886														
0.903521	2.3784	0.832867	2.17898														
0.905382	2.37747	0.834942	2.17909														
0.907243	2.37654	0.837017	2.17921														
0.909105	2.37562	0.839092	2.17933														
0.910968	2.37471	0.841167	2.17944														
0.912832	2.3738	0.843242	2.17956														
0.914697	2.3729	0.845317	2.17967														
0.916562	2.37201	0.847392	2.17978														
0.918429	2.37112	0.849467	2.1799														
0.920296	2.37024	0.851542	2.18001														
0.922164	2.36937	0.853617	2.18012														
0.924033	2.3685	0.855692	2.18023														
0.925903	2.36764	0.857767	2.18034														
0.927774	2.36678	0.859842	2.18045														
0.929646	2.36594	0.861917	2.18056														
0.931518	2.36509	0.863992	2.18067														
0.933391	2.36426	0.866067	2.18078														
0.935265	2.36343	0.868142	2.18089														
0.93714	2.3626	0.870216	2.181														
0.939016	2.36178	0.872291	2.1811														
0.940893	2.36097	0.874366	2.18121														
0.94277	2.36016	0.876441	2.18132														
0.944648	2.35936	0.878516	2.18142														
0.946527	2.35857	0.880591	2.18153														
0.948406	2.35778	0.882666	2.18163														
0.950287	2.35699	0.88474	2.18174														
0.952168	2.35621	0.886815	2.18184														
0.95405	2.35544	0.88889	2.18194														
0.955933	2.35467	0.890965	2.18205														
0.957816	2.35391	0.89304	2.18215														
0.959701	2.35315	0.895114	2.18225														
0.961586	2.3524	0.897189	2.18235														
0.963472	2.35165	0.899264	2.18245														
0.965358	2.35091	0.901339	2.18255														
0.967245	2.35017	0.903413	2.18265														
0.969133	2.34944	0.905488	2.18275														
0.971022	2.34872	0.907563	2.18285														
0.972912	2.348	0.909638	2.18295														
0.974802	2.34728	0.911712	2.18305														
0.976693	2.34657	0.913787	2.18314														
0.978585	2.34586	0.915862	2.18324														
0.980477	2.34516	0.917936	2.18334														
0.98237	2.34446	0.920011	2.18343														
0.984264	2.34377	0.922086	2.18353														
0.986158	2.34309	0.92416	2.18362														
0.988054	2.3424	0.926235	2.18372														
0.98995	2.34173	0.92831	2.18381														
0.991846	2.34105	0.930384	2.18391														
0.993743	2.34038	0.932459	2.184														
0.995641	2.33972	0.934534	2.18409														
0.99754	2.33906	0.936608	2.18419														
0.999439	2.33841	0.938683	2.18428														
1.00134	2.33776	0.940757	2.18437														
		0.942832	2.18446														
		0.944907	2.18455														
		0.946981	2.18464														
		0.949056	2.18473														
		0.95113	2.18482														
		0.953205	2.18491														
		0.955279	2.185														
		0.957354	2.18509														
		0.959428	2.18518														
		0.961503	2.18526														
		0.963578	2.18535														
		0.965652	2.18544														
		0.967727	2.18553														
		0.969801	2.18561														
		0.971876	2.1857														
		0.97395	2.18578														
		0.976024	2.18587														
		0.978099	2.18595														
		0.980173	2.18604														
		0.982248	2.18612														
		0.984322	2.1862														
		0.986397	2.18629														
		0.988471	2.18637														
		0.990545	2.18645														
		0.99262	2.18654														
		0.994694	2.18662														
		0.996769	2.1867														
		0.998843	2.18678														
		1.00092	2.18686														
