Sym0		Asym0		Sym1		Sym2		Sym3		Sym4		Asym1		Asym2		Asym3	
464  Points		496  Points		213  Points		180  Points		166  Points		117  Points		323  Points		191  Points		156  Points	
Freq (MHz)	Vph (m/ms)	Freq (MHz)	Vph (m/ms)	Freq (MHz)	Vph (m/ms)	Freq (MHz)	Vph (m/ms)	Freq (MHz)	Vph (m/ms)	Freq (MHz)	Vph (m/ms)	Freq (MHz)	Vph (m/ms)	Freq (MHz)	Vph (m/ms)	Freq (MHz)	Vph (m/ms)
0.00108422	5.71721	3.98295e-005	0.0574777	0.279511	1268.76	0.484231	2092.46	0.559026	973.056	0.838534	1184.86	0.139787	276.401	0.41927	916.647	0.698771	32035.5
0.00641096	5.71725	0.00021843	0.134448	0.279569	242.682	0.484248	416.338	0.559082	371.187	0.838571	511.509	0.14002	97.4095	0.419328	301.872	0.698789	732.862
0.0117374	5.7171	0.00053896	0.210832	0.279707	134.236	0.484288	231.185	0.559187	229.373	0.838637	326.178	0.140474	59.2935	0.419445	180.734	0.698841	370.698
0.017063	5.71678	0.000998268	0.286198	0.279924	92.8318	0.484351	160.036	0.559341	165.997	0.838733	239.447	0.141147	42.7611	0.41962	129.015	0.698927	248.119
0.0223876	5.71635	0.00159238	0.360289	0.28022	70.9941	0.484437	122.388	0.559545	130.088	0.838858	189.167	0.142034	33.5577	0.419853	100.343	0.699047	186.482
0.0277109	5.7158	0.00231607	0.432794	0.280594	57.5132	0.484546	99.0913	0.559798	106.975	0.839012	156.352	0.143129	27.7156	0.420145	82.1259	0.6992	149.393
0.0330325	5.71515	0.00316339	0.503474	0.281047	48.369	0.484678	83.2553	0.560101	90.8565	0.839195	133.25	0.144427	23.6924	0.420495	69.5314	0.699388	124.624
0.0383521	5.71437	0.00412764	0.572106	0.281577	41.7635	0.484834	71.7924	0.560452	78.9773	0.839408	116.107	0.145919	20.7637	0.420904	60.3078	0.69961	106.914
0.0436693	5.71349	0.00520182	0.638533	0.282184	36.7721	0.485014	63.112	0.560852	69.8615	0.839649	102.882	0.147598	18.5441	0.42137	53.264	0.699865	93.6228
0.0489839	5.71248	0.00637849	0.702616	0.282868	32.8703	0.485218	56.3115	0.561301	62.6469	0.839921	92.3704	0.149455	16.8097	0.421893	47.7112	0.700155	83.2817
0.0542954	5.71134	0.00765029	0.764272	0.283627	29.7388	0.485446	50.8408	0.561799	56.7963	0.840221	83.8154	0.151481	15.4216	0.422474	43.2227	0.700478	75.0076
0.0596034	5.71008	0.00900969	0.823434	0.284461	27.1719	0.4857	46.3451	0.562344	51.9575	0.84055	76.718	0.153669	14.289	0.423112	39.5209	0.700835	68.2379
0.0649078	5.7087	0.0104496	0.880092	0.285369	25.0309	0.485978	42.5857	0.562937	47.8898	0.840908	70.7356	0.156009	13.35	0.423807	36.4166	0.701225	62.5974
0.0702079	5.70718	0.0119629	0.934235	0.286349	23.2194	0.486282	39.3959	0.563578	44.4233	0.841296	65.625	0.158492	12.561	0.424558	33.777	0.701649	57.8258
0.0755036	5.70554	0.0135429	0.985895	0.287402	21.6678	0.486612	36.6558	0.564267	41.4346	0.841712	61.209	0.161111	11.8905	0.425365	31.5059	0.702107	53.7373
0.0807943	5.70377	0.0151835	1.03512	0.288525	20.3248	0.486968	34.277	0.565002	38.8319	0.842157	57.3554	0.163857	11.3152	0.426228	29.5318	0.702598	50.1955
0.0860796	5.70186	0.0168786	1.08196	0.289719	19.1519	0.487351	32.1928	0.565784	36.5455	0.842632	53.9635	0.166347	10.8773	0.427146	27.8008	0.703122	47.098
0.0913591	5.69981	0.0186229	1.12649	0.29098	18.1193	0.487762	30.3519	0.566612	34.5215	0.843135	50.9554	0.168539	10.5434	0.428119	26.2711	0.70368	44.3665
0.0966325	5.69762	0.0204112	1.16879	0.292309	17.204	0.488201	28.7144	0.567486	32.7175	0.843666	48.2696	0.170396	10.2912	0.429147	24.91	0.704271	41.94
0.101899	5.69528	0.0222389	1.20896	0.293704	16.3874	0.488668	27.2487	0.568406	31.1	0.844227	45.8572	0.171893	10.1054	0.430229	23.6915	0.704895	39.7706
0.107159	5.69279	0.0241019	1.24707	0.295164	15.6551	0.489165	25.9293	0.56937	29.6417	0.844816	43.6787	0.173008	9.9758	0.431364	22.5948	0.705551	37.8196
0.11241	5.69015	0.0259962	1.28322	0.296687	14.9949	0.489692	24.7356	0.57038	28.3206	0.845433	41.7018	0.173729	9.89584	0.432552	21.6028	0.706241	36.0559
0.117654	5.68735	0.0279184	1.31751	0.298272	14.397	0.490249	23.6507	0.571434	27.1184	0.84608	39.9	0.174774	9.78473	0.433793	20.7015	0.706963	34.4539
0.122888	5.68438	0.0298654	1.35003	0.299917	13.8535	0.490837	22.6606	0.572532	26.02	0.846754	38.2512	0.175921	9.66883	0.435085	19.8793	0.707718	32.9926
0.128114	5.68124	0.0318342	1.38087	0.301622	13.3574	0.491457	21.7535	0.573673	25.0128	0.847457	36.7367	0.1775	9.51888	0.436429	19.1265	0.708506	31.6545
0.133329	5.67793	0.0338223	1.41013	0.303385	12.903	0.49211	20.9197	0.574858	24.086	0.848188	35.341	0.179528	9.34092	0.437825	18.4349	0.709325	30.4246
0.138534	5.67444	0.0358275	1.43787	0.305204	12.4857	0.492796	20.1507	0.576085	23.2306	0.848947	34.0508	0.182024	9.14157	0.43927	17.7976	0.710177	29.2906
0.143728	5.67076	0.0378477	1.4642	0.307079	12.1011	0.493516	19.4396	0.577355	22.4387	0.849735	32.8546	0.185009	8.9275	0.440765	17.2085	0.711061	28.2418
0.148909	5.66688	0.039881	1.48918	0.309007	11.7458	0.494271	18.7801	0.578666	21.7038	0.85055	31.7427	0.188509	8.705	0.442309	16.6627	0.711977	27.2691
0.154078	5.6628	0.0416624	1.50993	0.310987	11.4168	0.495061	18.167	0.580019	21.02	0.851393	30.7064	0.192082	8.50411	0.443902	16.1557	0.712925	26.3646
0.159233	5.6585	0.0431871	1.52689	0.313019	11.1113	0.495888	17.5958	0.581413	20.3823	0.852264	29.7386	0.195724	8.32208	0.445543	15.6836	0.713904	25.5215
0.164374	5.65399	0.0444518	1.54043	0.31483	10.8626	0.496753	17.0623	0.582847	19.7863	0.853163	28.8326	0.199431	8.15657	0.447231	15.2431	0.714914	24.7338
0.169499	5.64925	0.0454541	1.55084	0.316403	10.6622	0.497655	16.5633	0.584321	19.2282	0.854089	27.9828	0.203199	8.00562	0.448965	14.8312	0.715956	23.9963
0.174609	5.64427	0.0461923	1.55834	0.317724	10.5041	0.498596	16.0955	0.585836	18.7046	0.855043	27.1842	0.207024	7.86755	0.450746	14.4455	0.717029	23.3046
0.179701	5.63905	0.0466652	1.56306	0.31878	10.3837	0.499576	15.6563	0.587389	18.2124	0.856024	26.4324	0.210904	7.74089	0.452572	14.0835	0.718133	22.6544
0.184775	5.63356	0.0473457	1.56976	0.319565	10.2976	0.500597	15.2432	0.588981	17.749	0.857032	25.7235	0.214834	7.62441	0.454443	13.7432	0.719268	22.0424
0.18983	5.62781	0.0480863	1.57692	0.320069	10.2436	0.50166	14.8541	0.590611	17.3121	0.858068	25.054	0.218812	7.51703	0.456358	13.4229	0.720433	21.4652
0.194864	5.62177	0.0490947	1.58644	0.320799	10.1674	0.502764	14.4872	0.59228	16.8995	0.85913	24.4207	0.222834	7.41781	0.458317	13.121	0.721629	20.9201
0.199876	5.61543	0.0503723	1.59817	0.321598	10.0863	0.503912	14.1406	0.593986	16.5093	0.860219	23.8208	0.2269	7.32592	0.460318	12.8359	0.722854	20.4045
0.204865	5.60879	0.05192	1.61188	0.322694	9.97905	0.505103	13.8129	0.595728	16.1398	0.861336	23.2518	0.231005	7.24065	0.462361	12.5664	0.72411	19.9162
0.20983	5.60182	0.0537391	1.62733	0.324095	9.84808	0.506339	13.5027	0.597508	15.7894	0.862479	22.7114	0.235147	7.16135	0.464446	12.3113	0.725396	19.453
0.214768	5.59451	0.0558306	1.64428	0.325812	9.69631	0.507621	13.2087	0.599324	15.4568	0.863648	22.1976	0.239325	7.08748	0.466571	12.0696	0.726711	19.0132
0.219679	5.58684	0.0579259	1.66043	0.327855	9.52694	0.508949	12.9298	0.601175	15.1408	0.864844	21.7085	0.243536	7.01854	0.468737	11.8402	0.728056	18.5951
0.224561	5.5788	0.0600244	1.67582	0.33024	9.34328	0.510324	12.6649	0.603063	14.8401	0.866066	21.2424	0.247778	6.95407	0.470942	11.6224	0.729429	18.1972
0.229412	5.57038	0.0621256	1.69051	0.332667	9.17021	0.511748	12.4132	0.604985	14.5537	0.867314	20.7978	0.25205	6.8937	0.473186	11.4153	0.730832	17.8181
0.23423	5.56155	0.0642289	1.70453	0.335134	9.00689	0.51322	12.1738	0.606941	14.2807	0.868589	20.3731	0.256349	6.83707	0.475469	11.2182	0.732264	17.4564
0.239013	5.55228	0.0663341	1.71792	0.337641	8.85262	0.514741	11.9459	0.608932	14.0202	0.869889	19.9673	0.260675	6.78386	0.477488	11.0541	0.733724	17.1112
0.243759	5.54258	0.0684407	1.73072	0.340188	8.70671	0.516313	11.7288	0.610957	13.7714	0.871215	19.579	0.265025	6.73379	0.479232	10.9195	0.735213	16.7813
0.248466	5.5324	0.0705486	1.74296	0.342775	8.56859	0.517936	11.5218	0.613015	13.5336	0.872566	19.2072	0.269398	6.68661	0.480689	10.8117	0.736729	16.4657
0.253132	5.52174	0.0726574	1.75467	0.3454	8.4377	0.51961	11.3243	0.615106	13.306	0.873943	18.8509	0.273792	6.64209	0.481851	10.7286	0.738274	16.1637
0.257754	5.51058	0.0747668	1.76588	0.348064	8.31356	0.521112	11.1596	0.61723	13.0882	0.875346	18.5092	0.278207	6.60001	0.48271	10.6687	0.739846	15.8743
0.26233	5.49888	0.0768767	1.77662	0.350767	8.19574	0.522424	11.0243	0.619386	12.8795	0.876773	18.1812	0.282641	6.56019	0.483263	10.6309	0.741446	15.5968
0.266858	5.48664	0.0789869	1.78691	0.353509	8.08382	0.523531	10.9158	0.621573	12.6793	0.878226	17.8662	0.287092	6.52246	0.48406	10.5772	0.743073	15.3306
0.271335	5.47383	0.0810973	1.79678	0.35629	7.97745	0.524421	10.8321	0.623793	12.4873	0.879703	17.5633	0.29156	6.48667	0.484932	10.5198	0.744727	15.075
0.275758	5.46043	0.0832077	1.80625	0.359111	7.8763	0.525083	10.7718	0.626043	12.3028	0.881206	17.272	0.296043	6.45266	0.486124	10.4431	0.746408	14.8293
0.280125	5.44642	0.0853181	1.81535	0.361971	7.78005	0.52551	10.7337	0.628325	12.1257	0.882732	16.9917	0.300541	6.42031	0.487643	10.3485	0.748116	14.5931
0.284433	5.43179	0.0874283	1.82409	0.364872	7.68844	0.52613	10.6795	0.630636	11.9553	0.884284	16.7216	0.305052	6.38951	0.489497	10.2375	0.74985	14.3658
0.28868	5.41652	0.0895382	1.83249	0.367815	7.60122	0.52681	10.6216	0.632978	11.7914	0.885859	16.4614	0.309576	6.36014	0.491697	10.1118	0.75161	14.147
0.292863	5.40059	0.0916477	1.84056	0.3708	7.51814	0.527746	10.5443	0.63535	11.6337	0.887459	16.2105	0.314111	6.3321	0.494252	9.97325	0.753396	13.9363
0.296979	5.38399	0.0937569	1.84834	0.373828	7.43902	0.528948	10.4488	0.63775	11.4818	0.889083	15.9684	0.318656	6.3053	0.496839	9.84046	0.755208	13.7331
0.301027	5.36672	0.0958657	1.85582	0.376901	7.36364	0.530429	10.3367	0.639866	11.3539	0.89073	15.7347	0.323211	6.27966	0.499459	9.71312	0.757045	13.5371
0.305003	5.34876	0.0979739	1.86303	0.380019	7.29184	0.532206	10.2098	0.641687	11.2481	0.892402	15.5089	0.327774	6.2551	0.502111	9.5909	0.758907	13.3481
0.308906	5.33012	0.100082	1.86998	0.383185	7.22344	0.534297	10.07	0.643205	11.1627	0.894096	15.2908	0.332346	6.23154	0.504793	9.47354	0.760795	13.1655
0.312734	5.3108	0.102189	1.87669	0.386399	7.1583	0.536444	9.93595	0.644413	11.0965	0.895814	15.0799	0.336925	6.20893	0.507506	9.36078	0.762707	12.9892
0.316485	5.29079	0.104296	1.88315	0.389662	7.09627	0.538647	9.80751	0.645305	11.0486	0.897556	14.8759	0.341509	6.18719	0.510248	9.25236	0.764643	12.8188
0.320159	5.27012	0.106402	1.8894	0.392976	7.03723	0.540906	9.68436	0.645878	11.0182	0.89932	14.6785	0.3461	6.16627	0.51302	9.14808	0.766604	12.654
0.323753	5.24878	0.108507	1.89543	0.396343	6.98104	0.543222	9.56624	0.646704	10.975	0.901107	14.4874	0.350695	6.14611	0.515821	9.0477	0.768589	12.4946
0.327267	5.22681	0.110612	1.90125	0.399763	6.92759	0.545594	9.45292	0.647605	10.9286	0.902917	14.3022	0.355294	6.12668	0.51865	8.95104	0.770598	12.3404
0.330702	5.20422	0.112717	1.90689	0.403237	6.87676	0.548022	9.34415	0.648836	10.8664	0.90475	14.1228	0.359897	6.10791	0.521507	8.85792	0.772631	12.191
0.334056	5.18104	0.11482	1.91233	0.406766	6.82845	0.550507	9.23974	0.650403	10.7892	0.906605	13.9489	0.364502	6.08978	0.524391	8.76815	0.774686	12.0464
0.337329	5.15729	0.116923	1.91761	0.410351	6.78256	0.553048	9.13947	0.652312	10.698	0.908482	13.7803	0.369109	6.07223	0.527302	8.68157	0.776765	11.9062
0.340524	5.13301	0.119026	1.92271	0.413993	6.73897	0.555646	9.04315	0.65457	10.594	0.910381	13.6166	0.373718	6.05523	0.530239	8.59804	0.778867	11.7703
0.343639	5.10823	0.121128	1.92765	0.417691	6.69759	0.558298	8.95061	0.657186	10.4783	0.912303	13.4578	0.378327	6.03875	0.533202	8.5174	0.780717	11.6553
0.346677	5.08298	0.123229	1.93244	0.421446	6.65832	0.561007	8.86166	0.659829	10.3665	0.914245	13.3036	0.382936	6.02275	0.53619	8.43953	0.782308	11.5596
0.349638	5.05732	0.12533	1.93709	0.425257	6.62108	0.56377	8.77615	0.662498	10.2583	0.91621	13.1539	0.387544	6.0072	0.539203	8.3643	0.783633	11.482
0.352525	5.03127	0.127431	1.94159	0.429124	6.58575	0.566588	8.69393	0.665193	10.1535	0.918196	13.0084	0.392151	5.99208	0.542241	8.29158	0.784686	11.4217
0.355339	5.00488	0.12953	1.94596	0.433046	6.55225	0.56946	8.61484	0.667914	10.0521	0.920203	12.867	0.396756	5.97735	0.545303	8.22127	0.785464	11.378
0.357733	4.98164	0.131629	1.9502	0.437022	6.5205	0.572386	8.53874	0.670661	9.95385	0.922231	12.7295	0.401358	5.96299	0.548388	8.15327	0.785963	11.3502
0.359733	4.96167	0.133728	1.95431	0.441052	6.49039	0.575364	8.46552	0.673433	9.85866	0.924281	12.5958	0.405957	5.94897	0.551497	8.08746	0.786683	11.3106
0.361359	4.94505	0.135826	1.95831	0.445132	6.46185	0.578395	8.39503	0.676229	9.76639	0.926351	12.4658	0.410553	5.93527	0.554629	8.02376	0.787468	11.268
0.362626	4.93185	0.137924	1.96219	0.449263	6.43478	0.581478	8.32716	0.679051	9.67693	0.928441	12.3392	0.415144	5.92188	0.557783	7.96207	0.78854	11.2107
0.363548	4.92212	0.140021	1.96597	0.453442	6.40911	0.584611	8.2618	0.681897	9.59016	0.930552	12.216	0.419729	5.90876	0.56096	7.90232	0.789903	11.1394
0.364134	4.91588	0.142118	1.96964	0.457667	6.38474	0.587795	8.19884	0.684767	9.50596	0.932684	12.096	0.424309	5.89591	0.564158	7.84442	0.791562	11.0549
0.364971	4.90689	0.144214	1.97322	0.461936	6.36162	0.591028	8.13818	0.687661	9.42425	0.934557	11.994	0.428883	5.8833	0.567379	7.78831	0.793524	10.9581
0.365872	4.89711	0.14631	1.97669	0.466247	6.33965	0.594309	8.07971	0.690579	9.34491	0.936166	11.9089	0.43345	5.87091	0.57062	7.73389	0.795795	10.8498
0.367086	4.88377	0.148405	1.98008	0.470599	6.31877	0.597639	8.02334	0.69352	9.26787	0.937505	11.8397	0.438009	5.85872	0.573883	7.68112	0.798087	10.7446
0.3686	4.86686	0.1505	1.98337	0.474988	6.2989	0.601015	7.96899	0.696485	9.19303	0.938569	11.7858	0.44256	5.84673	0.577167	7.62992	0.800399	10.6422
0.370401	4.84635	0.152594	1.98658	0.479413	6.27999	0.604437	7.91656	0.699473	9.12031	0.939355	11.7466	0.447102	5.83492	0.580471	7.58024	0.802732	10.5427
0.372474	4.82225	0.154688	1.98971	0.483871	6.26196	0.607904	7.86598	0.702484	9.04963	0.939859	11.7217	0.451635	5.82327	0.583795	7.53201	0.805086	10.4458
0.374801	4.79454	0.156782	1.99275	0.488361	6.24477	0.611415	7.81717	0.705517	8.98092	0.940585	11.6861	0.456157	5.81176	0.58714	7.48518	0.807459	10.3514
0.377075	4.76681	0.158875	1.99573	0.49288	6.22835	0.614969	7.77006	0.708573	8.9141	0.941376	11.6478	0.460669	5.80039	0.590504	7.43971	0.809853	10.2596
0.379298	4.7391	0.160968	1.99862	0.497426	6.21266	0.618565	7.72456	0.711652	8.84911	0.942457	11.5962	0.465169	5.78915	0.593888	7.39553	0.812267	10.1701
0.381473	4.71143	0.16306	2.00145	0.501997	6.19763	0.622202	7.68062	0.714753	8.78588	0.94383	11.5319	0.469658	5.77801	0.597292	7.35261	0.814699	10.0829
0.383602	4.68383	0.165152	2.00421	0.506592	6.18323	0.62588	7.63818	0.717875	8.72434	0.945501	11.4555	0.474134	5.76697	0.600715	7.3109	0.817152	9.99801
0.385688	4.65632	0.167244	2.0069	0.511208	6.16941	0.629597	7.59715	0.72102	8.66445	0.947474	11.3675	0.478596	5.75602	0.604158	7.27036	0.819623	9.91522
0.387731	4.62892	0.169335	2.00953	0.515843	6.15614	0.633353	7.5575	0.724186	8.60615	0.949756	11.269	0.483045	5.74515	0.607619	7.23094	0.822114	9.8345
0.389735	4.60166	0.171426	2.0121	0.520497	6.14336	0.637145	7.51917	0.727374	8.54937	0.952056	11.1727	0.487479	5.73434	0.6111	7.19262	0.824623	9.75579
0.391701	4.57455	0.173517	2.01461	0.525166	6.13106	0.640974	7.48209	0.730584	8.49408	0.954376	11.0788	0.491898	5.72359	0.6146	7.15534	0.827151	9.67901
0.393631	4.54761	0.175608	2.01706	0.529851	6.11919	0.644839	7.44621	0.733815	8.44022	0.956714	10.9871	0.496301	5.71289	0.618118	7.11908	0.829697	9.60409
0.395527	4.52085	0.177698	2.01946	0.534548	6.10772	0.648738	7.4115	0.737067	8.38773	0.95907	10.8976	0.500688	5.70223	0.621655	7.0838	0.832262	9.53099
0.397391	4.49429	0.179788	2.0218	0.539257	6.09662	0.65267	7.37789	0.74034	8.33659	0.961445	10.8101	0.505057	5.6916	0.625211	7.04948	0.834844	9.45964
0.399224	4.46795	0.181877	2.02409	0.543977	6.08587	0.656635	7.34535	0.743634	8.28675	0.963837	10.7247	0.509408	5.68099	0.628785	7.01608	0.837445	9.38997
0.401028	4.44183	0.183966	2.02633	0.548705	6.07545	0.660632	7.31383	0.746949	8.23816	0.966248	10.6412	0.513741	5.67039	0.632378	6.98357	0.840063	9.32195
0.402805	4.41594	0.186055	2.02852	0.553442	6.06532	0.664659	7.28329	0.750286	8.19079	0.968676	10.5596	0.518055	5.6598	0.63599	6.95192	0.842699	9.25551
0.404556	4.39029	0.188144	2.03067	0.558185	6.05547	0.668716	7.25369	0.753643	8.1446	0.971122	10.4798	0.522349	5.64921	0.639619	6.92111	0.845352	9.1906
0.406283	4.36489	0.190233	2.03277	0.562933	6.04588	0.672802	7.225	0.757021	8.09955	0.973585	10.4018	0.526623	5.63862	0.643268	6.89112	0.848023	9.12718
0.407986	4.33975	0.192321	2.03483	0.567686	6.03652	0.676916	7.19717	0.760419	8.05562	0.976066	10.3255	0.530875	5.62801	0.646935	6.86191	0.850711	9.06521
0.409667	4.31487	0.194409	2.03684	0.572443	6.02738	0.681057	7.17017	0.763839	8.01275	0.978563	10.2509	0.535106	5.61737	0.65062	6.83347	0.853415	9.00463
0.411327	4.29026	0.196497	2.03881	0.577202	6.01845	0.685224	7.14396	0.767279	7.97094	0.981078	10.1779	0.539315	5.60672	0.654324	6.80577	0.856137	8.94541
0.412968	4.26591	0.198584	2.04074	0.581962	6.00971	0.689416	7.11853	0.77074	7.93014	0.983609	10.1065	0.5435	5.59603	0.658046	6.77879	0.858875	8.8875
0.41459	4.24184	0.200672	2.04264	0.586724	6.00114	0.693633	7.09382	0.774222	7.89032	0.986157	10.0366	0.547662	5.5853	0.661786	6.75252	0.86163	8.83086
0.416194	4.21805	0.202759	2.04449	0.591485	5.99273	0.697874	7.06983	0.777725	7.85147	0.988722	9.96817	0.5518	5.57453	0.665545	6.72692	0.864401	8.77547
0.417783	4.19454	0.204846	2.04631	0.596245	5.98447	0.702137	7.04651	0.781248	7.81354	0.991303	9.90119	0.555913	5.56372	0.669322	6.70199	0.867189	8.72128
0.419355	4.17131	0.206932	2.04809	0.601004	5.97634	0.706422	7.02384	0.784792	7.77653	0.9939	9.8356	0.560001	5.55285	0.673118	6.67769	0.869992	8.66825
0.420913	4.14836	0.209019	2.04984	0.60576	5.96834	0.710728	7.00179	0.788357	7.7404	0.996513	9.77137	0.564063	5.54193	0.676932	6.65403	0.872812	8.61636
0.422457	4.12569	0.211105	2.05156	0.610514	5.96046	0.715055	6.98034	0.791944	7.70512	0.999142	9.70846	0.568098	5.53095	0.680764	6.63097	0.875648	8.56557
0.423988	4.10331	0.213191	2.05324	0.615263	5.95268	0.719401	6.95947	0.795551	7.67068	1.00179	9.64682	0.572107	5.5199	0.684614	6.6085	0.878499	8.51585
0.425507	4.08121	0.215277	2.05489	0.620008	5.945	0.723765	6.93915	0.799179	7.63706			0.576088	5.50879	0.688482	6.5866	0.881366	8.46717
0.427014	4.05939	0.217363	2.05651	0.624748	5.93741	0.728147	6.91935	0.802829	7.60424			0.580041	5.49762	0.692369	6.56526	0.884249	8.41951
0.428511	4.03785	0.219449	2.0581	0.629483	5.9299	0.732546	6.90006	0.8065	7.57218			0.583966	5.48637	0.696273	6.54447	0.887147	8.37282
0.429997	4.0166	0.221534	2.05966	0.634211	5.92247	0.736962	6.88126	0.810192	7.54089			0.587862	5.47505	0.700196	6.52421	0.890061	8.3271
0.431474	3.99562	0.223619	2.0612	0.638933	5.91509	0.741392	6.86293	0.813907	7.51033			0.591729	5.46365	0.704136	6.50445	0.892989	8.28231
0.432942	3.97492	0.225704	2.0627	0.643648	5.90778	0.745837	6.84504	0.817643	7.48049			0.595567	5.45218	0.708094	6.4852	0.895934	8.23842
0.434401	3.95449	0.227789	2.06418	0.648355	5.90053	0.750297	6.82759	0.821401	7.45136			0.599374	5.44063	0.71207	6.46643	0.898893	8.19542
0.435853	3.93434	0.229874	2.06563	0.653053	5.89332	0.754769	6.81054	0.825181	7.42292			0.603151	5.429	0.716063	6.44814	0.901867	8.15328
0.437298	3.91446	0.231959	2.06706	0.657743	5.88615	0.759253	6.79389	0.828984	7.39514			0.606898	5.4173	0.720073	6.4303	0.904856	8.11197
0.438735	3.89484	0.234043	2.06846	0.662424	5.87903	0.763749	6.77761	0.832809	7.36803			0.610613	5.40551	0.7241	6.41291	0.90786	8.07149
0.440167	3.8755	0.236128	2.06984	0.667096	5.87193	0.768255	6.7617	0.836657	7.34156			0.614298	5.39364	0.728145	6.39595	0.910878	8.03179
0.441593	3.85641	0.238212	2.07119	0.671757	5.86486	0.772772	6.74613	0.840528	7.31571			0.617951	5.38169	0.732205	6.37941	0.913912	7.99288
0.443013	3.83759	0.240296	2.07253	0.676408	5.85782	0.777297	6.73089	0.844422	7.29049			0.621573	5.36967	0.736283	6.36328	0.91696	7.95471
0.444428	3.81903	0.24238	2.07383	0.681048	5.8508	0.781832	6.71597	0.848339	7.26586			0.625163	5.35756	0.740376	6.34754	0.920022	7.91729
0.445839	3.80072	0.244464	2.07512	0.685677	5.84379	0.786373	6.70135	0.85228	7.24183			0.628722	5.34537	0.744485	6.33219	0.923099	7.88058
0.447245	3.78267	0.246548	2.07639	0.690295	5.8368	0.790922	6.68702	0.856245	7.21837			0.632248	5.33311	0.74861	6.31721	0.92619	7.84458
0.448648	3.76486	0.248631	2.07763	0.6949	5.82981	0.795477	6.67297	0.860235	7.19549			0.635743	5.32078	0.75275	6.3026	0.929296	7.80926
0.450047	3.7473	0.250715	2.07886	0.699494	5.82283	0.800038	6.65918	0.864248	7.17316			0.639206	5.30836	0.756905	6.28833	0.932415	7.7746
0.451442	3.72999	0.252798	2.08006	0.704074	5.81585	0.804604	6.64565	0.868286	7.15137			0.642637	5.29588	0.761074	6.2744	0.935549	7.7406
0.452835	3.71291	0.254881	2.08125	0.708642	5.80888	0.809173	6.63235	0.872349	7.13012			0.646035	5.28332	0.765258	6.26081	0.938697	7.70723
0.454225	3.69608	0.256964	2.08242	0.713196	5.8019	0.813747	6.61929	0.876437	7.1094			0.649402	5.27069	0.769455	6.24753	0.941859	7.67449
0.455613	3.67947	0.259047	2.08357	0.717737	5.79492	0.818323	6.60644	0.880551	7.08919			0.652737	5.258	0.773666	6.23455	0.945036	7.64235
0.456999	3.6631	0.26113	2.0847	0.722263	5.78793	0.822901	6.59381	0.88469	7.06948			0.65604	5.24524	0.77789	6.22188	0.948226	7.6108
0.458382	3.64696	0.263213	2.08581	0.726775	5.78092	0.827481	6.58137	0.888855	7.05027			0.659312	5.23242	0.782127	6.20949	0.951429	7.57984
0.459765	3.63104	0.265296	2.08691	0.731273	5.77391	0.832061	6.56912	0.893045	7.03155			0.662552	5.21954	0.786376	6.19738	0.954647	7.54943
0.461145	3.61534	0.267379	2.08799	0.735756	5.76688	0.836642	6.55706	0.897262	7.0133			0.66576	5.2066	0.790637	6.18554	0.957879	7.51958
0.462525	3.59986	0.269461	2.08905	0.740224	5.75984	0.841223	6.54517	0.901505	6.99552			0.668938	5.19361	0.794908	6.17396	0.961124	7.49027
0.463904	3.5846	0.271544	2.0901	0.744676	5.75278	0.845803	6.53344	0.905775	6.9782			0.672084	5.18057	0.799191	6.16263	0.964382	7.46149
0.465282	3.56955	0.273626	2.09113	0.749113	5.7457	0.850382	6.52187	0.910071	6.96133			0.6752	5.16747	0.803484	6.15154	0.967655	7.43323
0.466659	3.55471	0.275708	2.09215	0.753534	5.73859	0.854959	6.51046	0.914393	6.9449			0.678285	5.15433	0.807788	6.14068	0.97094	7.40547
0.468036	3.54007	0.27779	2.09315	0.757938	5.73147	0.859534	6.49918	0.918743	6.92891			0.681339	5.14114	0.8121	6.13005	0.97424	7.3782
0.469413	3.52564	0.279872	2.09414	0.762326	5.72432	0.864106	6.48805	0.923119	6.91333			0.684364	5.12791	0.816422	6.11963	0.977552	7.35142
0.470789	3.51141	0.281954	2.09511	0.766697	5.71715	0.868676	6.47705	0.927522	6.89818			0.687359	5.11464	0.820752	6.10943	0.980878	7.32511
0.472166	3.49737	0.284036	2.09607	0.771051	5.70995	0.873242	6.46617	0.931952	6.88343			0.690324	5.10134	0.82509	6.09942	0.984218	7.29926
0.473543	3.48353	0.286118	2.09701	0.775388	5.70272	0.877804	6.45542	0.936409	6.86907			0.69326	5.08801	0.829436	6.0896	0.98757	7.27386
0.474921	3.46988	0.2882	2.09794	0.779708	5.69546	0.882362	6.44478	0.940893	6.85511			0.696167	5.07464	0.833789	6.07997	0.990936	7.2489
0.476298	3.45642	0.290282	2.09886	0.78401	5.68817	0.886916	6.43426	0.945403	6.84153			0.699045	5.06125	0.838149	6.07052	0.994315	7.22438
0.477677	3.44315	0.292363	2.09977	0.788294	5.68085	0.891466	6.42385	0.949939	6.82832			0.701895	5.04783	0.842515	6.06124	0.997707	7.20029
0.479056	3.43005	0.294445	2.10066	0.79256	5.6735	0.896011	6.41354	0.954502	6.81547			0.704717	5.03439	0.846886	6.05212	1.00111	7.1766
0.480436	3.41714	0.296526	2.10154	0.796808	5.66612	0.900551	6.40334	0.959091	6.80298			0.707511	5.02094	0.851263	6.04316		
0.481818	3.4044	0.298608	2.10241	0.801037	5.6587	0.905087	6.39323	0.963705	6.79083			0.710278	5.00746	0.855644	6.03435		
0.4832	3.39184	0.300689	2.10327	0.805248	5.65125	0.909617	6.38322	0.968345	6.77903			0.713018	4.99398	0.860029	6.02569		
0.484583	3.37945	0.30277	2.10411	0.809439	5.64377	0.914143	6.37331	0.973011	6.76755			0.715731	4.98048	0.864419	6.01716		
0.485968	3.36723	0.304851	2.10495	0.813612	5.63625	0.918664	6.3635	0.977701	6.75639			0.718418	4.96698	0.868811	6.00877		
0.487354	3.35517	0.306932	2.10577	0.817766	5.62869	0.923179	6.35377	0.982416	6.74554			0.721079	4.95347	0.873207	6.0005		
0.488742	3.34328	0.309013	2.10658	0.8219	5.6211	0.92769	6.34413	0.987156	6.73499			0.723715	4.93995	0.877605	5.99236		
0.490131	3.33155	0.311094	2.10738	0.826015	5.61348	0.932196	6.33458	0.991919	6.72474			0.726325	4.92644	0.882005	5.98433		
0.491522	3.31998	0.313175	2.10817	0.830111	5.60581	0.936697	6.32512	0.996705	6.71478			0.72891	4.91293	0.886406	5.97641		
0.492914	3.30856	0.315256	2.10895	0.834186	5.59811	0.941193	6.31575	1.00151	6.70509			0.731471	4.89942	0.890809	5.9686		
0.494309	3.2973	0.317337	2.10972	0.838242	5.59038	0.945685	6.30646					0.734008	4.88592	0.895212	5.9609		
0.495705	3.28619	0.319418	2.11048	0.842278	5.58261	0.950172	6.29726					0.736521	4.87243	0.899615	5.95328		
0.497103	3.27523	0.321498	2.11124	0.846294	5.5748	0.954655	6.28814					0.739011	4.85895	0.904018	5.94576		
0.498503	3.26442	0.323579	2.11198	0.850289	5.56695	0.959133	6.27911					0.741477	4.84549	0.908421	5.93833		
0.499905	3.25375	0.325659	2.11271	0.854265	5.55907	0.963608	6.27016					0.743921	4.83204	0.912822	5.93098		
0.501309	3.24322	0.32774	2.11343	0.85822	5.55115	0.968079	6.26129					0.746343	4.81861	0.917223	5.92371		
0.502715	3.23283	0.32982	2.11415	0.862154	5.54319	0.972547	6.25251					0.748742	4.8052	0.921621	5.91651		
0.504123	3.22258	0.331901	2.11485	0.866068	5.5352	0.97701	6.24381					0.75112	4.79181	0.926017	5.90939		
0.505534	3.21246	0.333981	2.11555	0.869962	5.52717	0.981471	6.23519					0.753477	4.77844	0.93041	5.90233		
0.506947	3.20248	0.336061	2.11623	0.873835	5.51911	0.985928	6.22665					0.755813	4.7651	0.9348	5.89534		
0.508362	3.19263	0.338142	2.11691	0.877687	5.51101	0.990383	6.2182					0.758129	4.75178	0.939187	5.88841		
0.509779	3.1829	0.340222	2.11759	0.881519	5.50288	0.994835	6.20982					0.760424	4.7385	0.94357	5.88153		
0.511199	3.17331	0.342302	2.11825	0.88533	5.49471	0.999284	6.20152					0.762699	4.72525	0.94795	5.87471		
0.512621	3.16384	0.344382	2.1189	0.88912	5.48651	1.00373	6.19331					0.764955	4.71202	0.952324	5.86794		
0.514046	3.15449	0.346462	2.11955	0.892889	5.47827							0.767192	4.69884	0.956694	5.86121		
0.515473	3.14527	0.348542	2.12019	0.896638	5.47							0.769411	4.68568	0.961058	5.85454		
0.516903	3.13616	0.350622	2.12082	0.900366	5.4617							0.771611	4.67257	0.965417	5.8479		
0.518335	3.12717	0.352702	2.12145	0.904073	5.45337							0.773792	4.65949	0.96977	5.8413		
0.519769	3.1183	0.354782	2.12207	0.907759	5.445							0.775956	4.64646	0.974117	5.83474		
0.521207	3.10954	0.356862	2.12268	0.911425	5.43661							0.778103	4.63346	0.978458	5.82821		
0.522646	3.1009	0.358942	2.12328	0.91507	5.42818							0.780233	4.62051	0.982791	5.82172		
0.524089	3.09236	0.361021	2.12388	0.918694	5.41973							0.782345	4.6076	0.987118	5.81525		
0.525534	3.08393	0.363101	2.12447	0.922298	5.41124							0.784442	4.59473	0.991437	5.80881		
0.526981	3.07561	0.365181	2.12505	0.925881	5.40273							0.786522	4.58191	0.995748	5.8024		
0.528432	3.0674	0.36726	2.12563	0.929443	5.39419							0.788587	4.56914	1.00005	5.79601		
0.529885	3.05929	0.36934	2.1262	0.932985	5.38563							0.790636	4.55641				
0.53134	3.05128	0.371419	2.12677	0.936506	5.37703							0.79267	4.54374				
0.532799	3.04337	0.373499	2.12732	0.940007	5.36842							0.794689	4.53111				
0.53426	3.03556	0.375578	2.12788	0.943487	5.35977							0.796693	4.51854				
0.535724	3.02785	0.377658	2.12842	0.946947	5.35111							0.798683	4.50602				
0.53719	3.02023	0.379737	2.12896	0.950387	5.34242							0.80066	4.49354				
0.538659	3.01271	0.381816	2.1295	0.953807	5.33371							0.802622	4.48113				
0.540131	3.00528	0.383896	2.13003	0.957207	5.32498							0.804572	4.46877				
0.541606	2.99795	0.385975	2.13055	0.960586	5.31622							0.806508	4.45646				
0.543084	2.9907	0.388054	2.13107	0.963946	5.30745							0.808431	4.44421				
0.544564	2.98355	0.390133	2.13158	0.967285	5.29866							0.810342	4.43201				
0.546047	2.97648	0.392213	2.13208	0.970605	5.28984							0.81224	4.41987				
0.547532	2.96949	0.394292	2.13259	0.973906	5.28101							0.814127	4.40779				
0.549021	2.9626	0.396371	2.13308	0.977186	5.27217							0.816001	4.39576				
0.550512	2.95578	0.39845	2.13357	0.980448	5.26331							0.817864	4.3838				
0.552006	2.94905	0.400529	2.13406	0.983689	5.25443							0.819716	4.37189				
0.553503	2.9424	0.402608	2.13454	0.986912	5.24554							0.821557	4.36004				
0.555002	2.93583	0.404687	2.13502	0.990115	5.23663							0.823387	4.34826				
0.556504	2.92934	0.406766	2.13549	0.993299	5.22771							0.825207	4.33653				
0.558009	2.92293	0.408845	2.13595	0.996464	5.21878							0.827016	4.32486				
0.559517	2.91659	0.410924	2.13641	0.999611	5.20983							0.828816	4.31326				
0.561028	2.91033	0.413002	2.13687	1.00274	5.20088							0.830605	4.30171				
0.562541	2.90415	0.415081	2.13732									0.832385	4.29023				
0.564057	2.89803	0.41716	2.13777									0.834155	4.27881				
0.565576	2.89199	0.419239	2.13822									0.835917	4.26745				
0.567097	2.88602	0.421318	2.13866									0.837669	4.25615				
0.568621	2.88012	0.423396	2.13909									0.839413	4.24491				
0.570148	2.87429	0.425475	2.13952									0.841148	4.23374				
0.571678	2.86853	0.427554	2.13995									0.842875	4.22263				
0.57321	2.86284	0.429632	2.14037									0.844594	4.21158				
0.574745	2.85721	0.431711	2.14079									0.846305	4.2006				
0.576283	2.85164	0.433789	2.1412									0.848008	4.18968				
0.577823	2.84614	0.435868	2.14162									0.849703	4.17882				
0.579366	2.84071	0.437946	2.14202									0.851392	4.16802				
0.580912	2.83533	0.440025	2.14243									0.853073	4.15729				
0.58246	2.83002	0.442103	2.14283									0.854747	4.14662				
0.584011	2.82477	0.444182	2.14322									0.856414	4.13602				
0.585565	2.81958	0.44626	2.14361									0.858075	4.12547				
0.587121	2.81445	0.448339	2.144									0.859729	4.11499				
0.58868	2.80937	0.450417	2.14439									0.861377	4.10458				
0.590241	2.80435	0.452495	2.14477									0.863018	4.09422				
0.591805	2.79939	0.454574	2.14514									0.864654	4.08393				
0.593372	2.79449	0.456652	2.14552									0.866284	4.0737				
0.594941	2.78964	0.45873	2.14589									0.867908	4.06354				
0.596513	2.78484	0.460809	2.14626									0.869527	4.05343				
0.598088	2.7801	0.462887	2.14662									0.87114	4.04339				
0.599665	2.77541	0.464965	2.14698									0.872748	4.03341				
0.601244	2.77077	0.467043	2.14734									0.874351	4.0235				
0.602826	2.76619	0.469121	2.1477									0.875949	4.01364				
0.604411	2.76165	0.4712	2.14805									0.877542	4.00385				
0.605998	2.75716	0.473278	2.1484									0.87913	3.99412				
0.607587	2.75273	0.475356	2.14874									0.880714	3.98445				
0.609179	2.74834	0.477434	2.14908									0.882294	3.97484				
0.610774	2.744	0.479512	2.14942									0.883869	3.96529				
0.612371	2.73971	0.48159	2.14976									0.88544	3.9558				
0.61397	2.73546	0.483668	2.1501									0.887006	3.94638				
0.615572	2.73126	0.485746	2.15043									0.888569	3.93701				
0.617176	2.7271	0.487824	2.15075									0.890128	3.9277				
0.618783	2.72299	0.489902	2.15108									0.891684	3.91846				
0.620392	2.71893	0.49198	2.1514									0.893235	3.90927				
0.622003	2.7149	0.494058	2.15172									0.894783	3.90014				
0.623617	2.71092	0.496136	2.15204									0.896328	3.89108				
0.625233	2.70698	0.498214	2.15235									0.89787	3.88207				
0.626852	2.70309	0.500292	2.15267									0.899408	3.87311				
0.628473	2.69923	0.502369	2.15298									0.900943	3.86422				
0.630096	2.69542	0.504447	2.15328									0.902475	3.85539				
0.631722	2.69164	0.506525	2.15359									0.904005	3.84661				
0.633349	2.68791	0.508603	2.15389									0.905531	3.83789				
0.63498	2.68421	0.510681	2.15419									0.907055	3.82923				
0.636612	2.68056	0.512758	2.15449									0.908576	3.82062				
0.638247	2.67694	0.514836	2.15478									0.910094	3.81207				
0.639884	2.67336	0.516914	2.15507									0.91161	3.80358				
0.641523	2.66981	0.518992	2.15536									0.913124	3.79514				
0.643164	2.66631	0.521069	2.15565									0.914636	3.78676				
0.644808	2.66284	0.523147	2.15594									0.916145	3.77843				
0.646454	2.6594	0.525225	2.15622									0.917652	3.77016				
0.648102	2.656	0.527302	2.1565									0.919157	3.76194				
0.649752	2.65263	0.52938	2.15678									0.92066	3.75378				
0.651404	2.6493	0.531458	2.15706									0.922161	3.74567				
0.653059	2.64601	0.533535	2.15733									0.92366	3.73762				
0.654716	2.64274	0.535613	2.1576									0.925158	3.72962				
0.656374	2.63951	0.53769	2.15787									0.926654	3.72167				
0.658035	2.63631	0.539768	2.15814									0.928148	3.71377				
0.659698	2.63315	0.541845	2.15841									0.92964	3.70593				
0.661364	2.63001	0.543923	2.15867									0.931132	3.69814				
0.663031	2.62691	0.546	2.15893									0.932621	3.6904				
0.6647	2.62384	0.548078	2.15919									0.93411	3.68271				
0.666371	2.6208	0.550155	2.15945									0.935597	3.67507				
0.668045	2.61779	0.552233	2.15971									0.937082	3.66749				
0.66972	2.61481	0.55431	2.15996									0.938567	3.65995				
0.671398	2.61185	0.556388	2.16021									0.94005	3.65247				
0.673077	2.60893	0.558465	2.16047									0.941533	3.64503				
0.674759	2.60604	0.560542	2.16071									0.943014	3.63765				
0.676442	2.60317	0.56262	2.16096									0.944494	3.63031				
0.678128	2.60034	0.564697	2.16121									0.945974	3.62302				
0.679815	2.59753	0.566775	2.16145									0.947452	3.61578				
0.681504	2.59474	0.568852	2.16169									0.94893	3.60859				
0.683196	2.59199	0.570929	2.16193									0.950407	3.60145				
0.684889	2.58926	0.573007	2.16217									0.951883	3.59435				
0.686584	2.58656	0.575084	2.1624									0.953359	3.5873				
0.688281	2.58388	0.577161	2.16264									0.954834	3.5803				
0.68998	2.58123	0.579238	2.16287									0.956308	3.57334				
0.691681	2.57861	0.581316	2.1631									0.957782	3.56643				
0.693384	2.57601	0.583393	2.16333									0.959255	3.55957				
0.695088	2.57343	0.58547	2.16356									0.960728	3.55275				
0.696795	2.57088	0.587547	2.16379									0.9622	3.54598				
0.698503	2.56836	0.589625	2.16401									0.963672	3.53925				
0.700213	2.56585	0.591702	2.16423									0.965144	3.53257				
0.701925	2.56338	0.593779	2.16446									0.966615	3.52593				
0.703639	2.56092	0.595856	2.16468									0.968086	3.51934				
0.705354	2.55849	0.597933	2.16489									0.969557	3.51279				
0.707072	2.55608	0.60001	2.16511									0.971028	3.50628				
0.708791	2.55369	0.602088	2.16533									0.972498	3.49981				
0.710511	2.55133	0.604165	2.16554									0.973968	3.49339				
0.712234	2.54899	0.606242	2.16575									0.975439	3.48701				
0.713958	2.54666	0.608319	2.16596									0.976909	3.48068				
0.715684	2.54437	0.610396	2.16617									0.978379	3.47438				
0.717412	2.54209	0.612473	2.16638									0.979849	3.46813				
0.719142	2.53983	0.61455	2.16659									0.98132	3.46192				
0.720873	2.5376	0.616627	2.16679									0.98279	3.45574				
0.722606	2.53538	0.618704	2.167									0.98426	3.44961				
0.72434	2.53319	0.620781	2.1672									0.985731	3.44352				
0.726076	2.53101	0.622858	2.1674									0.987202	3.43747				
0.727814	2.52885	0.624935	2.1676									0.988673	3.43146				
0.729554	2.52672	0.627012	2.1678									0.990144	3.42549				
0.731295	2.5246	0.629089	2.168									0.991615	3.41956				
0.733038	2.52251	0.631166	2.16819									0.993086	3.41366				
0.734782	2.52043	0.633243	2.16839									0.994558	3.40781				
0.736528	2.51837	0.63532	2.16858									0.99603	3.40199				
0.738276	2.51633	0.637397	2.16877									0.997503	3.39622				
0.740025	2.51431	0.639474	2.16896									0.998976	3.39047				
0.741776	2.5123	0.641551	2.16915									1.00045	3.38477				
0.743528	2.51031	0.643628	2.16934														
0.745282	2.50835	0.645705	2.16953														
0.747037	2.50639	0.647781	2.16972														
0.748794	2.50446	0.649858	2.1699														
0.750553	2.50254	0.651935	2.17008														
0.752313	2.50064	0.654012	2.17027														
0.754074	2.49876	0.656089	2.17045														
0.755837	2.49689	0.658166	2.17063														
0.757602	2.49504	0.660242	2.17081														
0.759368	2.49321	0.662319	2.17099														
0.761135	2.49139	0.664396	2.17116														
0.762904	2.48959	0.666473	2.17134														
0.764674	2.4878	0.66855	2.17151														
0.766446	2.48603	0.670626	2.17169														
0.76822	2.48428	0.672703	2.17186														
0.769994	2.48253	0.67478	2.17203														
0.77177	2.48081	0.676857	2.1722														
0.773548	2.4791	0.678933	2.17237														
0.775327	2.4774	0.68101	2.17254														
0.777107	2.47572	0.683087	2.1727														
0.778889	2.47405	0.685163	2.17287														
0.780672	2.4724	0.68724	2.17304														
0.782456	2.47076	0.689317	2.1732														
0.784242	2.46914	0.691393	2.17336														
0.786029	2.46752	0.69347	2.17353														
0.787818	2.46593	0.695547	2.17369														
0.789607	2.46434	0.697623	2.17385														
0.791399	2.46277	0.6997	2.17401														
0.793191	2.46121	0.701776	2.17416														
0.794985	2.45967	0.703853	2.17432														
0.79678	2.45814	0.70593	2.17448														
0.798576	2.45662	0.708006	2.17463														
0.800374	2.45511	0.710083	2.17479														
0.802173	2.45362	0.712159	2.17494														
0.803973	2.45213	0.714236	2.17509														
0.805775	2.45066	0.716312	2.17525														
0.807577	2.44921	0.718389	2.1754														
0.809381	2.44776	0.720466	2.17555														
0.811186	2.44633	0.722542	2.1757														
0.812993	2.44491	0.724619	2.17585														
0.8148	2.44349	0.726695	2.17599														
0.816609	2.4421	0.728771	2.17614														
0.818419	2.44071	0.730848	2.17629														
0.820231	2.43933	0.732925	2.17643														
0.822043	2.43797	0.735001	2.17657														
0.823857	2.43661	0.737077	2.17672														
0.825672	2.43527	0.739154	2.17686														
0.827488	2.43394	0.74123	2.177														
0.829305	2.43262	0.743307	2.17714														
0.831123	2.43131	0.745383	2.17728														
0.832942	2.43001	0.74746	2.17742														
0.834763	2.42872	0.749536	2.17756														
0.836585	2.42744	0.751612	2.1777														
0.838408	2.42617	0.753689	2.17784														
0.840232	2.42491	0.755765	2.17797														
0.842057	2.42366	0.757841	2.17811														
0.843883	2.42242	0.759918	2.17824														
0.84571	2.42119	0.761994	2.17838														
0.847539	2.41997	0.76407	2.17851														
0.849368	2.41876	0.766147	2.17864														
0.851199	2.41755	0.768223	2.17877														
0.853031	2.41636	0.770299	2.17891														
0.854863	2.41518	0.772376	2.17904														
0.856697	2.41401	0.774452	2.17917														
0.858532	2.41284	0.776528	2.17929														
0.860368	2.41169	0.778605	2.17942														
0.862205	2.41054	0.780681	2.17955														
0.864043	2.4094	0.782757	2.17968														
0.865882	2.40828	0.784833	2.1798														
0.867722	2.40716	0.78691	2.17993														
0.869563	2.40604	0.788986	2.18005														
0.871405	2.40494	0.791062	2.18018														
0.873248	2.40385	0.793138	2.1803														
0.875092	2.40276	0.795215	2.18043														
0.876937	2.40168	0.797291	2.18055														
0.878784	2.40061	0.799367	2.18067														
0.880631	2.39955	0.801443	2.18079														
0.882479	2.3985	0.803519	2.18091														
0.884328	2.39745	0.805595	2.18103														
0.886178	2.39642	0.807672	2.18115														
0.888029	2.39539	0.809748	2.18127														
0.88988	2.39436	0.811824	2.18139														
0.891733	2.39335	0.8139	2.1815														
0.893587	2.39234	0.815976	2.18162														
0.895442	2.39134	0.818052	2.18174														
0.897298	2.39035	0.820128	2.18185														
0.899154	2.38937	0.822205	2.18197														
0.901012	2.38839	0.824281	2.18208														
0.90287	2.38742	0.826357	2.18219														
0.904729	2.38646	0.828433	2.18231														
0.90659	2.3855	0.830509	2.18242														
0.908451	2.38455	0.832585	2.18253														
0.910313	2.38361	0.834661	2.18264														
0.912176	2.38268	0.836737	2.18275														
0.91404	2.38175	0.838813	2.18286														
0.915904	2.38083	0.840889	2.18297														
0.91777	2.37991	0.842965	2.18308														
0.919636	2.379	0.845041	2.18319														
0.921504	2.3781	0.847117	2.1833														
0.923372	2.37721	0.849193	2.18341														
0.925241	2.37632	0.851269	2.18351														
0.927111	2.37544	0.853345	2.18362														
0.928981	2.37456	0.855421	2.18373														
0.930853	2.37369	0.857497	2.18383														
0.932725	2.37283	0.859573	2.18394														
0.934598	2.37197	0.861649	2.18404														
0.936473	2.37112	0.863725	2.18415														
0.938347	2.37028	0.865801	2.18425														
0.940223	2.36944	0.867877	2.18435														
0.9421	2.36861	0.869953	2.18445														
0.943977	2.36778	0.872029	2.18456														
0.945855	2.36696	0.874105	2.18466														
0.947734	2.36615	0.876181	2.18476														
0.949614	2.36534	0.878257	2.18486														
0.951494	2.36453	0.880333	2.18496														
0.953375	2.36374	0.882409	2.18506														
0.955257	2.36294	0.884484	2.18516														
0.95714	2.36216	0.88656	2.18526														
0.959024	2.36138	0.888636	2.18535														
0.960908	2.3606	0.890712	2.18545														
0.962793	2.35983	0.892788	2.18555														
0.964679	2.35907	0.894864	2.18565														
0.966566	2.35831	0.89694	2.18574														
0.968453	2.35755	0.899015	2.18584														
0.970341	2.3568	0.901091	2.18593														
0.97223	2.35606	0.903167	2.18603														
0.97412	2.35532	0.905243	2.18612														
0.97601	2.35459	0.907319	2.18622														
0.977901	2.35386	0.909395	2.18631														
0.979793	2.35313	0.91147	2.1864														
0.981685	2.35242	0.913546	2.1865														
0.983579	2.3517	0.915622	2.18659														
0.985473	2.35099	0.917698	2.18668														
0.987367	2.35029	0.919773	2.18677														
0.989263	2.34959	0.921849	2.18686														
0.991159	2.3489	0.923925	2.18695														
0.993055	2.34821	0.926001	2.18704														
0.994953	2.34752	0.928076	2.18713														
0.996851	2.34684	0.930152	2.18722														
0.99875	2.34616	0.932228	2.18731														
1.00065	2.34549	0.934304	2.1874														
		0.936379	2.18749														
		0.938455	2.18758														
		0.940531	2.18766														
		0.942606	2.18775														
		0.944682	2.18784														
		0.946758	2.18792														
		0.948834	2.18801														
		0.950909	2.18809														
		0.952985	2.18818														
		0.95506	2.18826														
		0.957136	2.18835														
		0.959212	2.18843														
		0.961287	2.18852														
		0.963363	2.1886														
		0.965439	2.18868														
		0.967514	2.18876														
		0.96959	2.18885														
		0.971665	2.18893														
		0.973741	2.18901														
		0.975817	2.18909														
		0.977892	2.18917														
		0.979968	2.18925														
		0.982043	2.18933														
		0.984119	2.18941														
		0.986194	2.18949														
		0.98827	2.18957														
		0.990346	2.18965														
		0.992421	2.18973														
		0.994497	2.1898														
		0.996572	2.18988														
		0.998648	2.18996														
		1.00072	2.19003														
