Sym0		Asym0		Sym1		Sym2		Sym3		Sym4		Asym1		Asym2		Asym3		Asym4	
465  Points		546  Points		466  Points		407  Points		375  Points		288  Points		484  Points		430  Points		375  Points		288  Points	
Freq (MHz)	Vph (m/ms)	Freq (MHz)	Vph (m/ms)	Freq (MHz)	Vph (m/ms)	Freq (MHz)	Vph (m/ms)	Freq (MHz)	Vph (m/ms)	Freq (MHz)	Vph (m/ms)	Freq (MHz)	Vph (m/ms)	Freq (MHz)	Vph (m/ms)	Freq (MHz)	Vph (m/ms)	Freq (MHz)	Vph (m/ms)
0.279504	330.9	2.45017e-005	0.0304748	1.00156	2.33623	0.341598	1248.86	0.559018	1542.53	0.838526	4388.15	0.139779	173.715	0.419263	3194.44	0.683191	1112.63	0.698772	2478.17
0.279487	157.336	0.000114235	0.0658154	0.999723	2.33701	0.341625	283.454	0.559024	431.98	0.838528	746.83	0.139868	80.5535	0.419268	394.441	0.683183	441.982	0.69879	575.768
0.279459	103.195	0.000269486	0.10103	0.997884	2.33781	0.341687	159.897	0.559039	251.164	0.838534	408.15	0.140024	52.4819	0.41928	210.204	0.683168	275.758	0.698829	325.739
0.279419	76.7684	0.000489853	0.136105	0.996046	2.3386	0.341784	111.381	0.559062	177.059	0.838544	280.809	0.140244	38.9595	0.4193	143.285	0.683147	200.388	0.698889	227.129
0.279367	61.1112	0.000774667	0.170979	0.994209	2.33941	0.341916	85.4723	0.559092	136.725	0.838558	214.034	0.140528	31.0119	0.419328	108.69	0.68312	157.371	0.698971	174.361
0.279305	50.7536	0.00112328	0.205635	0.992374	2.34022	0.342081	69.3595	0.55913	111.361	0.838576	172.918	0.140876	25.7868	0.419363	87.5548	0.683086	129.556	0.699074	141.5
0.279232	43.3937	0.00153465	0.240007	0.990539	2.34104	0.342281	58.3728	0.559176	93.9386	0.838597	145.054	0.141287	22.094	0.419406	73.3046	0.683047	110.094	0.699197	119.07
0.279149	37.8941	0.00200767	0.274053	0.988706	2.34186	0.342514	50.4038	0.55923	81.233	0.838622	124.926	0.14176	19.3489	0.419457	63.0467	0.683003	95.7136	0.699341	102.786
0.279055	33.6282	0.00254123	0.307746	0.986874	2.34269	0.34278	44.3608	0.559291	71.5576	0.83865	109.704	0.142293	17.2304	0.419515	55.3099	0.682954	84.654	0.699505	90.4275
0.278952	30.2226	0.00313387	0.341037	0.985043	2.34353	0.343078	39.622	0.559361	63.9441	0.838682	97.7902	0.142885	15.548	0.41958	49.2667	0.6829	75.8838	0.699688	80.728
0.278841	27.4406	0.00378425	0.373902	0.983213	2.34437	0.343409	35.8073	0.559438	57.797	0.838718	88.2115	0.143534	14.181	0.419654	44.4163	0.682843	68.7589	0.699889	72.9133
0.278721	25.1251	0.00449084	0.406313	0.981384	2.34522	0.343772	32.6712	0.559523	52.7302	0.838758	80.3428	0.14424	13.0495	0.419735	40.4373	0.682782	62.8558	0.70011	66.4833
0.278593	23.1678	0.005252	0.438239	0.979557	2.34608	0.344165	30.0479	0.559616	48.482	0.838801	73.7639	0.145	12.0985	0.419823	37.1144	0.682719	57.8852	0.700347	61.1
0.278459	21.4915	0.00606609	0.469656	0.97773	2.34694	0.344589	27.8218	0.559716	44.869	0.838848	68.1817	0.145813	11.2887	0.419919	34.2979	0.682654	53.6422	0.700603	56.5275
0.278317	20.0396	0.00693142	0.500546	0.975905	2.34781	0.345042	25.9094	0.559824	41.7588	0.838899	63.3858	0.146677	10.5916	0.420023	31.8804	0.682586	49.9779	0.700875	52.5957
0.278171	18.7698	0.00784629	0.530893	0.974081	2.34869	0.345525	24.2492	0.559941	39.0534	0.838954	59.2209	0.14759	9.98577	0.420135	29.7827	0.682518	46.7816	0.701163	49.1789
0.278019	17.65	0.00880892	0.560681	0.972258	2.34957	0.346036	22.7946	0.560065	36.6786	0.839012	55.5703	0.148552	9.4548	0.420254	27.9454	0.682449	43.9689	0.701467	46.1823
0.277862	16.6549	0.00981766	0.589904	0.970436	2.35046	0.346575	21.5099	0.560196	34.5774	0.839074	52.3443	0.149559	8.98603	0.420381	26.323	0.682379	41.4748	0.701786	43.533
0.277702	15.7649	0.0108706	0.618543	0.968616	2.35136	0.347142	20.3673	0.560336	32.7052	0.839139	49.4729	0.15061	8.56948	0.420515	24.88	0.68231	39.2481	0.70212	41.174
0.277539	14.9642	0.0119662	0.646604	0.966796	2.35226	0.347734	19.3446	0.560483	31.0266	0.839209	46.9007	0.151704	8.19717	0.420657	23.5881	0.682241	37.2479	0.702468	39.0603
0.277373	14.2399	0.0131026	0.674075	0.964978	2.35317	0.348352	18.4241	0.560638	29.513	0.839282	44.5834	0.15269	7.90373	0.420807	22.4249	0.682173	35.4414	0.70283	37.1556
0.277206	13.5817	0.0142782	0.700957	0.963161	2.35409	0.348995	17.5913	0.560802	28.1414	0.839359	42.4848	0.153555	7.67356	0.420964	21.3722	0.682107	33.8018	0.703205	35.4303
0.277038	12.9809	0.0154914	0.727252	0.961345	2.35501	0.349663	16.8343	0.560972	26.8926	0.839439	40.5754	0.154285	7.49569	0.421129	20.4149	0.682043	32.307	0.703594	33.8604
0.27687	12.4304	0.0167406	0.752963	0.959531	2.35594	0.350354	16.1435	0.561151	25.751	0.839523	38.8307	0.154873	7.36238	0.421302	19.5407	0.68198	30.9386	0.703995	32.4258
0.276702	11.9241	0.0180242	0.778089	0.957717	2.35688	0.351068	15.5105	0.561337	24.7034	0.839611	37.2304	0.155311	7.26821	0.421483	18.7393	0.681921	29.6814	0.704408	31.1098
0.276535	11.4569	0.0193407	0.802639	0.955905	2.35783	0.351805	14.9285	0.561532	23.7386	0.839703	35.7572	0.155593	7.20958	0.421671	18.002	0.681864	28.5222	0.704834	29.8983
0.27637	11.0245	0.0206887	0.826619	0.954094	2.35878	0.352563	14.3917	0.561734	22.8473	0.839799	34.3966	0.156002	7.12744	0.421867	17.3214	0.68181	27.4502	0.705271	28.7795
0.276207	10.6232	0.0220667	0.850033	0.952284	2.35974	0.353342	13.8951	0.561944	22.0213	0.839898	33.1362	0.156451	7.04092	0.422071	16.6912	0.681759	26.4557	0.70572	27.743
0.276047	10.2497	0.0234734	0.872896	0.950475	2.36071	0.354141	13.4343	0.562162	21.2539	0.840001	31.9653	0.157069	6.92763	0.422282	16.1061	0.681712	25.5308	0.70618	26.7802
0.27589	9.90137	0.0249076	0.89521	0.948668	2.36169	0.354961	13.0057	0.562387	20.5389	0.840107	30.8747	0.157862	6.79117	0.422502	15.5615	0.681668	24.6685	0.70665	25.8836
0.275738	9.57571	0.0263679	0.916989	0.946862	2.36267	0.3558	12.6061	0.562621	19.8713	0.840218	29.8564	0.158837	6.63554	0.422728	15.0533	0.681629	23.8625	0.707132	25.0464
0.27559	9.27062	0.0278532	0.938243	0.945056	2.36366	0.356657	12.2327	0.562862	19.2465	0.840332	28.9036	0.160003	6.46496	0.422963	14.578	0.681594	23.1076	0.707624	24.2632
0.275447	8.98423	0.0293623	0.958981	0.943252	2.36466	0.357532	11.883	0.563111	18.6605	0.84045	28.01	0.161369	6.28361	0.423206	14.1325	0.681563	22.399	0.708126	23.5287
0.27531	8.71493	0.0308942	0.979215	0.94145	2.36567	0.358425	11.5549	0.563368	18.1099	0.840572	27.1704	0.162764	6.11605	0.423456	13.7142	0.681537	21.7327	0.708638	22.8387
0.275179	8.46124	0.0324478	0.998958	0.939648	2.36668	0.359336	11.2464	0.563633	17.5915	0.840697	26.38	0.164187	5.96083	0.423714	13.3206	0.681515	21.105	0.70916	22.1893
0.275055	8.22188	0.034022	1.01822	0.937848	2.3677	0.360262	10.9559	0.563906	17.1027	0.840826	25.6346	0.165636	5.81668	0.42398	12.9497	0.681499	20.5126	0.709691	21.5769
0.274938	7.99571	0.0356161	1.03701	0.936049	2.36873	0.361205	10.6819	0.564186	16.641	0.840959	24.9305	0.16711	5.68253	0.424254	12.5995	0.681487	19.9527	0.710232	20.9985
0.274829	7.78168	0.037229	1.05534	0.934251	2.36977	0.362163	10.4231	0.564474	16.2042	0.841096	24.2644	0.168608	5.5574	0.424536	12.2684	0.68148	19.4227	0.710783	20.4514
0.274727	7.57888	0.0388599	1.07323	0.932454	2.37081	0.363137	10.1782	0.564771	15.7904	0.841237	23.6332	0.170129	5.44046	0.424825	11.9549	0.681479	18.9203	0.711343	19.9332
0.274635	7.38647	0.040508	1.09068	0.930658	2.37187	0.364125	9.94616	0.565075	15.3978	0.841381	23.0344	0.171672	5.33097	0.425123	11.6576	0.681483	18.4433	0.711911	19.4415
0.274551	7.2037	0.0421725	1.10771	0.928864	2.37293	0.365128	9.72602	0.565387	15.0248	0.841529	22.4654	0.173235	5.22826	0.425428	11.3754	0.681492	17.9899	0.712489	18.9745
0.274476	7.02989	0.0438526	1.12432	0.92707	2.374	0.366144	9.51691	0.565707	14.6701	0.841681	21.9242	0.174819	5.13175	0.425741	11.107	0.681507	17.5585	0.713076	18.5304
0.274412	6.86443	0.0455476	1.14054	0.925278	2.37507	0.367174	9.31803	0.566034	14.3323	0.841837	21.4086	0.176421	5.04091	0.426063	10.8517	0.681528	17.1474	0.713671	18.1074
0.274357	6.70675	0.047257	1.15637	0.923487	2.37616	0.368217	9.12865	0.56637	14.0103	0.841996	20.9171	0.178041	4.95529	0.426392	10.6083	0.681554	16.7553	0.714275	17.7042
0.274313	6.55635	0.04898	1.17181	0.921698	2.37725	0.369273	8.94814	0.566713	13.703	0.842159	20.4479	0.179679	4.87446	0.426729	10.3762	0.681586	16.3809	0.714887	17.3194
0.274279	6.41275	0.0507161	1.18689	0.919909	2.37836	0.370341	8.7759	0.567064	13.4094	0.842326	19.9995	0.181332	4.79805	0.427074	10.1545	0.681624	16.023	0.715508	16.9518
0.274257	6.27553	0.0524645	1.20161	0.918122	2.37947	0.371421	8.61137	0.567424	13.1286	0.842497	19.5706	0.183002	4.72572	0.427427	9.94265	0.681667	15.6806	0.716137	16.6003
0.274246	6.14429	0.054225	1.21598	0.916336	2.38059	0.372513	8.45407	0.567791	12.8599	0.842672	19.16	0.184686	4.65716	0.427788	9.73996	0.681717	15.3527	0.716774	16.2638
0.274247	6.01868	0.0559967	1.23001	0.914551	2.38171	0.373616	8.30353	0.568166	12.6024	0.842851	18.7665	0.186384	4.5921	0.428157	9.54586	0.681773	15.0384	0.717419	15.9415
0.274261	5.89837	0.0577795	1.24372	0.912767	2.38285	0.374731	8.15934	0.568548	12.3556	0.843033	18.3891	0.188096	4.53028	0.428534	9.35984	0.681834	14.7369	0.718073	15.6324
0.274286	5.78304	0.0595726	1.2571	0.910984	2.38399	0.375856	8.02112	0.568939	12.1187	0.843219	18.0268	0.189821	4.47148	0.428919	9.18142	0.681902	14.4474	0.718734	15.3357
0.274324	5.67242	0.0613756	1.27018	0.909203	2.38515	0.376845	7.90525	0.569338	11.8912	0.843409	17.6787	0.191558	4.41549	0.429312	9.01014	0.681976	14.1693	0.719404	15.0508
0.274376	5.56624	0.0631882	1.28295	0.907423	2.38631	0.377694	7.80968	0.569744	11.6726	0.843603	17.3441	0.193306	4.36212	0.429714	8.84559	0.682056	13.9019	0.720081	14.7769
0.27444	5.46427	0.0650099	1.29544	0.905643	2.38748	0.3784	7.73277	0.570159	11.4623	0.843801	17.0221	0.195066	4.31119	0.430123	8.68741	0.682142	13.6445	0.720766	14.5135
0.274518	5.36627	0.0668404	1.30763	0.903865	2.38866	0.378962	7.67328	0.570581	11.2599	0.844002	16.7121	0.196837	4.26255	0.43054	8.53522	0.682235	13.3967	0.721458	14.2599
0.27461	5.27205	0.0686793	1.31956	0.902089	2.38985	0.379376	7.63026	0.571011	11.0649	0.844208	16.4133	0.198617	4.21604	0.430966	8.38872	0.682333	13.1579	0.722158	14.0156
0.274716	5.1814	0.0705262	1.33121	0.900313	2.39105	0.379641	7.60304	0.57145	10.877	0.844417	16.1253	0.200408	4.17155	0.4314	8.24759	0.682438	12.9277	0.722866	13.7802
0.274836	5.09415	0.0723808	1.34261	0.898538	2.39225	0.380024	7.56433	0.571896	10.6958	0.84463	15.8474	0.202207	4.12893	0.431842	8.11156	0.68255	12.7055	0.723581	13.5531
0.274971	5.01013	0.0742427	1.35375	0.896765	2.39347	0.380441	7.5228	0.57235	10.521	0.844847	15.5791	0.204016	4.08808	0.432234	7.99696	0.682668	12.4911	0.724304	13.334
0.27512	4.92918	0.0761118	1.36465	0.894993	2.39469	0.381011	7.46724	0.572812	10.3522	0.845068	15.32	0.205833	4.0489	0.432573	7.90205	0.682792	12.284	0.725034	13.1223
0.275285	4.85115	0.0779875	1.3753	0.893222	2.39593	0.381734	7.39843	0.573282	10.1891	0.845293	15.0695	0.207657	4.01128	0.432857	7.82541	0.682922	12.0838	0.725772	12.9178
0.275465	4.7759	0.0798698	1.38573	0.891451	2.39717	0.382613	7.31732	0.573759	10.0315	0.845521	14.8273	0.20949	3.97514	0.433083	7.76597	0.683059	11.8902	0.726516	12.7202
0.27566	4.70331	0.0817583	1.39593	0.889683	2.39842	0.383651	7.22498	0.574245	9.87906	0.845754	14.593	0.21133	3.94038	0.433251	7.7229	0.683202	11.7028	0.727268	12.5289
0.275871	4.63326	0.0836528	1.40591	0.887915	2.39968	0.38485	7.12258	0.574739	9.73158	0.84599	14.3661	0.213176	3.90694	0.433359	7.69561	0.683352	11.5215	0.728027	12.3439
0.276098	4.56563	0.0855531	1.41568	0.886148	2.40096	0.386057	7.02382	0.575241	9.5888	0.846231	14.1464	0.21503	3.87475	0.433515	7.65676	0.683508	11.3459	0.728794	12.1647
0.276342	4.50032	0.0874588	1.42524	0.884383	2.40224	0.387273	6.92849	0.57575	9.45052	0.846475	13.9335	0.216889	3.84372	0.433685	7.61502	0.68367	11.1758	0.729567	11.9911
0.276601	4.43722	0.0893698	1.4346	0.882618	2.40353	0.388497	6.83643	0.576268	9.31654	0.846723	13.727	0.218755	3.81382	0.433919	7.55906	0.683839	11.0109	0.730347	11.8229
0.276878	4.37625	0.0912859	1.44377	0.880855	2.40483	0.389729	6.74748	0.576793	9.18666	0.846975	13.5268	0.220626	3.78496	0.434217	7.48958	0.684015	10.8509	0.731135	11.6598
0.277171	4.31731	0.0932069	1.45274	0.879092	2.40613	0.390968	6.66149	0.577327	9.0607	0.847231	13.3325	0.222503	3.75711	0.434582	7.40744	0.684197	10.6957	0.731929	11.5016
0.277481	4.26031	0.0951326	1.46153	0.877331	2.40745	0.392215	6.57831	0.577868	8.9385	0.847491	13.1439	0.224385	3.7302	0.435016	7.31362	0.684385	10.5451	0.73273	11.348
0.277809	4.20519	0.0970627	1.47014	0.875571	2.40878	0.393469	6.4978	0.578418	8.81989	0.847755	12.9607	0.226272	3.7042	0.435522	7.2092	0.68458	10.3988	0.733538	11.1989
0.278154	4.15186	0.0989972	1.47858	0.873812	2.41012	0.394731	6.41986	0.578975	8.70473	0.848023	12.7827	0.228164	3.67905	0.436036	7.10809	0.684781	10.2567	0.734353	11.0542
0.278517	4.10026	0.100936	1.48684	0.872054	2.41147	0.395999	6.34435	0.579541	8.59286	0.848294	12.6097	0.23006	3.65472	0.436558	7.01013	0.684989	10.1186	0.735174	10.9135
0.278899	4.05032	0.102878	1.49494	0.870296	2.41282	0.397274	6.27117	0.580114	8.48416	0.84857	12.4415	0.23196	3.63117	0.437089	6.9152	0.685203	9.98434	0.736003	10.7767
0.279298	4.00197	0.104825	1.50288	0.86854	2.41419	0.398555	6.20021	0.580695	8.3785	0.84885	12.2779	0.233865	3.60835	0.437628	6.82315	0.685424	9.85378	0.736838	10.6437
0.279716	3.95517	0.106775	1.51066	0.866785	2.41557	0.399843	6.13138	0.581285	8.27575	0.849133	12.1187	0.235773	3.58624	0.438176	6.73388	0.685651	9.72676	0.737679	10.5144
0.280096	3.91558	0.108729	1.51829	0.865031	2.41696	0.401138	6.06458	0.581805	8.1885	0.849421	11.9637	0.237685	3.5648	0.438732	6.64724	0.685884	9.60315	0.738527	10.3885
0.280431	3.8827	0.110686	1.52576	0.863278	2.41835	0.402438	5.99973	0.582253	8.11576	0.849712	11.8128	0.2396	3.54401	0.439297	6.56315	0.686124	9.48281	0.739382	10.266
0.280717	3.8561	0.112646	1.5331	0.861526	2.41976	0.403744	5.93674	0.582627	8.0567	0.850008	11.6658	0.241519	3.52382	0.43987	6.4815	0.686371	9.36562	0.740243	10.1467
0.280947	3.83542	0.11461	1.54029	0.859775	2.42118	0.405056	5.87554	0.582925	8.01069	0.850307	11.5226	0.24344	3.50422	0.440451	6.40217	0.686624	9.25146	0.741111	10.0305
0.28112	3.82043	0.116323	1.54644	0.858025	2.42261	0.406374	5.81605	0.583145	7.97724	0.850611	11.383	0.245365	3.48518	0.441042	6.32509	0.686884	9.14021	0.741985	9.91726
0.281232	3.81092	0.117786	1.55161	0.856276	2.42404	0.407698	5.75821	0.583287	7.95599	0.850918	11.2468	0.247292	3.46668	0.44164	6.25017	0.68715	9.03178	0.742866	9.8069
0.281394	3.79737	0.118996	1.55582	0.854527	2.42549	0.409026	5.70194	0.583491	7.92568	0.85123	11.1141	0.249222	3.44869	0.442248	6.17731	0.687422	8.92605	0.743752	9.69931
0.281573	3.7828	0.119954	1.55912	0.85278	2.42695	0.41036	5.64719	0.583713	7.89303	0.851545	10.9846	0.251154	3.43119	0.442864	6.10645	0.687701	8.82293	0.744646	9.59438
0.281821	3.76325	0.120659	1.56153	0.851033	2.42842	0.411699	5.59389	0.584018	7.84912	0.851865	10.8582	0.253089	3.41416	0.443488	6.0375	0.687986	8.72233	0.745545	9.49203
0.282141	3.73894	0.12111	1.56306	0.849288	2.4299	0.413043	5.54199	0.584406	7.79438	0.852188	10.7349	0.255025	3.39758	0.444122	5.97039	0.688278	8.62416	0.746451	9.39215
0.282539	3.71018	0.121759	1.56525	0.847543	2.43139	0.414391	5.49144	0.584879	7.72934	0.852516	10.6144	0.256964	3.38144	0.444764	5.90506	0.688576	8.52833	0.747363	9.29466
0.283019	3.67729	0.122464	1.56762	0.845799	2.43289	0.415745	5.44218	0.58544	7.65462	0.852847	10.4968	0.258904	3.36571	0.445414	5.84144	0.68888	8.43477	0.74828	9.19948
0.28359	3.64063	0.123425	1.57081	0.844056	2.4344	0.417103	5.39417	0.586091	7.57091	0.853183	10.3819	0.260846	3.35038	0.446074	5.77947	0.689151	8.35503	0.749205	9.10653
0.284183	3.60512	0.12464	1.5748	0.842313	2.43592	0.418465	5.34736	0.58675	7.48929	0.853523	10.2696	0.26279	3.33543	0.446742	5.71909	0.689385	8.28832	0.750135	9.01574
0.284797	3.57071	0.126111	1.57957	0.840572	2.43745	0.419832	5.30171	0.587417	7.40968	0.853866	10.1598	0.264735	3.32085	0.447419	5.66025	0.689582	8.23403	0.751071	8.92703
0.285433	3.53736	0.127837	1.58508	0.838831	2.43899	0.421203	5.25717	0.588092	7.33203	0.854214	10.0525	0.266682	3.30662	0.448105	5.60288	0.689739	8.19164	0.752013	8.84033
0.286091	3.50505	0.129821	1.5913	0.837091	2.44054	0.422578	5.2137	0.588776	7.25626	0.854566	9.94757	0.268629	3.29273	0.448799	5.54695	0.689856	8.16077	0.752962	8.75558
0.286772	3.47374	0.131808	1.5974	0.835351	2.4421	0.423957	5.17127	0.589467	7.18231	0.854922	9.84494	0.270578	3.27917	0.449503	5.4924	0.689931	8.14115	0.753916	8.67272
0.287477	3.44341	0.133796	1.6034	0.833613	2.44368	0.42534	5.12984	0.590166	7.11011	0.855282	9.74454	0.272528	3.26592	0.450215	5.43918	0.690039	8.11312	0.754876	8.59168
0.288205	3.41403	0.135786	1.60928	0.831875	2.44526	0.426727	5.08938	0.590873	7.03961	0.855646	9.64629	0.274479	3.25298	0.450936	5.38725	0.690158	8.08289	0.755842	8.5124
0.288957	3.38558	0.137779	1.61506	0.830137	2.44685	0.428118	5.04985	0.591588	6.97076	0.856014	9.55012	0.27643	3.24033	0.451666	5.33658	0.69032	8.04217	0.756688	8.44472
0.289734	3.35803	0.139773	1.62074	0.8284	2.44846	0.429512	5.01123	0.592312	6.90349	0.856386	9.45599	0.278382	3.22795	0.452405	5.28711	0.690528	7.99131	0.757413	8.38802
0.290536	3.33135	0.141769	1.62631	0.826664	2.45007	0.43091	4.97347	0.593043	6.83777	0.856763	9.36381	0.280335	3.21585	0.453153	5.23881	0.690782	7.93074	0.758015	8.34182
0.291364	3.30553	0.143767	1.63179	0.824929	2.4517	0.432311	4.93655	0.593782	6.77353	0.857143	9.27354	0.282288	3.20401	0.45391	5.19164	0.691085	7.86094	0.758493	8.30571
0.292218	3.28054	0.145766	1.63717	0.823193	2.45334	0.433715	4.90045	0.59453	6.71073	0.857528	9.18511	0.284242	3.19243	0.454677	5.14557	0.691439	7.78248	0.758845	8.2794
0.293099	3.25637	0.147767	1.64246	0.821459	2.45498	0.435122	4.86514	0.595285	6.64933	0.857916	9.09848	0.286195	3.18108	0.455452	5.10056	0.691799	7.70573	0.759071	8.26266
0.294007	3.23299	0.14977	1.64766	0.819725	2.45664	0.436533	4.83059	0.596049	6.58928	0.858309	9.01358	0.288149	3.16997	0.456236	5.05658	0.692165	7.63062	0.759396	8.23874
0.294942	3.21039	0.151774	1.65276	0.817991	2.45831	0.437947	4.79678	0.59682	6.53055	0.858706	8.93037	0.290103	3.15909	0.457029	5.0136	0.692538	7.55711	0.759749	8.21293
0.295907	3.18855	0.15378	1.65778	0.816257	2.45999	0.439363	4.76369	0.5976	6.47309	0.859107	8.8488	0.292057	3.14843	0.457831	4.97159	0.692917	7.48514	0.760232	8.17814
0.2969	3.16745	0.155787	1.66272	0.814524	2.46168	0.440783	4.73128	0.598388	6.41686	0.859512	8.76882	0.294011	3.13797	0.458643	4.93052	0.693302	7.41468	0.760844	8.13464
0.297923	3.14708	0.157795	1.66757	0.812792	2.46338	0.442205	4.69955	0.599183	6.36183	0.859921	8.6904	0.295965	3.12772	0.459463	4.89036	0.693693	7.34567	0.761587	8.08277
0.298976	3.12743	0.159804	1.67234	0.811059	2.46509	0.44363	4.66847	0.599987	6.30797	0.860281	8.62328	0.297919	3.11767	0.460293	4.85108	0.694091	7.27808	0.762462	8.02293
0.30006	3.10847	0.161815	1.67703	0.809327	2.46681	0.445057	4.63801	0.600799	6.25523	0.860591	8.56695	0.299872	3.10781	0.461132	4.81267	0.694495	7.21185	0.763472	7.95556
0.301175	3.0902	0.163827	1.68164	0.807595	2.46854	0.446487	4.60817	0.601619	6.20359	0.860848	8.52096	0.301824	3.09813	0.46198	4.77509	0.694905	7.14697	0.764487	7.88955
0.302322	3.07259	0.16584	1.68618	0.805863	2.47028	0.44792	4.57893	0.602446	6.15301	0.861053	8.48498	0.303777	3.08863	0.462838	4.73832	0.695322	7.08338	0.765508	7.82485
0.303502	3.05565	0.167854	1.69064	0.804131	2.47203	0.449355	4.55026	0.603282	6.10347	0.861204	8.45874	0.305728	3.07931	0.463705	4.70234	0.695745	7.02104	0.766535	7.76142
0.304714	3.03934	0.169869	1.69503	0.8024	2.47379	0.450792	4.52215	0.604126	6.05493	0.861301	8.44203	0.30768	3.07015	0.464581	4.66713	0.696173	6.95993	0.767567	7.69924
0.30596	3.02367	0.171885	1.69934	0.800668	2.47556	0.452231	4.49458	0.604978	6.00737	0.861441	8.41814	0.30963	3.06115	0.465466	4.63266	0.696609	6.90001	0.768604	7.63826
0.307239	3.00861	0.173901	1.70359	0.798936	2.47735	0.453673	4.46754	0.605838	5.96076	0.861594	8.39235	0.311579	3.05231	0.466361	4.59892	0.69705	6.84125	0.769646	7.57845
0.308552	2.99415	0.175919	1.70777	0.797204	2.47914	0.455116	4.44101	0.606706	5.91508	0.861802	8.35754	0.313528	3.04362	0.467265	4.56589	0.697497	6.78361	0.770694	7.51978
0.3099	2.98028	0.177937	1.71188	0.795472	2.48094	0.456562	4.41497	0.607582	5.8703	0.862067	8.31396	0.315476	3.03507	0.468178	4.53354	0.697951	6.72706	0.771747	7.46222
0.311281	2.96699	0.179957	1.71593	0.79374	2.48275	0.45801	4.38943	0.608466	5.82639	0.862389	8.26192	0.317422	3.02667	0.469101	4.50186	0.698411	6.67159	0.772806	7.40574
0.312698	2.95425	0.181977	1.71991	0.792008	2.48457	0.459459	4.36435	0.609358	5.78334	0.862771	8.20178	0.319368	3.01841	0.470033	4.47083	0.698877	6.61714	0.77387	7.35031
0.314149	2.94206	0.183997	1.72383	0.790275	2.48641	0.46091	4.33973	0.610258	5.74111	0.863212	8.13393	0.321313	3.01028	0.470975	4.44043	0.699349	6.56371	0.774938	7.29589
0.315634	2.93041	0.186019	1.72768	0.788541	2.48825	0.462363	4.31555	0.611166	5.6997	0.863657	8.0673	0.323256	3.00228	0.471926	4.41066	0.699827	6.51126	0.776012	7.24248
0.317154	2.91927	0.18804	1.73148	0.786808	2.4901	0.463818	4.2918	0.612082	5.65907	0.864107	8.00187	0.325198	2.99441	0.472886	4.38148	0.700311	6.45977	0.777092	7.19003
0.318708	2.90862	0.190063	1.73522	0.785074	2.49196	0.465274	4.26848	0.613006	5.61921	0.864561	7.93759	0.327138	2.98665	0.473856	4.35289	0.700801	6.40921	0.778176	7.13852
0.320296	2.89847	0.192086	1.73889	0.783339	2.49382	0.466732	4.24557	0.613938	5.58009	0.865019	7.87444	0.329078	2.97902	0.474836	4.32488	0.701298	6.35956	0.779265	7.08794
0.321917	2.88878	0.19411	1.74252	0.781603	2.4957	0.468192	4.22305	0.614878	5.54171	0.865482	7.81238	0.331016	2.9715	0.475825	4.29742	0.7018	6.3108	0.780359	7.03824
0.32357	2.87955	0.196134	1.74608	0.779867	2.49759	0.469653	4.20093	0.615826	5.50403	0.865948	7.75141	0.332952	2.96409	0.476824	4.2705	0.702309	6.2629	0.781459	6.98942
0.325256	2.87075	0.198158	1.74959	0.77813	2.49948	0.471115	4.17918	0.616782	5.46705	0.866419	7.69147	0.334887	2.95679	0.477832	4.24412	0.702823	6.21584	0.782563	6.94146
0.326974	2.86237	0.200183	1.75305	0.776392	2.50139	0.472579	4.1578	0.617745	5.43074	0.866894	7.63256	0.33682	2.94959	0.478849	4.21825	0.703344	6.16961	0.783672	6.89432
0.328722	2.85439	0.202209	1.75646	0.774653	2.5033	0.474044	4.13678	0.618717	5.3951	0.867373	7.57464	0.338751	2.9425	0.479877	4.19289	0.70387	6.12418	0.784786	6.84799
0.3305	2.8468	0.204234	1.75981	0.772913	2.50522	0.47551	4.11611	0.619697	5.36009	0.867857	7.5177	0.340681	2.9355	0.480914	4.16802	0.704403	6.07953	0.785905	6.80245
0.332307	2.83957	0.20626	1.76312	0.771171	2.50714	0.476978	4.09578	0.620684	5.32571	0.868344	7.4617	0.342609	2.9286	0.48196	4.14363	0.704941	6.03564	0.787028	6.75768
0.334142	2.8327	0.208287	1.76637	0.769429	2.50908	0.478446	4.07578	0.621679	5.29195	0.868836	7.40663	0.344535	2.9218	0.483016	4.11971	0.705486	5.9925	0.788157	6.71366
0.336004	2.82617	0.210313	1.76957	0.767685	2.51102	0.479916	4.05611	0.622683	5.25878	0.869332	7.35247	0.346459	2.91508	0.484082	4.09625	0.706036	5.95009	0.78929	6.67037
0.337893	2.81996	0.21234	1.77273	0.765939	2.51297	0.481387	4.03675	0.623694	5.2262	0.869833	7.29918	0.348381	2.90846	0.485158	4.07324	0.706592	5.90838	0.790427	6.6278
0.339807	2.81405	0.214367	1.77584	0.764192	2.51493	0.482859	4.01771	0.624713	5.19419	0.870338	7.24676	0.350301	2.90191	0.486243	4.05066	0.707155	5.86738	0.79157	6.58593
0.341745	2.80843	0.216395	1.77891	0.762444	2.51689	0.484332	3.99896	0.62574	5.16273	0.870847	7.19518	0.352219	2.89546	0.487338	4.02852	0.707723	5.82704	0.792717	6.54474
0.343706	2.80308	0.218422	1.78193	0.760693	2.51886	0.485806	3.98051	0.626774	5.13182	0.87136	7.14442	0.354135	2.88908	0.488442	4.00679	0.708297	5.78738	0.793868	6.50421
0.345689	2.798	0.22045	1.7849	0.758941	2.52083	0.48728	3.96234	0.627817	5.10144	0.871877	7.09447	0.356049	2.88278	0.489557	3.98547	0.708877	5.74835	0.795025	6.46434
0.347694	2.79316	0.222478	1.78783	0.757186	2.52281	0.488756	3.94446	0.628867	5.07158	0.872399	7.04531	0.357961	2.87656	0.490681	3.96455	0.709463	5.70997	0.796185	6.4251
0.349719	2.78855	0.224506	1.79072	0.75543	2.5248	0.490232	3.92685	0.629925	5.04222	0.872925	6.99691	0.35987	2.87041	0.491814	3.94401	0.710055	5.67219	0.797351	6.38649
0.351763	2.78417	0.226534	1.79357	0.753671	2.52678	0.49171	3.90951	0.630991	5.01337	0.873456	6.94926	0.361778	2.86434	0.492958	3.92387	0.710652	5.63503	0.79852	6.34848
0.353826	2.77999	0.228562	1.79637	0.751909	2.52878	0.493188	3.89242	0.632064	4.98499	0.87399	6.90235	0.363683	2.85834	0.494111	3.90409	0.711256	5.59845	0.799694	6.31107
0.355906	2.77601	0.23059	1.79914	0.750145	2.53078	0.494667	3.8756	0.633146	4.9571	0.874529	6.85616	0.365585	2.8524	0.495273	3.88468	0.711865	5.56246	0.800873	6.27423
0.358002	2.77222	0.232618	1.80186	0.748379	2.53278	0.496146	3.85902	0.634235	4.92966	0.875073	6.81067	0.367485	2.84654	0.496446	3.86563	0.71248	5.52702	0.802055	6.23797
0.360114	2.7686	0.234646	1.80455	0.746609	2.53478	0.497626	3.84269	0.635331	4.90268	0.87562	6.76587	0.369383	2.84074	0.497628	3.84693	0.713101	5.49214	0.803242	6.20226
0.362242	2.76515	0.236674	1.8072	0.744837	2.53679	0.499107	3.82659	0.636435	4.87614	0.876172	6.72175	0.371279	2.835	0.49882	3.82857	0.713727	5.45781	0.804434	6.16709
0.364383	2.76185	0.238702	1.80981	0.743061	2.5388	0.500589	3.81073	0.637547	4.85004	0.876728	6.67828	0.373171	2.82933	0.500022	3.81054	0.71436	5.424	0.805629	6.13245
0.366538	2.7587	0.24073	1.81238	0.741282	2.54081	0.502071	3.79509	0.638667	4.82437	0.877289	6.63546	0.375062	2.82371	0.501233	3.79284	0.714998	5.39071	0.806829	6.09834
0.368705	2.75569	0.242758	1.81492	0.7395	2.54282	0.503554	3.77968	0.639794	4.7991	0.877854	6.59327	0.37695	2.81816	0.502454	3.77546	0.715642	5.35793	0.808033	6.06473
0.370885	2.75281	0.244786	1.81742	0.737714	2.54483	0.505037	3.76449	0.640928	4.77425	0.878423	6.5517	0.378835	2.81266	0.503685	3.7584	0.716292	5.32564	0.809241	6.03162
0.373075	2.75006	0.246813	1.81988	0.735924	2.54684	0.506521	3.74951	0.642071	4.74979	0.878996	6.51073	0.380717	2.80722	0.504925	3.74164	0.716947	5.29385	0.810453	5.99899
0.375277	2.74742	0.248841	1.82232	0.73413	2.54885	0.508005	3.73474	0.64322	4.72573	0.879574	6.47036	0.382597	2.80183	0.506176	3.72519	0.717608	5.26252	0.81167	5.96685
0.377489	2.74489	0.250868	1.82471	0.732332	2.55086	0.50949	3.72018	0.644378	4.70204	0.880156	6.43057	0.384475	2.7965	0.507435	3.70903	0.718275	5.23167	0.81289	5.93516
0.37971	2.74246	0.252895	1.82708	0.73053	2.55287	0.510975	3.70581	0.645542	4.67873	0.880743	6.39135	0.38635	2.79122	0.508705	3.69316	0.718947	5.20127	0.814114	5.90394
0.381941	2.74013	0.254922	1.82941	0.728724	2.55487	0.512461	3.69164	0.646714	4.65579	0.881334	6.35268	0.388222	2.78599	0.509984	3.67757	0.719626	5.17132	0.815342	5.87317
0.38418	2.7379	0.256949	1.83171	0.726912	2.55687	0.513948	3.67767	0.647894	4.6332	0.881929	6.31457	0.390091	2.78081	0.511273	3.66226	0.72031	5.14181	0.816574	5.84283
0.386428	2.73575	0.258976	1.83397	0.725096	2.55887	0.515434	3.66388	0.64908	4.61097	0.882529	6.27699	0.391958	2.77569	0.512571	3.64722	0.720999	5.11273	0.817811	5.81292
0.388683	2.73368	0.261002	1.83621	0.723275	2.56086	0.516922	3.65028	0.650275	4.58908	0.883133	6.23993	0.393821	2.7706	0.513879	3.63244	0.721694	5.08407	0.819051	5.78343
0.390945	2.7317	0.263028	1.83841	0.721448	2.56285	0.518409	3.63685	0.651476	4.56752	0.883741	6.20339	0.395683	2.76557	0.515197	3.61793	0.722395	5.05582	0.820294	5.75436
0.393215	2.72978	0.265054	1.84058	0.719616	2.56483	0.519897	3.62361	0.652685	4.5463	0.884354	6.16736	0.397541	2.76058	0.516524	3.60367	0.723101	5.02798	0.821542	5.72569
0.39549	2.72794	0.26708	1.84273	0.717779	2.56681	0.521386	3.61054	0.653901	4.5254	0.884971	6.13182	0.399396	2.75564	0.517861	3.58966	0.723813	5.00053	0.822793	5.69741
0.397772	2.72616	0.269105	1.84484	0.715936	2.56877	0.522875	3.59764	0.655124	4.50482	0.885593	6.09677	0.401249	2.75074	0.519207	3.5759	0.724531	4.97348	0.824048	5.66953
0.40006	2.72444	0.27113	1.84693	0.714086	2.57073	0.524364	3.5849	0.656354	4.48455	0.886219	6.0622	0.403099	2.74588	0.520563	3.56238	0.725254	4.9468	0.825307	5.64202
0.402354	2.72278	0.273155	1.84899	0.712231	2.57268	0.525854	3.57233	0.657592	4.46458	0.886849	6.02809	0.404947	2.74107	0.521928	3.54909	0.725983	4.92051	0.826569	5.61489
0.404652	2.72118	0.275179	1.85101	0.710369	2.57462	0.527344	3.55992	0.658836	4.44492	0.887484	5.99444	0.406791	2.7363	0.523302	3.53604	0.726717	4.89457	0.827835	5.58812
0.406956	2.71963	0.277203	1.85302	0.7085	2.57655	0.528835	3.54767	0.660088	4.42554	0.888123	5.96124	0.408633	2.73157	0.524686	3.52321	0.727457	4.869	0.829105	5.56171
0.409264	2.71813	0.279227	1.85499	0.706625	2.57847	0.530326	3.53558	0.661347	4.40646	0.888766	5.92849	0.410471	2.72688	0.52608	3.5106	0.728203	4.84379	0.830378	5.53565
0.411576	2.71668	0.28125	1.85694	0.704743	2.58037	0.531817	3.52363	0.662612	4.38765	0.889414	5.89617	0.412308	2.72223	0.527482	3.49821	0.728954	4.81892	0.831654	5.50994
0.413893	2.71527	0.283273	1.85886	0.702854	2.58226	0.533309	3.51184	0.663885	4.36912	0.890066	5.86427	0.414141	2.71761	0.528894	3.48603	0.72971	4.79439	0.832935	5.48457
0.416214	2.71391	0.285295	1.86075	0.700957	2.58414	0.534801	3.50019	0.665164	4.35087	0.890723	5.83279	0.415971	2.71304	0.530315	3.47407	0.730472	4.7702	0.834218	5.45953
0.418538	2.71259	0.287318	1.86262	0.699053	2.586	0.536294	3.48869	0.666451	4.33288	0.891384	5.80172	0.417799	2.7085	0.531745	3.4623	0.73124	4.74633	0.835505	5.43481
0.420866	2.7113	0.289339	1.86447	0.697141	2.58785	0.537787	3.47732	0.667744	4.31514	0.89205	5.77106	0.419624	2.704	0.533185	3.45074	0.732013	4.72279	0.836795	5.41041
0.423197	2.71005	0.29136	1.86629	0.695222	2.58968	0.539281	3.4661	0.669044	4.29767	0.89272	5.74079	0.421446	2.69953	0.534633	3.43938	0.732791	4.69956	0.838089	5.38633
0.425531	2.70884	0.293381	1.86808	0.693295	2.5915	0.540775	3.45501	0.670351	4.28045	0.893394	5.71091	0.423266	2.6951	0.536091	3.42821	0.733575	4.67664	0.839386	5.36256
0.427868	2.70766	0.295401	1.86985	0.691359	2.59329	0.542269	3.44406	0.671664	4.26347	0.894073	5.68142	0.425083	2.69071	0.537558	3.41723	0.734364	4.65403	0.840687	5.33909
0.430208	2.70651	0.297421	1.8716	0.689416	2.59507	0.543764	3.43324	0.672984	4.24673	0.894756	5.65229	0.426897	2.68635	0.539033	3.40643	0.735159	4.63172	0.84199	5.31591
0.432551	2.70539	0.299441	1.87333	0.687464	2.59683	0.54526	3.42255	0.674311	4.23023	0.895444	5.62354	0.428708	2.68202	0.540518	3.39582	0.73596	4.60971	0.843297	5.29302
0.434896	2.7043	0.301459	1.87503	0.685503	2.59857	0.546756	3.41199	0.675644	4.21397	0.896136	5.59515	0.430517	2.67773	0.542011	3.38538	0.736765	4.58798	0.844607	5.27043
0.437243	2.70323	0.303478	1.87671	0.683534	2.60029	0.548252	3.40155	0.676984	4.19793	0.896833	5.56711	0.432323	2.67347	0.543513	3.37513	0.737577	4.56654	0.84592	5.24811
0.439592	2.70219	0.305496	1.87836	0.681557	2.60199	0.549749	3.39123	0.67833	4.18211	0.897534	5.53943	0.434127	2.66925	0.545024	3.36504	0.738393	4.54537	0.847236	5.22607
0.441944	2.70117	0.307513	1.87999	0.679571	2.60367	0.551247	3.38104	0.679682	4.16652	0.89824	5.51209	0.435928	2.66505	0.546544	3.35512	0.739215	4.52448	0.848556	5.2043
0.444297	2.70018	0.30953	1.88161	0.677576	2.60533	0.552745	3.37097	0.681041	4.15114	0.89895	5.48508	0.437726	2.66089	0.548072	3.34537	0.740043	4.50386	0.849878	5.18279
0.446652	2.69921	0.311546	1.8832	0.675572	2.60696	0.554244	3.36101	0.682407	4.13598	0.899664	5.45841	0.439522	2.65676	0.549608	3.33578	0.740875	4.48351	0.851204	5.16155
0.449009	2.69826	0.313561	1.88477	0.673559	2.60857	0.555744	3.35117	0.683778	4.12102	0.900383	5.43207	0.441315	2.65266	0.551154	3.32635	0.741714	4.46342	0.852532	5.14056
0.451367	2.69733	0.315577	1.88632	0.671538	2.61016	0.557244	3.34145	0.685156	4.10627	0.901107	5.40605	0.443106	2.6486	0.552707	3.31707	0.742557	4.44358	0.853863	5.11983
0.453727	2.69642	0.317591	1.88784	0.669507	2.61173	0.558745	3.33183	0.68654	4.09171	0.901835	5.38034	0.444895	2.64456	0.554269	3.30795	0.743406	4.42399	0.855198	5.09934
0.456087	2.69552	0.319605	1.88935	0.667468	2.61327	0.560247	3.32233	0.68793	4.07736	0.902567	5.35494	0.446681	2.64055	0.555839	3.29897	0.744261	4.40466	0.856535	5.0791
0.458449	2.69464	0.321618	1.89084	0.66542	2.61479	0.56175	3.31293	0.689327	4.06319	0.903304	5.32985	0.448465	2.63657	0.557418	3.29015	0.74512	4.38556	0.857875	5.05909
0.460813	2.69378	0.323631	1.89231	0.663363	2.61629	0.563253	3.30365	0.690729	4.04922	0.904045	5.30506	0.450246	2.63263	0.559004	3.28147	0.745985	4.36671	0.859218	5.03932
0.463177	2.69293	0.325643	1.89376	0.661297	2.61776	0.564757	3.29447	0.692137	4.03544	0.904791	5.28057	0.452025	2.62871	0.560599	3.27293	0.746856	4.34809	0.860563	5.01978
0.465542	2.6921	0.327655	1.89518	0.659222	2.61921	0.566262	3.28539	0.693551	4.02183	0.905542	5.25637	0.453802	2.62482	0.562201	3.26453	0.747731	4.3297	0.861912	5.00047
0.467907	2.69128	0.329666	1.89659	0.657139	2.62063	0.567768	3.27642	0.694971	4.00841	0.906296	5.23245	0.455577	2.62096	0.563812	3.25626	0.748612	4.31154	0.863263	4.98139
0.470274	2.69047	0.331676	1.89799	0.655047	2.62203	0.569274	3.26754	0.696397	3.99517	0.907056	5.20882	0.45735	2.61713	0.56543	3.24813	0.749499	4.29361	0.864617	4.96252
0.472641	2.68968	0.333685	1.89936	0.652946	2.6234	0.570782	3.25877	0.697829	3.9821	0.90782	5.18546	0.45912	2.61333	0.567056	3.24013	0.75039	4.27589	0.865973	4.94387
0.475008	2.6889	0.335694	1.90071	0.650837	2.62475	0.572291	3.2501	0.699266	3.96919	0.908588	5.16238	0.460888	2.60956	0.56869	3.23225	0.751287	4.2584	0.867333	4.92543
0.477376	2.68812	0.337703	1.90205	0.648719	2.62608	0.573801	3.24152	0.700709	3.95646	0.909361	5.13956	0.462655	2.60581	0.570331	3.22451	0.75219	4.24111	0.868694	4.9072
0.479745	2.68736	0.33971	1.90337	0.646594	2.62739	0.575312	3.23304	0.702157	3.94389	0.910138	5.11701	0.464419	2.6021	0.571979	3.21688	0.753097	4.22404	0.870059	4.88917
0.482113	2.68661	0.341717	1.90467	0.64446	2.62867	0.576824	3.22465	0.703611	3.93148	0.91092	5.09472	0.466182	2.59841	0.573635	3.20938	0.75401	4.20718	0.871425	4.87135
0.484482	2.68586	0.343724	1.90596	0.642318	2.62992	0.578337	3.21636	0.705071	3.91924	0.911707	5.07268	0.467943	2.59475	0.575299	3.202	0.754928	4.19051	0.872795	4.85372
0.486851	2.68513	0.345729	1.90723	0.640168	2.63116	0.579852	3.20816	0.706536	3.90715	0.912498	5.0509	0.469702	2.59112	0.576969	3.19473	0.755852	4.17405	0.874167	4.8363
0.48922	2.6844	0.347734	1.90848	0.63801	2.63237	0.581367	3.20005	0.708006	3.89521	0.913293	5.02937	0.471459	2.58751	0.578647	3.18757	0.75678	4.15779	0.875541	4.81906
0.491589	2.68368	0.349738	1.90971	0.635845	2.63356	0.582885	3.19203	0.709482	3.88342	0.914093	5.00808	0.473214	2.58393	0.580332	3.18053	0.757714	4.14172	0.876918	4.80201
0.493958	2.68296	0.351742	1.91093	0.633672	2.63473	0.584403	3.1841	0.710963	3.87178	0.914898	4.98703	0.474968	2.58038	0.582024	3.1736	0.758654	4.12584	0.878297	4.78515
0.496326	2.68225	0.353744	1.91213	0.631492	2.63588	0.585923	3.17626	0.712449	3.86029	0.915707	4.96622	0.47672	2.57686	0.583722	3.16677	0.759598	4.11015	0.879678	4.76847
0.498694	2.68155	0.355746	1.91332	0.629305	2.637	0.587444	3.1685	0.71394	3.84894	0.916521	4.94564	0.478471	2.57336	0.585428	3.16005	0.760548	4.09465	0.881062	4.75197
0.501062	2.68085	0.357747	1.91449	0.627111	2.63811	0.588967	3.16083	0.715436	3.83773	0.917339	4.9253	0.48022	2.56989	0.58714	3.15343	0.761503	4.07933	0.882448	4.73565
0.50343	2.68016	0.359748	1.91564	0.62491	2.63919	0.590492	3.15325	0.716938	3.82666	0.918162	4.90518	0.481968	2.56645	0.588858	3.14691	0.762463	4.06419	0.883836	4.7195
0.505797	2.67947	0.361748	1.91678	0.622702	2.64026	0.592018	3.14574	0.718444	3.81572	0.918989	4.88528	0.483715	2.56303	0.590583	3.1405	0.763429	4.04923	0.885227	4.70353
0.508163	2.67878	0.363747	1.9179	0.620488	2.6413	0.593546	3.13833	0.719956	3.80492	0.919821	4.8656	0.48546	2.55964	0.592315	3.13418	0.764399	4.03444	0.88662	4.68772
0.510529	2.6781	0.365745	1.91901	0.618268	2.64233	0.595075	3.13099	0.721472	3.79425	0.920658	4.84615	0.487203	2.55628	0.594053	3.12795	0.765375	4.01982	0.888014	4.67208
0.512894	2.67742	0.367743	1.92011	0.616041	2.64334	0.596607	3.12374	0.722993	3.78371	0.921499	4.8269	0.488946	2.55294	0.595797	3.12182	0.766357	4.00538	0.889411	4.65661
0.515258	2.67674	0.369739	1.92119	0.613808	2.64433	0.59814	3.11656	0.724518	3.7733	0.922345	4.80787	0.490688	2.54963	0.597547	3.11578	0.767343	3.9911	0.890811	4.64129
0.517621	2.67607	0.371735	1.92225	0.61157	2.64531	0.599676	3.10947	0.726049	3.76301	0.923195	4.78904	0.492428	2.54635	0.599303	3.10983	0.768335	3.97698	0.892212	4.62614
0.519984	2.6754	0.37373	1.9233	0.609326	2.64626	0.601213	3.10245	0.727584	3.75284	0.92405	4.77042	0.494167	2.54309	0.601065	3.10396	0.769332	3.96303	0.893615	4.61114
0.522345	2.67472	0.375725	1.92434	0.607076	2.6472	0.602753	3.09551	0.729123	3.7428	0.924909	4.752	0.495906	2.53986	0.602833	3.09819	0.770334	3.94924	0.89502	4.59629
0.524705	2.67405	0.377718	1.92536	0.604821	2.64813	0.604294	3.08865	0.730667	3.73287	0.925773	4.73378	0.497643	2.53665	0.604606	3.09249	0.771341	3.93561	0.896428	4.58159
0.527064	2.67338	0.379711	1.92637	0.602561	2.64904	0.605838	3.08187	0.732216	3.72306	0.926642	4.71575	0.49938	2.53347	0.606385	3.08688	0.772354	3.92213	0.897837	4.56705
0.529422	2.67271	0.381703	1.92737	0.600295	2.64994	0.607385	3.07516	0.733769	3.71336	0.927515	4.69792	0.501116	2.53032	0.60817	3.08135	0.773372	3.9088	0.899248	4.55265
0.531778	2.67203	0.383694	1.92835	0.598025	2.65082	0.608933	3.06852	0.735326	3.70378	0.928393	4.68028	0.502851	2.52719	0.60996	3.0759	0.774395	3.89563	0.900661	4.5384
0.534133	2.67136	0.385684	1.92932	0.595751	2.65168	0.610485	3.06197	0.736888	3.69431	0.929275	4.66283	0.504585	2.52409	0.611755	3.07053	0.775423	3.8826	0.902076	4.52429
0.536486	2.67069	0.387674	1.93027	0.593471	2.65254	0.612038	3.05548	0.738453	3.68495	0.930162	4.64556	0.506319	2.52101	0.613556	3.06523	0.776457	3.86973	0.903492	4.51032
0.538838	2.67001	0.389663	1.93122	0.591187	2.65338	0.613595	3.04907	0.740023	3.67569	0.931054	4.62848	0.508052	2.51796	0.615362	3.06001	0.777495	3.85699	0.904911	4.49648
0.541188	2.66933	0.39165	1.93215	0.588899	2.65421	0.615154	3.04273	0.741597	3.66654	0.93195	4.61157	0.509785	2.51493	0.617172	3.05486	0.778539	3.8444	0.906331	4.48279
0.543536	2.66865	0.393637	1.93306	0.586607	2.65503	0.616716	3.03646	0.743175	3.6575	0.932851	4.59485	0.511517	2.51193	0.618988	3.04979	0.779589	3.83196	0.907753	4.46923
0.545883	2.66796	0.395624	1.93397	0.584311	2.65583	0.618281	3.03027	0.744757	3.64855	0.933757	4.5783	0.513248	2.50896	0.620809	3.04478	0.780643	3.81965	0.909177	4.4558
0.548227	2.66728	0.397609	1.93486	0.582011	2.65663	0.619849	3.02414	0.746343	3.63971	0.934667	4.56192	0.51498	2.50601	0.622634	3.03984	0.781703	3.80747	0.910603	4.4425
0.550569	2.66658	0.399593	1.93574	0.579707	2.65742	0.62142	3.01809	0.747933	3.63096	0.935582	4.54571	0.516711	2.50308	0.624464	3.03497	0.782768	3.79544	0.91203	4.42933
0.552909	2.66589	0.401577	1.93661	0.5774	2.65819	0.622995	3.01211	0.749527	3.62232	0.936501	4.52968	0.518442	2.50018	0.626298	3.03016	0.783838	3.78353	0.913458	4.41628
0.555247	2.66519	0.40356	1.93747	0.575089	2.65896	0.624572	3.00619	0.751124	3.61377	0.937425	4.51381	0.520172	2.49731	0.628137	3.02542	0.784913	3.77176	0.914889	4.40336
0.557583	2.66448	0.405542	1.93831	0.572775	2.65972	0.626153	3.00035	0.752725	3.60531	0.938354	4.4981	0.521903	2.49446	0.629981	3.02074	0.785993	3.76012	0.916321	4.39057
0.559916	2.66377	0.407523	1.93915	0.570457	2.66047	0.627738	2.99457	0.75433	3.59694	0.939287	4.48255	0.523633	2.49164	0.631828	3.01613	0.787079	3.74861	0.917754	4.37789
0.562246	2.66305	0.409503	1.93997	0.568137	2.66121	0.629326	2.98886	0.755939	3.58867	0.940225	4.46717	0.525364	2.48884	0.63368	3.01157	0.78817	3.73722	0.919189	4.36534
0.564574	2.66233	0.411482	1.94078	0.565814	2.66194	0.630918	2.98322	0.75755	3.58048	0.941168	4.45194	0.527094	2.48606	0.635536	3.00708	0.789267	3.72596	0.920626	4.3529
0.566899	2.6616	0.413461	1.94158	0.563487	2.66267	0.632514	2.97765	0.759166	3.57239	0.942115	4.43687	0.528825	2.48331	0.637395	3.00264	0.790368	3.71482	0.922064	4.34058
0.569221	2.66086	0.415438	1.94237	0.561158	2.66339	0.634114	2.97215	0.760785	3.56438	0.943067	4.42195	0.530555	2.48058	0.639259	2.99826	0.791475	3.7038	0.923503	4.32837
0.57154	2.66012	0.417415	1.94314	0.558827	2.6641	0.635718	2.96671	0.762407	3.55645	0.944024	4.40718	0.532286	2.47788	0.641126	2.99394	0.792587	3.6929	0.924944	4.31627
0.573855	2.65936	0.419391	1.94391	0.556493	2.66481	0.637326	2.96134	0.764032	3.54861	0.944985	4.39256	0.534017	2.4752	0.642997	2.98967	0.793704	3.68212	0.926386	4.30429
0.576168	2.6586	0.421366	1.94467	0.554156	2.66552	0.638939	2.95603	0.765661	3.54085	0.945951	4.37809	0.535748	2.47255	0.644872	2.98545	0.794826	3.67146	0.92783	4.29241
0.578477	2.65783	0.42334	1.94541	0.551817	2.66621	0.640556	2.9508	0.767293	3.53318	0.946922	4.36377	0.53748	2.46992	0.64675	2.98128	0.795954	3.66092	0.929275	4.28065
0.580783	2.65705	0.425313	1.94615	0.549476	2.66691	0.642177	2.94562	0.768928	3.52558	0.947898	4.34959	0.539211	2.46732	0.648632	2.97717	0.797087	3.65048	0.930721	4.26899
0.583085	2.65626	0.427285	1.94687	0.547133	2.6676	0.643804	2.94052	0.770566	3.51806	0.948878	4.33555	0.540944	2.46473	0.650516	2.97311	0.798225	3.64016	0.932168	4.25743
0.585383	2.65546	0.429256	1.94758	0.544787	2.66828	0.645435	2.93548	0.772207	3.51062	0.949863	4.32165	0.542676	2.46218	0.652405	2.9691	0.799369	3.62996	0.933617	4.24598
0.587678	2.65465	0.431227	1.94829	0.54244	2.66897	0.647071	2.9305	0.773851	3.50326	0.950852	4.30789	0.54441	2.45964	0.654296	2.96513	0.800518	3.61986	0.935067	4.23463
0.589968	2.65382	0.433196	1.94898	0.540091	2.66965	0.648713	2.92559	0.775498	3.49597	0.951846	4.29427	0.546143	2.45713	0.65619	2.96121	0.801672	3.60987	0.936518	4.22338
0.592254	2.65299	0.435165	1.94967	0.53774	2.67033	0.65036	2.92075	0.777148	3.48875	0.952845	4.28078	0.547878	2.45465	0.658087	2.95734	0.802831	3.59999	0.93797	4.21224
0.594536	2.65214	0.437133	1.95034	0.535388	2.671	0.652012	2.91596	0.7788	3.48161	0.953849	4.26743	0.549613	2.45218	0.659987	2.95351	0.803996	3.59021	0.939424	4.20119
0.596813	2.65128	0.4391	1.95101	0.533034	2.67168	0.65367	2.91125	0.780456	3.47454	0.954857	4.25421	0.551348	2.44974	0.66189	2.94973	0.805166	3.58054	0.940879	4.19023
0.599086	2.65041	0.441065	1.95166	0.530678	2.67235	0.655334	2.9066	0.782114	3.46754	0.95587	4.24112	0.553084	2.44733	0.663796	2.94599	0.806341	3.57097	0.942334	4.17937
0.601354	2.64952	0.44303	1.95231	0.528321	2.67302	0.657003	2.90201	0.783775	3.46061	0.956888	4.22815	0.554821	2.44493	0.665704	2.94229	0.807522	3.5615	0.943791	4.16861
0.603616	2.64862	0.444995	1.95295	0.525963	2.67369	0.658679	2.89749	0.785438	3.45374	0.957911	4.21532	0.556559	2.44256	0.667615	2.93863	0.808708	3.55214	0.945249	4.15794
0.605874	2.6477	0.446958	1.95357	0.523603	2.67436	0.660361	2.89303	0.787104	3.44695	0.958938	4.20261	0.558298	2.44022	0.669528	2.93502	0.809899	3.54287	0.946708	4.14736
0.608127	2.64677	0.44892	1.95419	0.521243	2.67504	0.66205	2.88864	0.788772	3.44022	0.95997	4.19002	0.560037	2.43789	0.671443	2.93144	0.811096	3.5337	0.948167	4.13687
0.610374	2.64582	0.450881	1.9548	0.518881	2.67571	0.663745	2.88431	0.790443	3.43355	0.961007	4.17756	0.561778	2.43559	0.673361	2.92791	0.812298	3.52463	0.949628	4.12647
0.612615	2.64485	0.452842	1.9554	0.516518	2.67638	0.665447	2.88004	0.792116	3.42695	0.962048	4.16522	0.563519	2.43331	0.675281	2.92441	0.813505	3.51566	0.95109	4.11615
0.614851	2.64387	0.454801	1.956	0.514154	2.67706	0.667156	2.87584	0.793792	3.42041	0.963095	4.153	0.565261	2.43105	0.677203	2.92094	0.814718	3.50678	0.952553	4.10593
0.617081	2.64287	0.45676	1.95658	0.51179	2.67774	0.668872	2.87171	0.79547	3.41394	0.964146	4.14089	0.567004	2.42882	0.679127	2.91752	0.815936	3.49799	0.954016	4.09579
0.619305	2.64185	0.458718	1.95715	0.509425	2.67842	0.670595	2.86763	0.79715	3.40752	0.965202	4.1289	0.568748	2.4266	0.681052	2.91413	0.81716	3.4893	0.955481	4.08573
0.621522	2.64082	0.460674	1.95772	0.507059	2.6791	0.672326	2.86363	0.798832	3.40117	0.966262	4.11703	0.570494	2.42441	0.68298	2.91077	0.818388	3.4807	0.956946	4.07576
0.623734	2.63976	0.46263	1.95828	0.504692	2.67979	0.674064	2.85968	0.800517	3.39487	0.967327	4.10527	0.57224	2.42224	0.68491	2.90745	0.819623	3.47219	0.958412	4.06587
0.625938	2.63869	0.464585	1.95883	0.502325	2.68048	0.67581	2.8558	0.802203	3.38864	0.968397	4.09363	0.573987	2.42009	0.686841	2.90416	0.820862	3.46377	0.959879	4.05606
0.628136	2.63759	0.466539	1.95937	0.499957	2.68118	0.677564	2.85199	0.803892	3.38246	0.969472	4.0821	0.575736	2.41797	0.688774	2.90091	0.822107	3.45544	0.961347	4.04633
0.630327	2.63648	0.468492	1.9599	0.497589	2.68188	0.679327	2.84824	0.805583	3.37633	0.970552	4.07067	0.577486	2.41586	0.690708	2.89768	0.823358	3.4472	0.962815	4.03668
0.632511	2.63534	0.470444	1.96043	0.49522	2.68258	0.681097	2.84455	0.807275	3.37027	0.971636	4.05936	0.579237	2.41378	0.692644	2.89449	0.824614	3.43904	0.964285	4.02711
0.634687	2.63419	0.472396	1.96095	0.492852	2.68329	0.682876	2.84092	0.808969	3.36426	0.972726	4.04815	0.580989	2.41172	0.694581	2.89133	0.825875	3.43097	0.965755	4.01762
0.636857	2.63301	0.474346	1.96146	0.490483	2.68401	0.684664	2.83736	0.810666	3.3583	0.97382	4.03705	0.582742	2.40968	0.696519	2.88819	0.827142	3.42298	0.967225	4.0082
0.639018	2.63181	0.476295	1.96196	0.488114	2.68474	0.686461	2.83387	0.812364	3.35239	0.974919	4.02606	0.584497	2.40766	0.698458	2.88509	0.828414	3.41508	0.968697	3.99886
0.641172	2.63059	0.478244	1.96245	0.485745	2.68547	0.688267	2.83043	0.814064	3.34654	0.976022	4.01516	0.586253	2.40566	0.700399	2.88201	0.829692	3.40726	0.970169	3.98959
0.643319	2.62934	0.480191	1.96294	0.483376	2.68621	0.690081	2.82707	0.815765	3.34074	0.977131	4.00438	0.58801	2.40368	0.702341	2.87897	0.830976	3.39953	0.971641	3.9804
0.645457	2.62807	0.482138	1.96342	0.481008	2.68696	0.691905	2.82376	0.817469	3.33499	0.978244	3.99369	0.589769	2.40172	0.704284	2.87595	0.832264	3.39187	0.973115	3.97128
0.647587	2.62678	0.484084	1.96389	0.478639	2.68772	0.693739	2.82052	0.819173	3.32929	0.979362	3.9831	0.591529	2.39978	0.706227	2.87295	0.833559	3.3843	0.974589	3.96223
0.649709	2.62547	0.486029	1.96436	0.476271	2.68848	0.695582	2.81734	0.82088	3.32364	0.980485	3.97262	0.593291	2.39787	0.708172	2.86999	0.834859	3.3768	0.976063	3.95325
0.651823	2.62413	0.487973	1.96482	0.473903	2.68926	0.697434	2.81422	0.822588	3.31804	0.981612	3.96223	0.595053	2.39597	0.710117	2.86704	0.836164	3.36938	0.977538	3.94434
0.653928	2.62276	0.489916	1.96527	0.471536	2.69005	0.699297	2.81117	0.824297	3.31249	0.982745	3.95194	0.596818	2.39409	0.712063	2.86413	0.837475	3.36204	0.979014	3.9355
0.656024	2.62138	0.491858	1.96571	0.469169	2.69085	0.701169	2.80818	0.826008	3.30698	0.983882	3.94174	0.598583	2.39223	0.714009	2.86123	0.838792	3.35478	0.98049	3.92672
0.658112	2.61997	0.493799	1.96615	0.466803	2.69166	0.703052	2.80525	0.827721	3.30152	0.985024	3.93164	0.600351	2.3904	0.715956	2.85836	0.840114	3.34759	0.981966	3.91802
0.660192	2.61853	0.495739	1.96658	0.464437	2.69249	0.704944	2.80238	0.829434	3.29611	0.986171	3.92164	0.602119	2.38858	0.717904	2.85552	0.841442	3.34048	0.983443	3.90938
0.662262	2.61707	0.497679	1.967	0.462073	2.69333	0.706847	2.79958	0.831149	3.29074	0.987323	3.91173	0.60389	2.38678	0.719851	2.85269	0.842775	3.33345	0.984921	3.9008
0.664324	2.61559	0.499617	1.96742	0.459709	2.69418	0.708759	2.79683	0.832866	3.28542	0.98848	3.90191	0.605661	2.385	0.7218	2.84989	0.844114	3.32649	0.986399	3.8923
0.666377	2.61409	0.501555	1.96783	0.457347	2.69505	0.710683	2.79415	0.834583	3.28013	0.989641	3.89218	0.607435	2.38324	0.723748	2.84711	0.845459	3.3196	0.987878	3.88385
0.668421	2.61256	0.503491	1.96823	0.454985	2.69594	0.712616	2.79152	0.836302	3.2749	0.990808	3.88254	0.60921	2.3815	0.725697	2.84435	0.846809	3.31278	0.989356	3.87547
0.670456	2.611	0.505427	1.96863	0.452625	2.69684	0.71456	2.78896	0.838022	3.2697	0.991979	3.87299	0.610986	2.37977	0.727645	2.84161	0.848165	3.30603	0.990836	3.86715
0.672483	2.60942	0.507362	1.96902	0.450266	2.69776	0.716514	2.78645	0.839743	3.26455	0.993155	3.86352	0.612764	2.37807	0.729594	2.83889	0.849527	3.29936	0.992315	3.85889
0.6745	2.60782	0.509296	1.9694	0.447909	2.6987	0.718478	2.78401	0.841465	3.25944	0.994336	3.85415	0.614544	2.37638	0.731543	2.83619	0.850894	3.29275	0.993795	3.8507
0.676509	2.6062	0.511229	1.96978	0.445553	2.69966	0.720453	2.78162	0.843188	3.25437	0.995521	3.84486	0.616325	2.37472	0.733492	2.83351	0.852267	3.28622	0.995276	3.84256
0.678508	2.60456	0.513161	1.97016	0.443198	2.70064	0.722438	2.77928	0.844912	3.24934	0.996712	3.83565	0.618108	2.37307	0.73544	2.83085	0.853646	3.27975	0.996756	3.83448
0.680499	2.60289	0.515093	1.97052	0.440846	2.70165	0.724434	2.77701	0.846637	3.24435	0.997908	3.82654	0.619892	2.37143	0.737388	2.82821	0.85503	3.27335	0.998238	3.82647
0.682481	2.6012	0.517023	1.97088	0.438495	2.70267	0.72644	2.77478	0.848363	3.2394	0.999108	3.8175	0.621678	2.36982	0.739336	2.82558	0.85642	3.26702	0.999719	3.81851
0.684455	2.59949	0.518953	1.97124	0.436147	2.70372	0.728455	2.77262	0.85009	3.23449	1.00031	3.80855	0.623466	2.36822	0.741284	2.82297	0.857816	3.26076	1.0012	3.81061
0.68642	2.59776	0.520881	1.97159	0.433801	2.7048	0.730481	2.7705	0.851818	3.22961			0.625256	2.36665	0.743231	2.82038	0.859218	3.25456		
0.688376	2.59601	0.522809	1.97193	0.431457	2.70591	0.732518	2.76844	0.853547	3.22477			0.627047	2.36509	0.745178	2.81781	0.860625	3.24843		
0.690324	2.59424	0.524736	1.97227	0.429116	2.70704	0.734563	2.76644	0.855276	3.21997			0.62884	2.36354	0.747124	2.81525	0.862039	3.24236		
0.692264	2.59246	0.526662	1.9726	0.426777	2.70821	0.736619	2.76448	0.857006	3.21521			0.630634	2.36202	0.74907	2.81271	0.863458	3.23636		
0.694195	2.59065	0.528587	1.97292	0.424441	2.7094	0.738685	2.76257	0.858737	3.21048			0.63243	2.36051	0.751015	2.81018	0.864883	3.23042		
0.696119	2.58883	0.530512	1.97324	0.422108	2.71063	0.74076	2.76071	0.860469	3.20579			0.634228	2.35901	0.752959	2.80766	0.866313	3.22454		
0.698035	2.58699	0.532435	1.97356	0.419779	2.7119	0.742844	2.7589	0.862201	3.20113			0.636028	2.35754	0.754902	2.80517	0.86775	3.21872		
0.699943	2.58514	0.534358	1.97387	0.417453	2.7132	0.744938	2.75713	0.863934	3.19651			0.63783	2.35608	0.756845	2.80268	0.869193	3.21297		
0.701843	2.58327	0.53628	1.97417	0.41513	2.71454	0.747041	2.75542	0.865667	3.19192			0.639633	2.35463	0.758787	2.80021	0.870641	3.20728		
0.703737	2.58138	0.538201	1.97447	0.412811	2.71592	0.749153	2.75374	0.867401	3.18736			0.641438	2.35321	0.760728	2.79775	0.872095	3.20165		
0.705622	2.57948	0.540121	1.97477	0.410496	2.71735	0.751273	2.75211	0.869135	3.18284			0.643244	2.3518	0.762667	2.79531	0.873555	3.19608		
0.707501	2.57757	0.54204	1.97506	0.408186	2.71883	0.753403	2.75052	0.87087	3.17835			0.645052	2.3504	0.764606	2.79288	0.875021	3.19056		
0.709373	2.57565	0.543959	1.97534	0.40588	2.72035	0.75554	2.74898	0.872606	3.17389			0.646863	2.34902	0.766544	2.79046	0.876493	3.18511		
0.711239	2.57372	0.545876	1.97562	0.403579	2.72192	0.757686	2.74747	0.874342	3.16946			0.648674	2.34766	0.76848	2.78805	0.877971	3.17972		
0.713098	2.57177	0.547793	1.9759	0.401282	2.72355	0.75984	2.74601	0.876078	3.16506			0.650488	2.34631	0.770415	2.78566	0.879455	3.17438		
0.71495	2.56982	0.549709	1.97617	0.398991	2.72523	0.762002	2.74458	0.877815	3.1607			0.652303	2.34498	0.772349	2.78327	0.880944	3.1691		
0.716797	2.56786	0.551624	1.97643	0.396706	2.72698	0.764172	2.74319	0.879552	3.15636			0.654121	2.34366	0.774282	2.7809	0.88244	3.16387		
0.718637	2.56589	0.553539	1.97669	0.394427	2.72879	0.766349	2.74183	0.881289	3.15206			0.655939	2.34236	0.776213	2.77854	0.883942	3.15871		
0.720472	2.56391	0.555452	1.97695	0.392154	2.73067	0.768533	2.74051	0.883026	3.14779			0.65776	2.34107	0.778143	2.77619	0.885449	3.15359		
0.722302	2.56193	0.557365	1.9772	0.389888	2.73261	0.770725	2.73923	0.884764	3.14354			0.659583	2.3398	0.780071	2.77385	0.886963	3.14854		
0.724126	2.55994	0.559277	1.97745	0.387629	2.73464	0.772923	2.73797	0.886502	3.13932			0.661407	2.33854	0.781998	2.77152	0.888482	3.14353		
0.725945	2.55794	0.561188	1.97769	0.385378	2.73674	0.775128	2.73675	0.888241	3.13514			0.663233	2.3373	0.783923	2.7692	0.890008	3.13858		
0.727758	2.55594	0.563099	1.97793	0.383134	2.73893	0.77734	2.73556	0.889979	3.13098			0.66506	2.33607	0.785847	2.76688	0.891539	3.13369		
0.729568	2.55394	0.565008	1.97816	0.380899	2.74121	0.779558	2.7344	0.891718	3.12684			0.66689	2.33485	0.787769	2.76458	0.893077	3.12885		
0.731372	2.55193	0.566917	1.97839	0.378672	2.74358	0.781782	2.73327	0.893457	3.12274			0.668721	2.33365	0.789689	2.76229	0.89462	3.12406		
0.733172	2.54992	0.568825	1.97862	0.376455	2.74606	0.784012	2.73217	0.895196	3.11866			0.670554	2.33247	0.791608	2.76001	0.89617	3.11932		
0.734968	2.54791	0.570733	1.97884	0.374248	2.74864	0.786248	2.73109	0.896935	3.11461			0.672389	2.33129	0.793524	2.75773	0.897725	3.11463		
0.73676	2.5459	0.572639	1.97905	0.372051	2.75133	0.788489	2.73004	0.898674	3.11059			0.674225	2.33013	0.795439	2.75546	0.899287	3.11		
0.738548	2.54389	0.574545	1.97927	0.369866	2.75414	0.790736	2.72902	0.900414	3.10659			0.676064	2.32899	0.797352	2.7532	0.900854	3.10541		
0.740332	2.54188	0.57645	1.97948	0.367692	2.75708	0.792988	2.72802	0.902153	3.10262			0.677904	2.32785	0.799264	2.75095	0.902428	3.10088		
0.742113	2.53987	0.578354	1.97968	0.36553	2.76016	0.795245	2.72704	0.903892	3.09867			0.679746	2.32674	0.801173	2.74871	0.904007	3.09639		
0.74389	2.53786	0.580258	1.97988	0.363382	2.76337	0.797507	2.72609	0.905632	3.09475			0.681589	2.32563	0.80308	2.74647	0.905593	3.09196		
0.745665	2.53585	0.582161	1.98008	0.361247	2.76674	0.799774	2.72516	0.907371	3.09085			0.683434	2.32454	0.804985	2.74425	0.907184	3.08757		
0.747436	2.53385	0.584063	1.98028	0.359126	2.77027	0.802045	2.72425	0.90911	3.08698			0.685282	2.32345	0.806888	2.74203	0.908782	3.08323		
0.749204	2.53184	0.585964	1.98047	0.357021	2.77397	0.804321	2.72336	0.91085	3.08313			0.68713	2.32239	0.80879	2.73981	0.910385	3.07894		
0.750969	2.52984	0.587865	1.98065	0.354932	2.77785	0.8066	2.72249	0.912589	3.07931			0.688981	2.32133	0.810689	2.7376	0.911995	3.07469		
0.752732	2.52785	0.589765	1.98084	0.352861	2.78192	0.808884	2.72164	0.914328	3.07551			0.690833	2.32029	0.812586	2.7354	0.913611	3.07049		
0.754492	2.52586	0.591664	1.98102	0.350806	2.78619	0.811172	2.72081	0.916068	3.07173			0.692687	2.31926	0.81448	2.73321	0.915232	3.06634		
0.75625	2.52387	0.593563	1.98119	0.348771	2.79068	0.813464	2.71999	0.917807	3.06798			0.694543	2.31824	0.816373	2.73102	0.916859	3.06223		
0.758006	2.52189	0.595461	1.98137	0.346756	2.79539	0.815759	2.7192	0.919546	3.06425			0.6964	2.31723	0.818263	2.72884	0.918493	3.05817		
0.759759	2.51991	0.597358	1.98154	0.344761	2.80034	0.818057	2.71842	0.921285	3.06054			0.698259	2.31624	0.820151	2.72666	0.920132	3.05416		
0.761511	2.51794	0.599254	1.9817	0.342788	2.80554	0.820359	2.71765	0.923023	3.05685			0.70012	2.31526	0.822037	2.72449	0.921778	3.05019		
0.76326	2.51597	0.60115	1.98187	0.340837	2.81102	0.822665	2.7169	0.924762	3.05319			0.701983	2.31428	0.823921	2.72233	0.923429	3.04626		
0.765008	2.51401	0.603045	1.98203	0.33891	2.81677	0.824973	2.71617	0.926501	3.04955			0.703847	2.31332	0.825802	2.72017	0.925086	3.04237		
0.766754	2.51206	0.60494	1.98218	0.337008	2.82282	0.827284	2.71545	0.928239	3.04593			0.705713	2.31238	0.827681	2.71802	0.926749	3.03853		
0.768499	2.51011	0.606834	1.98234	0.335132	2.82918	0.829599	2.71474	0.929977	3.04233			0.70758	2.31144	0.829557	2.71587	0.928418	3.03473		
0.770242	2.50817	0.608727	1.98249	0.333282	2.83587	0.831916	2.71405	0.931715	3.03876			0.70945	2.31051	0.831432	2.71373	0.930093	3.03098		
0.771984	2.50624	0.610619	1.98263	0.33146	2.8429	0.834235	2.71337	0.933453	3.0352			0.711321	2.3096	0.833303	2.7116	0.931773	3.02726		
0.773725	2.50432	0.612511	1.98278	0.329666	2.85029	0.836557	2.7127	0.935191	3.03167			0.713193	2.3087	0.835173	2.70946	0.93346	3.02359		
0.775465	2.5024	0.614402	1.98292	0.327902	2.85806	0.838882	2.71205	0.936929	3.02816			0.715068	2.3078	0.83704	2.70734	0.935152	3.01996		
0.777203	2.5005	0.616293	1.98306	0.326168	2.86623	0.841208	2.7114	0.938666	3.02467			0.716944	2.30692	0.838905	2.70522	0.93685	3.01637		
0.778941	2.4986	0.618183	1.98319	0.324465	2.8748	0.843537	2.71077	0.940404	3.02119			0.718821	2.30605	0.840767	2.7031	0.938554	3.01281		
0.780678	2.49671	0.620072	1.98333	0.322794	2.8838	0.845868	2.71014	0.942141	3.01774			0.7207	2.30519	0.842627	2.70099	0.940263	3.0093		
0.782413	2.49482	0.621961	1.98346	0.321156	2.89325	0.848201	2.70953	0.943878	3.01431			0.722581	2.30434	0.844484	2.69888	0.941979	3.00583		
0.784149	2.49295	0.623849	1.98359	0.31955	2.90315	0.850536	2.70893	0.945615	3.0109			0.724464	2.30349	0.846339	2.69678	0.9437	3.00239		
0.785883	2.49109	0.625737	1.98371	0.317978	2.91353	0.852872	2.70833	0.947352	3.00751			0.726348	2.30266	0.848192	2.69469	0.945426	2.999		
0.787617	2.48923	0.627624	1.98383	0.31644	2.9244	0.855211	2.70775	0.949088	3.00413			0.728233	2.30184	0.850042	2.69259	0.947158	2.99564		
0.789351	2.48739	0.62951	1.98395	0.314937	2.93578	0.857551	2.70717	0.950825	3.00078			0.730121	2.30103	0.851889	2.6905	0.948896	2.99232		
0.791084	2.48555	0.631396	1.98407	0.313467	2.94769	0.859892	2.7066	0.952561	2.99745			0.73201	2.30023	0.853735	2.68842	0.950639	2.98903		
0.792816	2.48372	0.633281	1.98419	0.312032	2.96013	0.862235	2.70604	0.954297	2.99413			0.7339	2.29944	0.855577	2.68634	0.952388	2.98578		
0.794549	2.48191	0.635166	1.9843	0.310632	2.97312	0.864579	2.70548	0.956034	2.99084			0.735792	2.29866	0.857418	2.68427	0.954143	2.98257		
0.796281	2.4801	0.63705	1.98441	0.309266	2.98668	0.866925	2.70494	0.95777	2.98756			0.737686	2.29788	0.859255	2.6822	0.955903	2.9794		
0.798013	2.4783	0.638934	1.98452	0.307935	3.00083	0.869271	2.7044	0.959505	2.9843			0.739581	2.29712	0.861091	2.68013	0.957668	2.97626		
0.799745	2.47651	0.640817	1.98462	0.306637	3.01556	0.871619	2.70386	0.961241	2.98106			0.741478	2.29637	0.862924	2.67807	0.959439	2.97315		
0.801476	2.47474	0.642699	1.98473	0.305374	3.03091	0.873968	2.70334	0.962977	2.97784			0.743376	2.29562	0.864754	2.67602	0.961215	2.97008		
0.803208	2.47297	0.644581	1.98483	0.304144	3.04688	0.876317	2.70282	0.964713	2.97464			0.745276	2.29489	0.866583	2.67396	0.962996	2.96704		
0.80494	2.47121	0.646462	1.98493	0.302947	3.06348	0.878668	2.7023	0.966448	2.97145			0.747177	2.29416	0.868408	2.67192	0.964783	2.96404		
0.806672	2.46947	0.648343	1.98502	0.301783	3.08073	0.881019	2.70179	0.968184	2.96829			0.74908	2.29344	0.870232	2.66987	0.966574	2.96107		
0.808404	2.46773	0.650224	1.98512	0.300651	3.09864	0.883371	2.70128	0.96992	2.96514			0.750984	2.29273	0.872053	2.66783	0.968371	2.95813		
0.810136	2.466	0.652103	1.98521	0.29955	3.11724	0.885724	2.70078	0.971655	2.96201			0.75289	2.29203	0.873872	2.6658	0.970174	2.95522		
0.811868	2.46429	0.653983	1.9853	0.298481	3.13652	0.888077	2.70029	0.973391	2.95889			0.754797	2.29134	0.875688	2.66377	0.971981	2.95235		
0.813601	2.46258	0.655862	1.98539	0.297442	3.1565	0.890431	2.6998	0.975127	2.9558			0.756706	2.29065	0.877502	2.66174	0.973793	2.94951		
0.815333	2.46089	0.65774	1.98547	0.296433	3.17721	0.892785	2.69931	0.976862	2.95272			0.758616	2.28998	0.879314	2.65972	0.97561	2.9467		
0.817067	2.4592	0.659618	1.98556	0.295453	3.19865	0.89514	2.69883	0.978598	2.94966			0.760528	2.28931	0.881123	2.65771	0.977433	2.94391		
0.8188	2.45753	0.661495	1.98564	0.294502	3.22084	0.897494	2.69835	0.980334	2.94662			0.762441	2.28865	0.88293	2.65569	0.97926	2.94116		
0.820534	2.45587	0.663372	1.98572	0.293579	3.24381	0.899849	2.69787	0.98207	2.94359			0.764355	2.288	0.884735	2.65369	0.981092	2.93844		
0.822269	2.45421	0.665249	1.9858	0.292684	3.26755	0.902205	2.6974	0.983807	2.94059			0.766271	2.28735	0.886538	2.65168	0.982929	2.93575		
0.824003	2.45257	0.667125	1.98588	0.291816	3.2921	0.90456	2.69692	0.985543	2.9376			0.768189	2.28672	0.888338	2.64968	0.98477	2.93309		
0.825739	2.45094	0.669	1.98595	0.290974	3.31748	0.906915	2.69646	0.98728	2.93462			0.770108	2.28609	0.890137	2.64769	0.986616	2.93046		
0.827475	2.44932	0.670875	1.98602	0.290159	3.3437	0.90927	2.69599	0.989017	2.93167			0.772028	2.28547	0.891933	2.6457	0.988467	2.92785		
0.829211	2.44771	0.67275	1.9861	0.289368	3.37078	0.911626	2.69553	0.990755	2.92873			0.773949	2.28485	0.893727	2.64372	0.990323	2.92528		
0.830948	2.44611	0.674624	1.98617	0.288603	3.39875	0.913981	2.69507	0.992493	2.92581			0.775872	2.28425	0.895518	2.64174	0.992183	2.92273		
0.832686	2.44452	0.676498	1.98623	0.287862	3.42763	0.916335	2.69461	0.994231	2.9229			0.777797	2.28365	0.897308	2.63976	0.994047	2.92021		
0.834424	2.44294	0.678371	1.9863	0.287145	3.45745	0.91869	2.69415	0.995969	2.92002			0.779723	2.28306	0.899096	2.63779	0.995916	2.91771		
0.836163	2.44137	0.680244	1.98637	0.286451	3.48823	0.921044	2.69369	0.997708	2.91715			0.78165	2.28247	0.900881	2.63582	0.997789	2.91524		
0.837903	2.43982	0.682116	1.98643	0.285781	3.52	0.923397	2.69324	0.999448	2.9143			0.783578	2.2819	0.902665	2.63386	0.999667	2.9128		
0.839643	2.43827	0.683988	1.98649	0.285133	3.55279	0.92575	2.69278	1.00119	2.91146			0.785508	2.28133	0.904447	2.6319	1.00155	2.91038		
0.841385	2.43673	0.68586	1.98655	0.284507	3.58664	0.928103	2.69233					0.787439	2.28076	0.906226	2.62995				
0.843127	2.43521	0.687731	1.98661	0.283904	3.62156	0.930455	2.69188					0.789371	2.28021	0.908004	2.62801				
0.844869	2.43369	0.689602	1.98667	0.283321	3.6576	0.932806	2.69142					0.791305	2.27966	0.90978	2.62607				
0.846613	2.43219	0.691473	1.98672	0.28276	3.6948	0.935156	2.69097					0.79324	2.27912	0.911554	2.62413				
0.848357	2.43069	0.693343	1.98678	0.282219	3.73318	0.937505	2.69052					0.795176	2.27858	0.913326	2.6222				
0.850102	2.42921	0.695212	1.98683	0.281699	3.7728	0.939854	2.69006					0.797114	2.27805	0.915097	2.62027				
0.851849	2.42773	0.697082	1.98688	0.281199	3.81369	0.942201	2.68961					0.799053	2.27753	0.916865	2.61835				
0.853595	2.42627	0.698951	1.98693	0.280719	3.8559	0.944548	2.68916					0.800993	2.27701	0.918632	2.61644				
0.855343	2.42481	0.700819	1.98698	0.280258	3.89947	0.946893	2.6887					0.802934	2.2765	0.920398	2.61452				
0.857092	2.42337	0.702687	1.98703	0.279817	3.94447	0.949237	2.68825					0.804877	2.27599	0.922161	2.61262				
0.858842	2.42194	0.704555	1.98708	0.279394	3.99092	0.95158	2.68779					0.806821	2.2755	0.923923	2.61072				
0.860592	2.42052	0.706423	1.98712	0.27899	4.03891	0.953921	2.68733					0.808766	2.275	0.925683	2.60883				
0.862344	2.4191	0.70829	1.98717	0.278605	4.08847	0.956261	2.68687					0.810712	2.27452	0.927442	2.60694				
0.864097	2.4177	0.710157	1.98721	0.278237	4.13968	0.958599	2.68641					0.81266	2.27404	0.929199	2.60505				
0.86585	2.41631	0.712023	1.98725	0.277888	4.1926	0.960936	2.68594					0.814608	2.27356	0.930955	2.60318				
0.867605	2.41492	0.71389	1.98729	0.277556	4.2473	0.963271	2.68547					0.816558	2.27309	0.932709	2.60131				
0.86936	2.41355	0.715756	1.98733	0.277242	4.30385	0.965604	2.68501					0.818509	2.27263	0.934462	2.59944				
0.871117	2.41219	0.717621	1.98737	0.276944	4.36233	0.967935	2.68453					0.820461	2.27217	0.936213	2.59758				
0.872874	2.41084	0.719486	1.98741	0.276664	4.42282	0.970264	2.68406					0.822415	2.27172	0.937963	2.59572				
0.874633	2.40949	0.721351	1.98745	0.276401	4.48541	0.972592	2.68358					0.824369	2.27127	0.939712	2.59388				
0.876392	2.40816	0.723216	1.98748	0.276154	4.5502	0.974917	2.6831					0.826325	2.27083	0.941459	2.59203				
0.878153	2.40684	0.72508	1.98752	0.275923	4.61728	0.97724	2.68261					0.828281	2.2704	0.943206	2.5902				
0.879915	2.40552	0.726944	1.98755	0.275708	4.68676	0.979561	2.68212					0.830239	2.26997	0.944951	2.58837				
0.881678	2.40422	0.728808	1.98758	0.275509	4.75874	0.981879	2.68163					0.832198	2.26954	0.946694	2.58654				
0.883442	2.40292	0.730672	1.98761	0.275326	4.83336	0.984194	2.68113					0.834158	2.26912	0.948437	2.58472				
0.885207	2.40164	0.732535	1.98765	0.275157	4.91073	0.986508	2.68063					0.836119	2.26871	0.950178	2.58291				
0.886973	2.40036	0.734398	1.98768	0.275004	4.99098	0.988818	2.68012					0.838082	2.2683	0.951919	2.5811				
0.88874	2.39909	0.73626	1.9877	0.274866	5.07428	0.991125	2.67961					0.840045	2.26789	0.953658	2.5793				
0.890508	2.39784	0.738123	1.98773	0.274743	5.16076	0.99343	2.67909					0.842009	2.26749	0.955396	2.57751				
0.892278	2.39659	0.739985	1.98776	0.274633	5.2506	0.995732	2.67857					0.843975	2.26709	0.957133	2.57572				
0.894048	2.39535	0.741847	1.98779	0.274538	5.34397	0.99803	2.67804					0.845941	2.2667	0.95887	2.57394				
0.89582	2.39412	0.743708	1.98781	0.274457	5.44107	1.00033	2.6775					0.847909	2.26632	0.960605	2.57217				
0.897593	2.3929	0.74557	1.98784	0.274389	5.5421							0.849877	2.26594	0.96234	2.5704				
0.899367	2.39169	0.747431	1.98786	0.274335	5.64727							0.851847	2.26556	0.964073	2.56864				
0.901142	2.39049	0.749292	1.98788	0.274294	5.75683							0.853817	2.26519	0.965806	2.56688				
0.902918	2.38929	0.751153	1.98791	0.274265	5.87104							0.855789	2.26482	0.967538	2.56513				
0.904695	2.38811	0.753013	1.98793	0.274249	5.99017							0.857761	2.26446	0.969269	2.56339				
0.906474	2.38693	0.754873	1.98795	0.274246	6.11451							0.859735	2.2641	0.971	2.56166				
0.908253	2.38577	0.756733	1.98797	0.274254	6.24441							0.861709	2.26374	0.97273	2.55993				
0.910034	2.38461	0.758593	1.98799	0.274273	6.3802							0.863685	2.26339	0.974459	2.55821				
0.911816	2.38346	0.760453	1.98801	0.274304	6.52227							0.865661	2.26305	0.976187	2.55649				
0.9136	2.38232	0.762312	1.98803	0.274346	6.67105							0.867638	2.26271	0.977915	2.55478				
0.915384	2.38119	0.764171	1.98805	0.274398	6.82699							0.869617	2.26237	0.979642	2.55308				
0.917169	2.38006	0.76603	1.98806	0.274452	6.96911							0.871596	2.26203	0.981369	2.55138				
0.918956	2.37895	0.767889	1.98808	0.274504	7.09512							0.873576	2.2617	0.983095	2.5497				
0.920744	2.37784	0.769747	1.9881	0.274551	7.20288							0.875557	2.26138	0.984821	2.54802				
0.922533	2.37674	0.771606	1.98811	0.27459	7.29047							0.877539	2.26106	0.986546	2.54634				
0.924323	2.37565	0.773464	1.98813	0.27462	7.35627							0.879522	2.26074	0.988271	2.54467				
0.926115	2.37457	0.775322	1.98814	0.27465	7.41788							0.881506	2.26042	0.989995	2.54301				
0.927907	2.3735	0.77718	1.98816	0.27467	7.46135							0.883491	2.26011	0.991719	2.54136				
0.929701	2.37243	0.779037	1.98817	0.274704	7.53033							0.885476	2.25981	0.993443	2.53971				
0.931496	2.37137	0.780895	1.98818	0.274751	7.62623							0.887463	2.2595	0.995166	2.53807				
0.933292	2.37032	0.782752	1.98819	0.274813	7.75109							0.88945	2.2592	0.996889	2.53644				
0.93509	2.36928	0.784609	1.98821	0.274893	7.9077							0.891438	2.25891	0.998612	2.53481				
0.936888	2.36825	0.786466	1.98822	0.274992	8.09972							0.893427	2.25862	1.00033	2.5332				
0.938688	2.36722	0.788323	1.98823	0.275112	8.33192							0.895417	2.25833						
0.940489	2.36621	0.790179	1.98824	0.275239	8.57781							0.897407	2.25804						
0.942291	2.3652	0.792036	1.98825	0.275373	8.83862							0.899399	2.25776						
0.944095	2.36419	0.793892	1.98826	0.275513	9.11571							0.901391	2.25748						
0.945899	2.3632	0.795748	1.98827	0.275658	9.41061							0.903384	2.25721						
0.947705	2.36221	0.797604	1.98828	0.275808	9.72505							0.905378	2.25693						
0.949512	2.36123	0.79946	1.98829	0.275963	10.061							0.907373	2.25667						
0.95132	2.36026	0.801316	1.98829	0.276121	10.4208							0.909368	2.2564						
0.953129	2.35929	0.803172	1.9883	0.276283	10.8069							0.911365	2.25614						
0.954939	2.35834	0.805027	1.98831	0.276447	11.2222							0.913362	2.25588						
0.956751	2.35739	0.806882	1.98832	0.276613	11.6704							0.915359	2.25562						
0.958564	2.35644	0.808738	1.98832	0.27678	12.1553							0.917358	2.25537						
0.960378	2.35551	0.810593	1.98833	0.276949	12.6815							0.919357	2.25512						
0.962193	2.35458	0.812448	1.98834	0.277117	13.2547							0.921357	2.25487						
0.964009	2.35366	0.814303	1.98834	0.277285	13.8814							0.923358	2.25463						
0.965827	2.35274	0.816157	1.98835	0.277451	14.5692							0.925359	2.25438						
0.967646	2.35184	0.818012	1.98835	0.277615	15.3278							0.927362	2.25415						
0.969466	2.35094	0.819866	1.98836	0.277777	16.1684							0.929365	2.25391						
0.971287	2.35004	0.821721	1.98836	0.277936	17.1053							0.931368	2.25368						
0.973109	2.34916	0.823575	1.98837	0.27809	18.1558							0.933373	2.25345						
0.974932	2.34828	0.825429	1.98837	0.27824	19.3421							0.935378	2.25322						
0.976757	2.3474	0.827283	1.98837	0.278384	20.6924							0.937383	2.25299						
0.978583	2.34654	0.829137	1.98838	0.278522	22.2431							0.93939	2.25277						
0.98041	2.34568	0.830991	1.98838	0.278654	24.0425							0.941397	2.25255						
0.982238	2.34482	0.832845	1.98838	0.278778	26.1558							0.943405	2.25234						
0.984067	2.34398	0.834699	1.98839	0.278894	28.6731							0.945413	2.25212						
0.985897	2.34314	0.836552	1.98839	0.279002	31.7228							0.947422	2.25191						
0.987729	2.3423	0.838406	1.98839	0.2791	35.494							0.949432	2.2517						
0.989562	2.34148	0.840259	1.98839	0.279189	40.2777							0.951443	2.25149						
0.991396	2.34066	0.842113	1.98839	0.279267	46.5453							0.953454	2.25129						
0.993231	2.33984	0.843966	1.9884	0.279335	55.1152							0.955465	2.25109						
0.995067	2.33903	0.845819	1.9884	0.279393	67.5431							0.957478	2.25089						
0.996904	2.33823	0.847672	1.9884	0.279439	87.1933							0.95949	2.25069						
0.998743	2.33743	0.849525	1.9884	0.279473	122.947							0.961504	2.25049						
1.00058	2.33665	0.851378	1.9884	0.279496	208.357							0.963518	2.2503						
		0.853231	1.9884	0.279507	682.17							0.965533	2.25011						
		0.855084	1.9884									0.967548	2.24992						
		0.856937	1.9884									0.969564	2.24974						
		0.858789	1.9884									0.971581	2.24955						
		0.860642	1.9884									0.973598	2.24937						
		0.862495	1.9884									0.975616	2.24919						
		0.864347	1.9884									0.977634	2.24901						
		0.866199	1.9884									0.979653	2.24884						
		0.868052	1.9884									0.981672	2.24866						
		0.869904	1.9884									0.983692	2.24849						
		0.871756	1.9884									0.985713	2.24832						
		0.873609	1.9884									0.987734	2.24815						
		0.875461	1.9884									0.989755	2.24799						
		0.877313	1.9884									0.991778	2.24782						
		0.879165	1.9884									0.9938	2.24766						
		0.881017	1.98839									0.995823	2.2475						
		0.882869	1.98839									0.997847	2.24734						
		0.884721	1.98839									0.999871	2.24719						
		0.886573	1.98839									1.0019	2.24703						
		0.888425	1.98839																
		0.890276	1.98839																
		0.892128	1.98838																
		0.89398	1.98838																
		0.895831	1.98838																
		0.897683	1.98838																
		0.899535	1.98838																
		0.901386	1.98837																
		0.903238	1.98837																
		0.905089	1.98837																
		0.906941	1.98837																
		0.908792	1.98836																
		0.910643	1.98836																
		0.912495	1.98836																
		0.914346	1.98836																
		0.916198	1.98835																
		0.918049	1.98835																
		0.9199	1.98835																
		0.921751	1.98835																
		0.923603	1.98834																
		0.925454	1.98834																
		0.927305	1.98834																
		0.929156	1.98833																
		0.931007	1.98833																
		0.932858	1.98833																
		0.93471	1.98833																
		0.936561	1.98832																
		0.938412	1.98832																
		0.940263	1.98832																
		0.942114	1.98831																
		0.943965	1.98831																
		0.945816	1.98831																
		0.947667	1.9883																
		0.949518	1.9883																
		0.951369	1.9883																
		0.95322	1.9883																
		0.955071	1.98829																
		0.956922	1.98829																
		0.958773	1.98829																
		0.960624	1.98828																
		0.962475	1.98828																
		0.964326	1.98828																
		0.966177	1.98827																
		0.968028	1.98827																
		0.969879	1.98827																
		0.97173	1.98826																
		0.97358	1.98826																
		0.975431	1.98826																
		0.977282	1.98825																
		0.979133	1.98825																
		0.980984	1.98825																
		0.982835	1.98825																
		0.984686	1.98824																
		0.986537	1.98824																
		0.988388	1.98824																
		0.990239	1.98823																
		0.99209	1.98823																
		0.993941	1.98823																
		0.995791	1.98822																
		0.997642	1.98822																
		0.999493	1.98822																
		1.00134	1.98822																
