Sym0		Asym0		Sym1		Sym2		Sym3		Sym4		Asym1		Asym2		Asym3		Asym4	
466  Points		546  Points		465  Points		408  Points		374  Points		287  Points		484  Points		430  Points		375  Points		288  Points	
Freq (MHz)	Vph (m/ms)	Freq (MHz)	Vph (m/ms)	Freq (MHz)	Vph (m/ms)	Freq (MHz)	Vph (m/ms)	Freq (MHz)	Vph (m/ms)	Freq (MHz)	Vph (m/ms)	Freq (MHz)	Vph (m/ms)	Freq (MHz)	Vph (m/ms)	Freq (MHz)	Vph (m/ms)	Freq (MHz)	Vph (m/ms)
0.279507	597.764	2.45017e-005	0.0304748	1.00017	2.33682	0.341596	3445.12	0.559019	819.295	0.838527	928.281	0.139758	472.533	0.419266	504.69	0.68319	891.237	0.698771	6119.91
0.279495	199.742	0.000114235	0.0658154	0.998328	2.33761	0.341617	331.394	0.559029	346.36	0.838533	456.964	0.139811	113.903	0.419276	237.896	0.683181	402.283	0.698785	668.134
0.279472	119.895	0.000269486	0.10103	0.99649	2.33841	0.341673	174.097	0.559046	219.603	0.838542	303.084	0.139931	64.8082	0.419294	155.633	0.683165	259.763	0.69882	353.373
0.279436	85.6464	0.000489853	0.136105	0.994653	2.33921	0.341764	118.084	0.559071	160.773	0.838555	226.735	0.140115	45.3323	0.41932	115.648	0.683143	191.805	0.698877	240.225
0.279389	66.6106	0.000774667	0.170979	0.992817	2.34002	0.341889	89.3608	0.559104	126.807	0.838571	181.113	0.140365	34.8946	0.419354	92.0136	0.683115	152.028	0.698955	181.974
0.279332	54.4924	0.00112328	0.205635	0.990982	2.34084	0.342048	71.8946	0.559145	104.693	0.838591	150.777	0.140678	28.3956	0.419395	76.4034	0.68308	125.912	0.699054	146.471
0.279263	46.1	0.00153465	0.240007	0.989148	2.34166	0.342241	60.1549	0.559194	89.1502	0.838615	129.147	0.141055	23.9648	0.419443	65.3246	0.68304	107.451	0.699174	122.569
0.279183	39.9435	0.00200767	0.274053	0.987316	2.34249	0.342467	51.7243	0.55925	77.6285	0.838643	112.946	0.141494	20.7542	0.419499	57.0545	0.682995	93.7095	0.699314	105.381
0.279094	35.2341	0.00254123	0.307746	0.985484	2.34333	0.342727	45.378	0.559314	68.7466	0.838674	100.357	0.141994	18.3234	0.419563	50.6456	0.682945	83.0821	0.699474	92.4284
0.278995	31.5148	0.00313387	0.341037	0.983654	2.34417	0.34302	40.4295	0.559386	61.6909	0.838709	90.2948	0.142554	16.4213	0.419635	45.5333	0.682891	74.6181	0.699653	82.3176
0.278887	28.5028	0.00378425	0.373902	0.981825	2.34502	0.343345	36.4636	0.559466	55.9507	0.838748	82.0672	0.143172	14.8941	0.419714	41.3605	0.682833	67.7178	0.699852	74.2066
0.27877	26.0138	0.00449084	0.406313	0.979997	2.34587	0.343701	33.2149	0.559554	51.1898	0.838791	75.2147	0.143847	13.6421	0.4198	37.8902	0.682772	61.9845	0.700069	67.5558
0.278646	23.9224	0.005252	0.438239	0.978171	2.34673	0.344089	30.5057	0.559649	47.1774	0.838837	69.4192	0.144578	12.5982	0.419895	34.9589	0.682709	57.1452	0.700303	62.0038
0.278514	22.1401	0.00606609	0.469656	0.976345	2.3476	0.344507	28.2124	0.559752	43.75	0.838887	64.4537	0.145362	11.7154	0.419997	32.4503	0.682643	53.006	0.700555	57.2995
0.278375	20.6031	0.00693142	0.500546	0.974521	2.34847	0.344955	26.2466	0.559863	40.7884	0.83894	60.1519	0.146199	10.9598	0.420106	30.2791	0.682575	49.4251	0.700824	53.2626
0.278231	19.264	0.00784629	0.530893	0.972698	2.34935	0.345433	24.543	0.559982	38.2039	0.838998	56.389	0.147085	10.3065	0.420223	28.3817	0.682507	46.2968	0.70111	49.7608
0.278081	18.0869	0.00880892	0.560681	0.970876	2.35024	0.345939	23.0529	0.560109	35.9287	0.839059	53.07	0.148021	9.73636	0.420348	26.7094	0.682437	43.5403	0.701411	46.6944
0.277926	17.044	0.00981766	0.589904	0.969055	2.35114	0.346472	21.7388	0.560243	33.9107	0.839124	50.1205	0.149003	9.23502	0.420481	25.2245	0.682368	41.0932	0.701727	43.9872
0.277767	16.1136	0.0108706	0.618543	0.967235	2.35204	0.347034	20.5715	0.560386	32.1086	0.839192	47.4822	0.15003	8.79105	0.420621	23.8972	0.682298	38.9061	0.702058	41.5796
0.277605	15.2784	0.0119662	0.646604	0.965417	2.35295	0.347621	19.5278	0.560536	30.4895	0.839264	45.1084	0.151101	8.39546	0.420769	22.7038	0.68223	36.9397	0.702404	39.4246
0.277441	14.5246	0.0131026	0.674075	0.9636	2.35386	0.348235	18.5893	0.560694	29.0271	0.83934	42.9611	0.152068	8.08449	0.420924	21.6251	0.682162	35.1622	0.702763	37.4846
0.277274	13.8407	0.0142782	0.700957	0.961783	2.35479	0.348873	17.741	0.560859	27.6996	0.83942	41.0095	0.152917	7.84109	0.421088	20.6453	0.682097	33.5477	0.703136	35.7289
0.277106	13.2176	0.0154914	0.727252	0.959969	2.35572	0.349536	16.9707	0.561033	26.4893	0.839503	39.228	0.153635	7.65331	0.421259	19.7514	0.682032	32.0747	0.703523	34.1326
0.276938	12.6476	0.0167406	0.752963	0.958155	2.35666	0.350223	16.2681	0.561214	25.3813	0.83959	37.5953	0.154213	7.51273	0.421437	18.9327	0.681971	30.7256	0.703922	32.6749
0.27677	12.124	0.0180242	0.778089	0.956342	2.3576	0.350933	15.6249	0.561403	24.3633	0.839681	36.0936	0.154643	7.41353	0.421624	18.1802	0.681911	29.4852	0.704333	31.3387
0.276602	11.6415	0.0193407	0.802639	0.954531	2.35855	0.351665	15.0339	0.5616	23.4247	0.839776	34.7077	0.154921	7.3518	0.421818	17.486	0.681855	28.341	0.704756	30.1094
0.276436	11.1955	0.0206887	0.826619	0.952721	2.35951	0.352419	14.489	0.561805	22.5567	0.839874	33.4247	0.155324	7.26537	0.422019	16.8438	0.681801	27.2823	0.705192	28.9746
0.276272	10.7821	0.0220667	0.850033	0.950912	2.36048	0.353194	13.9852	0.562018	21.7515	0.839976	32.2335	0.155766	7.17439	0.422229	16.248	0.681751	26.2998	0.705638	27.924
0.276111	10.3977	0.0234734	0.872896	0.949104	2.36145	0.35399	13.518	0.562238	21.0027	0.840082	31.1248	0.156375	7.05537	0.422446	15.6937	0.681704	25.3856	0.706096	26.9485
0.275953	10.0395	0.0249076	0.89521	0.947297	2.36243	0.354806	13.0836	0.562467	20.3046	0.840191	30.0902	0.157156	6.91214	0.422671	15.1768	0.681662	24.5328	0.706565	26.0405
0.275799	9.70492	0.0263679	0.916989	0.945492	2.36342	0.355641	12.6788	0.562703	19.6521	0.840305	29.1225	0.158118	6.749	0.422904	14.6936	0.681623	23.7355	0.707044	25.1931
0.275649	9.39174	0.0278532	0.938243	0.943688	2.36442	0.356495	12.3007	0.562947	19.0411	0.840422	28.2155	0.159269	6.57043	0.423145	14.2409	0.681588	22.9885	0.707534	24.4005
0.275504	9.098	0.0293623	0.958981	0.941885	2.36542	0.357367	11.9467	0.563199	18.4676	0.840543	27.3636	0.160619	6.38086	0.423393	13.8161	0.681558	22.2871	0.708035	23.6576
0.275365	8.82197	0.0308942	0.979215	0.940083	2.36643	0.358257	11.6147	0.563458	17.9284	0.840667	26.562	0.161998	6.20596	0.423649	13.4165	0.681533	21.6274	0.708545	22.9599
0.275231	8.56212	0.0324478	0.998958	0.938282	2.36745	0.359164	11.3027	0.563726	17.4205	0.840795	25.8064	0.163406	6.04416	0.423913	13.0401	0.681512	21.0057	0.709065	22.3034
0.275104	8.31711	0.034022	1.01822	0.936483	2.36848	0.360088	11.009	0.564001	16.9412	0.840928	25.0929	0.164841	5.89411	0.424185	12.6849	0.681496	20.4188	0.709595	21.6846
0.274984	8.08573	0.0356161	1.03701	0.934684	2.36952	0.361027	10.732	0.564284	16.4883	0.841063	24.4181	0.166302	5.75463	0.424465	12.3492	0.681485	19.864	0.710134	21.1003
0.274872	7.8669	0.037229	1.05534	0.932887	2.37056	0.361983	10.4704	0.564575	16.0596	0.841203	23.7789	0.167787	5.62468	0.424752	12.0315	0.68148	19.3386	0.710683	20.5478
0.274767	7.65966	0.0388599	1.07323	0.931091	2.37161	0.362954	10.223	0.564874	15.6532	0.841347	23.1727	0.169296	5.50337	0.425048	11.7303	0.681479	18.8405	0.711241	20.0245
0.274671	7.46314	0.040508	1.09068	0.929297	2.37267	0.363939	9.98865	0.565181	15.2676	0.841494	22.5969	0.170827	5.38989	0.425351	11.4444	0.681484	18.3675	0.711808	19.5282
0.274584	7.27656	0.0421725	1.10771	0.927503	2.37374	0.364939	9.76636	0.565496	14.901	0.841645	22.0493	0.172379	5.28355	0.425663	11.1727	0.681494	17.9179	0.712384	19.0569
0.274505	7.0992	0.0438526	1.12432	0.925711	2.37481	0.365953	9.55524	0.565818	14.5523	0.8418	21.5279	0.173952	5.18372	0.425982	10.9141	0.68151	17.4898	0.712969	18.6087
0.274437	6.93043	0.0455476	1.14054	0.923919	2.3759	0.36698	9.3545	0.566148	14.22	0.841958	21.0308	0.175544	5.08985	0.426309	10.6679	0.681532	17.082	0.713563	18.1821
0.274378	6.76967	0.047257	1.15637	0.92213	2.37699	0.368021	9.1634	0.566487	13.9032	0.842121	20.5565	0.177154	5.00144	0.426644	10.433	0.681559	16.6928	0.714165	17.7754
0.274329	6.61638	0.04898	1.17181	0.920341	2.37809	0.369074	8.98128	0.566833	13.6006	0.842287	20.1033	0.178782	4.91804	0.426987	10.2088	0.681592	16.3212	0.714776	17.3874
0.274292	6.47008	0.0507161	1.18689	0.918553	2.3792	0.37014	8.80753	0.567187	13.3116	0.842457	19.67	0.180427	4.83926	0.427338	9.99457	0.68163	15.9659	0.715395	17.0168
0.274265	6.33032	0.0524645	1.20161	0.916767	2.38032	0.371218	8.6416	0.567549	13.035	0.842631	19.2552	0.182088	4.76474	0.427697	9.78965	0.681675	15.626	0.716023	16.6625
0.274249	6.19671	0.054225	1.21598	0.914981	2.38144	0.372308	8.48298	0.567918	12.7703	0.842808	18.8577	0.183764	4.69415	0.428064	9.59346	0.681726	15.3003	0.716659	16.3234
0.274246	6.06886	0.0559967	1.23001	0.913197	2.38257	0.373409	8.33121	0.568296	12.5165	0.84299	18.4766	0.185455	4.62722	0.428439	9.40548	0.681782	14.9882	0.717303	15.9985
0.274254	5.94644	0.0577795	1.24372	0.911414	2.38372	0.374521	8.18586	0.568682	12.2732	0.843175	18.1108	0.187159	4.56366	0.428822	9.2252	0.681845	14.6887	0.717955	15.6871
0.274274	5.82913	0.0595726	1.2571	0.909633	2.38487	0.375499	8.06414	0.569075	12.0396	0.843364	17.7595	0.188877	4.50324	0.429214	9.05218	0.681914	14.4012	0.718615	15.3882
0.274307	5.71664	0.0613756	1.27018	0.907852	2.38603	0.37634	7.96381	0.569476	11.8152	0.843557	17.4218	0.190607	4.44574	0.429613	8.88599	0.681988	14.1248	0.719282	15.1013
0.274353	5.60869	0.0631882	1.28295	0.906073	2.3872	0.377039	7.88313	0.569886	11.5994	0.843754	17.0968	0.19235	4.39095	0.43002	8.72626	0.68207	13.8591	0.719958	14.8254
0.274412	5.50505	0.0650099	1.29544	0.904294	2.38838	0.377594	7.82074	0.570303	11.3919	0.843955	16.784	0.194104	4.33871	0.430436	8.57261	0.682157	13.6033	0.720642	14.5602
0.274485	5.40547	0.0668404	1.30763	0.902517	2.38956	0.378004	7.77564	0.570728	11.1921	0.844159	16.4827	0.195868	4.28884	0.430859	8.42472	0.68225	13.357	0.721333	14.3049
0.274571	5.30974	0.0686793	1.31956	0.900741	2.39076	0.378267	7.74712	0.571161	10.9996	0.844367	16.1922	0.197644	4.24119	0.431291	8.28228	0.68235	13.1196	0.722032	14.059
0.274671	5.21767	0.0705262	1.33121	0.898966	2.39196	0.378646	7.70656	0.571602	10.8141	0.84458	15.912	0.199429	4.19561	0.431674	8.16237	0.682456	12.8908	0.722738	13.822
0.274786	5.12907	0.0723808	1.34261	0.897193	2.39318	0.379059	7.66307	0.572051	10.6351	0.844796	15.6415	0.201223	4.15198	0.432005	8.06311	0.682569	12.6699	0.723452	13.5934
0.274915	5.04376	0.0742427	1.35375	0.89542	2.3944	0.379623	7.6049	0.572507	10.4624	0.845016	15.3802	0.203027	4.11018	0.432283	7.98302	0.682687	12.4567	0.724173	13.3729
0.275058	4.96158	0.0761118	1.36465	0.893649	2.39563	0.380339	7.53289	0.572972	10.2956	0.84524	15.1278	0.204839	4.0701	0.432504	7.92091	0.682812	12.2507	0.724902	13.1599
0.275217	4.88239	0.0779875	1.3753	0.891878	2.39687	0.381211	7.44804	0.573445	10.1344	0.845467	14.8837	0.20666	4.03164	0.432669	7.87592	0.682944	12.0516	0.725638	12.9542
0.27539	4.80603	0.0798698	1.38573	0.890109	2.39812	0.382239	7.35152	0.573925	9.97858	0.845699	14.6475	0.208488	3.9947	0.432774	7.84743	0.683082	11.8591	0.726382	12.7553
0.275579	4.73238	0.0817583	1.39593	0.888341	2.39938	0.383427	7.24456	0.574414	9.82788	0.845934	14.4189	0.210324	3.9592	0.432927	7.80685	0.683226	11.6728	0.727132	12.5629
0.275784	4.66132	0.0836528	1.40591	0.886574	2.40065	0.384625	7.14147	0.57491	9.68203	0.846174	14.1975	0.212167	3.92505	0.433094	7.76328	0.683377	11.4924	0.72789	12.3768
0.276004	4.59272	0.0855531	1.41568	0.884808	2.40193	0.385831	7.04203	0.575415	9.54082	0.846417	13.983	0.214017	3.89218	0.433322	7.70488	0.683534	11.3177	0.728655	12.1966
0.276241	4.52648	0.0874588	1.42524	0.883044	2.40321	0.387045	6.94608	0.575927	9.40404	0.846664	13.7751	0.215873	3.86053	0.433614	7.6324	0.683697	11.1484	0.729427	12.022
0.276494	4.4625	0.0893698	1.4346	0.88128	2.40451	0.388267	6.85342	0.576447	9.27149	0.846915	13.5734	0.217735	3.83002	0.433971	7.54675	0.683868	10.9843	0.730206	11.8528
0.276764	4.40068	0.0912859	1.44377	0.879517	2.40582	0.389498	6.7639	0.576976	9.14298	0.84717	13.3777	0.219603	3.80059	0.434396	7.44896	0.684044	10.8252	0.730992	11.6888
0.27705	4.34092	0.0932069	1.45274	0.877756	2.40713	0.390735	6.67736	0.577512	9.01833	0.847429	13.1878	0.221477	3.7722	0.434891	7.34018	0.684227	10.6707	0.731785	11.5297
0.277353	4.28315	0.0951326	1.46153	0.875995	2.40846	0.391981	6.59367	0.578056	8.89738	0.847692	13.0034	0.223357	3.74478	0.435395	7.23491	0.684416	10.5208	0.732585	11.3753
0.277674	4.22728	0.0970627	1.47014	0.874236	2.4098	0.393234	6.51267	0.578608	8.77997	0.847959	12.8242	0.225241	3.71829	0.435907	7.13299	0.684612	10.3752	0.733392	11.2255
0.278012	4.17323	0.0989972	1.47858	0.872478	2.41114	0.394494	6.43426	0.579169	8.66595	0.84823	12.65	0.22713	3.69268	0.436427	7.03426	0.684815	10.2338	0.734206	11.0799
0.278368	4.12094	0.100936	1.48684	0.87072	2.4125	0.395761	6.3583	0.579737	8.55519	0.848505	12.4807	0.229024	3.66791	0.436956	6.93858	0.685023	10.0964	0.735026	10.9385
0.278742	4.07034	0.102878	1.49494	0.868964	2.41386	0.397035	6.28469	0.580313	8.44754	0.848783	12.316	0.230922	3.64394	0.437493	6.84583	0.685239	9.96272	0.735853	10.801
0.279134	4.02135	0.104825	1.50288	0.867209	2.41524	0.398315	6.21332	0.580821	8.35619	0.849066	12.1558	0.232824	3.62072	0.438039	6.75587	0.68546	9.83275	0.736687	10.6674
0.279491	3.97994	0.106775	1.51066	0.865454	2.41662	0.399602	6.1441	0.58126	8.28004	0.849353	11.9998	0.23473	3.59823	0.438593	6.66859	0.685689	9.7063	0.737527	10.5374
0.279806	3.94554	0.108729	1.51829	0.863701	2.41802	0.400895	6.07693	0.581626	8.21825	0.849643	11.848	0.23664	3.57643	0.439155	6.58388	0.685923	9.58323	0.738374	10.4109
0.280075	3.91772	0.110686	1.52576	0.861949	2.41942	0.402194	6.01172	0.581917	8.17013	0.849938	11.7001	0.238554	3.55529	0.439726	6.50162	0.686164	9.46341	0.739228	10.2878
0.280293	3.8961	0.112646	1.5331	0.860197	2.42084	0.403499	5.94839	0.582132	8.13515	0.850236	11.556	0.24047	3.53477	0.440306	6.42173	0.686412	9.34673	0.740088	10.1679
0.280455	3.88041	0.11461	1.54029	0.858447	2.42226	0.40481	5.88686	0.582271	8.11294	0.850539	11.4155	0.24239	3.51486	0.440894	6.3441	0.686666	9.23305	0.740954	10.0512
0.280561	3.87047	0.116323	1.54644	0.856698	2.4237	0.406127	5.82706	0.582471	8.08125	0.850846	11.2786	0.244313	3.49551	0.44149	6.26864	0.686927	9.12227	0.741827	9.93743
0.280714	3.8563	0.117786	1.55161	0.854949	2.42514	0.407449	5.76891	0.582689	8.04713	0.851156	11.1451	0.246239	3.47672	0.442096	6.19528	0.687194	9.01428	0.742706	9.82657
0.280884	3.84107	0.118996	1.55582	0.853201	2.4266	0.408777	5.71235	0.582987	8.00124	0.851471	11.0148	0.248168	3.45845	0.442709	6.12393	0.687467	8.90899	0.743592	9.71849
0.281118	3.82062	0.119954	1.55912	0.851455	2.42806	0.41011	5.65732	0.583367	7.94405	0.851789	10.8877	0.250098	3.44069	0.443332	6.05451	0.687747	8.80629	0.744484	9.61309
0.281421	3.79522	0.120659	1.56153	0.849709	2.42954	0.411448	5.60376	0.58383	7.87613	0.852112	10.7636	0.252032	3.42341	0.443963	5.98695	0.688033	8.70609	0.745383	9.51027
0.281797	3.76515	0.12111	1.56306	0.847964	2.43103	0.412791	5.5516	0.584379	7.79813	0.852438	10.6425	0.253967	3.40658	0.444603	5.92118	0.688326	8.60831	0.746287	9.40995
0.282252	3.73076	0.121759	1.56525	0.84622	2.43252	0.414139	5.5008	0.585017	7.71077	0.852769	10.5242	0.255905	3.39021	0.445251	5.85714	0.688586	8.52501	0.747198	9.31204
0.282794	3.69245	0.122464	1.56762	0.844476	2.43403	0.415491	5.45131	0.585663	7.62564	0.853104	10.4087	0.257844	3.37425	0.445909	5.79477	0.688812	8.45535	0.748115	9.21645
0.283357	3.65533	0.123425	1.57081	0.842734	2.43555	0.416848	5.40307	0.586317	7.54265	0.853442	10.2958	0.259785	3.3587	0.446575	5.734	0.689002	8.39867	0.749038	9.12311
0.28394	3.61936	0.12464	1.5748	0.840992	2.43708	0.41821	5.35603	0.586978	7.46173	0.853785	10.1854	0.261728	3.34355	0.447249	5.67477	0.689153	8.35443	0.749967	9.03193
0.284546	3.5845	0.126111	1.57957	0.839251	2.43862	0.419576	5.31017	0.587648	7.3828	0.854132	10.0776	0.263673	3.32877	0.447933	5.61704	0.689265	8.32222	0.750902	8.94285
0.285173	3.55073	0.127837	1.58508	0.837511	2.44017	0.420946	5.26542	0.588326	7.30581	0.854483	9.97208	0.265618	3.31435	0.448625	5.56076	0.689338	8.30175	0.751843	8.8558
0.285822	3.518	0.129821	1.5913	0.835771	2.44173	0.422321	5.22176	0.589012	7.23067	0.854838	9.86891	0.267565	3.30027	0.449327	5.50587	0.689442	8.27251	0.75279	8.7707
0.286494	3.48629	0.131808	1.5974	0.834032	2.4433	0.423699	5.17914	0.589706	7.15732	0.855197	9.76799	0.269514	3.28654	0.450037	5.45232	0.689557	8.24098	0.753744	8.6875
0.287189	3.45557	0.133796	1.6034	0.832294	2.44488	0.425081	5.13752	0.590408	7.08572	0.85556	9.66924	0.271463	3.27312	0.450756	5.40008	0.689713	8.19851	0.754579	8.6165
0.287907	3.42581	0.135786	1.60928	0.830556	2.44647	0.426467	5.09688	0.591118	7.01579	0.855927	9.57259	0.273413	3.26001	0.451484	5.34909	0.689914	8.14548	0.755295	8.55704
0.28865	3.39699	0.137779	1.61506	0.828819	2.44807	0.427857	5.05718	0.591836	6.94749	0.856298	9.47798	0.275364	3.2472	0.45222	5.29932	0.69016	8.08234	0.755889	8.50861
0.289417	3.36907	0.139773	1.62074	0.827083	2.44968	0.429251	5.01839	0.592562	6.88075	0.856674	9.38535	0.277316	3.23468	0.452966	5.25074	0.690453	8.00961	0.75636	8.47076
0.290209	3.34204	0.141769	1.62631	0.825347	2.45131	0.430648	4.98047	0.593296	6.81554	0.857053	9.29464	0.279268	3.22243	0.453721	5.20329	0.690795	7.92789	0.756708	8.44319
0.291026	3.31588	0.143767	1.63179	0.823612	2.45294	0.432048	4.9434	0.594038	6.7518	0.857437	9.20578	0.281221	3.21045	0.454485	5.15695	0.691143	7.84798	0.756931	8.42566
0.291869	3.29055	0.145766	1.63717	0.821877	2.45458	0.433452	4.90715	0.594788	6.68949	0.857824	9.11873	0.283175	3.19873	0.455258	5.11168	0.691498	7.7698	0.757251	8.4006
0.292739	3.26605	0.147767	1.64246	0.820143	2.45624	0.434859	4.87169	0.595547	6.62856	0.858216	9.03342	0.285128	3.18725	0.456039	5.06745	0.691859	7.69332	0.757601	8.37357
0.293636	3.24236	0.14977	1.64766	0.818409	2.45791	0.436269	4.837	0.596313	6.56897	0.858612	8.94982	0.287082	3.17601	0.45683	5.02422	0.692226	7.61848	0.758077	8.33713
0.29456	3.21944	0.151774	1.65276	0.816676	2.45958	0.437682	4.80305	0.597087	6.51068	0.859012	8.86787	0.289036	3.16501	0.45763	4.98197	0.692599	7.54522	0.758682	8.29159
0.295513	3.1973	0.15378	1.65778	0.814943	2.46127	0.439098	4.76983	0.59787	6.45364	0.859364	8.79777	0.29099	3.15422	0.45844	4.94067	0.692979	7.4735	0.759415	8.2373
0.296494	3.1759	0.155787	1.66272	0.81321	2.46297	0.440517	4.73729	0.59866	6.39783	0.859666	8.73894	0.292944	3.14366	0.459258	4.90028	0.693366	7.40328	0.76028	8.17469
0.297505	3.15524	0.157795	1.66757	0.811477	2.46467	0.441939	4.70544	0.599458	6.34321	0.859918	8.69094	0.294898	3.1333	0.460086	4.86079	0.693758	7.33451	0.761278	8.10423
0.298546	3.1353	0.159804	1.67234	0.809745	2.46639	0.443363	4.67424	0.600265	6.28973	0.860119	8.65338	0.296852	3.12314	0.460922	4.82216	0.694157	7.26714	0.762281	8.03521
0.299618	3.11606	0.161815	1.67703	0.808013	2.46812	0.44479	4.64367	0.601079	6.23737	0.860266	8.626	0.298805	3.11317	0.461768	4.78438	0.694562	7.20114	0.76329	7.9676
0.30072	3.09751	0.163827	1.68164	0.806281	2.46986	0.44622	4.61371	0.601902	6.1861	0.860361	8.60856	0.300758	3.1034	0.462623	4.74741	0.694973	7.13647	0.764304	7.90134
0.301854	3.07964	0.16584	1.68618	0.804549	2.47161	0.447652	4.58436	0.602733	6.13588	0.860498	8.58364	0.302711	3.0938	0.463488	4.71124	0.695391	7.07309	0.765324	7.83641
0.30302	3.06243	0.167854	1.69064	0.802817	2.47337	0.449086	4.55558	0.603571	6.08669	0.860647	8.55673	0.304663	3.08438	0.464361	4.67584	0.695814	7.01096	0.766349	7.77275
0.304219	3.04587	0.169869	1.69503	0.801086	2.47514	0.450523	4.52737	0.604418	6.03849	0.860851	8.52042	0.306614	3.07513	0.465244	4.64119	0.696244	6.95004	0.76738	7.71035
0.305451	3.02994	0.171885	1.69934	0.799354	2.47692	0.451962	4.4997	0.605273	5.99126	0.86111	8.47498	0.308565	3.06604	0.466137	4.60727	0.69668	6.89031	0.768417	7.64915
0.306717	3.01463	0.173901	1.70359	0.797622	2.47871	0.453403	4.47256	0.606135	5.94498	0.861426	8.42072	0.310515	3.05712	0.467038	4.57406	0.697123	6.83174	0.769458	7.58914
0.308016	2.99993	0.175919	1.70777	0.79589	2.48051	0.454846	4.44593	0.607006	5.8996	0.861799	8.35803	0.312464	3.04835	0.467949	4.54154	0.697571	6.77428	0.770505	7.53026
0.30935	2.98582	0.177937	1.71188	0.794158	2.48231	0.456291	4.41981	0.607885	5.85513	0.862231	8.28734	0.314412	3.03972	0.46887	4.50969	0.698026	6.71791	0.771557	7.47251
0.310718	2.9723	0.179957	1.71593	0.792426	2.48413	0.457739	4.39417	0.608771	5.81151	0.862667	8.21794	0.316359	3.03125	0.4698	4.4785	0.698487	6.6626	0.772615	7.41583
0.31212	2.95934	0.181977	1.71991	0.790693	2.48596	0.459188	4.36901	0.609666	5.76875	0.863108	8.1498	0.318305	3.02291	0.470739	4.44795	0.698953	6.60833	0.773678	7.36021
0.313557	2.94693	0.183997	1.72383	0.78896	2.4878	0.460639	4.3443	0.610569	5.7268	0.863552	8.08289	0.320251	3.01471	0.471688	4.41802	0.699426	6.55506	0.774746	7.30562
0.315029	2.93506	0.186019	1.72768	0.787226	2.48965	0.462091	4.32004	0.61148	5.68566	0.864001	8.01718	0.322195	3.00663	0.472646	4.3887	0.699906	6.50277	0.775819	7.25202
0.316535	2.92371	0.18804	1.73148	0.785492	2.49151	0.463546	4.29622	0.612398	5.6453	0.864454	7.95263	0.324137	2.99869	0.473614	4.35997	0.700391	6.45143	0.776897	7.1994
0.318075	2.91287	0.190063	1.73522	0.783757	2.49337	0.465002	4.27282	0.613325	5.60569	0.864911	7.88921	0.326079	2.99087	0.474591	4.33181	0.700882	6.40102	0.77798	7.14773
0.319649	2.90252	0.192086	1.73889	0.782022	2.49525	0.466459	4.24983	0.61426	5.56683	0.865372	7.8269	0.328019	2.98317	0.475578	4.30421	0.701379	6.35152	0.779069	7.09698
0.321257	2.89265	0.19411	1.74252	0.780286	2.49713	0.467919	4.22724	0.615202	5.52869	0.865838	7.76567	0.329957	2.97559	0.476574	4.27716	0.701883	6.3029	0.780162	7.04713
0.322897	2.88323	0.196134	1.74608	0.778549	2.49902	0.469379	4.20504	0.616153	5.49126	0.866308	7.7055	0.331894	2.96812	0.47758	4.25064	0.702392	6.25514	0.78126	6.99815
0.32457	2.87426	0.198158	1.74959	0.776811	2.50093	0.470841	4.18322	0.617112	5.45451	0.866782	7.64635	0.33383	2.96076	0.478595	4.22465	0.702908	6.20822	0.782364	6.95003
0.326275	2.86571	0.200183	1.75305	0.775072	2.50284	0.472305	4.16177	0.618078	5.41843	0.86726	7.5882	0.335764	2.95351	0.47962	4.19916	0.703429	6.16212	0.783472	6.90275
0.328011	2.85757	0.202209	1.75646	0.773333	2.50475	0.47377	4.14069	0.619052	5.383	0.867742	7.53103	0.337696	2.94636	0.480654	4.17417	0.703957	6.11681	0.784585	6.85627
0.329777	2.84982	0.204234	1.75981	0.771592	2.50668	0.475236	4.11995	0.620035	5.34822	0.868229	7.47481	0.339627	2.93931	0.481699	4.14966	0.70449	6.07229	0.785703	6.81059
0.331572	2.84245	0.20626	1.76312	0.769849	2.50861	0.476703	4.09956	0.621025	5.31405	0.86872	7.41952	0.341556	2.93236	0.482752	4.12563	0.70503	6.02853	0.786825	6.76568
0.333396	2.83544	0.208287	1.76637	0.768106	2.51055	0.478171	4.0795	0.622023	5.28049	0.869215	7.36515	0.343483	2.9255	0.483816	4.10205	0.705575	5.98551	0.787953	6.72153
0.335247	2.82877	0.210313	1.76957	0.766361	2.5125	0.479641	4.05977	0.623029	5.24753	0.869715	7.31166	0.345408	2.91874	0.484889	4.07893	0.706127	5.94321	0.789085	6.67811
0.337126	2.82243	0.21234	1.77273	0.764614	2.51445	0.481112	4.04035	0.624043	5.21514	0.870218	7.25903	0.347331	2.91206	0.485972	4.05625	0.706684	5.90162	0.790222	6.63541
0.339029	2.8164	0.214367	1.77584	0.762866	2.51641	0.482583	4.02125	0.625065	5.18332	0.870726	7.20726	0.349253	2.90548	0.487064	4.034	0.707247	5.86073	0.791364	6.59342
0.340958	2.81067	0.216395	1.77891	0.761116	2.51838	0.484056	4.00245	0.626094	5.15206	0.871239	7.15631	0.351172	2.89897	0.488166	4.01216	0.707817	5.82051	0.79251	6.5521
0.34291	2.80521	0.218422	1.78193	0.759364	2.52035	0.48553	3.98394	0.627131	5.12133	0.871755	7.10617	0.353089	2.89255	0.489278	3.99074	0.708392	5.78094	0.793661	6.51146
0.344884	2.80002	0.22045	1.7849	0.75761	2.52233	0.487004	3.96572	0.628177	5.09113	0.872276	7.05682	0.355004	2.88621	0.4904	3.96972	0.708973	5.74203	0.794816	6.47147
0.34688	2.79509	0.222478	1.78783	0.755854	2.52432	0.48848	3.94779	0.629229	5.06144	0.872801	7.00824	0.356917	2.87995	0.491531	3.9491	0.709559	5.70374	0.795976	6.43212
0.348897	2.79039	0.224506	1.79072	0.754095	2.5263	0.489956	3.93012	0.63029	5.03226	0.87333	6.96042	0.358828	2.87376	0.492672	3.92885	0.710152	5.66607	0.79714	6.3934
0.350934	2.78592	0.226534	1.79357	0.752334	2.5283	0.491433	3.91273	0.631359	5.00357	0.873864	6.91334	0.360736	2.86765	0.493822	3.90899	0.710751	5.629	0.798309	6.35528
0.352989	2.78166	0.228562	1.79637	0.750571	2.53029	0.492911	3.8956	0.632435	4.97536	0.874402	6.86698	0.362642	2.86161	0.494983	3.88949	0.711355	5.59252	0.799482	6.31776
0.355062	2.7776	0.23059	1.79914	0.748805	2.53229	0.49439	3.87873	0.633519	4.94762	0.874944	6.82132	0.364546	2.85564	0.496153	3.87034	0.711965	5.55662	0.80066	6.28083
0.357152	2.77373	0.232618	1.80186	0.747036	2.5343	0.495869	3.8621	0.63461	4.92035	0.875491	6.77636	0.366448	2.84973	0.497333	3.85155	0.712581	5.52128	0.801842	6.24446
0.359258	2.77005	0.234646	1.80455	0.745265	2.5363	0.497349	3.84572	0.635709	4.89352	0.876042	6.73208	0.368347	2.8439	0.498522	3.83311	0.713203	5.48649	0.803028	6.20865
0.361379	2.76653	0.236674	1.8072	0.74349	2.53831	0.49883	3.82959	0.636816	4.86713	0.876597	6.68846	0.370244	2.83813	0.499721	3.815	0.713831	5.45224	0.804219	6.17338
0.363515	2.76317	0.238702	1.80981	0.741712	2.54032	0.500312	3.81368	0.637931	4.84118	0.877156	6.64549	0.372138	2.83242	0.50093	3.79722	0.714464	5.41852	0.805414	6.13865
0.365664	2.75996	0.24073	1.81238	0.73993	2.54233	0.501794	3.798	0.639053	4.81564	0.87772	6.60315	0.37403	2.82677	0.502149	3.77976	0.715103	5.38531	0.806613	6.10444
0.367826	2.7569	0.242758	1.81492	0.738145	2.54434	0.503276	3.78255	0.640183	4.79052	0.878288	6.56143	0.375919	2.82118	0.503377	3.76262	0.715748	5.35261	0.807816	6.07074
0.370001	2.75396	0.244786	1.81742	0.736356	2.54636	0.504759	3.76732	0.64132	4.76581	0.878861	6.52033	0.377805	2.81565	0.504615	3.74579	0.716399	5.32041	0.809023	6.03754
0.372187	2.75116	0.246813	1.81988	0.734563	2.54837	0.506243	3.7523	0.642465	4.74149	0.879438	6.47981	0.37969	2.81018	0.505863	3.72926	0.717055	5.28869	0.810235	6.00483
0.374385	2.74847	0.248841	1.82232	0.732767	2.55038	0.507727	3.73749	0.643617	4.71755	0.880019	6.43989	0.381571	2.80477	0.507121	3.71303	0.717717	5.25744	0.81145	5.9726
0.376593	2.7459	0.250868	1.82471	0.730966	2.55238	0.509212	3.72289	0.644777	4.694	0.880605	6.40053	0.38345	2.79941	0.508388	3.69709	0.718385	5.22666	0.81267	5.94084
0.37881	2.74343	0.252895	1.82708	0.72916	2.55439	0.510697	3.70849	0.645944	4.67081	0.881194	6.36174	0.385326	2.7941	0.509664	3.68143	0.719058	5.19634	0.813893	5.90953
0.381037	2.74107	0.254922	1.82941	0.72735	2.55639	0.512183	3.69428	0.647118	4.64799	0.881789	6.3235	0.387199	2.78884	0.510951	3.66605	0.719737	5.16646	0.815121	5.87868
0.383273	2.73879	0.256949	1.83171	0.725535	2.55839	0.513669	3.68027	0.6483	4.62553	0.882387	6.28579	0.38907	2.78364	0.512247	3.65094	0.720422	5.13702	0.816352	5.84826
0.385517	2.73661	0.258976	1.83397	0.723715	2.56038	0.515156	3.66645	0.64949	4.60341	0.88299	6.24862	0.390938	2.77848	0.513552	3.6361	0.721112	5.10801	0.817588	5.81828
0.387769	2.73451	0.261002	1.83621	0.72189	2.56237	0.516643	3.65281	0.650686	4.58164	0.883598	6.21196	0.392804	2.77337	0.514868	3.62152	0.721809	5.07941	0.818827	5.78871
0.390029	2.73249	0.263028	1.83841	0.720059	2.56436	0.518131	3.63935	0.65189	4.5602	0.884209	6.1758	0.394666	2.76831	0.516192	3.6072	0.72251	5.05123	0.82007	5.75956
0.392295	2.73055	0.265054	1.84058	0.718223	2.56633	0.519619	3.62607	0.653101	4.53909	0.884825	6.14015	0.396526	2.7633	0.517527	3.59313	0.723218	5.02346	0.821317	5.73082
0.394569	2.72867	0.26708	1.84273	0.716381	2.5683	0.521107	3.61297	0.65432	4.5183	0.885446	6.10499	0.398383	2.75833	0.518871	3.57931	0.72393	4.99608	0.822567	5.70248
0.396848	2.72687	0.269105	1.84484	0.714533	2.57026	0.522596	3.60004	0.655546	4.49783	0.886071	6.0703	0.400238	2.75341	0.520224	3.56573	0.724649	4.96908	0.823822	5.67452
0.399134	2.72513	0.27113	1.84693	0.712679	2.57221	0.524085	3.58727	0.656778	4.47766	0.8867	6.03608	0.402089	2.74853	0.521587	3.55238	0.725373	4.94247	0.82508	5.64695
0.401425	2.72345	0.273155	1.84899	0.710819	2.57415	0.525575	3.57467	0.658018	4.4578	0.887334	6.00233	0.403938	2.74369	0.522959	3.53927	0.726103	4.91624	0.826342	5.61975
0.403721	2.72182	0.275179	1.85101	0.708952	2.57609	0.527065	3.56223	0.659265	4.43823	0.887972	5.96902	0.405784	2.7389	0.52434	3.52638	0.726838	4.89036	0.827607	5.59291
0.406023	2.72025	0.277203	1.85302	0.707078	2.57801	0.528556	3.54995	0.660519	4.41896	0.888614	5.93616	0.407627	2.73415	0.525731	3.51372	0.727579	4.86485	0.828876	5.56644
0.408329	2.71873	0.279227	1.85499	0.705198	2.57991	0.530047	3.53783	0.66178	4.39997	0.889261	5.90374	0.409467	2.72943	0.527132	3.50128	0.728325	4.83969	0.830148	5.54032
0.41064	2.71726	0.28125	1.85694	0.70331	2.58181	0.531538	3.52586	0.663048	4.38126	0.889912	5.87175	0.411305	2.72476	0.528541	3.48905	0.729077	4.81488	0.831424	5.51455
0.412955	2.71584	0.283273	1.85886	0.701415	2.58369	0.53303	3.51403	0.664323	4.36283	0.890568	5.84017	0.41314	2.72013	0.52996	3.47703	0.729834	4.79041	0.832704	5.48911
0.415274	2.71446	0.285295	1.86075	0.699513	2.58556	0.534522	3.50236	0.665605	4.34466	0.891228	5.80901	0.414972	2.71553	0.531388	3.46522	0.730597	4.76627	0.833987	5.46401
0.417597	2.71312	0.287318	1.86262	0.697603	2.58741	0.536014	3.49083	0.666894	4.32676	0.891893	5.77825	0.416801	2.71097	0.532825	3.4536	0.731366	4.74245	0.835273	5.43924
0.419923	2.71182	0.289339	1.86447	0.695686	2.58924	0.537507	3.47944	0.668189	4.30912	0.892562	5.74789	0.418628	2.70645	0.534272	3.44219	0.73214	4.71896	0.836563	5.41478
0.422253	2.71055	0.29136	1.86629	0.69376	2.59106	0.539001	3.46819	0.669492	4.29173	0.893235	5.71792	0.420451	2.70197	0.535727	3.43097	0.732919	4.69579	0.837856	5.39065
0.424586	2.70933	0.293381	1.86808	0.691827	2.59286	0.540495	3.45708	0.670801	4.27459	0.893913	5.68833	0.422272	2.69752	0.537191	3.41995	0.733704	4.67292	0.839152	5.36682
0.426922	2.70813	0.295401	1.86985	0.689885	2.59465	0.541989	3.4461	0.672116	4.25769	0.894595	5.65912	0.424091	2.69311	0.538665	3.4091	0.734494	4.65036	0.840452	5.34329
0.429261	2.70697	0.297421	1.8716	0.687935	2.59641	0.543484	3.43526	0.673439	4.24104	0.895282	5.63028	0.425906	2.68873	0.540147	3.39845	0.73529	4.6281	0.841755	5.32006
0.431603	2.70584	0.299441	1.87333	0.685977	2.59815	0.54498	3.42454	0.674768	4.22462	0.895973	5.6018	0.427719	2.68438	0.541638	3.38797	0.736091	4.60613	0.843061	5.29713
0.433946	2.70473	0.301459	1.87503	0.68401	2.59988	0.546476	3.41395	0.676103	4.20843	0.896669	5.57369	0.429529	2.68007	0.543138	3.37767	0.736898	4.58445	0.844371	5.27448
0.436293	2.70366	0.303478	1.87671	0.682035	2.60158	0.547972	3.40349	0.677445	4.19247	0.897369	5.54592	0.431337	2.6758	0.544647	3.36754	0.73771	4.56305	0.845683	5.25211
0.438641	2.70261	0.305496	1.87836	0.680051	2.60327	0.549469	3.39316	0.678794	4.17674	0.898073	5.5185	0.433142	2.67155	0.546164	3.35758	0.738527	4.54193	0.846999	5.23002
0.440992	2.70158	0.307513	1.87999	0.678058	2.60493	0.550967	3.38294	0.680148	4.16122	0.898782	5.49141	0.434944	2.66734	0.54769	3.34778	0.73935	4.52109	0.848318	5.2082
0.443345	2.70058	0.30953	1.88161	0.676056	2.60657	0.552465	3.37284	0.68151	4.14591	0.899496	5.46467	0.436744	2.66316	0.549225	3.33815	0.740179	4.50051	0.84964	5.18664
0.445699	2.6996	0.311546	1.8832	0.674046	2.60819	0.553964	3.36287	0.682877	4.13082	0.900213	5.43825	0.438541	2.65901	0.550768	3.32868	0.741012	4.4802	0.850965	5.16535
0.448055	2.69864	0.313561	1.88477	0.672026	2.60978	0.555463	3.353	0.684251	4.11593	0.900936	5.41215	0.440336	2.6549	0.552319	3.31937	0.741851	4.46015	0.852293	5.14432
0.450412	2.6977	0.315577	1.88632	0.669998	2.61135	0.556963	3.34326	0.685631	4.10125	0.901663	5.38637	0.442128	2.65081	0.553879	3.31021	0.742696	4.44036	0.853623	5.12354
0.452771	2.69678	0.317591	1.88784	0.667961	2.6129	0.558464	3.33362	0.687017	4.08676	0.902394	5.3609	0.443918	2.64676	0.555447	3.3012	0.743546	4.42081	0.854957	5.10301
0.455132	2.69588	0.319605	1.88935	0.665915	2.61443	0.559966	3.3241	0.688409	4.07247	0.90313	5.33574	0.445706	2.64274	0.557024	3.29233	0.744401	4.40151	0.856294	5.08272
0.457493	2.695	0.321618	1.89084	0.66386	2.61593	0.561468	3.31468	0.689807	4.05838	0.90387	5.31088	0.447491	2.63874	0.558608	3.28362	0.745261	4.38246	0.857633	5.06268
0.459856	2.69413	0.323631	1.89231	0.661796	2.61741	0.562971	3.30538	0.691212	4.04447	0.904615	5.28631	0.449273	2.63478	0.560201	3.27504	0.746127	4.36364	0.858976	5.04287
0.46222	2.69327	0.325643	1.89376	0.659724	2.61886	0.564475	3.29618	0.692622	4.03075	0.905364	5.26204	0.451054	2.63085	0.561801	3.26661	0.746999	4.34506	0.860321	5.02329
0.464584	2.69244	0.327655	1.89518	0.657642	2.62029	0.56598	3.28708	0.694038	4.01721	0.906118	5.23806	0.452832	2.62694	0.56341	3.25831	0.747875	4.32671	0.861669	5.00393
0.46695	2.69161	0.329666	1.89659	0.655552	2.62169	0.567486	3.27809	0.69546	4.00384	0.906877	5.21436	0.454608	2.62307	0.565026	3.25014	0.748757	4.30859	0.863019	4.98481
0.469316	2.6908	0.331676	1.89799	0.653454	2.62307	0.568992	3.2692	0.696888	3.99066	0.907639	5.19094	0.456382	2.61922	0.56665	3.24211	0.749644	4.29069	0.864373	4.9659
0.471683	2.69	0.333685	1.89936	0.651347	2.62443	0.5705	3.2604	0.698321	3.97765	0.908407	5.16779	0.458153	2.6154	0.568282	3.2342	0.750537	4.27302	0.865729	4.94721
0.47405	2.68921	0.335694	1.90071	0.649231	2.62576	0.572009	3.25171	0.699761	3.9648	0.909178	5.14491	0.459923	2.61162	0.569921	3.22643	0.751435	4.25555	0.867088	4.92873
0.476418	2.68843	0.337703	1.90205	0.647107	2.62707	0.573518	3.24312	0.701205	3.95213	0.909955	5.1223	0.46169	2.60786	0.571568	3.21877	0.752338	4.23831	0.868449	4.91047
0.478786	2.68767	0.33971	1.90337	0.644975	2.62836	0.575029	3.23462	0.702656	3.93961	0.910736	5.09995	0.463456	2.60412	0.573222	3.21124	0.753246	4.22127	0.869813	4.8924
0.481155	2.68691	0.341717	1.90467	0.642835	2.62962	0.576541	3.22621	0.704112	3.92726	0.911521	5.07785	0.46522	2.60042	0.574884	3.20382	0.75416	4.20443	0.871179	4.87454
0.483523	2.68616	0.343724	1.90596	0.640687	2.63086	0.578054	3.2179	0.705573	3.91507	0.912311	5.05601	0.466981	2.59674	0.576552	3.19653	0.755079	4.18781	0.872548	4.85688
0.485892	2.68542	0.345729	1.90723	0.638531	2.63208	0.579568	3.20969	0.70704	3.90303	0.913106	5.03442	0.468741	2.5931	0.578228	3.18934	0.756003	4.17138	0.873919	4.83942
0.488261	2.68469	0.347734	1.90848	0.636368	2.63328	0.581084	3.20156	0.708512	3.89114	0.913905	5.01307	0.470499	2.58948	0.579911	3.18227	0.756933	4.15515	0.875293	4.82215
0.49063	2.68397	0.349738	1.90971	0.634197	2.63445	0.5826	3.19352	0.70999	3.87941	0.914708	4.99197	0.472256	2.58588	0.581601	3.17531	0.757868	4.13911	0.87667	4.80507
0.492999	2.68325	0.351742	1.91093	0.632019	2.6356	0.584119	3.18558	0.711472	3.86782	0.915516	4.9711	0.47401	2.58232	0.583298	3.16846	0.758808	4.12326	0.878048	4.78817
0.495368	2.68254	0.353744	1.91213	0.629833	2.63673	0.585638	3.17772	0.71296	3.85637	0.916329	4.95047	0.475764	2.57878	0.585002	3.16171	0.759753	4.1076	0.879429	4.77146
0.497736	2.68183	0.355746	1.91332	0.627641	2.63784	0.587159	3.16995	0.714453	3.84507	0.917146	4.93007	0.477515	2.57527	0.586712	3.15507	0.760704	4.09213	0.880813	4.75493
0.500104	2.68113	0.357747	1.91449	0.625442	2.63893	0.588682	3.16226	0.715951	3.83391	0.917968	4.9099	0.479265	2.57178	0.588429	3.14853	0.76166	4.07684	0.882198	4.73858
0.502472	2.68044	0.359748	1.91564	0.623235	2.64	0.590206	3.15466	0.717455	3.82289	0.918794	4.88995	0.481014	2.56832	0.590153	3.14209	0.762621	4.06173	0.883586	4.7224
0.504839	2.67975	0.361748	1.91678	0.621023	2.64105	0.591732	3.14714	0.718963	3.812	0.919625	4.87022	0.482761	2.56489	0.591883	3.13574	0.763587	4.04679	0.884976	4.70639
0.507205	2.67906	0.363747	1.9179	0.618804	2.64208	0.59326	3.13971	0.720476	3.80124	0.92046	4.85071	0.484507	2.56149	0.593619	3.12949	0.764559	4.03203	0.886369	4.69056
0.509572	2.67838	0.365745	1.91901	0.616579	2.6431	0.594789	3.13236	0.721993	3.79062	0.9213	4.83141	0.486251	2.55811	0.595361	3.12334	0.765536	4.01745	0.887763	4.67489
0.511937	2.6777	0.367743	1.92011	0.614347	2.64409	0.59632	3.12509	0.723516	3.78012	0.922145	4.81233	0.487994	2.55476	0.59711	3.11727	0.766518	4.00303	0.88916	4.65938
0.514301	2.67702	0.369739	1.92119	0.61211	2.64507	0.597853	3.1179	0.725043	3.76975	0.922994	4.79346	0.489737	2.55144	0.598865	3.1113	0.767505	3.98878	0.890558	4.64404
0.516665	2.67634	0.371735	1.92225	0.609868	2.64603	0.599388	3.11079	0.726575	3.7595	0.923848	4.77479	0.491478	2.54814	0.600625	3.10542	0.768498	3.97469	0.891959	4.62885
0.519028	2.67567	0.37373	1.9233	0.607619	2.64698	0.600925	3.10376	0.728112	3.74938	0.924706	4.75632	0.493217	2.54487	0.602391	3.09962	0.769495	3.96076	0.893362	4.61383
0.521389	2.67499	0.375725	1.92434	0.605365	2.64791	0.602464	3.0968	0.729653	3.73937	0.925569	4.73805	0.494956	2.54162	0.604163	3.0939	0.770499	3.947	0.894767	4.59895
0.52375	2.67432	0.377718	1.92536	0.603106	2.64882	0.604006	3.08993	0.731199	3.72949	0.926437	4.71998	0.496694	2.5384	0.605941	3.08827	0.771507	3.93339	0.896174	4.58423
0.526109	2.67365	0.379711	1.92637	0.600842	2.64972	0.605549	3.08313	0.732749	3.71972	0.927309	4.70211	0.498431	2.53521	0.607725	3.08272	0.77252	3.91994	0.897583	4.56966
0.528468	2.67298	0.381703	1.92737	0.598574	2.65061	0.607095	3.07641	0.734303	3.71006	0.928186	4.68442	0.500168	2.53204	0.609513	3.07725	0.773539	3.90664	0.898994	4.55523
0.530825	2.67231	0.383694	1.92835	0.5963	2.65148	0.608643	3.06976	0.735862	3.70052	0.929067	4.66692	0.501903	2.5289	0.611307	3.07186	0.774563	3.89349	0.900406	4.54095
0.53318	2.67163	0.385684	1.92932	0.594022	2.65233	0.610194	3.06319	0.737425	3.69108	0.929953	4.64961	0.503638	2.52578	0.613107	3.06655	0.775592	3.88049	0.901821	4.52682
0.535534	2.67096	0.387674	1.93027	0.591739	2.65318	0.611747	3.05669	0.738992	3.68176	0.930844	4.63249	0.505372	2.52269	0.614911	3.06131	0.776626	3.86763	0.903237	4.51282
0.537886	2.67028	0.389663	1.93122	0.589452	2.65401	0.613303	3.05026	0.740563	3.67254	0.931739	4.61554	0.507105	2.51962	0.616721	3.05614	0.777666	3.85492	0.904655	4.49896
0.540237	2.66961	0.39165	1.93215	0.58716	2.65483	0.614862	3.04391	0.742139	3.66342	0.932639	4.59877	0.508838	2.51658	0.618535	3.05104	0.778711	3.84236	0.906075	4.48524
0.542586	2.66892	0.393637	1.93306	0.584865	2.65564	0.616424	3.03763	0.743718	3.65441	0.933543	4.58218	0.510571	2.51357	0.620355	3.04602	0.779761	3.82993	0.907497	4.47166
0.544933	2.66824	0.395624	1.93397	0.582566	2.65644	0.617988	3.03142	0.745302	3.6455	0.934452	4.56576	0.512303	2.51058	0.622179	3.04106	0.780816	3.81764	0.908921	4.45821
0.547278	2.66756	0.397609	1.93486	0.580263	2.65723	0.619555	3.02528	0.746889	3.6367	0.935366	4.54952	0.514034	2.50762	0.624007	3.03618	0.781877	3.80549	0.910346	4.44488
0.549621	2.66687	0.399593	1.93574	0.577957	2.65801	0.621126	3.01922	0.74848	3.62798	0.936284	4.53344	0.515766	2.50468	0.625841	3.03135	0.782942	3.79348	0.911773	4.43169
0.551962	2.66617	0.401577	1.93661	0.575647	2.65877	0.6227	3.01322	0.750075	3.61937	0.937207	4.51753	0.517496	2.50176	0.627679	3.0266	0.784013	3.7816	0.913201	4.41862
0.554301	2.66547	0.40356	1.93747	0.573333	2.65953	0.624277	3.00729	0.751674	3.61085	0.938135	4.50178	0.519227	2.49888	0.629521	3.0219	0.785089	3.76985	0.914631	4.40568
0.556638	2.66477	0.405542	1.93831	0.571017	2.66029	0.625857	3.00144	0.753276	3.60243	0.939067	4.4862	0.520958	2.49601	0.631367	3.01727	0.786171	3.75823	0.916063	4.39286
0.558972	2.66406	0.407523	1.93915	0.568697	2.66103	0.627441	2.99565	0.754882	3.59409	0.940004	4.47078	0.522688	2.49318	0.633218	3.0127	0.787258	3.74673	0.917496	4.38017
0.561303	2.66335	0.409503	1.93997	0.566374	2.66177	0.629029	2.98993	0.756492	3.58585	0.940945	4.45551	0.524419	2.49036	0.635073	3.00819	0.788349	3.73537	0.918931	4.36759
0.563632	2.66262	0.411482	1.94078	0.564049	2.66249	0.63062	2.98427	0.758105	3.57769	0.941892	4.4404	0.526149	2.48757	0.636931	3.00374	0.789446	3.72412	0.920367	4.35513
0.565958	2.6619	0.413461	1.94158	0.561721	2.66322	0.632215	2.97869	0.759721	3.56963	0.942843	4.42545	0.527879	2.48481	0.638794	2.99935	0.790549	3.713	0.921805	4.34279
0.568281	2.66116	0.415438	1.94237	0.559389	2.66393	0.633814	2.97317	0.761341	3.56165	0.943798	4.41064	0.52961	2.48207	0.64066	2.99501	0.791656	3.70201	0.923244	4.33056
0.570601	2.66042	0.417415	1.94314	0.557056	2.66464	0.635417	2.96772	0.762964	3.55375	0.944759	4.39599	0.531341	2.47935	0.642531	2.99072	0.792769	3.69113	0.924684	4.31844
0.572919	2.65967	0.419391	1.94391	0.55472	2.66535	0.637025	2.96234	0.764591	3.54594	0.945723	4.38149	0.533071	2.47666	0.644404	2.9865	0.793887	3.68037	0.926126	4.30644
0.575232	2.65891	0.421366	1.94467	0.552382	2.66605	0.638637	2.95702	0.766221	3.53821	0.946693	4.36713	0.534803	2.474	0.646282	2.98232	0.795011	3.66973	0.92757	4.29454
0.577543	2.65814	0.42334	1.94541	0.550041	2.66674	0.640253	2.95177	0.767854	3.53056	0.947667	4.35291	0.536534	2.47135	0.648162	2.97819	0.796139	3.6592	0.929014	4.28276
0.57985	2.65737	0.425313	1.94615	0.547698	2.66743	0.641874	2.94659	0.76949	3.52299	0.948646	4.33884	0.538266	2.46874	0.650046	2.97412	0.797273	3.64879	0.93046	4.27108
0.582154	2.65658	0.427285	1.94687	0.545353	2.66812	0.643499	2.94147	0.771129	3.5155	0.94963	4.32491	0.539998	2.46614	0.651934	2.97009	0.798412	3.63849	0.931908	4.25951
0.584454	2.65578	0.429256	1.94758	0.543007	2.6688	0.645129	2.93642	0.772771	3.50809	0.950619	4.31112	0.54173	2.46357	0.653824	2.96611	0.799557	3.6283	0.933356	4.24804
0.58675	2.65498	0.431227	1.94829	0.540658	2.66948	0.646765	2.93143	0.774416	3.50075	0.951612	4.29747	0.543463	2.46102	0.655718	2.96218	0.800706	3.61821	0.934806	4.23667
0.589041	2.65416	0.433196	1.94898	0.538308	2.67016	0.648405	2.9265	0.776064	3.49348	0.95261	4.28395	0.545196	2.4585	0.657614	2.9583	0.801861	3.60824	0.936257	4.2254
0.591329	2.65333	0.435165	1.94967	0.535956	2.67084	0.650051	2.92165	0.777715	3.48629	0.953612	4.27056	0.54693	2.456	0.659513	2.95446	0.803022	3.59838	0.937709	4.21424
0.593613	2.65249	0.437133	1.95034	0.533602	2.67151	0.651702	2.91685	0.779368	3.47917	0.954619	4.25731	0.548665	2.45353	0.661416	2.95067	0.804187	3.58862	0.939162	4.20317
0.595892	2.65163	0.4391	1.95101	0.531247	2.67219	0.653359	2.91213	0.781025	3.47213	0.955631	4.24419	0.5504	2.45107	0.663321	2.94692	0.805358	3.57896	0.940616	4.1922
0.598166	2.65076	0.441065	1.95166	0.52889	2.67286	0.655022	2.90746	0.782684	3.46515	0.956648	4.2312	0.552136	2.44864	0.665228	2.94321	0.806534	3.56941	0.942072	4.18132
0.600436	2.64988	0.44303	1.95231	0.526532	2.67353	0.656691	2.90286	0.784346	3.45824	0.957669	4.21833	0.553873	2.44624	0.667138	2.93954	0.807716	3.55996	0.943529	4.17054
0.602701	2.64898	0.444995	1.95295	0.524173	2.6742	0.658365	2.89833	0.78601	3.4514	0.958696	4.20559	0.55561	2.44385	0.669051	2.93592	0.808903	3.55061	0.944986	4.15985
0.604961	2.64807	0.446958	1.95357	0.521812	2.67487	0.660046	2.89386	0.787677	3.44463	0.959727	4.19298	0.557348	2.44149	0.670965	2.93233	0.810095	3.54136	0.946445	4.14925
0.607216	2.64715	0.44892	1.95419	0.519451	2.67555	0.661733	2.88946	0.789346	3.43792	0.960762	4.18048	0.559087	2.43916	0.672883	2.92878	0.811292	3.53221	0.947904	4.13875
0.609465	2.6462	0.450881	1.9548	0.517088	2.67622	0.663427	2.88511	0.791018	3.43128	0.961803	4.16811	0.560827	2.43684	0.674802	2.92527	0.812495	3.52316	0.949365	4.12833
0.611709	2.64525	0.452842	1.9554	0.514725	2.6769	0.665128	2.88084	0.792692	3.4247	0.962848	4.15586	0.562568	2.43455	0.676723	2.9218	0.813703	3.5142	0.950827	4.118
0.613947	2.64427	0.454801	1.956	0.51236	2.67757	0.666835	2.87662	0.794368	3.41818	0.963898	4.14373	0.564309	2.43228	0.678647	2.91837	0.814917	3.50533	0.952289	4.10776
0.616179	2.64328	0.45676	1.95658	0.509995	2.67825	0.66855	2.87248	0.796047	3.41173	0.964952	4.13172	0.566052	2.43003	0.680572	2.91497	0.816136	3.49656	0.953753	4.09761
0.618406	2.64227	0.458718	1.95715	0.507629	2.67894	0.670272	2.86839	0.797727	3.40533	0.966012	4.11982	0.567796	2.42781	0.6825	2.9116	0.81736	3.48789	0.955217	4.08754
0.620626	2.64124	0.460674	1.95772	0.505263	2.67962	0.672001	2.86437	0.79941	3.399	0.967076	4.10803	0.56954	2.4256	0.684429	2.90827	0.81859	3.4793	0.956682	4.07755
0.62284	2.64019	0.46263	1.95828	0.502896	2.68031	0.673738	2.86042	0.801096	3.39272	0.968145	4.09636	0.571286	2.42342	0.686359	2.90498	0.819825	3.47081	0.958148	4.06764
0.625047	2.63913	0.464585	1.95883	0.500528	2.68101	0.675483	2.85652	0.802783	3.38651	0.969219	4.0848	0.573033	2.42126	0.688292	2.90171	0.821066	3.4624	0.959615	4.05782
0.627247	2.63804	0.466539	1.95937	0.49816	2.68171	0.677235	2.8527	0.804472	3.38035	0.970297	4.07335	0.574781	2.41913	0.690226	2.89848	0.822312	3.45409	0.961082	4.04808
0.629441	2.63693	0.468492	1.9599	0.495792	2.68241	0.678996	2.84893	0.806163	3.37424	0.971381	4.06201	0.57653	2.41701	0.692161	2.89528	0.823563	3.44586	0.962551	4.03842
0.631628	2.63581	0.470444	1.96043	0.493423	2.68312	0.680765	2.84523	0.807857	3.3682	0.972469	4.05078	0.57828	2.41492	0.694098	2.89211	0.82482	3.43771	0.96402	4.02883
0.633807	2.63466	0.472396	1.96095	0.491054	2.68384	0.682543	2.8416	0.809552	3.3622	0.973562	4.03966	0.580032	2.41284	0.696036	2.88897	0.826082	3.42966	0.96549	4.01932
0.63598	2.63349	0.474346	1.96146	0.488686	2.68456	0.684329	2.83802	0.811249	3.35626	0.974659	4.02864	0.581784	2.41079	0.697975	2.88586	0.82735	3.42169	0.96696	4.00989
0.638144	2.6323	0.476295	1.96196	0.486317	2.68529	0.686124	2.83452	0.812947	3.35038	0.975762	4.01772	0.583538	2.40876	0.699915	2.88278	0.828623	3.4138	0.968432	4.00054
0.640302	2.63108	0.478244	1.96245	0.483948	2.68603	0.687928	2.83107	0.814648	3.34454	0.976869	4.00691	0.585294	2.40675	0.701857	2.87972	0.829902	3.40599	0.969904	3.99126
0.642451	2.62985	0.480191	1.96294	0.481579	2.68678	0.689741	2.82769	0.81635	3.33876	0.977981	3.9962	0.58705	2.40476	0.703799	2.8767	0.831186	3.39827	0.971376	3.98205
0.644592	2.62859	0.482138	1.96342	0.47921	2.68753	0.691563	2.82437	0.818054	3.33303	0.979098	3.98559	0.588808	2.40279	0.705743	2.8737	0.832476	3.39063	0.972849	3.97291
0.646726	2.62731	0.484084	1.96389	0.476842	2.6883	0.693395	2.82112	0.819759	3.32735	0.98022	3.97508	0.590568	2.40084	0.707687	2.87072	0.833771	3.38306	0.974323	3.96385
0.648851	2.626	0.486029	1.96436	0.474474	2.68907	0.695236	2.81793	0.821466	3.32171	0.981346	3.96467	0.592328	2.39891	0.709632	2.86777	0.835072	3.37558	0.975797	3.95486
0.650968	2.62467	0.487973	1.96482	0.472107	2.68986	0.697087	2.8148	0.823175	3.31613	0.982478	3.95435	0.59409	2.397	0.711578	2.86485	0.836378	3.36818	0.977272	3.94594
0.653077	2.62332	0.489916	1.96527	0.46974	2.69066	0.698948	2.81174	0.824885	3.31059	0.983614	3.94414	0.595854	2.39511	0.713524	2.86195	0.83769	3.36085	0.978748	3.93708
0.655177	2.62194	0.491858	1.96571	0.467374	2.69146	0.700818	2.80873	0.826596	3.3051	0.984755	3.93401	0.597619	2.39325	0.715471	2.85908	0.839008	3.3536	0.980224	3.9283
0.657268	2.62054	0.493799	1.96615	0.465008	2.69229	0.702699	2.80579	0.828309	3.29966	0.985901	3.92399	0.599385	2.3914	0.717418	2.85622	0.840331	3.34643	0.9817	3.91958
0.659351	2.61912	0.495739	1.96658	0.462643	2.69312	0.704589	2.80291	0.830023	3.29426	0.987051	3.91405	0.601153	2.38957	0.719366	2.85339	0.84166	3.33933	0.983177	3.91093
0.661425	2.61767	0.497679	1.967	0.460279	2.69397	0.70649	2.8001	0.831739	3.28891	0.988207	3.90421	0.602923	2.38776	0.721314	2.85059	0.842994	3.3323	0.984655	3.90234
0.663491	2.61619	0.499617	1.96742	0.457917	2.69484	0.708401	2.79734	0.833455	3.2836	0.989367	3.89446	0.604694	2.38597	0.723262	2.8478	0.844334	3.32535	0.986133	3.89382
0.665547	2.6147	0.501555	1.96783	0.455555	2.69572	0.710322	2.79465	0.835173	3.27833	0.990532	3.8848	0.606466	2.3842	0.725211	2.84504	0.845679	3.31847	0.987611	3.88537
0.667595	2.61318	0.503491	1.96823	0.453194	2.69662	0.712253	2.79201	0.836892	3.27311	0.991703	3.87523	0.60824	2.38245	0.72716	2.84229	0.847031	3.31167	0.98909	3.87697
0.669634	2.61163	0.505427	1.96863	0.450835	2.69754	0.714195	2.78944	0.838613	3.26793	0.992877	3.86574	0.610016	2.38071	0.729108	2.83957	0.848387	3.30494	0.990569	3.86864
0.671664	2.61007	0.507362	1.96902	0.448477	2.69847	0.716147	2.78692	0.840334	3.26279	0.994057	3.85635	0.611793	2.379	0.731057	2.83686	0.84975	3.29827	0.992049	3.86038
0.673685	2.60848	0.509296	1.9694	0.446121	2.69943	0.71811	2.78446	0.842057	3.25769	0.995242	3.84704	0.613571	2.3773	0.733006	2.83418	0.851118	3.29168	0.993529	3.85217
0.675697	2.60686	0.511229	1.96978	0.443766	2.7004	0.720083	2.78206	0.84378	3.25264	0.996431	3.83782	0.615352	2.37562	0.734954	2.83151	0.852492	3.28516	0.995009	3.84402
0.6777	2.60523	0.513161	1.97016	0.441413	2.7014	0.722066	2.77972	0.845504	3.24762	0.997626	3.82868	0.617134	2.37396	0.736903	2.82886	0.853872	3.2787	0.99649	3.83593
0.679694	2.60357	0.515093	1.97052	0.439062	2.70242	0.72406	2.77743	0.84723	3.24265	0.998825	3.81962	0.618917	2.37232	0.738851	2.82623	0.855257	3.27231	0.997971	3.82791
0.68168	2.60189	0.517023	1.97088	0.436713	2.70347	0.726063	2.7752	0.848956	3.23771	1.00003	3.81065	0.620703	2.3707	0.740799	2.82362	0.856648	3.26599	0.999452	3.81994
0.683657	2.60019	0.518953	1.97124	0.434367	2.70454	0.728077	2.77302	0.850684	3.23281			0.62249	2.36909	0.742746	2.82103	0.858045	3.25974	1.00093	3.81203
0.685625	2.59847	0.520881	1.97159	0.432022	2.70564	0.730102	2.7709	0.852412	3.22795			0.624278	2.36751	0.744693	2.81845	0.859448	3.25355		
0.687585	2.59672	0.522809	1.97193	0.42968	2.70676	0.732136	2.76883	0.85414	3.22312			0.626068	2.36594	0.746639	2.81588	0.860856	3.24743		
0.689537	2.59496	0.524736	1.97227	0.427341	2.70792	0.73418	2.76681	0.85587	3.21833			0.62786	2.36438	0.748585	2.81334	0.862271	3.24137		
0.69148	2.59318	0.526662	1.9726	0.425004	2.70911	0.736234	2.76484	0.857601	3.21358			0.629654	2.36285	0.75053	2.81081	0.863691	3.23538		
0.693415	2.59138	0.528587	1.97292	0.422671	2.71033	0.738297	2.76292	0.859332	3.20886			0.631449	2.36133	0.752474	2.80829	0.865117	3.22945		
0.695341	2.58957	0.530512	1.97324	0.42034	2.71159	0.740371	2.76105	0.861063	3.20418			0.633246	2.35983	0.754418	2.80579	0.866548	3.22358		
0.69726	2.58774	0.532435	1.97356	0.418013	2.71288	0.742453	2.75923	0.862796	3.19954			0.635045	2.35834	0.756361	2.8033	0.867986	3.21778		
0.699171	2.58589	0.534358	1.97387	0.41569	2.71421	0.744545	2.75746	0.864529	3.19493			0.636845	2.35687	0.758303	2.80082	0.869429	3.21204		
0.701075	2.58402	0.53628	1.97417	0.41337	2.71559	0.746647	2.75573	0.866262	3.19035			0.638648	2.35542	0.760244	2.79836	0.870879	3.20635		
0.702971	2.58215	0.538201	1.97447	0.411054	2.717	0.748757	2.75405	0.867996	3.1858			0.640452	2.35399	0.762184	2.79592	0.872334	3.20073		
0.70486	2.58025	0.540121	1.97477	0.408743	2.71847	0.750876	2.75241	0.869731	3.18129			0.642257	2.35257	0.764123	2.79348	0.873795	3.19517		
0.706742	2.57835	0.54204	1.97506	0.406436	2.71998	0.753003	2.75082	0.871466	3.17681			0.644065	2.35116	0.766061	2.79106	0.875262	3.18967		
0.708617	2.57643	0.543959	1.97534	0.404133	2.72154	0.75514	2.74926	0.873202	3.17236			0.645874	2.34977	0.767998	2.78865	0.876735	3.18422		
0.710485	2.5745	0.545876	1.97562	0.401836	2.72315	0.757284	2.74775	0.874938	3.16795			0.647685	2.3484	0.769933	2.78625	0.878213	3.17884		
0.712346	2.57256	0.547793	1.9759	0.399544	2.72482	0.759437	2.74628	0.876674	3.16356			0.649497	2.34705	0.771867	2.78387	0.879698	3.17351		
0.714201	2.57061	0.549709	1.97617	0.397257	2.72655	0.761597	2.74484	0.878411	3.15921			0.651312	2.34571	0.7738	2.78149	0.881189	3.16824		
0.71605	2.56865	0.551624	1.97643	0.394977	2.72835	0.763765	2.74344	0.880148	3.15488			0.653128	2.34438	0.775732	2.77913	0.882685	3.16302		
0.717893	2.56669	0.553539	1.97669	0.392702	2.73021	0.765941	2.74208	0.881885	3.15059			0.654946	2.34307	0.777662	2.77677	0.884188	3.15786		
0.71973	2.56471	0.555452	1.97695	0.390434	2.73214	0.768124	2.74076	0.883623	3.14632			0.656765	2.34177	0.779591	2.77443	0.885697	3.15276		
0.721562	2.56273	0.557365	1.9772	0.388174	2.73414	0.770314	2.73946	0.885361	3.14209			0.658587	2.34049	0.781518	2.7721	0.887211	3.14771		
0.723388	2.56074	0.559277	1.97745	0.38592	2.73623	0.772511	2.73821	0.887099	3.13788			0.66041	2.33923	0.783444	2.76977	0.888732	3.14272		
0.725209	2.55875	0.561188	1.97769	0.383675	2.7384	0.774715	2.73698	0.888838	3.1337			0.662235	2.33798	0.785368	2.76746	0.890258	3.13778		
0.727025	2.55675	0.563099	1.97793	0.381437	2.74065	0.776926	2.73578	0.890576	3.12955			0.664062	2.33674	0.78729	2.76516	0.891791	3.13289		
0.728836	2.55475	0.565008	1.97816	0.379209	2.743	0.779142	2.73462	0.892315	3.12543			0.66589	2.33552	0.789211	2.76286	0.893329	3.12806		
0.730642	2.55274	0.566917	1.97839	0.376989	2.74545	0.781365	2.73348	0.894054	3.12134			0.667721	2.33431	0.79113	2.76057	0.894874	3.12328		
0.732444	2.55074	0.568825	1.97862	0.37478	2.748	0.783594	2.73237	0.895793	3.11727			0.669553	2.33311	0.793047	2.7583	0.896424	3.11855		
0.734242	2.54873	0.570733	1.97884	0.37258	2.75067	0.785829	2.73129	0.897532	3.11323			0.671387	2.33193	0.794962	2.75603	0.897981	3.11387		
0.736035	2.54672	0.572639	1.97905	0.370392	2.75345	0.788069	2.73024	0.899272	3.10921			0.673222	2.33076	0.796876	2.75377	0.899543	3.10924		
0.737825	2.5447	0.574545	1.97927	0.368215	2.75636	0.790315	2.72921	0.901011	3.10522			0.675059	2.32961	0.798787	2.75151	0.901111	3.10467		
0.739611	2.54269	0.57645	1.97948	0.36605	2.7594	0.792566	2.7282	0.90275	3.10126			0.676899	2.32847	0.800697	2.74927	0.902686	3.10014		
0.741393	2.54068	0.578354	1.97968	0.363899	2.76258	0.794822	2.72722	0.90449	3.09732			0.678739	2.32734	0.802605	2.74703	0.904266	3.09566		
0.743172	2.53867	0.580258	1.97988	0.36176	2.76592	0.797083	2.72627	0.906229	3.09341			0.680582	2.32623	0.804511	2.7448	0.905853	3.09123		
0.744947	2.53666	0.582161	1.98008	0.359637	2.7694	0.799349	2.72533	0.907968	3.08952			0.682426	2.32513	0.806414	2.74258	0.907446	3.08685		
0.746719	2.53466	0.584063	1.98028	0.357528	2.77306	0.80162	2.72442	0.909708	3.08565			0.684272	2.32404	0.808316	2.74036	0.909044	3.08252		
0.748489	2.53265	0.585964	1.98047	0.355435	2.7769	0.803894	2.72352	0.911447	3.08181			0.68612	2.32297	0.810216	2.73815	0.910649	3.07824		
0.750255	2.53065	0.587865	1.98065	0.353359	2.78092	0.806173	2.72265	0.913186	3.078			0.68797	2.32191	0.812113	2.73595	0.912259	3.074		
0.752019	2.52865	0.589765	1.98084	0.3513	2.78514	0.808456	2.7218	0.914926	3.07421			0.689821	2.32086	0.814008	2.73376	0.913876	3.06981		
0.75378	2.52666	0.591664	1.98102	0.34926	2.78957	0.810744	2.72096	0.916665	3.07044			0.691674	2.31982	0.815901	2.73157	0.915498	3.06567		
0.755539	2.52467	0.593563	1.98119	0.34724	2.79423	0.813034	2.72015	0.918404	3.06669			0.693529	2.31879	0.817792	2.72938	0.917126	3.06157		
0.757295	2.52269	0.595461	1.98137	0.34524	2.79912	0.815329	2.71935	0.920143	3.06297			0.695385	2.31778	0.819681	2.72721	0.918761	3.05751		
0.75905	2.52071	0.597358	1.98154	0.343262	2.80426	0.817627	2.71856	0.921882	3.05927			0.697244	2.31678	0.821567	2.72503	0.920401	3.0535		
0.760802	2.51873	0.599254	1.9817	0.341306	2.80967	0.819928	2.71779	0.92362	3.05559			0.699104	2.31579	0.823451	2.72287	0.922047	3.04954		
0.762552	2.51677	0.60115	1.98187	0.339373	2.81535	0.822233	2.71704	0.925359	3.05194			0.700965	2.31481	0.825333	2.72071	0.9237	3.04562		
0.764301	2.5148	0.603045	1.98203	0.337465	2.82133	0.824541	2.71631	0.927098	3.04831			0.702828	2.31385	0.827213	2.71856	0.925358	3.04174		
0.766048	2.51285	0.60494	1.98218	0.335582	2.82761	0.826852	2.71558	0.928836	3.04469			0.704693	2.31289	0.82909	2.71641	0.927022	3.03791		
0.767793	2.5109	0.606834	1.98234	0.333726	2.83422	0.829165	2.71488	0.930574	3.0411			0.70656	2.31195	0.830965	2.71427	0.928692	3.03412		
0.769537	2.50896	0.608727	1.98249	0.331897	2.84117	0.831482	2.71418	0.932312	3.03754			0.708429	2.31102	0.832837	2.71213	0.930367	3.03037		
0.77128	2.50702	0.610619	1.98263	0.330096	2.84848	0.833801	2.7135	0.93405	3.03399			0.710299	2.3101	0.834707	2.71	0.932049	3.02666		
0.773021	2.5051	0.612511	1.98278	0.328325	2.85615	0.836122	2.71283	0.935788	3.03046			0.71217	2.30919	0.836575	2.70787	0.933736	3.02299		
0.774761	2.50318	0.614402	1.98292	0.326584	2.86422	0.838446	2.71217	0.937526	3.02696			0.714044	2.30829	0.83844	2.70575	0.93543	3.01937		
0.7765	2.50127	0.616293	1.98306	0.324873	2.87269	0.840773	2.71152	0.939263	3.02347			0.715919	2.3074	0.840303	2.70363	0.937129	3.01578		
0.778238	2.49936	0.618183	1.98319	0.323195	2.88159	0.843101	2.71089	0.941	3.02001			0.717795	2.30652	0.842163	2.70152	0.938833	3.01224		
0.779975	2.49747	0.620072	1.98333	0.321548	2.89093	0.845432	2.71026	0.942738	3.01656			0.719674	2.30566	0.844021	2.69941	0.940544	3.00873		
0.781711	2.49558	0.621961	1.98346	0.319935	2.90072	0.847764	2.70964	0.944475	3.01314			0.721554	2.3048	0.845877	2.69731	0.94226	3.00526		
0.783446	2.49371	0.623849	1.98359	0.318355	2.91098	0.850099	2.70904	0.946211	3.00973			0.723435	2.30395	0.84773	2.69521	0.943982	3.00183		
0.785181	2.49184	0.625737	1.98371	0.316808	2.92173	0.852435	2.70844	0.947948	3.00635			0.725319	2.30312	0.849581	2.69311	0.945709	2.99844		
0.786915	2.48998	0.627624	1.98383	0.315296	2.93299	0.854773	2.70785	0.949685	3.00298			0.727203	2.30229	0.851429	2.69102	0.947442	2.99509		
0.788649	2.48813	0.62951	1.98395	0.313819	2.94477	0.857113	2.70728	0.951421	2.99963			0.72909	2.30147	0.853275	2.68894	0.949181	2.99178		
0.790382	2.48629	0.631396	1.98407	0.312375	2.95708	0.859454	2.70671	0.953157	2.99631			0.730978	2.30067	0.855118	2.68686	0.950925	2.9885		
0.792115	2.48446	0.633281	1.98419	0.310967	2.96994	0.861796	2.70614	0.954894	2.993			0.732867	2.29987	0.856959	2.68479	0.952675	2.98526		
0.793848	2.48264	0.635166	1.9843	0.309593	2.98336	0.86414	2.70559	0.95663	2.98971			0.734758	2.29908	0.858798	2.68271	0.95443	2.98205		
0.79558	2.48083	0.63705	1.98441	0.308253	2.99736	0.866485	2.70504	0.958366	2.98644			0.736651	2.29831	0.860634	2.68065	0.956191	2.97888		
0.797312	2.47903	0.638934	1.98452	0.306947	3.01195	0.868832	2.7045	0.960101	2.98319			0.738546	2.29754	0.862467	2.67859	0.957957	2.97575		
0.799044	2.47724	0.640817	1.98462	0.305676	3.02715	0.871179	2.70396	0.961837	2.97995			0.740441	2.29678	0.864298	2.67653	0.959729	2.97265		
0.800775	2.47545	0.642699	1.98473	0.304438	3.04297	0.873528	2.70343	0.963573	2.97674			0.742339	2.29603	0.866127	2.67448	0.961506	2.96958		
0.802507	2.47368	0.644581	1.98483	0.303233	3.05941	0.875877	2.70291	0.965309	2.97354			0.744238	2.29529	0.867954	2.67243	0.963288	2.96655		
0.804239	2.47192	0.646462	1.98493	0.302061	3.07651	0.878228	2.7024	0.967044	2.97036			0.746138	2.29455	0.869778	2.67038	0.965076	2.96355		
0.805971	2.47017	0.648343	1.98502	0.300921	3.09426	0.880579	2.70188	0.96878	2.9672			0.74804	2.29383	0.871599	2.66834	0.966868	2.96058		
0.807703	2.46843	0.650224	1.98512	0.299813	3.11269	0.882931	2.70138	0.970515	2.96406			0.749944	2.29312	0.873419	2.66631	0.968666	2.95765		
0.809435	2.4667	0.652103	1.98521	0.298736	3.1318	0.885283	2.70088	0.972251	2.96094			0.751849	2.29241	0.875235	2.66428	0.970469	2.95475		
0.811167	2.46498	0.653983	1.9853	0.29769	3.15162	0.887637	2.70038	0.973987	2.95783			0.753755	2.29171	0.87705	2.66225	0.972277	2.95188		
0.812899	2.46327	0.655862	1.98539	0.296673	3.17215	0.88999	2.69989	0.975723	2.95474			0.755663	2.29102	0.878862	2.66023	0.97409	2.94904		
0.814632	2.46157	0.65774	1.98547	0.295687	3.19341	0.892344	2.6994	0.977458	2.95167			0.757572	2.29034	0.880672	2.65821	0.975908	2.94624		
0.816365	2.45988	0.659618	1.98556	0.294729	3.21542	0.894699	2.69892	0.979194	2.94861			0.759483	2.28967	0.88248	2.6562	0.977731	2.94346		
0.818098	2.4582	0.661495	1.98564	0.293799	3.23819	0.897054	2.69844	0.98093	2.94558			0.761396	2.28901	0.884285	2.65419	0.979559	2.94072		
0.819832	2.45654	0.663372	1.98572	0.292898	3.26175	0.899409	2.69796	0.982667	2.94256			0.763309	2.28835	0.886089	2.65218	0.981392	2.938		
0.821567	2.45488	0.665249	1.9858	0.292023	3.2861	0.901764	2.69748	0.984403	2.93956			0.765225	2.2877	0.88789	2.65018	0.98323	2.93532		
0.823301	2.45323	0.667125	1.98588	0.291175	3.31128	0.904119	2.69701	0.98614	2.93657			0.767141	2.28706	0.889688	2.64819	0.985072	2.93266		
0.825036	2.4516	0.669	1.98595	0.290353	3.33729	0.906474	2.69654	0.987877	2.93361			0.769059	2.28643	0.891485	2.6462	0.986919	2.93003		
0.826772	2.44997	0.670875	1.98602	0.289557	3.36416	0.90883	2.69608	0.989614	2.93066			0.770979	2.28581	0.89328	2.64421	0.988771	2.92743		
0.828508	2.44836	0.67275	1.9861	0.288785	3.39192	0.911185	2.69561	0.991351	2.92773			0.7729	2.28519	0.895072	2.64223	0.990627	2.92486		
0.830245	2.44675	0.674624	1.98617	0.288039	3.42058	0.91354	2.69515	0.993089	2.92481			0.774822	2.28458	0.896862	2.64025	0.992488	2.92231		
0.831983	2.44516	0.676498	1.98623	0.287316	3.45017	0.915895	2.69469	0.994828	2.92191			0.776746	2.28398	0.89865	2.63828	0.994353	2.91979		
0.833721	2.44358	0.678371	1.9863	0.286617	3.48072	0.918249	2.69423	0.996566	2.91903			0.778671	2.28338	0.900437	2.63631	0.996223	2.9173		
0.835459	2.44201	0.680244	1.98637	0.285941	3.51225	0.920603	2.69378	0.998306	2.91617			0.780597	2.28279	0.902221	2.63435	0.998096	2.91484		
0.837199	2.44044	0.682116	1.98643	0.285287	3.54479	0.922957	2.69332	1.00005	2.91332			0.782525	2.28221	0.904003	2.63239	0.999975	2.9124		
0.838939	2.43889	0.683988	1.98649	0.284656	3.57837	0.92531	2.69287					0.784454	2.28164	0.905783	2.63044	1.00186	2.90999		
0.84068	2.43735	0.68586	1.98655	0.284047	3.61303	0.927663	2.69241					0.786384	2.28107	0.907561	2.62849				
0.842422	2.43582	0.687731	1.98661	0.28346	3.6488	0.930014	2.69196					0.788316	2.28051	0.909338	2.62655				
0.844164	2.4343	0.689602	1.98667	0.282893	3.68571	0.932366	2.69151					0.790249	2.27996	0.911112	2.62461				
0.845907	2.43279	0.691473	1.98672	0.282348	3.72381	0.934716	2.69105					0.792183	2.27941	0.912885	2.62268				
0.847651	2.43129	0.693343	1.98678	0.281823	3.76313	0.937066	2.6906					0.794119	2.27887	0.914656	2.62075				
0.849396	2.42981	0.695212	1.98683	0.281318	3.8037	0.939414	2.69015					0.796056	2.27834	0.916425	2.61883				
0.851142	2.42833	0.697082	1.98688	0.280833	3.84559	0.941762	2.6897					0.797994	2.27781	0.918192	2.61691				
0.852888	2.42686	0.698951	1.98693	0.280367	3.88883	0.944109	2.68924					0.799933	2.27729	0.919958	2.615				
0.854636	2.4254	0.700819	1.98698	0.279921	3.93348	0.946454	2.68879					0.801874	2.27678	0.921722	2.61309				
0.856384	2.42395	0.702687	1.98703	0.279494	3.97958	0.948798	2.68833					0.803816	2.27627	0.923484	2.61119				
0.858134	2.42252	0.704555	1.98708	0.279086	4.02719	0.951141	2.68787					0.805759	2.27577	0.925245	2.6093				
0.859884	2.42109	0.706423	1.98712	0.278696	4.07636	0.953483	2.68742					0.807703	2.27527	0.927004	2.60741				
0.861635	2.41967	0.70829	1.98717	0.278324	4.12717	0.955823	2.68696					0.809649	2.27478	0.928761	2.60552				
0.863387	2.41827	0.710157	1.98721	0.27797	4.17967	0.958161	2.68649					0.811596	2.2743	0.930517	2.60364				
0.86514	2.41687	0.712023	1.98725	0.277634	4.23393	0.960498	2.68603					0.813544	2.27382	0.932272	2.60177				
0.866894	2.41548	0.71389	1.98729	0.277316	4.29003	0.962834	2.68556					0.815493	2.27335	0.934025	2.5999				
0.868649	2.41411	0.715756	1.98733	0.277015	4.34804	0.965167	2.68509					0.817443	2.27288	0.935777	2.59804				
0.870406	2.41274	0.717621	1.98737	0.27673	4.40804	0.967499	2.68462					0.819395	2.27242	0.937527	2.59619				
0.872163	2.41138	0.719486	1.98741	0.276463	4.47012	0.969829	2.68415					0.821347	2.27197	0.939276	2.59434				
0.873921	2.41004	0.721351	1.98745	0.276212	4.53436	0.972156	2.68367					0.823301	2.27152	0.941024	2.59249				
0.87568	2.4087	0.723216	1.98748	0.275977	4.60088	0.974482	2.68319					0.825256	2.27107	0.942771	2.59065				
0.87744	2.40737	0.72508	1.98752	0.275758	4.66977	0.976805	2.6827					0.827212	2.27063	0.944516	2.58882				
0.879202	2.40605	0.726944	1.98755	0.275556	4.74114	0.979126	2.68221					0.82917	2.2702	0.94626	2.587				
0.880964	2.40474	0.728808	1.98758	0.275368	4.81511	0.981445	2.68172					0.831128	2.26977	0.948003	2.58517				
0.882728	2.40345	0.730672	1.98761	0.275197	4.8918	0.983761	2.68122					0.833087	2.26935	0.949744	2.58336				
0.884492	2.40216	0.732535	1.98765	0.27504	4.97135	0.986075	2.68072					0.835048	2.26893	0.951485	2.58155				
0.886258	2.40088	0.734398	1.98768	0.274898	5.0539	0.988386	2.68022					0.83701	2.26852	0.953225	2.57975				
0.888024	2.39961	0.73626	1.9877	0.274771	5.1396	0.990694	2.67971					0.838972	2.26811	0.954963	2.57796				
0.889792	2.39834	0.738123	1.98773	0.274659	5.22861	0.992999	2.67919					0.840936	2.26771	0.956701	2.57617				
0.891561	2.39709	0.739985	1.98776	0.27456	5.32111	0.995301	2.67867					0.842901	2.26731	0.958437	2.57438				
0.893331	2.39585	0.741847	1.98779	0.274476	5.41729	0.9976	2.67814					0.844867	2.26692	0.960173	2.57261				
0.895103	2.39462	0.743708	1.98781	0.274405	5.51735	0.999896	2.6776					0.846834	2.26653	0.961907	2.57084				
0.896875	2.39339	0.74557	1.98784	0.274347	5.6215	1.00219	2.67706					0.848802	2.26614	0.963641	2.56908				
0.898648	2.39218	0.747431	1.98786	0.274303	5.72999							0.850771	2.26577	0.965374	2.56732				
0.900423	2.39097	0.749292	1.98788	0.274271	5.84305							0.852741	2.26539	0.967107	2.56557				
0.902199	2.38978	0.751153	1.98791	0.274252	5.96096							0.854712	2.26502	0.968838	2.56382				
0.903976	2.38859	0.753013	1.98793	0.274245	6.08402							0.856684	2.26466	0.970569	2.56209				
0.905754	2.38741	0.754873	1.98795	0.274251	6.21254							0.858657	2.26429	0.972299	2.56036				
0.907533	2.38624	0.756733	1.98797	0.274267	6.34688							0.860631	2.26394	0.974028	2.55863				
0.909313	2.38508	0.758593	1.98799	0.274296	6.4874							0.862606	2.26358	0.975756	2.55692				
0.911095	2.38392	0.760453	1.98801	0.274335	6.63452							0.864581	2.26324	0.977485	2.55521				
0.912878	2.38278	0.762312	1.98803	0.274384	6.78869							0.866558	2.26289	0.979212	2.5535				
0.914662	2.38164	0.764171	1.98805	0.274444	6.95039							0.868536	2.26255	0.980939	2.55181				
0.916447	2.38052	0.76603	1.98806	0.274505	7.09786							0.870515	2.26222	0.982665	2.55012				
0.918233	2.3794	0.767889	1.98808	0.274562	7.22871							0.872494	2.26188	0.984391	2.54843				
0.92002	2.37829	0.769747	1.9881	0.274613	7.34067							0.874475	2.26156	0.986116	2.54676				
0.921809	2.37719	0.771606	1.98811	0.274656	7.43171							0.876457	2.26123	0.987841	2.54509				
0.923599	2.37609	0.773464	1.98813	0.274689	7.50013							0.878439	2.26091	0.989566	2.54343				
0.92539	2.37501	0.775322	1.98814	0.27472	7.56421							0.880422	2.2606	0.99129	2.54177				
0.927182	2.37393	0.77718	1.98816	0.274742	7.60944							0.882406	2.26028	0.993014	2.54012				
0.928975	2.37286	0.779037	1.98817	0.274778	7.68122							0.884392	2.25997	0.994737	2.53848				
0.93077	2.3718	0.780895	1.98818	0.274828	7.78105							0.886378	2.25967	0.99646	2.53685				
0.932565	2.37075	0.782752	1.98819	0.274895	7.91112							0.888364	2.25937	0.998183	2.53522				
0.934362	2.3697	0.784609	1.98821	0.274979	8.07437							0.890352	2.25907	0.999905	2.5336				
0.93616	2.36867	0.786466	1.98822	0.275082	8.27469							0.89234	2.25878	1.00163	2.53198				
0.93796	2.36764	0.788323	1.98823	0.275208	8.51717							0.89433	2.25848						
0.93976	2.36662	0.790179	1.98824	0.27534	8.77426							0.89632	2.2582						
0.941562	2.3656	0.792036	1.98825	0.275479	9.04729							0.898311	2.25791						
0.943364	2.3646	0.793892	1.98826	0.275623	9.33774							0.900303	2.25763						
0.945168	2.3636	0.795748	1.98827	0.275772	9.6473							0.902296	2.25736						
0.946974	2.36261	0.797604	1.98828	0.275925	9.97788							0.904289	2.25708						
0.94878	2.36163	0.79946	1.98829	0.276083	10.3317							0.906283	2.25681						
0.950588	2.36065	0.801316	1.98829	0.276243	10.7111							0.908278	2.25654						
0.952397	2.35968	0.803172	1.9883	0.276407	11.1192							0.910274	2.25628						
0.954206	2.35872	0.805027	1.98831	0.276573	11.5591							0.912271	2.25602						
0.956018	2.35777	0.806882	1.98832	0.27674	12.0347							0.914268	2.25576						
0.95783	2.35682	0.808738	1.98832	0.276908	12.5505							0.916266	2.25551						
0.959644	2.35589	0.810593	1.98833	0.277076	13.1118							0.918265	2.25525						
0.961458	2.35495	0.812448	1.98834	0.277244	13.7249							0.920265	2.25501						
0.963274	2.35403	0.814303	1.98834	0.277411	14.3972							0.922265	2.25476						
0.965091	2.35311	0.816157	1.98835	0.277576	15.1377							0.924266	2.25452						
0.966909	2.3522	0.818012	1.98835	0.277738	15.9574							0.926268	2.25428						
0.968729	2.3513	0.819866	1.98836	0.277898	16.8696							0.928271	2.25404						
0.970549	2.3504	0.821721	1.98836	0.278053	17.8909							0.930274	2.2538						
0.972371	2.34951	0.823575	1.98837	0.278204	19.0421							0.932278	2.25357						
0.974194	2.34863	0.825429	1.98837	0.27835	20.3498							0.934282	2.25334						
0.976018	2.34776	0.827283	1.98837	0.27849	21.8482							0.936288	2.25312						
0.977844	2.34689	0.829137	1.98838	0.278623	23.5824							0.938294	2.25289						
0.97967	2.34602	0.830991	1.98838	0.278749	25.6128							0.940301	2.25267						
0.981498	2.34517	0.832845	1.98838	0.278867	28.0227							0.942308	2.25245						
0.983326	2.34432	0.834699	1.98839	0.278976	30.9294							0.944316	2.25224						
0.985156	2.34348	0.836552	1.98839	0.279077	34.5047							0.946325	2.25202						
0.986988	2.34264	0.838406	1.98839	0.279168	39.0097							0.948334	2.25181						
0.98882	2.34181	0.840259	1.98839	0.279249	44.8616							0.950344	2.25161						
0.990653	2.34099	0.842113	1.98839	0.27932	52.7717							0.952355	2.2514						
0.992488	2.34017	0.843966	1.9884	0.27938	64.0589							0.954366	2.2512						
0.994324	2.33936	0.845819	1.9884	0.279429	81.4755							0.956378	2.25099						
0.99616	2.33855	0.847672	1.9884	0.279466	111.88							0.958391	2.2508						
0.997998	2.33776	0.849525	1.9884	0.279492	178.451							0.960404	2.2506						
0.999838	2.33696	0.851378	1.9884	0.279506	440.5							0.962418	2.25041						
1.00168	2.33618	0.853231	1.9884									0.964432	2.25021						
		0.855084	1.9884									0.966447	2.25002						
		0.856937	1.9884									0.968463	2.24984						
		0.858789	1.9884									0.970479	2.24965						
		0.860642	1.9884									0.972496	2.24947						
		0.862495	1.9884									0.974514	2.24929						
		0.864347	1.9884									0.976532	2.24911						
		0.866199	1.9884									0.97855	2.24893						
		0.868052	1.9884									0.980569	2.24876						
		0.869904	1.9884									0.982589	2.24858						
		0.871756	1.9884									0.984609	2.24841						
		0.873609	1.9884									0.98663	2.24824						
		0.875461	1.9884									0.988651	2.24808						
		0.877313	1.9884									0.990673	2.24791						
		0.879165	1.9884									0.992695	2.24775						
		0.881017	1.98839									0.994718	2.24759						
		0.882869	1.98839									0.996742	2.24743						
		0.884721	1.98839									0.998766	2.24727						
		0.886573	1.98839									1.00079	2.24712						
		0.888425	1.98839																
		0.890276	1.98839																
		0.892128	1.98838																
		0.89398	1.98838																
		0.895831	1.98838																
		0.897683	1.98838																
		0.899535	1.98838																
		0.901386	1.98837																
		0.903238	1.98837																
		0.905089	1.98837																
		0.906941	1.98837																
		0.908792	1.98836																
		0.910643	1.98836																
		0.912495	1.98836																
		0.914346	1.98836																
		0.916198	1.98835																
		0.918049	1.98835																
		0.9199	1.98835																
		0.921751	1.98835																
		0.923603	1.98834																
		0.925454	1.98834																
		0.927305	1.98834																
		0.929156	1.98833																
		0.931007	1.98833																
		0.932858	1.98833																
		0.93471	1.98833																
		0.936561	1.98832																
		0.938412	1.98832																
		0.940263	1.98832																
		0.942114	1.98831																
		0.943965	1.98831																
		0.945816	1.98831																
		0.947667	1.9883																
		0.949518	1.9883																
		0.951369	1.9883																
		0.95322	1.9883																
		0.955071	1.98829																
		0.956922	1.98829																
		0.958773	1.98829																
		0.960624	1.98828																
		0.962475	1.98828																
		0.964326	1.98828																
		0.966177	1.98827																
		0.968028	1.98827																
		0.969879	1.98827																
		0.97173	1.98826																
		0.97358	1.98826																
		0.975431	1.98826																
		0.977282	1.98825																
		0.979133	1.98825																
		0.980984	1.98825																
		0.982835	1.98825																
		0.984686	1.98824																
		0.986537	1.98824																
		0.988388	1.98824																
		0.990239	1.98823																
		0.99209	1.98823																
		0.993941	1.98823																
		0.995791	1.98822																
		0.997642	1.98822																
		0.999493	1.98822																
		1.00134	1.98822																
