Sym0		Asym0		Sym1		Sym2		Sym3		Sym4		Asym1		Asym2		Asym3		Asym4	
466  Points		546  Points		465  Points		407  Points		375  Points		288  Points		484  Points		430  Points		375  Points		288  Points	
Freq (MHz)	Vph (m/ms)	Freq (MHz)	Vph (m/ms)	Freq (MHz)	Vph (m/ms)	Freq (MHz)	Vph (m/ms)	Freq (MHz)	Vph (m/ms)	Freq (MHz)	Vph (m/ms)	Freq (MHz)	Vph (m/ms)	Freq (MHz)	Vph (m/ms)	Freq (MHz)	Vph (m/ms)	Freq (MHz)	Vph (m/ms)
0.279508	1626.02	2.45017e-005	0.0304748	1.00069	2.3366	0.341612	385.101	0.559017	3353.1	0.838527	1035.38	0.139776	185.532	0.419265	625.926	0.683192	7527.19	0.698772	4757.79
0.2795	253.264	0.000114235	0.0658154	0.998852	2.33739	0.341662	187.854	0.559022	508.937	0.838532	481.48	0.139862	83.0004	0.419274	261.797	0.683188	668.182	0.698786	647.885
0.27948	137.317	0.000269486	0.10103	0.997014	2.33818	0.341747	124.251	0.559036	275.373	0.838541	313.677	0.140013	53.5062	0.419291	165.517	0.683177	349.603	0.698822	347.628
0.279449	94.1862	0.000489853	0.136105	0.995176	2.33898	0.341867	92.8443	0.559056	188.756	0.838553	232.611	0.14023	39.5185	0.419315	121.017	0.68316	236.728	0.698879	237.556
0.279406	71.6668	0.000774667	0.170979	0.99334	2.33979	0.342021	74.1292	0.559085	143.595	0.838569	184.843	0.140511	31.3629	0.419347	95.3797	0.683136	178.946	0.698958	180.439
0.279351	57.8322	0.00112328	0.205635	0.991505	2.34061	0.342209	61.7088	0.559122	115.876	0.838589	153.353	0.140856	26.0272	0.419387	78.7093	0.683106	143.835	0.699058	145.475
0.279286	48.4697	0.00153465	0.240007	0.989671	2.34143	0.34243	52.8667	0.559166	97.1299	0.838613	131.032	0.141263	22.2688	0.419434	67.0023	0.68307	120.239	0.699178	121.871
0.27921	41.7119	0.00200767	0.274053	0.987838	2.34225	0.342685	46.253	0.559218	83.6079	0.83864	114.385	0.141732	19.4814	0.419489	58.3297	0.683028	103.291	0.699319	104.865
0.279124	36.6042	0.00254123	0.307746	0.986006	2.34309	0.342973	41.1207	0.559278	73.3934	0.838671	101.492	0.142262	17.3343	0.419552	51.6474	0.682982	90.5292	0.69948	92.0316
0.279028	32.6075	0.00313387	0.341037	0.984176	2.34393	0.343293	37.0234	0.559346	65.4055	0.838706	91.212	0.14285	15.6315	0.419622	46.341	0.682931	80.5721	0.69966	82.003
0.278922	29.3948	0.00378425	0.373902	0.982347	2.34477	0.343644	33.6773	0.559421	58.9878	0.838744	82.824	0.143497	14.2495	0.4197	42.0255	0.682876	72.5868	0.699859	73.951
0.278808	26.7556	0.00449084	0.406313	0.980518	2.34563	0.344027	30.894	0.559504	53.7191	0.838786	75.8498	0.144199	13.1066	0.419785	38.4472	0.682817	66.0402	0.700076	67.3441
0.278686	24.549	0.005252	0.438239	0.978691	2.34648	0.344441	28.5431	0.559595	49.3163	0.838832	69.9597	0.144957	12.1468	0.419878	35.4322	0.682755	60.5757	0.700312	61.8256
0.278557	22.6765	0.00606609	0.469656	0.976866	2.34735	0.344884	26.5314	0.559694	45.5823	0.838882	64.9193	0.145767	11.3301	0.419979	32.8574	0.682691	55.9454	0.700565	57.1474
0.27842	21.0675	0.00693142	0.500546	0.975041	2.34822	0.345357	24.7909	0.559801	42.3756	0.838935	60.5571	0.146628	10.6275	0.420087	30.6329	0.682624	51.9719	0.700834	53.1313
0.278277	19.67	0.00784629	0.530893	0.973217	2.3491	0.345859	23.2706	0.559916	39.592	0.838992	56.745	0.147539	10.017	0.420203	28.6921	0.682556	48.5246	0.70112	49.6463
0.278129	18.4448	0.00880892	0.560681	0.971395	2.34999	0.346388	21.9314	0.560038	37.153	0.839053	53.385	0.148498	9.4823	0.420326	26.9839	0.682488	45.5056	0.701422	46.5937
0.277976	17.3618	0.00981766	0.589904	0.969574	2.35088	0.346945	20.743	0.560168	34.9984	0.839117	50.4014	0.149502	9.01039	0.420457	25.4689	0.682418	42.8397	0.701738	43.8979
0.277818	16.3978	0.0108706	0.618543	0.967754	2.35178	0.347529	19.6816	0.560306	33.0813	0.839185	47.7342	0.150551	8.59119	0.420596	24.1163	0.682349	40.4684	0.70207	41.4999
0.277657	15.534	0.0119662	0.646604	0.965935	2.35269	0.348138	18.7279	0.560452	31.3646	0.839257	45.3356	0.1515	8.26252	0.420743	22.9013	0.68228	38.3455	0.702416	39.3531
0.277493	14.7557	0.0131026	0.674075	0.964117	2.3536	0.348773	17.8666	0.560605	29.8185	0.839332	43.1671	0.152333	8.00578	0.420897	21.8039	0.682211	36.4338	0.702776	37.42
0.277327	14.0508	0.0142782	0.700957	0.962301	2.35452	0.349432	17.0849	0.560767	28.4187	0.839412	41.1972	0.153039	7.80802	0.421059	20.808	0.682144	34.7035	0.70315	35.6703
0.27716	13.4093	0.0154914	0.727252	0.960486	2.35545	0.350115	16.3725	0.560936	27.1456	0.839495	39.3996	0.153608	7.66017	0.421228	19.9001	0.682079	33.1298	0.703537	34.0792
0.276991	12.8232	0.0167406	0.752963	0.958672	2.35639	0.350822	15.7206	0.561113	25.9826	0.839581	37.7529	0.154031	7.55592	0.421406	19.0692	0.682015	31.6925	0.703936	32.6261
0.276823	12.2855	0.0180242	0.778089	0.956859	2.35733	0.351551	15.1219	0.561298	24.9162	0.839672	36.2387	0.154305	7.49109	0.421591	18.3058	0.681954	30.3746	0.704348	31.2938
0.276655	11.7905	0.0193407	0.802639	0.955047	2.35828	0.352301	14.5703	0.56149	23.9349	0.839766	34.8418	0.154702	7.40037	0.421783	17.602	0.681895	29.1618	0.704771	30.068
0.276489	11.3334	0.0206887	0.826619	0.953237	2.35924	0.353073	14.0604	0.561691	23.0288	0.839864	33.549	0.155138	7.30494	0.421984	16.9513	0.68184	28.0421	0.705207	28.9364
0.276324	10.91	0.0220667	0.850033	0.951427	2.3602	0.353866	13.5879	0.561899	22.1897	0.839966	32.3491	0.155738	7.18019	0.422192	16.3478	0.681787	27.0052	0.705654	27.8886
0.276162	10.5167	0.0234734	0.872896	0.949619	2.36117	0.354679	13.1487	0.562115	21.4105	0.840071	31.2325	0.156508	7.03022	0.422408	15.7867	0.681738	26.0422	0.706112	26.9156
0.276003	10.1505	0.0249076	0.89521	0.947812	2.36215	0.355511	12.7395	0.562339	20.685	0.84018	30.1908	0.157458	6.8596	0.422632	15.2635	0.681692	25.1455	0.706581	26.0098
0.275847	9.80869	0.0263679	0.916989	0.946006	2.36314	0.356362	12.3574	0.562571	20.0078	0.840293	29.2167	0.158594	6.67309	0.422863	14.7747	0.681651	24.3085	0.707061	25.1644
0.275696	9.48894	0.0278532	0.938243	0.944202	2.36413	0.357231	11.9999	0.562811	19.3744	0.84041	28.3039	0.159928	6.47538	0.423102	14.317	0.681613	23.5256	0.707552	24.3736
0.275549	9.18923	0.0293623	0.958981	0.942398	2.36514	0.358119	11.6646	0.563058	18.7805	0.84053	27.4467	0.161293	6.29322	0.42335	13.8876	0.68158	22.7915	0.708052	23.6324
0.275408	8.90775	0.0308942	0.979215	0.940596	2.36614	0.359023	11.3496	0.563313	18.2227	0.840654	26.6402	0.162687	6.12494	0.423604	13.4838	0.681551	22.1019	0.708563	22.9362
0.275273	8.64292	0.0324478	0.998958	0.938795	2.36716	0.359944	11.0532	0.563577	17.6979	0.840782	25.8802	0.164108	5.96907	0.423867	13.1036	0.681527	21.453	0.709083	22.2811
0.275144	8.39334	0.034022	1.01822	0.936995	2.36819	0.360881	10.7737	0.563848	17.203	0.840914	25.1626	0.165555	5.82435	0.424138	12.7448	0.681507	20.8411	0.709614	21.6635
0.275022	8.15775	0.0356161	1.03701	0.935197	2.36922	0.361834	10.5099	0.564127	16.7358	0.84105	24.4841	0.167028	5.68967	0.424416	12.4059	0.681493	20.2634	0.710153	21.0804
0.274907	7.93505	0.037229	1.05534	0.933399	2.37026	0.362803	10.2603	0.564413	16.294	0.841189	23.8415	0.168525	5.56407	0.424702	12.0851	0.681483	19.7169	0.710703	20.5289
0.2748	7.72423	0.0388599	1.07323	0.931603	2.37131	0.363786	10.024	0.564708	15.8755	0.841332	23.232	0.170045	5.4467	0.424996	11.7812	0.681479	19.1992	0.711261	20.0066
0.274701	7.5244	0.040508	1.09068	0.929808	2.37237	0.364784	9.79991	0.56501	15.4785	0.841479	22.6533	0.171586	5.33681	0.425298	11.4927	0.68148	18.7082	0.711828	19.5112
0.27461	7.33474	0.0421725	1.10771	0.928014	2.37343	0.365796	9.58713	0.56532	15.1016	0.841629	22.103	0.173149	5.23374	0.425608	11.2186	0.681486	18.2418	0.712405	19.0408
0.274529	7.15453	0.0438526	1.12432	0.926221	2.37451	0.366821	9.38484	0.565639	14.7431	0.841784	21.579	0.174731	5.13691	0.425926	10.9579	0.681498	17.7982	0.71299	18.5934
0.274457	6.9831	0.0455476	1.14054	0.92443	2.37559	0.36786	9.19229	0.565965	14.4019	0.841942	21.0796	0.176332	5.04577	0.426252	10.7096	0.681515	17.3759	0.713584	18.1675
0.274395	6.81986	0.047257	1.15637	0.92264	2.37668	0.368911	9.00883	0.566299	14.0767	0.842104	20.6031	0.177952	4.95987	0.426586	10.4728	0.681538	16.9733	0.714187	17.7615
0.274344	6.66425	0.04898	1.17181	0.920851	2.37777	0.369975	8.83382	0.56664	13.7663	0.84227	20.1479	0.179588	4.87879	0.426927	10.2468	0.681567	16.5891	0.714798	17.3742
0.274302	6.51578	0.0507161	1.18689	0.919063	2.37888	0.371051	8.66672	0.56699	13.4699	0.84244	19.7126	0.181241	4.80215	0.427277	10.0309	0.681602	16.222	0.715417	17.0041
0.274272	6.37399	0.0524645	1.20161	0.917276	2.38	0.372139	8.507	0.567347	13.1866	0.842613	19.296	0.182909	4.7296	0.427634	9.8244	0.681642	15.8711	0.716045	16.6503
0.274253	6.23847	0.054225	1.21598	0.91549	2.38112	0.373238	8.3542	0.567713	12.9154	0.84279	18.8968	0.184593	4.66084	0.428	9.62674	0.681688	15.5351	0.716681	16.3117
0.274245	6.10883	0.0559967	1.23001	0.913706	2.38225	0.374206	8.22635	0.568086	12.6556	0.842971	18.5141	0.18629	4.59559	0.428374	9.43738	0.681741	15.2133	0.717325	15.9874
0.27425	5.98473	0.0577795	1.24372	0.911923	2.38339	0.375037	8.12106	0.568467	12.4066	0.843156	18.1469	0.188001	4.5336	0.428756	9.2558	0.681799	14.9047	0.717978	15.6764
0.274266	5.86583	0.0595726	1.2571	0.91014	2.38454	0.375728	8.03644	0.568856	12.1677	0.843345	17.7941	0.189725	4.47464	0.429145	9.08156	0.681863	14.6086	0.718638	15.378
0.274296	5.75184	0.0613756	1.27018	0.908359	2.3857	0.376278	7.97104	0.569253	11.9382	0.843538	17.455	0.191462	4.4185	0.429543	8.91422	0.681934	14.3242	0.719306	15.0914
0.274337	5.64248	0.0631882	1.28295	0.90658	2.38686	0.376684	7.92378	0.569658	11.7178	0.843734	17.1289	0.19321	4.36499	0.429949	8.7534	0.68201	14.0508	0.719982	14.816
0.274392	5.53749	0.0650099	1.29544	0.904801	2.38804	0.376944	7.8939	0.570071	11.5058	0.843934	16.8149	0.194969	4.31393	0.430363	8.59872	0.682093	13.7878	0.720666	14.5511
0.274461	5.43665	0.0668404	1.30763	0.903024	2.38922	0.377319	7.85142	0.570492	11.3017	0.844138	16.5124	0.196739	4.26517	0.430786	8.44986	0.682182	13.5347	0.721357	14.2961
0.274542	5.33972	0.0686793	1.31956	0.901247	2.39042	0.377728	7.80588	0.57092	11.1053	0.844346	16.2209	0.198519	4.21855	0.43116	8.32464	0.682277	13.2909	0.722056	14.0505
0.274638	5.24651	0.0705262	1.33121	0.899472	2.39162	0.378287	7.74499	0.571357	10.9159	0.844558	15.9396	0.200309	4.17395	0.431484	8.22104	0.682379	13.056	0.722763	13.8138
0.274748	5.15682	0.0723808	1.34261	0.897698	2.39283	0.378996	7.66965	0.571801	10.7334	0.844774	15.6682	0.202108	4.13123	0.431756	8.13748	0.682486	12.8293	0.723477	13.5855
0.274872	5.07049	0.0742427	1.35375	0.895925	2.39405	0.379859	7.58093	0.572254	10.5572	0.844993	15.406	0.203916	4.09029	0.431973	8.07271	0.682601	12.6106	0.724199	13.3653
0.275011	4.98733	0.0761118	1.36465	0.894154	2.39528	0.380878	7.48007	0.572714	10.3872	0.845217	15.1527	0.205732	4.05101	0.432133	8.02581	0.682721	12.3994	0.724928	13.1526
0.275165	4.9072	0.0779875	1.3753	0.892383	2.39652	0.382056	7.36838	0.573182	10.2229	0.845444	14.9078	0.207557	4.01331	0.432237	7.9961	0.682848	12.1954	0.725664	12.9471
0.275333	4.82996	0.0798698	1.38573	0.890614	2.39776	0.383243	7.26081	0.573658	10.0642	0.845675	14.6708	0.209389	3.97709	0.432386	7.95382	0.682981	11.9981	0.726408	12.7484
0.275518	4.75547	0.0817583	1.39593	0.888845	2.39902	0.384439	7.15713	0.574143	9.91066	0.845911	14.4415	0.211228	3.94226	0.43255	7.90842	0.683121	11.8073	0.727159	12.5563
0.275717	4.6836	0.0836528	1.40591	0.887078	2.40029	0.385644	7.05715	0.574635	9.76215	0.84615	14.2194	0.213075	3.90875	0.432774	7.84758	0.683267	11.6226	0.727917	12.3704
0.275933	4.61423	0.0855531	1.41568	0.885312	2.40156	0.386857	6.96067	0.575135	9.61841	0.846392	14.0042	0.214927	3.87649	0.433059	7.77211	0.683419	11.4439	0.728682	12.1903
0.276164	4.54726	0.0874588	1.42524	0.883547	2.40285	0.388078	6.86751	0.575643	9.4792	0.846639	13.7956	0.216787	3.8454	0.433409	7.68296	0.683578	11.2707	0.729454	12.016
0.276412	4.48257	0.0893698	1.4346	0.881783	2.40414	0.389307	6.77752	0.576158	9.34434	0.84689	13.5934	0.218652	3.81544	0.433826	7.58122	0.683744	11.1029	0.730234	11.847
0.276676	4.42007	0.0912859	1.44377	0.88002	2.40544	0.390544	6.69053	0.576682	9.21361	0.847145	13.3971	0.220523	3.78652	0.434311	7.46812	0.683915	10.9401	0.73102	11.6832
0.276957	4.35967	0.0932069	1.45274	0.878258	2.40676	0.391788	6.6064	0.577214	9.08684	0.847403	13.2066	0.2224	3.75862	0.434805	7.35871	0.684094	10.7823	0.731813	11.5242
0.277255	4.30128	0.0951326	1.46153	0.876497	2.40808	0.39304	6.525	0.577754	8.96386	0.847666	13.0216	0.224282	3.73166	0.435307	7.25285	0.684278	10.6291	0.732613	11.37
0.27757	4.24481	0.0970627	1.47014	0.874737	2.40941	0.394299	6.44619	0.578302	8.84451	0.847932	12.8419	0.226168	3.70561	0.435818	7.15036	0.684469	10.4804	0.73342	11.2203
0.277903	4.19019	0.0989972	1.47858	0.872979	2.41076	0.395565	6.36986	0.578858	8.72864	0.848203	12.6673	0.22806	3.68041	0.436337	7.05109	0.684667	10.336	0.734234	11.0749
0.278253	4.13735	0.100936	1.48684	0.871221	2.41211	0.396838	6.2959	0.579421	8.61609	0.848477	12.4975	0.229955	3.65604	0.436864	6.95489	0.684871	10.1957	0.735055	10.9336
0.278621	4.08622	0.102878	1.49494	0.869465	2.41347	0.398117	6.22419	0.579919	8.52062	0.848755	12.3323	0.231856	3.63244	0.4374	6.86165	0.685082	10.0593	0.735882	10.7963
0.278957	4.043	0.104825	1.50288	0.867709	2.41484	0.399403	6.15465	0.580348	8.44109	0.849038	12.1717	0.23376	3.60959	0.437944	6.77121	0.685299	9.92666	0.736716	10.6628
0.279254	4.00711	0.106775	1.51066	0.865954	2.41622	0.400695	6.08717	0.580706	8.37657	0.849324	12.0153	0.235668	3.58744	0.438496	6.68348	0.685522	9.79767	0.737557	10.5329
0.279508	3.97808	0.108729	1.51829	0.864201	2.41762	0.401993	6.02166	0.580992	8.32633	0.849614	11.863	0.23758	3.56596	0.439057	6.59833	0.685752	9.67216	0.738404	10.4065
0.279713	3.95552	0.110686	1.52576	0.862448	2.41902	0.403298	5.95804	0.581203	8.28982	0.849908	11.7147	0.239495	3.54513	0.439627	6.51566	0.685989	9.55	0.739258	10.2836
0.279867	3.93916	0.112646	1.5331	0.860697	2.42043	0.404608	5.89624	0.581338	8.26665	0.850206	11.5703	0.241413	3.52492	0.440205	6.43536	0.686232	9.43106	0.740118	10.1638
0.279967	3.92879	0.11461	1.54029	0.858946	2.42185	0.405924	5.83618	0.581534	8.23359	0.850508	11.4294	0.243334	3.50529	0.440792	6.35735	0.686481	9.31521	0.740985	10.0471
0.280112	3.91402	0.116323	1.54644	0.857196	2.42329	0.407245	5.77778	0.581748	8.19799	0.850815	11.2922	0.245259	3.48622	0.441387	6.28152	0.686737	9.20234	0.741858	9.93349
0.280272	3.89813	0.117786	1.55161	0.855447	2.42473	0.408572	5.72098	0.58204	8.15013	0.851125	11.1583	0.247186	3.46769	0.44199	6.20781	0.686999	9.09234	0.742737	9.82273
0.280494	3.87681	0.118996	1.55582	0.8537	2.42618	0.409904	5.66572	0.582412	8.09051	0.851439	11.0277	0.249116	3.44967	0.442603	6.13611	0.687268	8.9851	0.743623	9.71474
0.28078	3.85032	0.119954	1.55912	0.851952	2.42764	0.411241	5.61193	0.582866	8.01971	0.851757	10.9003	0.251048	3.43214	0.443224	6.06636	0.687543	8.88053	0.744516	9.60944
0.281137	3.81896	0.120659	1.56153	0.850206	2.42912	0.412583	5.55956	0.583404	7.93844	0.852079	10.776	0.252982	3.41509	0.443853	5.99849	0.687825	8.77852	0.745414	9.50671
0.28157	3.78311	0.12111	1.56306	0.848461	2.4306	0.41393	5.50856	0.58403	7.84746	0.852405	10.6545	0.254919	3.39849	0.444492	5.93242	0.688076	8.69166	0.746319	9.40648
0.282085	3.74318	0.121759	1.56525	0.846717	2.4321	0.415282	5.45886	0.584663	7.75883	0.852736	10.536	0.256857	3.38232	0.445139	5.86808	0.688293	8.61905	0.74723	9.30865
0.28262	3.70448	0.122464	1.56762	0.844973	2.4336	0.416639	5.41043	0.585304	7.67248	0.85307	10.4201	0.258797	3.36656	0.445794	5.80542	0.688476	8.55999	0.748147	9.21314
0.283176	3.66698	0.123425	1.57081	0.84323	2.43512	0.418	5.36322	0.585954	7.58832	0.853408	10.307	0.260739	3.35121	0.446459	5.74438	0.688622	8.5139	0.74907	9.11987
0.283753	3.63065	0.12464	1.5748	0.841488	2.43664	0.419365	5.31717	0.586611	7.50626	0.853751	10.1964	0.262683	3.33624	0.447132	5.68489	0.68873	8.48036	0.75	9.02877
0.284351	3.59545	0.126111	1.57957	0.839747	2.43818	0.420734	5.27225	0.587277	7.42624	0.854097	10.0883	0.264628	3.32164	0.447814	5.62691	0.6888	8.45903	0.750935	8.93976
0.284971	3.56133	0.127837	1.58508	0.838007	2.43972	0.422108	5.22843	0.58795	7.34818	0.854447	9.98255	0.266575	3.30739	0.448505	5.57038	0.688901	8.42859	0.751876	8.85278
0.285613	3.52828	0.129821	1.5913	0.836267	2.44128	0.423486	5.18565	0.588631	7.27202	0.854802	9.87916	0.268522	3.29349	0.449205	5.51525	0.689011	8.39576	0.752702	8.77858
0.286278	3.49625	0.131808	1.5974	0.834528	2.44285	0.424868	5.14388	0.589321	7.19769	0.855161	9.77801	0.270471	3.27991	0.449913	5.46147	0.689163	8.35155	0.753409	8.71646
0.286966	3.46522	0.133796	1.6034	0.832789	2.44443	0.426253	5.10309	0.590018	7.12513	0.855523	9.67905	0.272421	3.26664	0.450631	5.40901	0.689357	8.29636	0.753996	8.66588
0.287677	3.43515	0.135786	1.60928	0.831052	2.44601	0.427643	5.06325	0.590724	7.05428	0.85589	9.58219	0.274371	3.25368	0.451357	5.35781	0.689594	8.23066	0.754462	8.62636
0.288412	3.40604	0.137779	1.61506	0.829315	2.44761	0.429036	5.02432	0.591438	6.98509	0.856261	9.48738	0.276323	3.24101	0.452092	5.30783	0.689878	8.15502	0.754805	8.59758
0.289171	3.37783	0.139773	1.62074	0.827578	2.44922	0.430432	4.98627	0.592159	6.91749	0.856636	9.39455	0.278275	3.22863	0.452837	5.25904	0.690209	8.07005	0.755025	8.57928
0.289955	3.35053	0.141769	1.62631	0.825842	2.45084	0.431832	4.94907	0.592889	6.85145	0.857015	9.30365	0.280227	3.21651	0.45359	5.2114	0.690546	7.98699	0.755342	8.55313
0.290764	3.32409	0.143767	1.63179	0.824107	2.45247	0.433235	4.91269	0.593626	6.7869	0.857398	9.21461	0.282181	3.20466	0.454352	5.16487	0.69089	7.90577	0.755688	8.52492
0.291599	3.2985	0.145766	1.63717	0.822372	2.45411	0.434641	4.87711	0.594372	6.7238	0.857785	9.12738	0.284134	3.19306	0.455123	5.11942	0.69124	7.82633	0.756158	8.4869
0.29246	3.27374	0.147767	1.64246	0.820637	2.45577	0.436051	4.84231	0.595126	6.66211	0.858177	9.0419	0.286088	3.1817	0.455904	5.07501	0.691596	7.74863	0.756756	8.4394
0.293348	3.24979	0.14977	1.64766	0.818903	2.45743	0.437464	4.80825	0.595888	6.60179	0.858521	8.96881	0.288042	3.17058	0.456693	5.03161	0.691959	7.6726	0.757481	8.38278
0.294264	3.22663	0.151774	1.65276	0.81717	2.4591	0.438879	4.77491	0.596658	6.54278	0.858817	8.9075	0.289996	3.15968	0.457492	4.9892	0.692328	7.5982	0.758336	8.31751
0.295208	3.20424	0.15378	1.65778	0.815437	2.46079	0.440298	4.74227	0.597436	6.48505	0.859064	8.85747	0.29195	3.14901	0.458299	4.94773	0.692703	7.52537	0.759323	8.24408
0.29618	3.18261	0.155787	1.66272	0.813704	2.46248	0.441719	4.71031	0.598222	6.42857	0.85926	8.81835	0.293904	3.13854	0.459116	4.90719	0.693085	7.45407	0.760315	8.17219
0.297181	3.16172	0.157795	1.66757	0.811971	2.46419	0.443143	4.67901	0.599016	6.37329	0.859404	8.78982	0.295858	3.12828	0.459942	4.86755	0.693473	7.38425	0.761313	8.10178
0.298213	3.14155	0.159804	1.67234	0.810239	2.4659	0.44457	4.64834	0.599818	6.31918	0.859497	8.77166	0.297811	3.11822	0.460777	4.82877	0.693867	7.31587	0.762316	8.03282
0.299274	3.12209	0.161815	1.67703	0.808507	2.46763	0.445999	4.6183	0.600628	6.26621	0.859631	8.74571	0.299764	3.10835	0.461621	4.79084	0.694268	7.24888	0.763325	7.96525
0.300367	3.10333	0.163827	1.68164	0.806775	2.46936	0.447431	4.58885	0.601446	6.21434	0.859777	8.71768	0.301717	3.09866	0.462475	4.75374	0.694674	7.18325	0.76434	7.89904
0.301491	3.08524	0.16584	1.68618	0.805043	2.47111	0.448865	4.55999	0.602272	6.16354	0.859977	8.67988	0.303669	3.08915	0.463338	4.71743	0.695087	7.11893	0.76536	7.83415
0.302647	3.06782	0.167854	1.69064	0.803311	2.47286	0.450301	4.53168	0.603106	6.11379	0.860231	8.63257	0.305621	3.07982	0.46421	4.6819	0.695506	7.0559	0.766386	7.77054
0.303835	3.05105	0.169869	1.69503	0.801579	2.47463	0.45174	4.50393	0.603948	6.06504	0.86054	8.57611	0.307572	3.07065	0.465091	4.64712	0.695932	6.99411	0.767417	7.70818
0.305057	3.03492	0.171885	1.69934	0.799848	2.47641	0.45318	4.47671	0.604799	6.01728	0.860905	8.51089	0.309522	3.06164	0.465982	4.61307	0.696363	6.93352	0.768453	7.64703
0.306312	3.01942	0.173901	1.70359	0.798116	2.47819	0.454623	4.45001	0.605657	5.97048	0.861329	8.43736	0.311472	3.05279	0.466882	4.57974	0.696801	6.87411	0.769495	7.58705
0.3076	3.00453	0.175919	1.70777	0.796384	2.47999	0.456068	4.42381	0.606523	5.9246	0.861756	8.3652	0.313421	3.04409	0.467791	4.5471	0.697245	6.81584	0.770542	7.52822
0.308923	2.99024	0.177937	1.71188	0.794652	2.4818	0.457515	4.3981	0.607397	5.87963	0.862188	8.29437	0.315369	3.03554	0.46871	4.51515	0.697695	6.75869	0.771594	7.4705
0.31028	2.97653	0.179957	1.71593	0.79292	2.48361	0.458964	4.37286	0.60828	5.83554	0.862623	8.22484	0.317315	3.02713	0.469639	4.48384	0.698152	6.70262	0.772652	7.41386
0.311672	2.96339	0.181977	1.71991	0.791187	2.48544	0.460415	4.34808	0.60917	5.79231	0.863063	8.15658	0.319261	3.01886	0.470576	4.45318	0.698614	6.64759	0.773715	7.35828
0.313098	2.95081	0.183997	1.72383	0.789454	2.48728	0.461867	4.32376	0.610068	5.74991	0.863507	8.08955	0.321206	3.01073	0.471523	4.42315	0.699083	6.5936	0.774783	7.30372
0.314558	2.93877	0.186019	1.72768	0.78772	2.48912	0.463321	4.29986	0.610975	5.70833	0.863956	8.02371	0.323149	3.00272	0.47248	4.39372	0.699557	6.5406	0.775856	7.25016
0.316053	2.92726	0.18804	1.73148	0.785986	2.49098	0.464777	4.2764	0.611889	5.66754	0.864408	7.95905	0.325091	2.99484	0.473446	4.36489	0.700038	6.48857	0.776935	7.19757
0.317583	2.91626	0.190063	1.73522	0.784252	2.49284	0.466234	4.25335	0.612811	5.62752	0.864865	7.89552	0.327032	2.98708	0.474421	4.33663	0.700525	6.43749	0.778018	7.14593
0.319146	2.90575	0.192086	1.73889	0.782517	2.49471	0.467693	4.2307	0.613742	5.58825	0.865326	7.8331	0.328971	2.97944	0.475406	4.30894	0.701018	6.38734	0.779107	7.09521
0.320743	2.89573	0.19411	1.74252	0.780781	2.49659	0.469154	4.20844	0.61468	5.54971	0.865791	7.77177	0.330909	2.97191	0.476401	4.28179	0.701517	6.33808	0.7802	7.04539
0.322373	2.88617	0.196134	1.74608	0.779044	2.49848	0.470616	4.18656	0.615626	5.51189	0.86626	7.71149	0.332845	2.96449	0.477405	4.25519	0.702022	6.2897	0.781299	6.99645
0.324036	2.87706	0.198158	1.74959	0.777307	2.50038	0.472079	4.16506	0.61658	5.47476	0.866734	7.65223	0.33478	2.95719	0.478419	4.2291	0.702533	6.24217	0.782402	6.94836
0.32573	2.86838	0.200183	1.75305	0.775568	2.50229	0.473543	4.14392	0.617542	5.43831	0.867212	7.59399	0.336713	2.94999	0.479442	4.20353	0.70305	6.19548	0.783511	6.9011
0.327456	2.86011	0.202209	1.75646	0.773829	2.50421	0.475009	4.12313	0.618512	5.40253	0.867694	7.53672	0.338645	2.94289	0.480475	4.17845	0.703574	6.1496	0.784624	6.85466
0.329213	2.85224	0.204234	1.75981	0.772088	2.50613	0.476476	4.10268	0.61949	5.36739	0.86818	7.48041	0.340575	2.93589	0.481518	4.15386	0.704103	6.10451	0.785742	6.809
0.330999	2.84475	0.20626	1.76312	0.770346	2.50806	0.477945	4.08257	0.620476	5.33288	0.868671	7.42503	0.342503	2.92898	0.48257	4.12974	0.704638	6.0602	0.786865	6.76412
0.332814	2.83763	0.208287	1.76637	0.768603	2.51	0.479414	4.06279	0.62147	5.29899	0.869165	7.37056	0.344429	2.92217	0.483631	4.10609	0.705179	6.01664	0.787993	6.71999
0.334657	2.83085	0.210313	1.76957	0.766858	2.51194	0.480884	4.04333	0.622471	5.2657	0.869664	7.31698	0.346353	2.91545	0.484703	4.08289	0.705726	5.97382	0.789125	6.6766
0.336527	2.82441	0.21234	1.77273	0.765112	2.5139	0.482356	4.02418	0.623481	5.233	0.870168	7.26427	0.348275	2.90882	0.485784	4.06013	0.706279	5.93172	0.790262	6.63393
0.338422	2.81828	0.214367	1.77584	0.763364	2.51585	0.483829	4.00533	0.624498	5.20086	0.870675	7.21241	0.350196	2.90227	0.486875	4.03781	0.706838	5.89032	0.791404	6.59195
0.340343	2.81246	0.216395	1.77891	0.761615	2.51782	0.485302	3.98678	0.625523	5.16929	0.871187	7.16138	0.352114	2.89581	0.487975	4.0159	0.707403	5.84961	0.79255	6.55067
0.342288	2.80691	0.218422	1.78193	0.759863	2.51979	0.486777	3.96852	0.626556	5.13827	0.871703	7.11116	0.35403	2.88943	0.489085	3.99441	0.707974	5.80957	0.793701	6.51005
0.344255	2.80164	0.22045	1.7849	0.75811	2.52177	0.488252	3.95054	0.627597	5.10778	0.872223	7.06173	0.355944	2.88313	0.490205	3.97332	0.708551	5.77019	0.794857	6.47008
0.346244	2.79663	0.222478	1.78783	0.756354	2.52375	0.489728	3.93283	0.628646	5.07781	0.872748	7.01308	0.357856	2.8769	0.491335	3.95263	0.709133	5.73145	0.796017	6.43075
0.348255	2.79186	0.224506	1.79072	0.754597	2.52574	0.491205	3.9154	0.629702	5.04835	0.873277	6.96518	0.359765	2.87075	0.492474	3.93232	0.709722	5.69333	0.797181	6.39205
0.350285	2.78731	0.226534	1.79357	0.752837	2.52773	0.492683	3.89823	0.630766	5.01939	0.87381	6.91803	0.361673	2.86467	0.493623	3.91239	0.710316	5.65583	0.79835	6.35396
0.352334	2.78299	0.228562	1.79637	0.751074	2.52972	0.494162	3.88131	0.631838	4.99091	0.874348	6.87159	0.363578	2.85867	0.494782	3.89283	0.710916	5.61892	0.799524	6.31646
0.354402	2.77887	0.23059	1.79914	0.749309	2.53172	0.495641	3.86465	0.632918	4.96292	0.87489	6.82587	0.365481	2.85273	0.49595	3.87362	0.711522	5.5826	0.800701	6.27954
0.356487	2.77494	0.232618	1.80186	0.747541	2.53373	0.497121	3.84824	0.634005	4.93539	0.875436	6.78084	0.367381	2.84686	0.497128	3.85478	0.712134	5.54685	0.801884	6.24319
0.358588	2.7712	0.234646	1.80455	0.74577	2.53573	0.498602	3.83206	0.6351	4.90831	0.875986	6.73649	0.369279	2.84106	0.498316	3.83627	0.712751	5.51167	0.80307	6.2074
0.360704	2.76763	0.236674	1.8072	0.743996	2.53774	0.500083	3.81612	0.636203	4.88168	0.876541	6.6928	0.371174	2.83531	0.499514	3.8181	0.713375	5.47703	0.804261	6.17216
0.362835	2.76422	0.238702	1.80981	0.742219	2.53975	0.501565	3.80041	0.637313	4.85549	0.8771	6.64977	0.373067	2.82964	0.500721	3.80027	0.714004	5.44292	0.805456	6.13744
0.36498	2.76096	0.24073	1.81238	0.740439	2.54176	0.503047	3.78492	0.638431	4.82972	0.877663	6.60737	0.374958	2.82402	0.501938	3.78276	0.714639	5.40934	0.806655	6.10325
0.367139	2.75785	0.242758	1.81492	0.738654	2.54377	0.50453	3.76966	0.639556	4.80438	0.878231	6.56559	0.376846	2.81846	0.503164	3.76556	0.71528	5.37628	0.807858	6.06957
0.36931	2.75488	0.244786	1.81742	0.736867	2.54578	0.506014	3.7546	0.64069	4.77944	0.878803	6.52442	0.378731	2.81296	0.504401	3.74868	0.715926	5.34372	0.809066	6.03639
0.371492	2.75204	0.246813	1.81988	0.735075	2.54779	0.507498	3.73976	0.64183	4.7549	0.87938	6.48385	0.380614	2.80752	0.505647	3.73209	0.716578	5.31165	0.810277	6.00369
0.373686	2.74931	0.248841	1.82232	0.733279	2.5498	0.508983	3.72513	0.642978	4.73075	0.87996	6.44387	0.382494	2.80213	0.506903	3.71581	0.717236	5.28006	0.811493	5.97148
0.375891	2.74671	0.250868	1.82471	0.731479	2.55181	0.510468	3.71069	0.644134	4.70699	0.880546	6.40446	0.384372	2.79679	0.508168	3.69982	0.7179	5.24894	0.812713	5.93973
0.378105	2.7442	0.252895	1.82708	0.729675	2.55382	0.511954	3.69646	0.645297	4.6836	0.881135	6.36561	0.386247	2.79151	0.509443	3.68411	0.718569	5.21829	0.813936	5.90844
0.380329	2.74181	0.254922	1.82941	0.727866	2.55582	0.51344	3.68242	0.646467	4.66058	0.881729	6.32731	0.388119	2.78628	0.510728	3.66868	0.719244	5.18809	0.815164	5.8776
0.382563	2.7395	0.256949	1.83171	0.726053	2.55782	0.514927	3.66857	0.647645	4.63792	0.882327	6.28955	0.389988	2.7811	0.512022	3.65353	0.719925	5.15833	0.816396	5.8472
0.384804	2.73729	0.258976	1.83397	0.724234	2.55982	0.516414	3.6549	0.648831	4.61561	0.88293	6.25232	0.391855	2.77597	0.513326	3.63864	0.720611	5.12901	0.817631	5.81723
0.387054	2.73517	0.261002	1.83621	0.72241	2.56181	0.517901	3.64142	0.650023	4.59365	0.883536	6.21561	0.393719	2.77088	0.51464	3.62402	0.721303	5.10011	0.81887	5.78768
0.389311	2.73312	0.263028	1.83841	0.720581	2.56379	0.519389	3.62811	0.651223	4.57202	0.884148	6.17941	0.39558	2.76585	0.515963	3.60966	0.722001	5.07163	0.820114	5.75855
0.391575	2.73116	0.265054	1.84058	0.718747	2.56577	0.520878	3.61498	0.65243	4.55073	0.884763	6.1437	0.397439	2.76086	0.517296	3.59554	0.722704	5.04356	0.821361	5.72982
0.393846	2.72926	0.26708	1.84273	0.716907	2.56774	0.522366	3.60202	0.653645	4.52976	0.885383	6.10849	0.399294	2.75591	0.518638	3.58168	0.723413	5.0159	0.822611	5.70149
0.396124	2.72744	0.269105	1.84484	0.71506	2.5697	0.523856	3.58923	0.654866	4.50912	0.886008	6.07376	0.401147	2.75101	0.519989	3.56805	0.724127	4.98863	0.823866	5.67355
0.398408	2.72567	0.27113	1.84693	0.713208	2.57166	0.525345	3.57661	0.656095	4.48878	0.886637	6.03949	0.402998	2.74615	0.521351	3.55467	0.724847	4.96174	0.825124	5.64599
0.400697	2.72397	0.273155	1.84899	0.71135	2.5736	0.526835	3.56414	0.657331	4.46875	0.88727	6.00569	0.404845	2.74134	0.522721	3.54152	0.725573	4.93523	0.826386	5.6188
0.402992	2.72233	0.275179	1.85101	0.709485	2.57554	0.528326	3.55184	0.658574	4.44902	0.887908	5.97234	0.40669	2.73656	0.524101	3.52859	0.726304	4.90909	0.827651	5.59198
0.405292	2.72074	0.277203	1.85302	0.707613	2.57746	0.529816	3.53969	0.659824	4.42959	0.88855	5.93944	0.408531	2.73183	0.525491	3.51589	0.727041	4.88332	0.82892	5.56552
0.407597	2.71921	0.279227	1.85499	0.705734	2.57937	0.531308	3.5277	0.661082	4.41044	0.889196	5.90697	0.41037	2.72713	0.526889	3.50341	0.727783	4.85791	0.830193	5.53941
0.409906	2.71772	0.28125	1.85694	0.703849	2.58127	0.532799	3.51585	0.662346	4.39158	0.889847	5.87494	0.412207	2.72248	0.528297	3.49114	0.728531	4.83284	0.831469	5.51365
0.41222	2.71628	0.283273	1.85886	0.701956	2.58315	0.534292	3.50415	0.663617	4.37299	0.890502	5.84332	0.41404	2.71787	0.529714	3.47909	0.729284	4.80812	0.832749	5.48823
0.414538	2.71489	0.285295	1.86075	0.700056	2.58502	0.535784	3.4926	0.664895	4.35468	0.891162	5.81211	0.415871	2.71329	0.531141	3.46724	0.730043	4.78374	0.834032	5.46314
0.416859	2.71354	0.287318	1.86262	0.698149	2.58688	0.537277	3.48119	0.66618	4.33663	0.891826	5.78131	0.417699	2.70875	0.532576	3.4556	0.730808	4.75969	0.835318	5.43837
0.419185	2.71223	0.289339	1.86447	0.696233	2.58872	0.53877	3.46992	0.667472	4.31885	0.892494	5.75091	0.419524	2.70425	0.534021	3.44415	0.731578	4.73597	0.836608	5.41393
0.421513	2.71095	0.29136	1.86629	0.69431	2.59054	0.540264	3.45878	0.66877	4.30132	0.893167	5.7209	0.421346	2.69978	0.535475	3.4329	0.732353	4.71257	0.837901	5.3898
0.423845	2.70971	0.293381	1.86808	0.692379	2.59235	0.541759	3.44779	0.670076	4.28404	0.893845	5.69128	0.423166	2.69535	0.536938	3.42184	0.733134	4.68948	0.839198	5.36599
0.42618	2.70851	0.295401	1.86985	0.69044	2.59414	0.543254	3.43692	0.671388	4.26701	0.894526	5.66203	0.424983	2.69095	0.53841	3.41096	0.73392	4.66669	0.840498	5.34247
0.428518	2.70734	0.297421	1.8716	0.688492	2.59591	0.544749	3.42619	0.672706	4.25023	0.895213	5.63316	0.426797	2.68659	0.53989	3.40027	0.734712	4.64422	0.841801	5.31925
0.430859	2.70619	0.299441	1.87333	0.686536	2.59766	0.546245	3.41558	0.674031	4.23368	0.895903	5.60464	0.428609	2.68226	0.54138	3.38977	0.735509	4.62203	0.843107	5.29633
0.433202	2.70508	0.301459	1.87503	0.684572	2.59939	0.547741	3.4051	0.675363	4.21736	0.896599	5.57649	0.430417	2.67797	0.542878	3.37943	0.736312	4.60015	0.844417	5.27369
0.435548	2.704	0.303478	1.87671	0.682599	2.6011	0.549238	3.39474	0.676702	4.20128	0.897298	5.54869	0.432224	2.67371	0.544386	3.36927	0.73712	4.57854	0.845729	5.25133
0.437896	2.70294	0.305496	1.87836	0.680617	2.60279	0.550736	3.38451	0.678047	4.18542	0.898002	5.52123	0.434027	2.66948	0.545901	3.35928	0.737934	4.55722	0.847045	5.22925
0.440246	2.70191	0.307513	1.87999	0.678627	2.60446	0.552234	3.37439	0.679398	4.16978	0.898711	5.49412	0.435829	2.66528	0.547426	3.34946	0.738753	4.53618	0.848364	5.20744
0.442598	2.7009	0.30953	1.88161	0.676628	2.6061	0.553732	3.3644	0.680755	4.15435	0.899424	5.46733	0.437627	2.66112	0.548959	3.3398	0.739577	4.51541	0.849686	5.18589
0.444951	2.69991	0.311546	1.8832	0.67462	2.60773	0.555232	3.35452	0.68212	4.13914	0.900141	5.44088	0.439423	2.65699	0.550501	3.33031	0.740407	4.49491	0.851011	5.16461
0.447307	2.69894	0.313561	1.88477	0.672603	2.60933	0.556732	3.34475	0.68349	4.12414	0.900863	5.41475	0.441217	2.65289	0.552051	3.32096	0.741242	4.47467	0.852339	5.14359
0.449664	2.698	0.315577	1.88632	0.670577	2.61091	0.558233	3.3351	0.684866	4.10935	0.90159	5.38894	0.443008	2.64882	0.553609	3.31178	0.742083	4.45469	0.85367	5.12282
0.452023	2.69707	0.317591	1.88784	0.668543	2.61246	0.559734	3.32556	0.686249	4.09475	0.902321	5.36344	0.444796	2.64478	0.555176	3.30274	0.742929	4.43496	0.855004	5.10229
0.454383	2.69617	0.319605	1.88935	0.666499	2.614	0.561236	3.31613	0.687638	4.08036	0.903056	5.33825	0.446583	2.64077	0.556751	3.29385	0.74378	4.41549	0.856341	5.08202
0.456744	2.69528	0.321618	1.89084	0.664447	2.6155	0.562739	3.30681	0.689033	4.06615	0.903796	5.31336	0.448366	2.63679	0.558334	3.28511	0.744637	4.39626	0.85768	5.06198
0.459106	2.6944	0.323631	1.89231	0.662385	2.61699	0.564243	3.29759	0.690434	4.05214	0.90454	5.28876	0.450148	2.63284	0.559925	3.27651	0.745499	4.37727	0.859023	5.04217
0.461469	2.69354	0.325643	1.89376	0.660315	2.61845	0.565748	3.28848	0.691841	4.03832	0.905289	5.26446	0.451927	2.62892	0.561524	3.26805	0.746366	4.35852	0.860368	5.0226
0.463834	2.6927	0.327655	1.89518	0.658236	2.61988	0.567253	3.27947	0.693254	4.02468	0.906042	5.24045	0.453704	2.62504	0.563131	3.25973	0.747239	4.34	0.861716	5.00326
0.466199	2.69187	0.329666	1.89659	0.656149	2.62129	0.56876	3.27056	0.694672	4.01122	0.9068	5.21672	0.455479	2.62117	0.564746	3.25154	0.748117	4.32171	0.863067	4.98414
0.468565	2.69106	0.331676	1.89799	0.654053	2.62268	0.570267	3.26175	0.696097	3.99793	0.907563	5.19327	0.457252	2.61734	0.566369	3.24349	0.749	4.30365	0.86442	4.96524
0.470931	2.69025	0.333685	1.89936	0.651948	2.62405	0.571776	3.25305	0.697527	3.98483	0.908329	5.1701	0.459023	2.61354	0.567999	3.23556	0.749889	4.28582	0.865777	4.94656
0.473299	2.68946	0.335694	1.90071	0.649835	2.62539	0.573285	3.24444	0.698963	3.97189	0.909101	5.14719	0.460791	2.60977	0.569637	3.22776	0.750783	4.2682	0.867135	4.92809
0.475666	2.68868	0.337703	1.90205	0.647714	2.6267	0.574796	3.23592	0.700405	3.95912	0.909877	5.12455	0.462558	2.60602	0.571283	3.22008	0.751682	4.2508	0.868497	4.90983
0.478034	2.68791	0.33971	1.90337	0.645584	2.628	0.576307	3.2275	0.701853	3.94652	0.910657	5.10218	0.464322	2.6023	0.572936	3.21253	0.752587	4.2336	0.869861	4.89177
0.480403	2.68715	0.341717	1.90467	0.643446	2.62926	0.57782	3.21918	0.703305	3.93408	0.911442	5.08006	0.466085	2.59861	0.574596	3.2051	0.753497	4.21662	0.871227	4.87392
0.482772	2.6864	0.343724	1.90596	0.6413	2.63051	0.579334	3.21095	0.704764	3.9218	0.912232	5.05819	0.467846	2.59495	0.576264	3.19778	0.754412	4.19985	0.872596	4.85627
0.48514	2.68566	0.345729	1.90723	0.639147	2.63174	0.58085	3.20281	0.706228	3.90967	0.913026	5.03657	0.469605	2.59131	0.577938	3.19058	0.755332	4.18327	0.873968	4.83881
0.487509	2.68492	0.347734	1.90848	0.636986	2.63294	0.582366	3.19476	0.707697	3.8977	0.913824	5.0152	0.471362	2.58771	0.57962	3.18349	0.756258	4.1669	0.875342	4.82155
0.489878	2.6842	0.349738	1.90971	0.634817	2.63412	0.583884	3.1868	0.709171	3.88588	0.914627	4.99407	0.473118	2.58413	0.581309	3.17651	0.757189	4.15072	0.876718	4.80447
0.492247	2.68348	0.351742	1.91093	0.632641	2.63528	0.585404	3.17892	0.710651	3.87421	0.915435	4.97318	0.474872	2.58058	0.583005	3.16964	0.758125	4.13474	0.878097	4.78758
0.494616	2.68276	0.353744	1.91213	0.630457	2.63641	0.586925	3.17114	0.712136	3.86269	0.916247	4.95253	0.476624	2.57705	0.584707	3.16287	0.759067	4.11894	0.879478	4.77088
0.496984	2.68206	0.355746	1.91332	0.628267	2.63753	0.588447	3.16344	0.713627	3.85131	0.917064	4.9321	0.478375	2.57355	0.586417	3.15621	0.760014	4.10333	0.880861	4.75435
0.499352	2.68136	0.357747	1.91449	0.626069	2.63862	0.589971	3.15583	0.715122	3.84007	0.917885	4.91191	0.480124	2.57008	0.588132	3.14965	0.760966	4.08791	0.882247	4.73801
0.50172	2.68066	0.359748	1.91564	0.623865	2.6397	0.591496	3.1483	0.716622	3.82897	0.918711	4.89194	0.481872	2.56664	0.589855	3.14319	0.761923	4.07267	0.883635	4.72183
0.504088	2.67997	0.361748	1.91678	0.621654	2.64076	0.593024	3.14085	0.718128	3.81801	0.919541	4.87219	0.483618	2.56322	0.591583	3.13683	0.762886	4.05761	0.885025	4.70583
0.506454	2.67928	0.363747	1.9179	0.619437	2.64179	0.594553	3.13349	0.719638	3.80718	0.920376	4.85266	0.485364	2.55983	0.593319	3.13057	0.763854	4.04272	0.886417	4.69
0.508821	2.67859	0.365745	1.91901	0.617214	2.64281	0.596084	3.1262	0.721153	3.79648	0.921216	4.83334	0.487108	2.55646	0.59506	3.12439	0.764827	4.02801	0.887812	4.67434
0.511186	2.67791	0.367743	1.92011	0.614984	2.64381	0.597616	3.119	0.722673	3.78591	0.92206	4.81424	0.48885	2.55313	0.596807	3.11832	0.765805	4.01347	0.889209	4.65884
0.513551	2.67723	0.369739	1.92119	0.612749	2.6448	0.599151	3.11188	0.724198	3.77547	0.922909	4.79534	0.490592	2.54981	0.598561	3.11233	0.766788	3.9991	0.890608	4.6435
0.515915	2.67656	0.371735	1.92225	0.610507	2.64576	0.600688	3.10484	0.725727	3.76516	0.923762	4.77665	0.492332	2.54653	0.600321	3.10643	0.767777	3.98489	0.892008	4.62832
0.518278	2.67588	0.37373	1.9233	0.608261	2.64671	0.602227	3.09787	0.727261	3.75497	0.92462	4.75816	0.494072	2.54327	0.602086	3.10061	0.768771	3.97085	0.893411	4.6133
0.52064	2.67521	0.375725	1.92434	0.606009	2.64764	0.603768	3.09098	0.7288	3.7449	0.925483	4.73988	0.49581	2.54004	0.603857	3.09488	0.76977	3.95697	0.894816	4.59843
0.523001	2.67454	0.377718	1.92536	0.603751	2.64856	0.605311	3.08417	0.730343	3.73494	0.92635	4.72178	0.497548	2.53683	0.605634	3.08924	0.770775	3.94324	0.896223	4.58372
0.525361	2.67386	0.379711	1.92637	0.601488	2.64947	0.606856	3.07744	0.73189	3.72511	0.927221	4.70389	0.499284	2.53365	0.607416	3.08368	0.771785	3.92968	0.897632	4.56915
0.527719	2.67319	0.381703	1.92737	0.599221	2.65035	0.608404	3.07078	0.733442	3.71539	0.928098	4.68618	0.50102	2.53049	0.609204	3.07819	0.7728	3.91627	0.899043	4.55473
0.530077	2.67252	0.383694	1.92835	0.596948	2.65123	0.609955	3.0642	0.734999	3.70578	0.928978	4.66867	0.502755	2.52736	0.610997	3.07279	0.77382	3.90301	0.900456	4.54046
0.532433	2.67185	0.385684	1.92932	0.594671	2.65209	0.611508	3.05769	0.736559	3.69629	0.929864	4.65134	0.50449	2.52426	0.612796	3.06746	0.774845	3.8899	0.90187	4.52632
0.534787	2.67117	0.387674	1.93027	0.59239	2.65294	0.613063	3.05125	0.738124	3.6869	0.930754	4.6342	0.506223	2.52118	0.614599	3.06221	0.775876	3.87694	0.903287	4.51233
0.53714	2.6705	0.389663	1.93122	0.590104	2.65377	0.614621	3.04489	0.739693	3.67763	0.931649	4.61723	0.507957	2.51813	0.616408	3.05703	0.776911	3.86413	0.904705	4.49848
0.539491	2.66982	0.39165	1.93215	0.587814	2.6546	0.616182	3.03859	0.741266	3.66846	0.932548	4.60045	0.509689	2.5151	0.618222	3.05192	0.777952	3.85146	0.906125	4.48477
0.541841	2.66914	0.393637	1.93306	0.58552	2.65541	0.617746	3.03237	0.742844	3.65939	0.933452	4.58384	0.511421	2.5121	0.62004	3.04688	0.778999	3.83893	0.907547	4.47118
0.544188	2.66846	0.395624	1.93397	0.583222	2.65621	0.619313	3.02623	0.744425	3.65042	0.934361	4.5674	0.513153	2.50912	0.621863	3.04191	0.78005	3.82654	0.908971	4.45774
0.546534	2.66777	0.397609	1.93486	0.58092	2.657	0.620883	3.02015	0.74601	3.64156	0.935274	4.55114	0.514885	2.50617	0.623691	3.03702	0.781107	3.81429	0.910396	4.44442
0.548878	2.66708	0.399593	1.93574	0.578615	2.65779	0.622457	3.01414	0.747599	3.63279	0.936192	4.53504	0.516616	2.50324	0.625524	3.03218	0.782169	3.80218	0.911823	4.43123
0.55122	2.66639	0.401577	1.93661	0.576306	2.65856	0.624033	3.0082	0.749192	3.62413	0.937114	4.51912	0.518347	2.50034	0.627361	3.02741	0.783236	3.7902	0.913251	4.41817
0.553559	2.66569	0.40356	1.93747	0.573993	2.65932	0.625613	3.00233	0.750789	3.61555	0.938041	4.50336	0.520077	2.49747	0.629202	3.02271	0.784308	3.77836	0.914681	4.40523
0.555896	2.66499	0.405542	1.93831	0.571678	2.66007	0.627196	2.99653	0.752389	3.60708	0.938973	4.48776	0.521808	2.49462	0.631048	3.01807	0.785386	3.76664	0.916113	4.39242
0.558231	2.66429	0.407523	1.93915	0.569359	2.66082	0.628783	2.9908	0.753993	3.59869	0.93991	4.47232	0.523538	2.49179	0.632898	3.01349	0.786469	3.75506	0.917546	4.37972
0.560563	2.66357	0.409503	1.93997	0.567037	2.66156	0.630374	2.98514	0.755601	3.5904	0.940851	4.45704	0.525269	2.48899	0.634752	3.00897	0.787557	3.7436	0.918981	4.36715
0.562893	2.66285	0.411482	1.94078	0.564712	2.66229	0.631969	2.97955	0.757212	3.5822	0.941797	4.44191	0.526999	2.48621	0.63661	3.00451	0.78865	3.73227	0.920417	4.35469
0.56522	2.66213	0.413461	1.94158	0.562385	2.66301	0.633567	2.97402	0.758826	3.57408	0.942747	4.42694	0.528729	2.48346	0.638472	3.0001	0.789749	3.72106	0.921855	4.34236
0.567544	2.6614	0.415438	1.94237	0.560054	2.66373	0.63517	2.96856	0.760444	3.56605	0.943702	4.41212	0.53046	2.48073	0.640338	2.99575	0.790852	3.70997	0.923294	4.33013
0.569865	2.66066	0.417415	1.94314	0.557721	2.66444	0.636776	2.96316	0.762066	3.55811	0.944662	4.39745	0.532191	2.47803	0.642207	2.99146	0.791962	3.69901	0.924735	4.31802
0.572184	2.65991	0.419391	1.94391	0.555386	2.66515	0.638388	2.95784	0.76369	3.55025	0.945627	4.38293	0.533922	2.47535	0.64408	2.98722	0.793076	3.68816	0.926177	4.30602
0.574498	2.65915	0.421366	1.94467	0.553048	2.66585	0.640003	2.95258	0.765318	3.54248	0.946596	4.36856	0.535653	2.4727	0.645957	2.98304	0.794195	3.67744	0.92762	4.29413
0.57681	2.65839	0.42334	1.94541	0.550708	2.66654	0.641623	2.94738	0.76695	3.53478	0.947569	4.35433	0.537384	2.47006	0.647837	2.9789	0.79532	3.66682	0.929065	4.28235
0.579118	2.65762	0.425313	1.94615	0.548366	2.66724	0.643248	2.94225	0.768584	3.52717	0.948548	4.34025	0.539116	2.46746	0.649721	2.97482	0.79645	3.65633	0.930511	4.27067
0.581423	2.65683	0.427285	1.94687	0.546022	2.66792	0.644877	2.93719	0.770221	3.51964	0.949531	4.3263	0.540848	2.46488	0.651607	2.97078	0.797586	3.64595	0.931958	4.2591
0.583724	2.65604	0.429256	1.94758	0.543676	2.66861	0.646512	2.93219	0.771862	3.51218	0.950519	4.3125	0.542581	2.46232	0.653497	2.9668	0.798726	3.63568	0.933407	4.24764
0.586021	2.65524	0.431227	1.94829	0.541328	2.66929	0.648152	2.92726	0.773505	3.5048	0.951512	4.29883	0.544314	2.45978	0.65539	2.96286	0.799872	3.62552	0.934857	4.23627
0.588315	2.65442	0.433196	1.94898	0.538978	2.66997	0.649797	2.92239	0.775152	3.49749	0.952509	4.2853	0.546048	2.45727	0.657286	2.95897	0.801023	3.61547	0.936308	4.22501
0.590604	2.65359	0.435165	1.94967	0.536626	2.67065	0.651447	2.91759	0.776801	3.49026	0.953511	4.2719	0.547782	2.45478	0.659185	2.95512	0.80218	3.60552	0.93776	4.21385
0.592889	2.65276	0.437133	1.95034	0.534273	2.67132	0.653103	2.91285	0.778453	3.4831	0.954518	4.25863	0.549517	2.45232	0.661087	2.95132	0.803341	3.59569	0.939213	4.20278
0.595169	2.6519	0.4391	1.95101	0.531918	2.67199	0.654765	2.90818	0.780108	3.47602	0.95553	4.2455	0.551253	2.44988	0.662991	2.94756	0.804508	3.58596	0.940668	4.19181
0.597445	2.65104	0.441065	1.95166	0.529562	2.67267	0.656433	2.90357	0.781765	3.469	0.956546	4.23249	0.552989	2.44746	0.664898	2.94385	0.805681	3.57633	0.942123	4.18094
0.599716	2.65016	0.44303	1.95231	0.527204	2.67334	0.658106	2.89903	0.783426	3.46206	0.957567	4.21962	0.554726	2.44506	0.666808	2.94017	0.806858	3.56681	0.94358	4.17016
0.601983	2.64927	0.444995	1.95295	0.524846	2.67401	0.659786	2.89455	0.785088	3.45518	0.958593	4.20686	0.556464	2.44269	0.66872	2.93654	0.808041	3.55738	0.945037	4.15948
0.604244	2.64836	0.446958	1.95357	0.522485	2.67468	0.661473	2.89013	0.786754	3.44837	0.959623	4.19424	0.558202	2.44034	0.670635	2.93295	0.80923	3.54806	0.946496	4.14888
0.606501	2.64744	0.44892	1.95419	0.520124	2.67535	0.663165	2.88578	0.788422	3.44162	0.960658	4.18173	0.559941	2.43802	0.672551	2.92939	0.810423	3.53884	0.947956	4.13838
0.608752	2.6465	0.450881	1.9548	0.517762	2.67603	0.664865	2.88149	0.790092	3.43495	0.961698	4.16935	0.561682	2.43571	0.67447	2.92588	0.811622	3.52971	0.949416	4.12797
0.610997	2.64555	0.452842	1.9554	0.515399	2.6767	0.666571	2.87727	0.791765	3.42833	0.962743	4.15709	0.563423	2.43343	0.676391	2.9224	0.812827	3.52069	0.950878	4.11764
0.613237	2.64458	0.454801	1.956	0.513035	2.67738	0.668285	2.87311	0.79344	3.42178	0.963792	4.14494	0.565165	2.43117	0.678315	2.91896	0.814036	3.51175	0.95234	4.1074
0.615472	2.6436	0.45676	1.95658	0.51067	2.67806	0.670006	2.86902	0.795117	3.41529	0.964846	4.13292	0.566908	2.42894	0.68024	2.91555	0.815251	3.50292	0.953804	4.09725
0.6177	2.64259	0.458718	1.95715	0.508304	2.67874	0.671734	2.86499	0.796797	3.40886	0.965905	4.12101	0.568652	2.42672	0.682167	2.91218	0.816472	3.49417	0.955268	4.08718
0.619922	2.64157	0.460674	1.95772	0.505938	2.67943	0.673469	2.86102	0.798479	3.4025	0.966969	4.10921	0.570398	2.42453	0.684095	2.90885	0.817698	3.48552	0.956733	4.0772
0.622138	2.64053	0.46263	1.95828	0.503571	2.68012	0.675213	2.85712	0.800163	3.39619	0.968038	4.09753	0.572144	2.42236	0.686026	2.90554	0.818929	3.47696	0.9582	4.0673
0.624347	2.63947	0.464585	1.95883	0.501203	2.68081	0.676964	2.85328	0.801849	3.38994	0.969111	4.08596	0.573891	2.42021	0.687958	2.90228	0.820165	3.46849	0.959666	4.05748
0.62655	2.63839	0.466539	1.95937	0.498835	2.68151	0.678724	2.84951	0.803537	3.38375	0.970189	4.0745	0.57564	2.41808	0.689891	2.89904	0.821407	3.46011	0.961134	4.04774
0.628746	2.63729	0.468492	1.9599	0.496467	2.68221	0.680492	2.8458	0.805227	3.37762	0.971272	4.06315	0.577389	2.41598	0.691827	2.89583	0.822655	3.45182	0.962602	4.03808
0.630935	2.63617	0.470444	1.96043	0.494099	2.68292	0.682268	2.84215	0.806919	3.37154	0.972359	4.0519	0.57914	2.41389	0.693763	2.89266	0.823908	3.44361	0.964072	4.0285
0.633116	2.63502	0.472396	1.96095	0.49173	2.68363	0.684053	2.83857	0.808613	3.36551	0.973452	4.04077	0.580892	2.41183	0.695701	2.88951	0.825166	3.43549	0.965541	4.01899
0.635291	2.63386	0.474346	1.96146	0.489361	2.68435	0.685846	2.83505	0.810309	3.35954	0.974549	4.02974	0.582646	2.40979	0.69764	2.8864	0.82643	3.42746	0.967012	4.00956
0.637458	2.63268	0.476295	1.96196	0.486992	2.68508	0.687649	2.8316	0.812007	3.35363	0.975651	4.01881	0.5844	2.40777	0.69958	2.88331	0.827699	3.41951	0.968483	4.00021
0.639618	2.63147	0.478244	1.96245	0.484623	2.68582	0.689461	2.82821	0.813707	3.34777	0.976758	4.00799	0.586156	2.40577	0.701521	2.88025	0.828974	3.41164	0.969955	3.99093
0.64177	2.63024	0.480191	1.96294	0.482254	2.68656	0.691281	2.82488	0.815408	3.34195	0.977869	3.99727	0.587914	2.40379	0.703464	2.87722	0.830254	3.40386	0.971428	3.98173
0.643914	2.62899	0.482138	1.96342	0.479886	2.68732	0.693112	2.82162	0.817111	3.33619	0.978986	3.98665	0.589672	2.40183	0.705407	2.87421	0.83154	3.39616	0.972901	3.97259
0.64605	2.62771	0.484084	1.96389	0.477517	2.68808	0.694951	2.81842	0.818815	3.33048	0.980107	3.97613	0.591432	2.39989	0.707351	2.87123	0.832831	3.38854	0.974375	3.96353
0.648178	2.62642	0.486029	1.96436	0.475149	2.68885	0.696801	2.81528	0.820521	3.32482	0.981233	3.96571	0.593194	2.39797	0.709296	2.86828	0.834128	3.381	0.975849	3.95454
0.650297	2.6251	0.487973	1.96482	0.472782	2.68963	0.69866	2.8122	0.822229	3.31921	0.982364	3.95538	0.594956	2.39607	0.711242	2.86535	0.83543	3.37354	0.977324	3.94562
0.652408	2.62375	0.489916	1.96527	0.470415	2.69043	0.700529	2.80919	0.823938	3.31365	0.9835	3.94516	0.596721	2.39419	0.713188	2.86245	0.836738	3.36616	0.9788	3.93677
0.654511	2.62238	0.491858	1.96571	0.468048	2.69123	0.702408	2.80624	0.825649	3.30813	0.98464	3.93503	0.598486	2.39234	0.715135	2.85957	0.838052	3.35885	0.980276	3.92799
0.656606	2.62099	0.493799	1.96615	0.465682	2.69205	0.704297	2.80335	0.827361	3.30266	0.985786	3.92499	0.600253	2.3905	0.717082	2.85671	0.839371	3.35162	0.981752	3.91928
0.658691	2.61957	0.495739	1.96658	0.463317	2.69288	0.706196	2.80053	0.829074	3.29724	0.986936	3.91504	0.602022	2.38868	0.71903	2.85388	0.840695	3.34447	0.983229	3.91063
0.660768	2.61813	0.497679	1.967	0.460953	2.69373	0.708105	2.79776	0.830789	3.29186	0.988091	3.90519	0.603792	2.38688	0.720978	2.85107	0.842026	3.33739	0.984707	3.90204
0.662836	2.61666	0.499617	1.96742	0.45859	2.69459	0.710025	2.79506	0.832505	3.28653	0.989251	3.89543	0.605564	2.3851	0.722926	2.84828	0.843361	3.33039	0.986185	3.89352
0.664896	2.61518	0.501555	1.96783	0.456228	2.69547	0.711955	2.79241	0.834222	3.28124	0.990415	3.88576	0.607337	2.38333	0.724874	2.84551	0.844703	3.32346	0.987663	3.88507
0.666946	2.61366	0.503491	1.96823	0.453867	2.69636	0.713895	2.78983	0.835941	3.27599	0.991585	3.87618	0.609112	2.38159	0.726823	2.84276	0.84605	3.3166	0.989142	3.87668
0.668988	2.61213	0.505427	1.96863	0.451507	2.69727	0.715845	2.7873	0.83766	3.27079	0.992759	3.86669	0.610888	2.37987	0.728772	2.84004	0.847403	3.30981	0.990621	3.86835
0.67102	2.61057	0.507362	1.96902	0.449149	2.6982	0.717806	2.78484	0.839381	3.26563	0.993939	3.85729	0.612666	2.37816	0.730721	2.83733	0.848761	3.3031	0.992101	3.86009
0.673044	2.60898	0.509296	1.9694	0.446792	2.69915	0.719778	2.78243	0.841103	3.26051	0.995123	3.84797	0.614446	2.37648	0.732669	2.83464	0.850125	3.29645	0.993581	3.85188
0.675059	2.60738	0.511229	1.96978	0.444437	2.70012	0.721759	2.78007	0.842826	3.25543	0.996312	3.83874	0.616227	2.37481	0.734618	2.83197	0.851495	3.28988	0.995061	3.84374
0.677065	2.60575	0.513161	1.97016	0.442084	2.70111	0.723751	2.77778	0.84455	3.25039	0.997506	3.82959	0.61801	2.37316	0.736566	2.82932	0.852871	3.28338	0.996542	3.83565
0.679062	2.6041	0.515093	1.97052	0.439732	2.70213	0.725753	2.77554	0.846275	3.24539	0.998704	3.82053	0.619794	2.37152	0.738514	2.82669	0.854252	3.27694	0.998023	3.82763
0.681051	2.60242	0.517023	1.97088	0.437383	2.70317	0.727766	2.77335	0.848001	3.24044	0.999908	3.81154	0.62158	2.36991	0.740462	2.82407	0.855639	3.27057	0.999504	3.81966
0.68303	2.60073	0.518953	1.97124	0.435036	2.70423	0.729788	2.77122	0.849728	3.23551	1.00112	3.80265	0.623368	2.36831	0.74241	2.82147	0.857031	3.26427	1.00099	3.81175
0.685002	2.59901	0.520881	1.97159	0.43269	2.70532	0.731821	2.76914	0.851455	3.23063			0.625157	2.36673	0.744357	2.81889	0.85843	3.25803		
0.686964	2.59728	0.522809	1.97193	0.430348	2.70644	0.733864	2.76712	0.853184	3.22579			0.626948	2.36517	0.746303	2.81633	0.859834	3.25187		
0.688918	2.59552	0.524736	1.97227	0.428008	2.70759	0.735916	2.76514	0.854913	3.22098			0.628741	2.36363	0.748249	2.81378	0.861244	3.24576		
0.690864	2.59375	0.526662	1.9726	0.42567	2.70877	0.737978	2.76322	0.856643	3.21621			0.630535	2.3621	0.750194	2.81124	0.86266	3.23972		
0.692801	2.59196	0.528587	1.97292	0.423336	2.70998	0.74005	2.76134	0.858374	3.21147			0.632332	2.36059	0.752139	2.80872	0.864082	3.23375		
0.694731	2.59015	0.530512	1.97324	0.421005	2.71123	0.742131	2.75951	0.860105	3.20677			0.634129	2.35909	0.754083	2.80622	0.865509	3.22783		
0.696652	2.58832	0.532435	1.97356	0.418677	2.71251	0.744222	2.75773	0.861837	3.2021			0.635929	2.35762	0.756026	2.80373	0.866943	3.22198		
0.698566	2.58648	0.534358	1.97387	0.416352	2.71383	0.746322	2.756	0.86357	3.19747			0.63773	2.35616	0.757968	2.80125	0.868382	3.2162		
0.700472	2.58462	0.53628	1.97417	0.414031	2.71519	0.748431	2.75431	0.865303	3.19288			0.639533	2.35471	0.759909	2.79879	0.869827	3.21047		
0.70237	2.58274	0.538201	1.97447	0.411714	2.7166	0.750548	2.75266	0.867037	3.18831			0.641338	2.35329	0.761849	2.79634	0.871278	3.2048		
0.704261	2.58086	0.540121	1.97477	0.409401	2.71804	0.752675	2.75106	0.868771	3.18378			0.643145	2.35187	0.763788	2.7939	0.872734	3.1992		
0.706145	2.57895	0.54204	1.97506	0.407093	2.71954	0.754809	2.7495	0.870506	3.17929			0.644953	2.35048	0.765726	2.79148	0.874197	3.19365		
0.708022	2.57704	0.543959	1.97534	0.404789	2.72109	0.756953	2.74798	0.872241	3.17482			0.646763	2.3491	0.767663	2.78907	0.875666	3.18817		
0.709892	2.57511	0.545876	1.97562	0.40249	2.72269	0.759104	2.7465	0.873977	3.17039			0.648575	2.34773	0.769599	2.78667	0.87714	3.18274		
0.711756	2.57318	0.547793	1.9759	0.400197	2.72434	0.761263	2.74506	0.875713	3.16598			0.650388	2.34639	0.771533	2.78428	0.878621	3.17737		
0.713613	2.57123	0.549709	1.97617	0.397908	2.72605	0.76343	2.74366	0.87745	3.16161			0.652204	2.34505	0.773467	2.7819	0.880107	3.17206		
0.715464	2.56928	0.551624	1.97643	0.395626	2.72783	0.765605	2.74229	0.879187	3.15727			0.654021	2.34373	0.775398	2.77953	0.881599	3.1668		
0.717309	2.56731	0.553539	1.97669	0.39335	2.72967	0.767787	2.74096	0.880924	3.15296			0.655839	2.34243	0.777329	2.77718	0.883098	3.1616		
0.719148	2.56534	0.555452	1.97695	0.39108	2.73158	0.769976	2.73966	0.882662	3.14868			0.65766	2.34114	0.779258	2.77483	0.884602	3.15646		
0.720981	2.56336	0.557365	1.9772	0.388817	2.73356	0.772172	2.7384	0.884399	3.14443			0.659482	2.33987	0.781185	2.7725	0.886112	3.15137		
0.722809	2.56137	0.559277	1.97745	0.386562	2.73562	0.774375	2.73717	0.886137	3.14021			0.661306	2.33861	0.783111	2.77017	0.887628	3.14634		
0.724632	2.55938	0.561188	1.97769	0.384314	2.73777	0.776584	2.73597	0.887876	3.13601			0.663132	2.33737	0.785036	2.76786	0.88915	3.14136		
0.726449	2.55738	0.563099	1.97793	0.382074	2.74	0.7788	2.73479	0.889614	3.13185			0.66496	2.33614	0.786958	2.76555	0.890678	3.13643		
0.728262	2.55538	0.565008	1.97816	0.379843	2.74232	0.781022	2.73365	0.891353	3.12771			0.666789	2.33492	0.788879	2.76326	0.892213	3.13156		
0.73007	2.55338	0.566917	1.97839	0.377621	2.74474	0.78325	2.73254	0.893092	3.1236			0.66862	2.33372	0.790798	2.76097	0.893753	3.12674		
0.731873	2.55137	0.568825	1.97862	0.375409	2.74727	0.785484	2.73146	0.894831	3.11952			0.670453	2.33253	0.792716	2.75869	0.895299	3.12197		
0.733672	2.54936	0.570733	1.97884	0.373206	2.7499	0.787723	2.7304	0.89657	3.11546			0.672288	2.33136	0.794632	2.75642	0.896851	3.11726		
0.735467	2.54735	0.572639	1.97905	0.371015	2.75265	0.789968	2.72936	0.898309	3.11143			0.674124	2.3302	0.796546	2.75416	0.898409	3.11259		
0.737257	2.54534	0.574545	1.97927	0.368835	2.75552	0.792219	2.72836	0.900048	3.10743			0.675963	2.32905	0.798458	2.7519	0.899973	3.10798		
0.739044	2.54333	0.57645	1.97948	0.366666	2.75852	0.794474	2.72737	0.901788	3.10345			0.677803	2.32792	0.800368	2.74966	0.901543	3.10342		
0.740828	2.54132	0.578354	1.97968	0.364511	2.76166	0.796734	2.72641	0.903527	3.0995			0.679644	2.3268	0.802276	2.74742	0.903119	3.09891		
0.742607	2.53931	0.580258	1.97988	0.362369	2.76495	0.798999	2.72547	0.905266	3.09557			0.681488	2.32569	0.804182	2.74519	0.904702	3.09444		
0.744384	2.5373	0.582161	1.98008	0.360241	2.76839	0.801269	2.72456	0.907006	3.09167			0.683333	2.3246	0.806086	2.74296	0.90629	3.09003		
0.746157	2.53529	0.584063	1.98028	0.358127	2.772	0.803543	2.72366	0.908745	3.08779			0.68518	2.32351	0.807988	2.74074	0.907884	3.08566		
0.747927	2.53329	0.585964	1.98047	0.35603	2.77578	0.805821	2.72278	0.910485	3.08394			0.687028	2.32245	0.809888	2.73853	0.909484	3.08134		
0.749695	2.53129	0.587865	1.98065	0.353949	2.77975	0.808104	2.72193	0.912224	3.08011			0.688879	2.32139	0.811785	2.73633	0.91109	3.07707		
0.751459	2.52929	0.589765	1.98084	0.351885	2.78392	0.81039	2.72109	0.913963	3.0763			0.690731	2.32035	0.813681	2.73413	0.912702	3.07285		
0.753221	2.52729	0.591664	1.98102	0.34984	2.78829	0.812681	2.72027	0.915702	3.07252			0.692585	2.31931	0.815575	2.73194	0.914321	3.06867		
0.754981	2.5253	0.593563	1.98119	0.347814	2.79288	0.814975	2.71947	0.917441	3.06876			0.694441	2.3183	0.817466	2.72976	0.915945	3.06454		
0.756738	2.52332	0.595461	1.98137	0.345808	2.7977	0.817272	2.71868	0.91918	3.06503			0.696298	2.31729	0.819355	2.72758	0.917575	3.06045		
0.758493	2.52134	0.597358	1.98154	0.343824	2.80277	0.819573	2.71791	0.920919	3.06132			0.698157	2.31629	0.821242	2.72541	0.919211	3.05641		
0.760246	2.51936	0.599254	1.9817	0.341861	2.8081	0.821877	2.71716	0.922658	3.05763			0.700018	2.31531	0.823126	2.72324	0.920853	3.05241		
0.761997	2.51739	0.60115	1.98187	0.339921	2.8137	0.824185	2.71642	0.924397	3.05396			0.70188	2.31434	0.825008	2.72108	0.922501	3.04846		
0.763746	2.51543	0.603045	1.98203	0.338006	2.8196	0.826495	2.71569	0.926136	3.05031			0.703744	2.31338	0.826888	2.71893	0.924154	3.04455		
0.765494	2.51347	0.60494	1.98218	0.336116	2.82579	0.828808	2.71498	0.927874	3.04669			0.70561	2.31243	0.828766	2.71678	0.925814	3.04069		
0.767239	2.51152	0.606834	1.98234	0.334252	2.83231	0.831124	2.71429	0.929612	3.04309			0.707478	2.31149	0.830641	2.71464	0.92748	3.03686		
0.768984	2.50957	0.608727	1.98249	0.332415	2.83915	0.833443	2.7136	0.93135	3.03951			0.709347	2.31056	0.832514	2.7125	0.929151	3.03308		
0.770727	2.50764	0.610619	1.98263	0.330607	2.84636	0.835764	2.71293	0.933088	3.03595			0.711218	2.30965	0.834384	2.71036	0.930829	3.02934		
0.772468	2.50571	0.612511	1.98278	0.328827	2.85393	0.838088	2.71227	0.934826	3.03241			0.71309	2.30874	0.836252	2.70823	0.932512	3.02565		
0.774209	2.50379	0.614402	1.98292	0.327077	2.86188	0.840413	2.71162	0.936564	3.02889			0.714964	2.30785	0.838118	2.70611	0.934201	3.02199		
0.775948	2.50187	0.616293	1.98306	0.325358	2.87024	0.842742	2.71098	0.938302	3.0254			0.71684	2.30697	0.839981	2.70399	0.935896	3.01838		
0.777686	2.49997	0.618183	1.98319	0.32367	2.87901	0.845072	2.71036	0.940039	3.02192			0.718718	2.3061	0.841842	2.70188	0.937596	3.0148		
0.779424	2.49807	0.620072	1.98333	0.322014	2.88822	0.847404	2.70974	0.941776	3.01846			0.720597	2.30523	0.843701	2.69977	0.939303	3.01127		
0.78116	2.49618	0.621961	1.98346	0.320391	2.89788	0.849738	2.70913	0.943513	3.01503			0.722478	2.30438	0.845557	2.69767	0.941015	3.00777		
0.782896	2.4943	0.623849	1.98359	0.318802	2.90801	0.852074	2.70853	0.94525	3.01161			0.72436	2.30354	0.84741	2.69557	0.942732	3.00432		
0.784631	2.49243	0.625737	1.98371	0.317246	2.91862	0.854412	2.70795	0.946987	3.00822			0.726244	2.30271	0.849261	2.69348	0.944456	3.0009		
0.786365	2.49057	0.627624	1.98383	0.315724	2.92973	0.856752	2.70736	0.948724	3.00484			0.72813	2.30189	0.85111	2.69139	0.946185	2.99752		
0.788099	2.48872	0.62951	1.98395	0.314236	2.94136	0.859092	2.70679	0.95046	3.00148			0.730017	2.30108	0.852956	2.6893	0.947919	2.99418		
0.789832	2.48687	0.631396	1.98407	0.312783	2.95351	0.861435	2.70623	0.952197	2.99815			0.731906	2.30027	0.8548	2.68722	0.94966	2.99087		
0.791565	2.48504	0.633281	1.98419	0.311365	2.96621	0.863778	2.70567	0.953933	2.99483			0.733796	2.29948	0.856641	2.68514	0.951405	2.9876		
0.793298	2.48322	0.635166	1.9843	0.309981	2.97947	0.866124	2.70512	0.955669	2.99153			0.735688	2.2987	0.85848	2.68307	0.953157	2.98437		
0.79503	2.4814	0.63705	1.98441	0.308631	2.99331	0.86847	2.70458	0.957405	2.98825			0.737581	2.29793	0.860317	2.681	0.954914	2.98118		
0.796762	2.4796	0.638934	1.98452	0.307316	3.00773	0.870817	2.70405	0.959141	2.98498			0.739477	2.29716	0.862151	2.67894	0.956676	2.97802		
0.798494	2.4778	0.640817	1.98462	0.306035	3.02275	0.873165	2.70352	0.960877	2.98174			0.741373	2.29641	0.863982	2.67688	0.958443	2.97489		
0.800226	2.47602	0.642699	1.98473	0.304787	3.03839	0.875515	2.70299	0.962612	2.97851			0.743271	2.29566	0.865812	2.67483	0.960216	2.9718		
0.801958	2.47424	0.644581	1.98483	0.303573	3.05466	0.877865	2.70248	0.964348	2.97531			0.745171	2.29493	0.867638	2.67278	0.961995	2.96874		
0.803689	2.47248	0.646462	1.98493	0.302392	3.07157	0.880216	2.70196	0.966084	2.97212			0.747072	2.2942	0.869463	2.67074	0.963778	2.96572		
0.805421	2.47073	0.648343	1.98502	0.301243	3.08913	0.882568	2.70146	0.967819	2.96895			0.748975	2.29348	0.871285	2.66869	0.965567	2.96273		
0.807153	2.46898	0.650224	1.98512	0.300125	3.10736	0.88492	2.70095	0.969555	2.9658			0.750879	2.29277	0.873105	2.66666	0.967361	2.95977		
0.808885	2.46725	0.652103	1.98521	0.29904	3.12628	0.887273	2.70046	0.971291	2.96266			0.752785	2.29207	0.874922	2.66463	0.969161	2.95685		
0.810617	2.46552	0.653983	1.9853	0.297985	3.14589	0.889627	2.69996	0.973026	2.95955			0.754692	2.29137	0.876737	2.6626	0.970965	2.95396		
0.812349	2.46381	0.655862	1.98539	0.29696	3.16622	0.891981	2.69948	0.974762	2.95645			0.756601	2.29069	0.87855	2.66058	0.972775	2.9511		
0.814082	2.46211	0.65774	1.98547	0.295965	3.18727	0.894335	2.69899	0.976498	2.95337			0.758511	2.29001	0.88036	2.65856	0.974589	2.94827		
0.815815	2.46042	0.659618	1.98556	0.294999	3.20907	0.89669	2.69851	0.978234	2.9503			0.760422	2.28934	0.882168	2.65654	0.976409	2.94547		
0.817548	2.45874	0.661495	1.98564	0.294062	3.23162	0.899045	2.69803	0.97997	2.94726			0.762335	2.28868	0.883974	2.65453	0.978233	2.94271		
0.819282	2.45707	0.663372	1.98572	0.293152	3.25495	0.9014	2.69756	0.981706	2.94423			0.76425	2.28803	0.885777	2.65253	0.980062	2.93997		
0.821016	2.45541	0.665249	1.9858	0.29227	3.27908	0.903756	2.69709	0.983442	2.94122			0.766166	2.28739	0.887579	2.65053	0.981896	2.93726		
0.822751	2.45376	0.667125	1.98588	0.291414	3.30402	0.906111	2.69662	0.985179	2.93822			0.768083	2.28675	0.889378	2.64853	0.983735	2.93458		
0.824486	2.45212	0.669	1.98595	0.290585	3.32979	0.908466	2.69615	0.986915	2.93525			0.770002	2.28612	0.891175	2.64654	0.985579	2.93193		
0.826221	2.45049	0.670875	1.98602	0.289781	3.35641	0.910821	2.69569	0.988652	2.93229			0.771922	2.2855	0.89297	2.64455	0.987427	2.92931		
0.827957	2.44887	0.67275	1.9861	0.289003	3.38392	0.913176	2.69522	0.99039	2.92935			0.773844	2.28489	0.894763	2.64257	0.98928	2.92672		
0.829694	2.44726	0.674624	1.98617	0.288249	3.41232	0.915531	2.69476	0.992128	2.92642			0.775767	2.28428	0.896553	2.64059	0.991137	2.92416		
0.831431	2.44567	0.676498	1.98623	0.287519	3.44164	0.917886	2.69431	0.993866	2.92351			0.777691	2.28368	0.898342	2.63862	0.992999	2.92162		
0.833169	2.44408	0.678371	1.9863	0.286814	3.47191	0.92024	2.69385	0.995604	2.92062			0.779617	2.28309	0.900128	2.63665	0.994866	2.91911		
0.834908	2.4425	0.680244	1.98637	0.286131	3.50316	0.922594	2.69339	0.997343	2.91775			0.781544	2.28251	0.901913	2.63469	0.996737	2.91662		
0.836647	2.44094	0.682116	1.98643	0.285471	3.53541	0.924947	2.69294	0.999082	2.91489			0.783472	2.28193	0.903695	2.63273	0.998612	2.91417		
0.838387	2.43938	0.683988	1.98649	0.284834	3.56869	0.9273	2.69248	1.00082	2.91205			0.785402	2.28136	0.905476	2.63078	1.00049	2.91173		
0.840127	2.43784	0.68586	1.98655	0.284219	3.60304	0.929652	2.69203					0.787333	2.28079	0.907254	2.62883				
0.841869	2.43631	0.687731	1.98661	0.283625	3.63849	0.932003	2.69158					0.789265	2.28024	0.909031	2.62688				
0.843611	2.43478	0.689602	1.98667	0.283053	3.67507	0.934353	2.69112					0.791199	2.27969	0.910806	2.62495				
0.845354	2.43327	0.691473	1.98672	0.282501	3.71283	0.936703	2.69067					0.793134	2.27915	0.912579	2.62301				
0.847098	2.43177	0.693343	1.98678	0.28197	3.75179	0.939052	2.69022					0.79507	2.27861	0.91435	2.62108				
0.848842	2.43028	0.695212	1.98683	0.28146	3.792	0.9414	2.68977					0.797007	2.27808	0.916119	2.61916				
0.850588	2.4288	0.697082	1.98688	0.280969	3.83352	0.943746	2.68931					0.798946	2.27755	0.917887	2.61724				
0.852334	2.42732	0.698951	1.98693	0.280498	3.87637	0.946092	2.68886					0.800886	2.27704	0.919653	2.61533				
0.854081	2.42586	0.700819	1.98698	0.280047	3.9206	0.948437	2.6884					0.802828	2.27653	0.921417	2.61342				
0.855829	2.42441	0.702687	1.98703	0.279614	3.96628	0.95078	2.68794					0.80477	2.27602	0.92318	2.61152				
0.857578	2.42297	0.704555	1.98708	0.2792	4.01346	0.953121	2.68749					0.806714	2.27552	0.924941	2.60962				
0.859328	2.42154	0.706423	1.98712	0.278805	4.06218	0.955462	2.68703					0.808659	2.27503	0.9267	2.60773				
0.861079	2.42012	0.70829	1.98717	0.278428	4.11252	0.957801	2.68656					0.810605	2.27454	0.928458	2.60585				
0.862831	2.41871	0.710157	1.98721	0.27807	4.16453	0.960138	2.6861					0.812552	2.27406	0.930214	2.60397				
0.864584	2.41731	0.712023	1.98725	0.277728	4.21828	0.962473	2.68563					0.814501	2.27359	0.931969	2.60209				
0.866338	2.41592	0.71389	1.98729	0.277405	4.27385	0.964807	2.68517					0.816451	2.27312	0.933723	2.60023				
0.868092	2.41454	0.715756	1.98733	0.277099	4.3313	0.967139	2.68469					0.818402	2.27266	0.935475	2.59836				
0.869848	2.41317	0.717621	1.98737	0.27681	4.39072	0.969469	2.68422					0.820354	2.2722	0.937225	2.59651				
0.871605	2.41181	0.719486	1.98741	0.276537	4.4522	0.971797	2.68374					0.822307	2.27175	0.938974	2.59465				
0.873363	2.41046	0.721351	1.98745	0.276282	4.51582	0.974123	2.68326					0.824261	2.2713	0.940722	2.59281				
0.875122	2.40912	0.723216	1.98748	0.276042	4.58168	0.976447	2.68278					0.826217	2.27086	0.942469	2.59097				
0.876882	2.40779	0.72508	1.98752	0.275819	4.64988	0.978768	2.68229					0.828174	2.27042	0.944215	2.58914				
0.878643	2.40647	0.726944	1.98755	0.275612	4.72053	0.981087	2.6818					0.830131	2.26999	0.945959	2.58731				
0.880405	2.40516	0.728808	1.98758	0.27542	4.79375	0.983404	2.6813					0.83209	2.26956	0.947702	2.58549				
0.882168	2.40386	0.730672	1.98761	0.275244	4.86965	0.985718	2.6808					0.83405	2.26914	0.949444	2.58367				
0.883932	2.40256	0.732535	1.98765	0.275083	4.94837	0.988029	2.68029					0.836011	2.26873	0.951185	2.58187				
0.885697	2.40128	0.734398	1.98768	0.274937	5.03005	0.990338	2.67978					0.837974	2.26832	0.952924	2.58006				
0.887464	2.40001	0.73626	1.9877	0.274806	5.11483	0.992643	2.67927					0.839937	2.26791	0.954663	2.57827				
0.889231	2.39874	0.738123	1.98773	0.274689	5.20289	0.994946	2.67875					0.841901	2.26751	0.956401	2.57648				
0.891	2.39749	0.739985	1.98776	0.274587	5.29438	0.997246	2.67822					0.843866	2.26712	0.958137	2.57469				
0.89277	2.39624	0.741847	1.98779	0.274498	5.38949	0.999542	2.67769					0.845833	2.26673	0.959873	2.57291				
0.89454	2.39501	0.743708	1.98781	0.274423	5.48842	1.00184	2.67715					0.8478	2.26634	0.961608	2.57114				
0.896312	2.39378	0.74557	1.98784	0.274362	5.59138							0.849769	2.26596	0.963342	2.56938				
0.898085	2.39256	0.747431	1.98786	0.274314	5.6986							0.851738	2.26558	0.965075	2.56762				
0.89986	2.39135	0.749292	1.98788	0.274279	5.81033							0.853709	2.26521	0.966807	2.56587				
0.901635	2.39015	0.751153	1.98791	0.274256	5.92683							0.85568	2.26484	0.968539	2.56413				
0.903412	2.38896	0.753013	1.98793	0.274246	6.04839							0.857653	2.26448	0.97027	2.56239				
0.905189	2.38778	0.754873	1.98795	0.274248	6.17532							0.859626	2.26412	0.972	2.56066				
0.906968	2.38661	0.756733	1.98797	0.274261	6.30797							0.861601	2.26376	0.973729	2.55893				
0.908748	2.38544	0.758593	1.98799	0.274286	6.44668							0.863576	2.26341	0.975458	2.55721				
0.910529	2.38429	0.760453	1.98801	0.274322	6.59188							0.865552	2.26307	0.977186	2.5555				
0.912312	2.38314	0.762312	1.98803	0.274369	6.74399							0.86753	2.26272	0.978914	2.5538				
0.914095	2.382	0.764171	1.98805	0.274426	6.90349							0.869508	2.26239	0.980641	2.5521				
0.91588	2.38087	0.76603	1.98806	0.274493	7.07091							0.871487	2.26205	0.982367	2.55041				
0.917666	2.37975	0.767889	1.98808	0.27456	7.2237							0.873467	2.26172	0.984093	2.54872				
0.919453	2.37864	0.769747	1.9881	0.274622	7.35934							0.875448	2.2614	0.985818	2.54705				
0.921241	2.37753	0.771606	1.98811	0.274677	7.47547							0.87743	2.26107	0.987543	2.54538				
0.923031	2.37644	0.773464	1.98813	0.274723	7.56996							0.879413	2.26076	0.989268	2.54371				
0.924821	2.37535	0.775322	1.98814	0.274758	7.64098							0.881397	2.26044	0.990992	2.54206				
0.926613	2.37427	0.77718	1.98816	0.274791	7.70752							0.883381	2.26013	0.992716	2.54041				
0.928406	2.3732	0.779037	1.98817	0.274815	7.7545							0.885367	2.25982	0.994439	2.53876				
0.9302	2.37214	0.780895	1.98818	0.274853	7.82908							0.887353	2.25952	0.996163	2.53713				
0.931995	2.37108	0.782752	1.98819	0.274906	7.93285							0.88934	2.25922	0.997885	2.5355				
0.933792	2.37003	0.784609	1.98821	0.274975	8.0681							0.891329	2.25892	0.999608	2.53388				
0.935589	2.36899	0.786466	1.98822	0.275063	8.23798							0.893317	2.25863	1.00133	2.53226				
0.937388	2.36796	0.788323	1.98823	0.275171	8.44661							0.895307	2.25834						
0.939188	2.36694	0.790179	1.98824	0.275302	8.6994							0.897298	2.25806						
0.94099	2.36592	0.792036	1.98825	0.275439	8.96774							0.899289	2.25778						
0.942792	2.36492	0.793892	1.98826	0.275581	9.25306							0.901282	2.2575						
0.944596	2.36392	0.795748	1.98827	0.275729	9.55699							0.903275	2.25722						
0.946401	2.36292	0.797604	1.98828	0.275881	9.88137							0.905268	2.25695						
0.948207	2.36194	0.79946	1.98829	0.276037	10.2283							0.907263	2.25668						
0.950014	2.36096	0.801316	1.98829	0.276197	10.6002							0.909258	2.25641						
0.951822	2.35999	0.803172	1.9883	0.27636	10.9998							0.911255	2.25615						
0.953632	2.35903	0.805027	1.98831	0.276525	11.4302							0.913252	2.25589						
0.955443	2.35807	0.806882	1.98832	0.276692	11.8952							0.915249	2.25564						
0.957255	2.35712	0.808738	1.98832	0.27686	12.3991							0.917248	2.25538						
0.959068	2.35618	0.810593	1.98833	0.277028	12.9468							0.919247	2.25513						
0.960882	2.35525	0.812448	1.98834	0.277196	13.5444							0.921247	2.25488						
0.962698	2.35432	0.814303	1.98834	0.277364	14.199							0.923248	2.25464						
0.964514	2.3534	0.816157	1.98835	0.277529	14.919							0.925249	2.2544						
0.966332	2.35249	0.818012	1.98835	0.277692	15.7149							0.927252	2.25416						
0.968151	2.35159	0.819866	1.98836	0.277853	16.5992							0.929254	2.25392						
0.969972	2.35069	0.821721	1.98836	0.278009	17.5875							0.931258	2.25369						
0.971793	2.3498	0.823575	1.98837	0.278162	18.6992							0.933262	2.25346						
0.973616	2.34891	0.825429	1.98837	0.278309	19.9592							0.935267	2.25323						
0.975439	2.34803	0.827283	1.98837	0.27845	21.3992							0.937273	2.25301						
0.977264	2.34716	0.829137	1.98838	0.278586	23.0608							0.939279	2.25278						
0.97909	2.3463	0.830991	1.98838	0.278714	24.9995							0.941287	2.25256						
0.980918	2.34544	0.832845	1.98838	0.278834	27.291							0.943294	2.25235						
0.982746	2.34459	0.834699	1.98839	0.278946	30.0414							0.945303	2.25213						
0.984576	2.34374	0.836552	1.98839	0.279049	33.4043							0.947312	2.25192						
0.986406	2.3429	0.838406	1.98839	0.279143	37.6103							0.949321	2.25171						
0.988238	2.34207	0.840259	1.98839	0.279227	43.0222							0.951332	2.2515						
0.990071	2.34125	0.842113	1.98839	0.279301	50.2466							0.953343	2.2513						
0.991905	2.34043	0.843966	1.9884	0.279364	60.3781							0.955354	2.2511						
0.993741	2.33962	0.845819	1.9884	0.279416	75.6156							0.957367	2.2509						
0.995577	2.33881	0.847672	1.9884	0.279457	101.123							0.95938	2.2507						
0.997415	2.33801	0.849525	1.9884	0.279486	152.572							0.961393	2.2505						
0.999254	2.33721	0.851378	1.9884	0.279503	310.514							0.963407	2.25031						
1.00109	2.33643	0.853231	1.9884									0.965422	2.25012						
		0.855084	1.9884									0.967437	2.24993						
		0.856937	1.9884									0.969453	2.24975						
		0.858789	1.9884									0.97147	2.24956						
		0.860642	1.9884									0.973487	2.24938						
		0.862495	1.9884									0.975505	2.2492						
		0.864347	1.9884									0.977523	2.24902						
		0.866199	1.9884									0.979542	2.24885						
		0.868052	1.9884									0.981561	2.24867						
		0.869904	1.9884									0.983581	2.2485						
		0.871756	1.9884									0.985602	2.24833						
		0.873609	1.9884									0.987623	2.24816						
		0.875461	1.9884									0.989644	2.248						
		0.877313	1.9884									0.991666	2.24783						
		0.879165	1.9884									0.993689	2.24767						
		0.881017	1.98839									0.995712	2.24751						
		0.882869	1.98839									0.997736	2.24735						
		0.884721	1.98839									0.99976	2.2472						
		0.886573	1.98839									1.00178	2.24704						
		0.888425	1.98839																
		0.890276	1.98839																
		0.892128	1.98838																
		0.89398	1.98838																
		0.895831	1.98838																
		0.897683	1.98838																
		0.899535	1.98838																
		0.901386	1.98837																
		0.903238	1.98837																
		0.905089	1.98837																
		0.906941	1.98837																
		0.908792	1.98836																
		0.910643	1.98836																
		0.912495	1.98836																
		0.914346	1.98836																
		0.916198	1.98835																
		0.918049	1.98835																
		0.9199	1.98835																
		0.921751	1.98835																
		0.923603	1.98834																
		0.925454	1.98834																
		0.927305	1.98834																
		0.929156	1.98833																
		0.931007	1.98833																
		0.932858	1.98833																
		0.93471	1.98833																
		0.936561	1.98832																
		0.938412	1.98832																
		0.940263	1.98832																
		0.942114	1.98831																
		0.943965	1.98831																
		0.945816	1.98831																
		0.947667	1.9883																
		0.949518	1.9883																
		0.951369	1.9883																
		0.95322	1.9883																
		0.955071	1.98829																
		0.956922	1.98829																
		0.958773	1.98829																
		0.960624	1.98828																
		0.962475	1.98828																
		0.964326	1.98828																
		0.966177	1.98827																
		0.968028	1.98827																
		0.969879	1.98827																
		0.97173	1.98826																
		0.97358	1.98826																
		0.975431	1.98826																
		0.977282	1.98825																
		0.979133	1.98825																
		0.980984	1.98825																
		0.982835	1.98825																
		0.984686	1.98824																
		0.986537	1.98824																
		0.988388	1.98824																
		0.990239	1.98823																
		0.99209	1.98823																
		0.993941	1.98823																
		0.995791	1.98822																
		0.997642	1.98822																
		0.999493	1.98822																
		1.00134	1.98822																
