Sym0		Asym0		Sym1		Sym2		Sym3		Sym4		Asym1		Asym3	
459  Points		492  Points		459  Points		141  Points		111  Points		103  Points		323  Points		121  Points	
Freq (MHz)	Vph (m/ms)	Freq (MHz)	Vph (m/ms)	Freq (MHz)	Vph (m/ms)	Freq (MHz)	Vph (m/ms)	Freq (MHz)	Vph (m/ms)	Freq (MHz)	Vph (m/ms)	Freq (MHz)	Vph (m/ms)	Freq (MHz)	Vph (m/ms)
0.00728138	9.36048	8.4493e-005	0.107073	0.00541426	9.36062	0.279595	344.054	0.458673	819.351	0.559017	7555.64	0.140029	151.349	0.419278	1051.03
0.0160008	9.35952	0.000399483	0.232149	0.0141343	9.3598	0.279905	160.465	0.458747	307.575	0.559091	555.933	0.140859	75.8569	0.419427	315.213
0.0247165	9.35778	0.00094061	0.354612	0.0228509	9.35821	0.280441	104.797	0.458886	189.373	0.559292	288.685	0.142231	51.0046	0.419737	185.535
0.0334263	9.35534	0.00169585	0.473147	0.0315622	9.35593	0.2812	77.9437	0.459093	136.843	0.559621	195.053	0.144128	38.741	0.420208	131.562
0.0421281	9.35211	0.0026495	0.586704	0.0402659	9.35287	0.28218	62.1621	0.459369	107.164	0.560076	147.359	0.146525	31.4973	0.420839	102.004
0.0508198	9.34814	0.00378335	0.6945	0.0489599	9.34905	0.283378	51.7951	0.459713	88.0968	0.560657	118.471	0.149395	26.7557	0.421629	83.3688
0.0594991	9.34337	0.00507796	0.796008	0.057642	9.34446	0.284789	44.4787	0.460129	74.818	0.561364	99.1082	0.152707	23.438	0.422577	70.5577
0.0681636	9.3378	0.00651365	0.890941	0.0663098	9.33906	0.286409	39.0495	0.460617	65.0435	0.562197	85.2349	0.156429	21.0055	0.423681	61.2186
0.0768108	9.33139	0.00807128	0.979207	0.074961	9.33284	0.288233	34.8688	0.461179	57.5512	0.563154	74.8124	0.160529	19.1591	0.42494	54.1154
0.0854384	9.32414	0.00973304	1.06089	0.083593	9.32576	0.290255	31.5567	0.461818	51.6283	0.564234	66.7003	0.164976	17.7194	0.426353	48.5365
0.0940434	9.31599	0.0114825	1.1362	0.0922031	9.31781	0.29247	28.8728	0.462536	46.8308	0.565437	60.2109	0.169739	16.5726	0.427918	44.0432
0.102623	9.30691	0.0133054	1.20545	0.099686	9.31013	0.29487	26.6578	0.463337	42.8681	0.566761	54.9047	0.174791	15.6428	0.429632	40.3503
0.111174	9.29686	0.015189	1.26898	0.106049	9.30301	0.297449	24.8019	0.464223	39.5415	0.568205	50.4877	0.180104	14.8778	0.431494	37.2644
0.119693	9.2858	0.0171223	1.32719	0.111298	9.29671	0.3002	23.2269	0.465198	36.7112	0.569768	46.7559	0.185654	14.2403	0.433501	34.6497
0.128177	9.27367	0.0190962	1.3805	0.115439	9.29146	0.303115	21.8755	0.466265	34.2753	0.57145	43.5632	0.191418	13.7031	0.435651	32.4081
0.136622	9.26041	0.0211029	1.4293	0.11848	9.28744	0.306189	20.7051	0.467429	32.1584	0.573247	40.8022	0.197377	13.2462	0.437941	30.4668
0.145023	9.24596	0.0228732	1.46845	0.120423	9.2848	0.309412	19.683	0.468694	30.303	0.575159	38.3923	0.203511	12.8542	0.440368	28.7709
0.153376	9.23025	0.0243953	1.49954	0.123214	9.28091	0.312778	18.7838	0.470063	28.6648	0.577185	36.2717	0.209804	12.5151	0.44293	27.2778
0.161677	9.21319	0.0256615	1.52376	0.126243	9.27654	0.316281	17.9877	0.471543	27.2092	0.579322	34.3924	0.216239	12.2199	0.445625	25.9545
0.169919	9.19469	0.026667	1.54203	0.130354	9.27037	0.319913	17.2787	0.473138	25.9083	0.581569	32.7162	0.222804	11.9611	0.448447	24.7746
0.178097	9.17467	0.0274084	1.55498	0.13554	9.26218	0.323668	16.644	0.474853	24.74	0.583925	31.2128	0.229485	11.7329	0.451396	23.7167
0.186204	9.15301	0.0278837	1.56306	0.14179	9.25168	0.327541	16.0731	0.476693	23.6862	0.586388	29.8575	0.23627	11.5305	0.454468	22.7638
0.194234	9.1296	0.028568	1.57441	0.149088	9.23849	0.331526	15.5573	0.478664	22.7317	0.588957	28.63	0.243149	11.3502	0.457659	21.9015
0.202178	9.10431	0.0293132	1.58638	0.157416	9.22213	0.335618	15.0896	0.480772	21.8644	0.591628	27.5138	0.250112	11.1886	0.460967	21.1182
0.210029	9.07702	0.0303287	1.6021	0.165689	9.20438	0.339815	14.6641	0.483021	21.0738	0.594402	26.4948	0.257151	11.0432	0.464388	20.4041
0.217777	9.04757	0.0316159	1.62109	0.173901	9.18516	0.344113	14.2756	0.485418	20.3511	0.597275	25.5613	0.264258	10.9118	0.46792	19.7507
0.225413	9.01582	0.0331761	1.64279	0.182045	9.16435	0.348511	13.92	0.487967	19.6889	0.600247	24.7035	0.271425	10.7925	0.471559	19.1512
0.232926	8.98162	0.0350105	1.66662	0.190116	9.14186	0.353008	13.5937	0.490674	19.0808	0.603315	23.9128	0.278644	10.6838	0.475301	18.5994
0.240305	8.9448	0.0371196	1.69198	0.198105	9.11755	0.357605	13.2938	0.493544	18.5214	0.606478	23.1821	0.285911	10.5843	0.479145	18.0902
0.247539	8.90521	0.039232	1.71541	0.206005	9.09131	0.362303	13.0176	0.49658	18.0058	0.609733	22.5051	0.293218	10.4929	0.483086	17.6193
0.254614	8.86269	0.0413465	1.7371	0.213807	9.06298	0.367106	12.7629	0.499788	17.5299	0.61308	21.8763	0.300561	10.4087	0.487122	17.1826
0.261519	8.8171	0.0434623	1.75721	0.221502	9.03244	0.372017	12.5279	0.50317	17.09	0.616517	21.2911	0.307934	10.3307	0.49125	16.7768
0.268241	8.7683	0.0455787	1.77588	0.22908	8.99952	0.377041	12.3108	0.50673	16.683	0.620041	20.7453	0.315333	10.2582	0.495466	16.399
0.274768	8.71619	0.0476953	1.79326	0.236529	8.96407	0.382184	12.1103	0.510469	16.3059	0.623651	20.2353	0.322752	10.1907	0.499768	16.0466
0.281087	8.66069	0.0498118	1.80945	0.243839	8.92592	0.387451	11.9251	0.514389	15.9563	0.627345	19.7579	0.330188	10.1276	0.504153	15.7172
0.287189	8.60177	0.0519277	1.82456	0.250997	8.88493	0.392847	11.7542	0.518491	15.6317	0.631122	19.3102	0.337636	10.0683	0.508618	15.4088
0.293064	8.53944	0.0540429	1.83869	0.257991	8.84093	0.398378	11.5964	0.522775	15.3303	0.63498	18.8898	0.345092	10.0125	0.51316	15.1197
0.298705	8.47375	0.0561572	1.85192	0.264809	8.79379	0.404047	11.4509	0.527239	15.05	0.638917	18.4943	0.351594	9.96633	0.517778	14.8481
0.304105	8.40481	0.0582705	1.86433	0.271437	8.7434	0.409858	11.3167	0.531883	14.7892	0.642932	18.1218	0.357137	9.92867	0.522467	14.5927
0.309263	8.33278	0.0603828	1.87599	0.277865	8.68965	0.415812	11.1932	0.536704	14.5464	0.647023	17.7704	0.36172	9.89858	0.527226	14.3521
0.314177	8.25788	0.062494	1.88696	0.28408	8.63249	0.421909	11.0794	0.541699	14.3202	0.651188	17.4386	0.365343	9.87543	0.532053	14.1253
0.318849	8.18036	0.064604	1.89729	0.290073	8.57191	0.428146	10.9747	0.546865	14.1093	0.655426	17.1248	0.368006	9.85874	0.536945	13.9111
0.323284	8.1005	0.0667129	1.90705	0.295835	8.50793	0.43452	10.8783	0.552197	13.9124	0.659736	16.8278	0.36971	9.8482	0.5419	13.7085
0.327487	8.01863	0.0688207	1.91626	0.301359	8.44065	0.441025	10.7895	0.557692	13.7286	0.664116	16.5463	0.372158	9.83324	0.546917	13.5169
0.331467	7.93506	0.0709274	1.92498	0.306642	8.37018	0.447655	10.7076	0.563344	13.5568	0.668564	16.2792	0.374819	9.81723	0.551992	13.3352
0.335233	7.85013	0.073033	1.93325	0.311681	8.29673	0.454401	10.632	0.569148	13.3961	0.67308	16.0256	0.378435	9.79584	0.557125	13.163
0.338796	7.76417	0.0751376	1.94108	0.316477	8.22052	0.461256	10.5622	0.575099	13.2457	0.677662	15.7846	0.383005	9.76939	0.562314	12.9994
0.342167	7.67749	0.0772413	1.94853	0.321033	8.14183	0.46821	10.4974	0.581191	13.1048	0.682309	15.5552	0.388524	9.73824	0.567558	12.844
0.345357	7.59039	0.0793439	1.95561	0.325354	8.06095	0.475255	10.4374	0.587419	12.9727	0.687019	15.3368	0.394986	9.70277	0.572854	12.6962
0.348379	7.50316	0.0814456	1.96235	0.329448	7.97821	0.482381	10.3814	0.593777	12.8487	0.691792	15.1287	0.402384	9.66334	0.578202	12.5554
0.351243	7.41603	0.0835465	1.96877	0.333323	7.89394	0.489579	10.3292	0.600259	12.7323	0.696626	14.9302	0.40976	9.6251	0.583601	12.4214
0.35396	7.32923	0.0856465	1.9749	0.336989	7.80847	0.495904	10.2865	0.606859	12.6229	0.70152	14.7408	0.417109	9.5879	0.589049	12.2935
0.356543	7.24298	0.0877458	1.98075	0.340457	7.72212	0.50133	10.2518	0.613573	12.5199	0.706474	14.5598	0.424429	9.5516	0.594547	12.1716
0.359	7.15743	0.0898442	1.98634	0.343739	7.6352	0.505838	10.2244	0.620394	12.4229	0.711487	14.3869	0.431716	9.51606	0.600092	12.0552
0.361342	7.07274	0.091942	1.9917	0.346846	7.54801	0.509414	10.2033	0.627316	12.3314	0.716558	14.2215	0.438966	9.48117	0.605686	11.944
0.363578	6.98904	0.0940391	1.99682	0.349789	7.46079	0.512051	10.1882	0.634335	12.2451	0.721686	14.0632	0.446177	9.44681	0.611326	11.8377
0.365715	6.90644	0.0961355	2.00174	0.352581	7.3738	0.513741	10.1787	0.641446	12.1636	0.72687	13.9117	0.453345	9.41288	0.617014	11.7361
0.367763	6.82502	0.0982313	2.00645	0.355232	7.28724	0.516173	10.1653	0.648642	12.0866	0.732111	13.7665	0.460465	9.37929	0.622748	11.6389
0.369728	6.74486	0.100327	2.01098	0.357752	7.20131	0.518822	10.1509	0.655919	12.0136	0.737408	13.6274	0.467535	9.34593	0.628529	11.5459
0.371616	6.66602	0.102421	2.01533	0.360152	7.11616	0.522431	10.1318	0.663272	11.9444	0.742761	13.4939	0.474551	9.31273	0.634356	11.4569
0.373435	6.58853	0.104515	2.01951	0.362441	7.03194	0.527006	10.1083	0.670696	11.8788	0.748169	13.366	0.481509	9.27961	0.64023	11.3716
0.37519	6.51244	0.106609	2.02354	0.364628	6.94876	0.532551	10.0809	0.678185	11.8165	0.753634	13.2432	0.488406	9.24649	0.646151	11.29
0.376886	6.43777	0.108702	2.02741	0.366721	6.86672	0.539072	10.0499	0.685736	11.7572	0.759154	13.1253	0.495237	9.21332	0.652118	11.2117
0.378528	6.36453	0.110795	2.03115	0.368727	6.78591	0.546571	10.0157	0.693342	11.7007	0.764731	13.0121	0.502	9.18001	0.658132	11.1367
0.380121	6.29272	0.112887	2.03475	0.370654	6.70638	0.554083	9.98291	0.701	11.6468	0.770366	12.9034	0.50869	9.14652	0.664193	11.0648
0.381668	6.22236	0.114979	2.03823	0.372509	6.62819	0.561602	9.95134	0.708704	11.5953	0.776058	12.799	0.515305	9.1128	0.670301	10.9959
0.383173	6.15343	0.117071	2.04159	0.374296	6.55138	0.569125	9.92086	0.716449	11.546	0.78181	12.6988	0.52184	9.07878	0.676456	10.9298
0.38464	6.08593	0.119162	2.04483	0.376021	6.47598	0.576648	9.89135	0.72423	11.4987	0.787623	12.6025	0.528292	9.04443	0.682657	10.8664
0.386072	6.01985	0.121253	2.04796	0.37769	6.402	0.584167	9.8627	0.732041	11.4533	0.793498	12.51	0.534659	9.00971	0.688905	10.8057
0.387472	5.95516	0.123343	2.051	0.379308	6.32946	0.591678	9.83481	0.739878	11.4096	0.799437	12.4211	0.540936	8.97458	0.694388	10.7547
0.388842	5.89185	0.125433	2.05393	0.380878	6.25835	0.599178	9.80759	0.747735	11.3675	0.805442	12.3359	0.54712	8.93901	0.69909	10.7127
0.390185	5.82991	0.127523	2.05677	0.382404	6.18869	0.606665	9.78097	0.755607	11.3267	0.811517	12.2541	0.55321	8.90298	0.702996	10.6789
0.391504	5.7693	0.129613	2.05953	0.38389	6.12046	0.614135	9.75488	0.763486	11.2872	0.817664	12.1756	0.559202	8.86647	0.706097	10.6528
0.3928	5.71	0.131702	2.0622	0.38534	6.05365	0.621586	9.72925	0.771368	11.2488	0.823885	12.1004	0.565094	8.82945	0.708384	10.6339
0.394076	5.65199	0.133791	2.06478	0.386756	5.98824	0.629015	9.70402	0.779245	11.2113	0.830186	12.0283	0.570883	8.79193	0.709851	10.6219
0.395332	5.59525	0.13588	2.06729	0.388141	5.92423	0.636421	9.67914	0.787112	11.1747	0.836569	11.9593	0.576569	8.75388	0.711963	10.605
0.396572	5.53974	0.137968	2.06973	0.389498	5.86159	0.6438	9.65457	0.794962	11.1388	0.843039	11.8934	0.582149	8.71532	0.714265	10.5868
0.397796	5.48545	0.140056	2.0721	0.390829	5.80029	0.651152	9.63026	0.802789	11.1035	0.8496	11.8305	0.587622	8.67624	0.717403	10.5624
0.399006	5.43234	0.142145	2.0744	0.392137	5.74032	0.658472	9.60616	0.810585	11.0687	0.856257	11.7705	0.592987	8.63665	0.721388	10.5324
0.400202	5.38038	0.144232	2.07663	0.393422	5.68166	0.665761	9.58224	0.818346	11.0343	0.863013	11.7133	0.598244	8.59655	0.726227	10.4969
0.401388	5.32956	0.14632	2.0788	0.394689	5.62427	0.673015	9.55847	0.825074	11.0046	0.869873	11.659	0.603391	8.55597	0.731934	10.4567
0.402562	5.27984	0.148407	2.08091	0.395937	5.56813	0.680233	9.53482	0.830782	10.9793	0.876841	11.6074	0.60843	8.51492	0.73852	10.4122
0.403727	5.23119	0.150495	2.08297	0.397169	5.51321	0.687413	9.51125	0.835481	10.9586	0.883921	11.5586	0.613359	8.47343	0.745145	10.3694
0.404884	5.1836	0.152582	2.08497	0.398385	5.45949	0.694553	9.48773	0.839182	10.9422	0.891113	11.5124	0.61818	8.4315	0.751808	10.3282
0.406033	5.13704	0.154669	2.08692	0.399589	5.40695	0.701651	9.46425	0.841896	10.9301	0.898422	11.4688	0.622893	8.38917	0.758506	10.2886
0.407175	5.09147	0.156756	2.08882	0.40078	5.35555	0.708707	9.44077	0.843629	10.9224	0.905846	11.4276	0.627499	8.34647	0.765238	10.2503
0.408311	5.04688	0.158842	2.09066	0.401959	5.30526	0.715717	9.41728	0.846114	10.9114	0.913385	11.3889	0.631998	8.30342	0.772002	10.2135
0.409442	5.00324	0.160929	2.09247	0.403129	5.25607	0.722681	9.39375	0.848809	10.8993	0.921039	11.3524	0.636394	8.26006	0.778795	10.1779
0.410569	4.96053	0.163015	2.09422	0.40429	5.20794	0.729597	9.37016	0.852462	10.883	0.928804	11.3182	0.640686	8.21641	0.785616	10.1435
0.411691	4.91873	0.165101	2.09594	0.405443	5.16085	0.736463	9.3465	0.857062	10.8624	0.936676	11.286	0.644877	8.1725	0.792463	10.1103
0.41281	4.8778	0.167187	2.09761	0.406589	5.11477	0.743277	9.32275	0.862595	10.8374	0.943621	11.2595	0.648968	8.12837	0.799332	10.0781
0.413927	4.83773	0.169273	2.09924	0.407728	5.06969	0.750039	9.29889	0.869043	10.8082	0.949601	11.238	0.652961	8.08405	0.806222	10.047
0.414898	4.8035	0.171359	2.10083	0.408861	5.02556	0.756746	9.27491	0.876386	10.7747	0.954586	11.221	0.656858	8.03957	0.813131	10.0168
0.415724	4.77481	0.173445	2.10239	0.40999	4.98238	0.763397	9.2508	0.883671	10.7412	0.958552	11.208	0.660662	7.99495	0.820056	9.98746
0.416407	4.75142	0.17553	2.10391	0.411115	4.94011	0.769991	9.22653	0.8909	10.7078	0.961481	11.1987	0.664374	7.95023	0.826995	9.95897
0.416947	4.73314	0.177616	2.10539	0.412235	4.89873	0.776526	9.20211	0.898077	10.6745	0.963362	11.1928	0.667996	7.90544	0.833946	9.93124
0.417343	4.71981	0.179701	2.10684	0.413353	4.85823	0.783002	9.17752	0.905205	10.6414	0.966073	11.1846	0.671532	7.86061	0.840906	9.90424
0.417597	4.71133	0.181786	2.10826	0.414468	4.81857	0.789416	9.15275	0.912289	10.6085	0.969031	11.1758	0.674982	7.81576	0.847873	9.8779
0.417962	4.69922	0.183871	2.10965	0.415581	4.77974	0.795768	9.12779	0.919332	10.5758	0.973069	11.1641	0.67835	7.77093	0.854845	9.85218
0.418358	4.68614	0.185956	2.11101	0.416693	4.74171	0.802056	9.10264	0.92634	10.5434	0.978204	11.1498	0.681638	7.72613	0.861819	9.82704
0.418897	4.66851	0.188041	2.11233	0.417803	4.70447	0.808279	9.07728	0.933317	10.5114	0.984451	11.1331	0.684848	7.68139	0.868794	9.80243
0.419579	4.64647	0.190126	2.11363	0.418913	4.66799	0.814437	9.05173	0.940268	10.4797	0.991829	11.1145	0.687982	7.63674	0.875767	9.77831
0.420403	4.62018	0.192211	2.1149	0.420022	4.63226	0.820528	9.02596	0.947195	10.4484	1.00036	11.0943	0.691042	7.59219	0.882736	9.75465
0.421369	4.58985	0.194295	2.11615	0.421132	4.59726	0.826552	8.99998	0.954104	10.4175			0.694032	7.54778	0.889699	9.73141
0.422479	4.55571	0.19638	2.11736	0.422241	4.56296	0.832507	8.97379	0.960996	10.3871			0.696952	7.50351	0.896654	9.70855
0.423589	4.52225	0.198464	2.11856	0.423352	4.52935	0.838394	8.94738	0.967877	10.3572			0.699806	7.45941	0.9036	9.68603
0.424701	4.48946	0.200549	2.11973	0.424463	4.49642	0.84421	8.92076	0.974747	10.3277			0.702595	7.4155	0.910533	9.66384
0.425813	4.45732	0.202633	2.12087	0.425575	4.46415	0.849957	8.89393	0.981609	10.2988			0.705322	7.37178	0.917453	9.64194
0.426927	4.42582	0.204718	2.12199	0.426689	4.43251	0.855633	8.86688	0.988466	10.2703			0.707988	7.32829	0.924357	9.6203
0.428043	4.39493	0.206802	2.12309	0.427804	4.4015	0.861239	8.83962	0.995319	10.2424			0.710596	7.28503	0.931244	9.5989
0.429161	4.36466	0.208886	2.12417	0.428921	4.37109	0.866773	8.81215	1.00217	10.2149			0.713147	7.24201	0.938111	9.57771
0.430281	4.33497	0.21097	2.12523	0.430041	4.34128	0.872236	8.78448					0.715644	7.19925	0.944958	9.5567
0.431403	4.30586	0.213054	2.12627	0.431162	4.31204	0.877627	8.75661					0.718089	7.15676	0.951782	9.53586
0.432528	4.27731	0.215138	2.12728	0.432287	4.28337	0.882947	8.72855					0.720482	7.11456	0.958582	9.51517
0.433655	4.24931	0.217222	2.12828	0.433413	4.25526	0.888195	8.7003					0.722827	7.07264	0.965356	9.4946
0.434785	4.22184	0.219306	2.12926	0.434543	4.22767	0.893372	8.67186					0.725124	7.03102	0.972102	9.47414
0.435918	4.19489	0.221389	2.13022	0.435675	4.20061	0.898477	8.64325					0.727376	6.98971	0.97882	9.45376
0.437054	4.16845	0.223473	2.13117	0.436811	4.17407	0.903512	8.61448					0.729584	6.94872	0.985507	9.43346
0.438194	4.14251	0.225557	2.13209	0.43795	4.14802	0.908476	8.58554					0.73175	6.90804	0.992162	9.41322
0.439337	4.11705	0.22764	2.133	0.439092	4.12246	0.913369	8.55644					0.733875	6.8677	0.998784	9.39302
0.440483	4.09206	0.229724	2.1339	0.440237	4.09737	0.918192	8.5272					0.73596	6.82768	1.00537	9.37285
0.441633	4.06754	0.231807	2.13478	0.441386	4.07275	0.922946	8.49782					0.738008	6.78801		
0.442786	4.04346	0.233891	2.13564	0.442539	4.04858	0.927631	8.46831					0.740019	6.74868		
0.443943	4.01983	0.235974	2.13649	0.443695	4.02485	0.932248	8.43868					0.741996	6.70969		
0.445104	3.99662	0.238057	2.13732	0.444855	4.00156	0.936797	8.40894					0.743938	6.67105		
0.446269	3.97384	0.240141	2.13814	0.446019	3.97868	0.941278	8.37909					0.745848	6.63276		
0.447438	3.95146	0.242224	2.13894	0.447187	3.95622	0.945693	8.34914					0.747727	6.59483		
0.448611	3.92949	0.244307	2.13973	0.448359	3.93416	0.950042	8.31911					0.749575	6.55725		
0.449788	3.90791	0.24639	2.14051	0.449535	3.9125	0.954326	8.289					0.751395	6.52002		
0.450969	3.88671	0.248473	2.14128	0.450716	3.89121	0.958545	8.25881					0.753186	6.48316		
0.452154	3.86588	0.250557	2.14203	0.4519	3.87031	0.962701	8.22857					0.754951	6.44665		
0.453344	3.84542	0.25264	2.14277	0.453089	3.84977	0.966794	8.19826					0.75669	6.4105		
0.454537	3.82531	0.254723	2.1435	0.454282	3.82959	0.970825	8.16792					0.758404	6.3747		
0.455736	3.80556	0.256806	2.14422	0.455479	3.80976	0.974795	8.13753					0.760095	6.33926		
0.456938	3.78614	0.258888	2.14492	0.45668	3.79027	0.978705	8.10711					0.761762	6.30418		
0.458145	3.76706	0.260971	2.14562	0.457886	3.77112	0.982555	8.07667					0.763407	6.26946		
0.459356	3.7483	0.263054	2.1463	0.459096	3.75229	0.986346	8.04621					0.765031	6.23509		
0.460572	3.72987	0.265137	2.14697	0.460311	3.73379	0.99008	8.01575					0.766635	6.20107		
0.461792	3.71174	0.26722	2.14764	0.46153	3.7156	0.993757	7.98528					0.768219	6.16741		
0.463017	3.69392	0.269303	2.14829	0.462754	3.69771	0.997378	7.95482					0.769784	6.13409		
0.464246	3.6764	0.271385	2.14893	0.463982	3.68013	1.00094	7.92438					0.771331	6.10112		
0.46548	3.65918	0.273468	2.14957	0.465215	3.66284							0.772861	6.0685		
0.466718	3.64223	0.275551	2.15019	0.466452	3.64584							0.774374	6.03622		
0.467961	3.62557	0.277633	2.1508	0.467694	3.62911							0.775871	6.00428		
0.469208	3.60918	0.279716	2.15141	0.46894	3.61267							0.777353	5.97268		
0.47046	3.59306	0.281799	2.15201	0.470191	3.59649							0.778819	5.94142		
0.471716	3.5772	0.283881	2.15259	0.471447	3.58057							0.780272	5.91049		
0.472977	3.5616	0.285964	2.15317	0.472707	3.56492							0.78171	5.87989		
0.474243	3.54625	0.288046	2.15374	0.473971	3.54951							0.783136	5.84962		
0.475513	3.53114	0.290129	2.15431	0.47524	3.53436							0.784549	5.81968		
0.476787	3.51628	0.292211	2.15486	0.476514	3.51944							0.78595	5.79005		
0.478067	3.50166	0.294293	2.15541	0.477792	3.50477							0.78734	5.76075		
0.47935	3.48726	0.296376	2.15595	0.479075	3.49032							0.788718	5.73176		
0.480639	3.47309	0.298458	2.15648	0.480362	3.47611							0.790085	5.70308		
0.481931	3.45915	0.30054	2.15701	0.481654	3.46211							0.791443	5.67472		
0.483229	3.44542	0.302623	2.15753	0.482951	3.44834							0.792791	5.64666		
0.484531	3.4319	0.304705	2.15804	0.484252	3.43478							0.794129	5.6189		
0.485837	3.4186	0.306787	2.15854	0.485557	3.42143							0.795458	5.59145		
0.487148	3.40549	0.30887	2.15904	0.486867	3.40828							0.796778	5.56429		
0.488464	3.39259	0.310952	2.15953	0.488181	3.39534							0.798091	5.53742		
0.489783	3.37989	0.313034	2.16001	0.4895	3.38259							0.799395	5.51085		
0.491108	3.36738	0.315116	2.16049	0.490824	3.37004							0.800692	5.48456		
0.492437	3.35506	0.317198	2.16096	0.492152	3.35768							0.801982	5.45856		
0.49377	3.34292	0.319281	2.16143	0.493484	3.3455							0.803265	5.43284		
0.495108	3.33096	0.321363	2.16189	0.494821	3.33351							0.804541	5.4074		
0.49645	3.31919	0.323445	2.16234	0.496162	3.3217							0.80581	5.38223		
0.497796	3.30759	0.325527	2.16279	0.497507	3.31006							0.807074	5.35733		
0.499147	3.29616	0.327609	2.16323	0.498857	3.29859							0.808332	5.3327		
0.500502	3.2849	0.329691	2.16367	0.500212	3.28729							0.809585	5.30834		
0.501862	3.2738	0.331773	2.1641	0.50157	3.27616							0.810832	5.28423		
0.503226	3.26287	0.333855	2.16453	0.502933	3.26519							0.812075	5.26039		
0.504594	3.25209	0.335937	2.16495	0.5043	3.25439							0.813312	5.2368		
0.505966	3.24147	0.338019	2.16536	0.505672	3.24373							0.814545	5.21347		
0.507343	3.23101	0.340101	2.16578	0.507048	3.23323							0.815774	5.19038		
0.508724	3.22069	0.342183	2.16618	0.508428	3.22289							0.816999	5.16754		
0.510109	3.21052	0.344265	2.16658	0.509812	3.21269							0.81822	5.14494		
0.511498	3.2005	0.346347	2.16698	0.5112	3.20263							0.819437	5.12258		
0.512892	3.19062	0.348429	2.16737	0.512593	3.19272							0.820651	5.10046		
0.514289	3.18088	0.350511	2.16776	0.51399	3.18295							0.821861	5.07858		
0.515691	3.17127	0.352593	2.16814	0.515391	3.17332							0.823069	5.05693		
0.517097	3.1618	0.354675	2.16852	0.516796	3.16382							0.824273	5.0355		
0.518507	3.15247	0.356756	2.16889	0.518205	3.15445							0.825475	5.0143		
0.519921	3.14326	0.358838	2.16926	0.519618	3.14522							0.826674	4.99333		
0.521339	3.13418	0.36092	2.16963	0.521035	3.13611							0.82787	4.97257		
0.522761	3.12522	0.363002	2.16999	0.522457	3.12713							0.829065	4.95203		
0.524188	3.11639	0.365084	2.17034	0.523882	3.11827							0.830257	4.93171		
0.525618	3.10768	0.367165	2.1707	0.525311	3.10953							0.831447	4.9116		
0.527052	3.09908	0.369247	2.17104	0.526744	3.10092							0.832636	4.8917		
0.52849	3.09061	0.371329	2.17139	0.528181	3.09241							0.833823	4.872		
0.529932	3.08225	0.373411	2.17173	0.529623	3.08403							0.835008	4.85251		
0.531377	3.074	0.375492	2.17207	0.531067	3.07575							0.836191	4.83322		
0.532827	3.06586	0.377574	2.1724	0.532516	3.06759							0.837374	4.81413		
0.53428	3.05783	0.379656	2.17273	0.533969	3.05954							0.838555	4.79523		
0.535738	3.04991	0.381737	2.17306	0.535425	3.05159							0.839735	4.77653		
0.537199	3.04209	0.383819	2.17338	0.536886	3.04375							0.840914	4.75802		
0.538664	3.03437	0.385901	2.1737	0.53835	3.03602							0.842092	4.7397		
0.540132	3.02676	0.387982	2.17402	0.539817	3.02838							0.84327	4.72157		
0.541604	3.01925	0.390064	2.17433	0.541289	3.02085							0.844446	4.70362		
0.54308	3.01183	0.392146	2.17464	0.542764	3.01341							0.845622	4.68585		
0.54456	3.00451	0.394227	2.17495	0.544243	3.00607							0.846798	4.66827		
0.546043	2.99729	0.396309	2.17525	0.545725	2.99883							0.847973	4.65086		
0.54753	2.99016	0.398391	2.17555	0.547211	2.99168							0.849148	4.63362		
0.549021	2.98312	0.400472	2.17585	0.548701	2.98462							0.850323	4.61656		
0.550515	2.97617	0.402554	2.17614	0.550194	2.97765							0.851497	4.59967		
0.552012	2.96931	0.404635	2.17643	0.551691	2.97078							0.852672	4.58295		
0.553513	2.96254	0.406717	2.17672	0.553192	2.96398							0.853846	4.56639		
0.555018	2.95585	0.408798	2.177	0.554696	2.95728							0.85502	4.55		
0.556526	2.94925	0.41088	2.17729	0.556203	2.95066							0.856195	4.53378		
0.558038	2.94273	0.412962	2.17757	0.557714	2.94412							0.85737	4.51771		
0.559553	2.9363	0.415043	2.17784	0.559228	2.93767							0.858545	4.5018		
0.561071	2.92994	0.417125	2.17812	0.560746	2.93129							0.859721	4.48605		
0.562593	2.92366	0.419206	2.17839	0.562267	2.925							0.860897	4.47045		
0.564118	2.91746	0.421288	2.17866	0.563791	2.91878							0.862073	4.45501		
0.565647	2.91134	0.423369	2.17892	0.565319	2.91264							0.86325	4.43971		
0.567179	2.90529	0.425451	2.17918	0.56685	2.90658							0.864428	4.42457		
0.568714	2.89932	0.427532	2.17944	0.568385	2.90059							0.865606	4.40957		
0.570252	2.89342	0.429613	2.1797	0.569922	2.89467							0.866785	4.39472		
0.571794	2.88759	0.431695	2.17996	0.571463	2.88883							0.867964	4.38001		
0.573339	2.88183	0.433776	2.18021	0.573008	2.88306							0.869145	4.36544		
0.574887	2.87614	0.435858	2.18046	0.574555	2.87736							0.870326	4.35101		
0.576438	2.87052	0.437939	2.18071	0.576106	2.87172							0.871508	4.33672		
0.577992	2.86497	0.440021	2.18096	0.577659	2.86615							0.872691	4.32257		
0.57955	2.85949	0.442102	2.1812	0.579216	2.86066							0.873876	4.30855		
0.581111	2.85407	0.444183	2.18144	0.580776	2.85522							0.875061	4.29467		
0.582674	2.84871	0.446265	2.18168	0.582339	2.84985							0.876247	4.28091		
0.584241	2.84342	0.448346	2.18192	0.583905	2.84455							0.877434	4.26729		
0.585811	2.83819	0.450428	2.18215	0.585475	2.83931							0.878623	4.2538		
0.587384	2.83302	0.452509	2.18239	0.587047	2.83412							0.879813	4.24043		
0.58896	2.82792	0.45459	2.18262	0.588622	2.829							0.881004	4.22719		
0.590539	2.82287	0.456672	2.18285	0.590201	2.82395							0.882196	4.21407		
0.592121	2.81788	0.458753	2.18307	0.591782	2.81894							0.883389	4.20107		
0.593706	2.81295	0.460834	2.1833	0.593366	2.814							0.884584	4.1882		
0.595293	2.80808	0.462916	2.18352	0.594953	2.80912							0.885781	4.17544		
0.596884	2.80326	0.464997	2.18374	0.596543	2.80429							0.886978	4.16281		
0.598477	2.7985	0.467078	2.18396	0.598136	2.79951							0.888177	4.15029		
0.600074	2.79379	0.46916	2.18417	0.599732	2.7948							0.889378	4.13788		
0.601673	2.78914	0.471241	2.18439	0.60133	2.79013							0.89058	4.12559		
0.603275	2.78454	0.473322	2.1846	0.602932	2.78552							0.891783	4.11341		
0.60488	2.77999	0.475403	2.18481	0.604536	2.78096							0.892988	4.10134		
0.606487	2.7755	0.477485	2.18502	0.606143	2.77645							0.894195	4.08939		
0.608098	2.77105	0.479566	2.18523	0.607753	2.772							0.895403	4.07754		
0.609711	2.76666	0.481647	2.18544	0.609365	2.76759							0.896613	4.0658		
0.611327	2.76231	0.483729	2.18564	0.610981	2.76324							0.897824	4.05416		
0.612945	2.75801	0.48581	2.18584	0.612599	2.75893							0.899037	4.04263		
0.614567	2.75376	0.487891	2.18604	0.614219	2.75467							0.900252	4.0312		
0.61619	2.74956	0.489972	2.18624	0.615843	2.75045							0.901468	4.01988		
0.617817	2.7454	0.492054	2.18644	0.617468	2.74629							0.902686	4.00866		
0.619446	2.74129	0.494135	2.18663	0.619097	2.74217							0.903906	3.99754		
0.621078	2.73723	0.496216	2.18683	0.620728	2.73809							0.905128	3.98651		
0.622712	2.73321	0.498297	2.18702	0.622362	2.73407							0.906351	3.97559		
0.624349	2.72923	0.500378	2.18721	0.623998	2.73008							0.907576	3.96476		
0.625988	2.7253	0.50246	2.1874	0.625637	2.72614							0.908803	3.95402		
0.62763	2.72141	0.504541	2.18759	0.627279	2.72224							0.910032	3.94338		
0.629275	2.71756	0.506622	2.18777	0.628923	2.71838							0.911263	3.93284		
0.630922	2.71375	0.508703	2.18796	0.630569	2.71457							0.912495	3.92239		
0.632571	2.70999	0.510784	2.18814	0.632218	2.71079							0.913729	3.91202		
0.634223	2.70626	0.512866	2.18832	0.633869	2.70706							0.914966	3.90175		
0.635878	2.70258	0.514947	2.1885	0.635523	2.70336							0.916204	3.89157		
0.637534	2.69893	0.517028	2.18868	0.637179	2.69971							0.917444	3.88148		
0.639193	2.69533	0.519109	2.18885	0.638838	2.69609							0.918685	3.87147		
0.640855	2.69176	0.52119	2.18903	0.640499	2.69252							0.919929	3.86155		
0.642519	2.68822	0.523271	2.1892	0.642162	2.68898							0.921175	3.85172		
0.644185	2.68473	0.525353	2.18938	0.643828	2.68548							0.922423	3.84197		
0.645854	2.68127	0.527434	2.18955	0.645496	2.68201							0.923672	3.8323		
0.647525	2.67785	0.529515	2.18972	0.647167	2.67858							0.924924	3.82271		
0.649198	2.67447	0.531596	2.18989	0.648839	2.67519							0.926177	3.81321		
0.650873	2.67112	0.533677	2.19006	0.650514	2.67183							0.927433	3.80379		
0.652551	2.6678	0.535758	2.19022	0.652192	2.66851							0.92869	3.79445		
0.654231	2.66452	0.537839	2.19039	0.653871	2.66522							0.92995	3.78518		
0.655913	2.66127	0.53992	2.19055	0.655553	2.66197							0.931211	3.776		
0.657598	2.65806	0.542002	2.19071	0.657237	2.65875							0.932475	3.76689		
0.659284	2.65488	0.544083	2.19087	0.658923	2.65556							0.93374	3.75786		
0.660973	2.65173	0.546164	2.19103	0.660611	2.6524							0.935008	3.74891		
0.662664	2.64862	0.548245	2.19119	0.662302	2.64928							0.936277	3.74002		
0.664357	2.64553	0.550326	2.19135	0.663995	2.64619							0.937549	3.73122		
0.666053	2.64248	0.552407	2.19151	0.66569	2.64313							0.938823	3.72248		
0.66775	2.63946	0.554488	2.19166	0.667387	2.6401							0.940098	3.71382		
0.66945	2.63647	0.556569	2.19182	0.669086	2.6371							0.941376	3.70523		
0.671151	2.6335	0.55865	2.19197	0.670787	2.63414							0.942656	3.69671		
0.672855	2.63057	0.560731	2.19212	0.67249	2.6312							0.943938	3.68826		
0.674561	2.62767	0.562812	2.19227	0.674195	2.62829							0.945222	3.67988		
0.676269	2.6248	0.564893	2.19242	0.675903	2.62541							0.946508	3.67157		
0.677979	2.62195	0.566975	2.19257	0.677612	2.62256							0.947796	3.66333		
0.67969	2.61913	0.569056	2.19272	0.679324	2.61973							0.949086	3.65515		
0.681404	2.61635	0.571137	2.19286	0.681037	2.61694							0.950378	3.64704		
0.68312	2.61358	0.573218	2.19301	0.682753	2.61417							0.951673	3.639		
0.684838	2.61085	0.575299	2.19315	0.68447	2.61143							0.952969	3.63102		
0.686558	2.60814	0.57738	2.1933	0.686189	2.60872							0.954267	3.62311		
0.68828	2.60546	0.579461	2.19344	0.687911	2.60603							0.955568	3.61526		
0.690003	2.60281	0.581542	2.19358	0.689634	2.60337							0.956871	3.60747		
0.691729	2.60018	0.583623	2.19372	0.691359	2.60074							0.958175	3.59974		
0.693456	2.59757	0.585704	2.19386	0.693086	2.59813							0.959482	3.59208		
0.695186	2.595	0.587785	2.194	0.694815	2.59555							0.960791	3.58448		
0.696917	2.59244	0.589866	2.19413	0.696546	2.59299							0.962102	3.57694		
0.69865	2.58991	0.591947	2.19427	0.698279	2.59045							0.963415	3.56945		
0.700385	2.58741	0.594028	2.1944	0.700014	2.58794							0.96473	3.56203		
0.702122	2.58493	0.596109	2.19454	0.70175	2.58546							0.966048	3.55467		
0.703861	2.58247	0.59819	2.19467	0.703488	2.58299							0.967367	3.54736		
0.705601	2.58004	0.600271	2.1948	0.705228	2.58056							0.968689	3.54011		
0.707344	2.57763	0.602352	2.19494	0.70697	2.57814							0.970012	3.53292		
0.709088	2.57524	0.604433	2.19507	0.708714	2.57575							0.971338	3.52578		
0.710833	2.57287	0.606514	2.1952	0.710459	2.57338							0.972666	3.5187		
0.712581	2.57053	0.608595	2.19533	0.712207	2.57103							0.973996	3.51168		
0.71433	2.56821	0.610676	2.19545	0.713956	2.5687							0.975328	3.50471		
0.716081	2.56591	0.612757	2.19558	0.715706	2.5664							0.976662	3.49779		
0.717834	2.56363	0.614838	2.19571	0.717459	2.56412							0.977998	3.49093		
0.719589	2.56137	0.616918	2.19583	0.719213	2.56186							0.979336	3.48412		
0.721345	2.55914	0.618999	2.19596	0.720969	2.55962							0.980676	3.47736		
0.723103	2.55692	0.62108	2.19608	0.722726	2.5574							0.982019	3.47065		
0.724863	2.55473	0.623161	2.1962	0.724486	2.5552							0.983363	3.464		
0.726624	2.55255	0.625242	2.19632	0.726247	2.55302							0.98471	3.4574		
0.728387	2.5504	0.627323	2.19645	0.728009	2.55086							0.986059	3.45084		
0.730151	2.54827	0.629404	2.19657	0.729773	2.54872							0.987409	3.44434		
0.731918	2.54615	0.631485	2.19669	0.731539	2.5466							0.988762	3.43788		
0.733685	2.54405	0.633566	2.19681	0.733307	2.5445							0.990117	3.43148		
0.735455	2.54198	0.635647	2.19692	0.735076	2.54242							0.991474	3.42512		
0.737226	2.53992	0.637728	2.19704	0.736846	2.54036							0.992833	3.41881		
0.738998	2.53788	0.639809	2.19716	0.738619	2.53832							0.994194	3.41255		
0.740773	2.53586	0.64189	2.19727	0.740393	2.53629							0.995558	3.40634		
0.742548	2.53386	0.643971	2.19739	0.742168	2.53428							0.996923	3.40017		
0.744326	2.53187	0.646052	2.1975	0.743945	2.5323							0.99829	3.39405		
0.746104	2.5299	0.648132	2.19762	0.745723	2.53032							0.99966	3.38797		
0.747885	2.52796	0.650213	2.19773	0.747503	2.52837							1.00103	3.38194		
0.749667	2.52602	0.652294	2.19784	0.749285	2.52644										
0.75145	2.52411	0.654375	2.19795	0.751068	2.52452										
0.753235	2.52221	0.656456	2.19806	0.752853	2.52262										
0.755021	2.52033	0.658537	2.19817	0.754639	2.52073										
0.756809	2.51846	0.660618	2.19828	0.756426	2.51886										
0.758598	2.51662	0.662699	2.19839	0.758215	2.51701										
0.760389	2.51478	0.66478	2.1985	0.760006	2.51518										
0.762182	2.51297	0.66686	2.19861	0.761798	2.51336										
0.763975	2.51117	0.668941	2.19871	0.763591	2.51155										
0.76577	2.50938	0.671022	2.19882	0.765386	2.50976										
0.767567	2.50762	0.673103	2.19892	0.767182	2.50799										
0.769365	2.50586	0.675184	2.19903	0.76898	2.50624										
0.771164	2.50412	0.677265	2.19913	0.770779	2.50449										
0.772965	2.5024	0.679346	2.19924	0.772579	2.50277										
0.774767	2.50069	0.681426	2.19934	0.774381	2.50106										
0.77657	2.499	0.683507	2.19944	0.776184	2.49936										
0.778375	2.49732	0.685588	2.19954	0.777989	2.49768										
0.780181	2.49565	0.687669	2.19964	0.779795	2.49601										
0.781989	2.494	0.68975	2.19974	0.781602	2.49435										
0.783798	2.49236	0.691831	2.19984	0.78341	2.49271										
0.785608	2.49074	0.693912	2.19994	0.78522	2.49109										
0.78742	2.48913	0.695992	2.20004	0.787032	2.48948										
0.789232	2.48754	0.698073	2.20014	0.788844	2.48788										
0.791047	2.48595	0.700154	2.20024	0.790658	2.48629										
0.792862	2.48439	0.702235	2.20033	0.792473	2.48472										
0.794679	2.48283	0.704316	2.20043	0.79429	2.48316										
0.796497	2.48129	0.706397	2.20053	0.796107	2.48162										
0.798316	2.47976	0.708477	2.20062	0.797926	2.48008										
0.800136	2.47824	0.710558	2.20071	0.799746	2.47856										
0.801958	2.47673	0.712639	2.20081	0.801568	2.47706										
0.803781	2.47524	0.71472	2.2009	0.803391	2.47556										
0.805605	2.47376	0.716801	2.20099	0.805215	2.47408										
0.807431	2.47229	0.718881	2.20109	0.80704	2.47261										
0.809257	2.47084	0.720962	2.20118	0.808866	2.47115										
0.811085	2.4694	0.723043	2.20127	0.810694	2.4697										
0.812914	2.46796	0.725124	2.20136	0.812523	2.46827										
0.814745	2.46654	0.727205	2.20145	0.814353	2.46685										
0.816576	2.46513	0.729285	2.20154	0.816184	2.46543										
0.818409	2.46374	0.731366	2.20163	0.818016	2.46404										
0.820242	2.46235	0.733447	2.20172	0.81985	2.46265										
0.822077	2.46098	0.735528	2.20181	0.821684	2.46127										
0.823913	2.45961	0.737608	2.20189	0.82352	2.4599										
0.825751	2.45826	0.739689	2.20198	0.825357	2.45855										
0.827589	2.45692	0.74177	2.20207	0.827195	2.4572										
0.829428	2.45559	0.743851	2.20215	0.829035	2.45587										
0.831269	2.45427	0.745932	2.20224	0.830875	2.45455										
0.833111	2.45296	0.748012	2.20233	0.832716	2.45324										
0.834954	2.45166	0.750093	2.20241	0.834559	2.45193										
0.836798	2.45037	0.752174	2.20249	0.836403	2.45064										
0.838643	2.44909	0.754255	2.20258	0.838248	2.44936										
0.840489	2.44782	0.756335	2.20266	0.840093	2.44809										
0.842336	2.44656	0.758416	2.20274	0.84194	2.44683										
0.844184	2.44531	0.760497	2.20283	0.843788	2.44558										
0.846034	2.44407	0.762578	2.20291	0.845638	2.44434										
0.847884	2.44284	0.764658	2.20299	0.847488	2.44311										
0.849735	2.44162	0.766739	2.20307	0.849339	2.44188										
0.851588	2.44041	0.76882	2.20315	0.851191	2.44067										
0.853442	2.43921	0.770901	2.20323	0.853045	2.43947										
0.855296	2.43802	0.772981	2.20331	0.854899	2.43828										
0.857152	2.43684	0.775062	2.20339	0.856754	2.43709										
0.859008	2.43567	0.777143	2.20347	0.858611	2.43592										
0.860866	2.4345	0.779224	2.20355	0.860468	2.43475										
0.862725	2.43335	0.781304	2.20363	0.862327	2.43359										
0.864584	2.4322	0.783385	2.20371	0.864186	2.43244										
0.866445	2.43106	0.785466	2.20378	0.866046	2.43131										
0.868306	2.42993	0.787546	2.20386	0.867908	2.43017										
0.870169	2.42881	0.789627	2.20394	0.86977	2.42905										
0.872033	2.4277	0.791708	2.20401	0.871634	2.42794										
0.873897	2.4266	0.793789	2.20409	0.873498	2.42683										
0.875763	2.4255	0.795869	2.20416	0.875363	2.42574										
0.877629	2.42442	0.79795	2.20424	0.87723	2.42465										
0.879497	2.42334	0.800031	2.20431	0.879097	2.42357										
0.881365	2.42227	0.802111	2.20439	0.880965	2.4225										
0.883234	2.42121	0.804192	2.20446	0.882834	2.42143										
0.885104	2.42015	0.806273	2.20453	0.884704	2.42038										
0.886976	2.4191	0.808354	2.20461	0.886575	2.41933										
0.888848	2.41807	0.810434	2.20468	0.888447	2.41829										
0.890721	2.41704	0.812515	2.20475	0.89032	2.41726										
0.892595	2.41601	0.814596	2.20482	0.892193	2.41623										
0.894469	2.415	0.816676	2.20489	0.894068	2.41521										
0.896345	2.41399	0.818757	2.20497	0.895943	2.4142										
0.898222	2.41299	0.820838	2.20504	0.89782	2.4132										
0.900099	2.41199	0.822918	2.20511	0.899697	2.41221										
0.901978	2.41101	0.824999	2.20518	0.901575	2.41122										
0.903857	2.41003	0.82708	2.20525	0.903454	2.41024										
0.905737	2.40906	0.82916	2.20532	0.905334	2.40927										
0.907618	2.40809	0.831241	2.20538	0.907215	2.4083										
0.9095	2.40714	0.833322	2.20545	0.909097	2.40734										
0.911382	2.40619	0.835402	2.20552	0.910979	2.40639										
0.913266	2.40524	0.837483	2.20559	0.912863	2.40544										
0.91515	2.4043	0.839564	2.20566	0.914747	2.4045										
0.917036	2.40337	0.841644	2.20572	0.916632	2.40357										
0.918922	2.40245	0.843725	2.20579	0.918518	2.40265										
0.920809	2.40153	0.845806	2.20586	0.920405	2.40173										
0.922696	2.40063	0.847886	2.20592	0.922292	2.40082										
0.924585	2.39972	0.849967	2.20599	0.92418	2.39991										
0.926474	2.39882	0.852048	2.20606	0.92607	2.39902										
0.928364	2.39793	0.854128	2.20612	0.92796	2.39812										
0.930255	2.39705	0.856209	2.20619	0.92985	2.39724										
0.932147	2.39617	0.85829	2.20625	0.931742	2.39636										
0.93404	2.3953	0.86037	2.20631	0.933634	2.39549										
0.935933	2.39443	0.862451	2.20638	0.935528	2.39462										
0.937827	2.39357	0.864532	2.20644	0.937422	2.39376										
0.939722	2.39272	0.866612	2.20651	0.939316	2.3929										
0.941618	2.39187	0.868693	2.20657	0.941212	2.39205										
0.943514	2.39103	0.870773	2.20663	0.943108	2.39121										
0.945412	2.3902	0.872854	2.20669	0.945005	2.39038										
0.94731	2.38937	0.874935	2.20676	0.946903	2.38954										
0.949208	2.38854	0.877015	2.20682	0.948802	2.38872										
0.951108	2.38773	0.879096	2.20688	0.950701	2.3879										
0.953008	2.38691	0.881177	2.20694	0.952601	2.38709										
0.954909	2.38611	0.883257	2.207	0.954502	2.38628										
0.956811	2.3853	0.885338	2.20706	0.956404	2.38548										
0.958713	2.38451	0.887419	2.20712	0.958306	2.38468										
0.960616	2.38372	0.889499	2.20718	0.960209	2.38389										
0.96252	2.38293	0.89158	2.20724	0.962113	2.3831										
0.964425	2.38216	0.89366	2.2073	0.964017	2.38232										
0.96633	2.38138	0.895741	2.20736	0.965922	2.38155										
0.968237	2.38061	0.897822	2.20742	0.967828	2.38078										
0.970143	2.37985	0.899902	2.20748	0.969735	2.38001										
0.972051	2.37909	0.901983	2.20754	0.971642	2.37925										
0.973959	2.37834	0.904063	2.2076	0.97355	2.3785										
0.975868	2.37759	0.906144	2.20766	0.975459	2.37775										
0.977778	2.37685	0.908225	2.20771	0.977369	2.37701										
0.979688	2.37611	0.910305	2.20777	0.979279	2.37627										
0.981599	2.37538	0.912386	2.20783	0.98119	2.37553										
0.983511	2.37465	0.914466	2.20788	0.983101	2.3748										
0.985423	2.37393	0.916547	2.20794	0.985013	2.37408										
0.987336	2.37321	0.918628	2.208	0.986926	2.37336										
0.98925	2.37249	0.920708	2.20805	0.98884	2.37265										
0.991164	2.37179	0.922789	2.20811	0.990754	2.37194										
0.993079	2.37108	0.924869	2.20817	0.992669	2.37123										
0.994995	2.37038	0.92695	2.20822	0.994584	2.37053										
0.996911	2.36969	0.92903	2.20828	0.996501	2.36984										
0.998828	2.369	0.931111	2.20833	0.998417	2.36915										
1.00075	2.36831	0.933192	2.20838	1.00033	2.36846										
		0.935272	2.20844												
		0.937353	2.20849												
		0.939433	2.20855												
		0.941514	2.2086												
		0.943594	2.20865												
		0.945675	2.20871												
		0.947756	2.20876												
		0.949836	2.20881												
		0.951917	2.20887												
		0.953997	2.20892												
		0.956078	2.20897												
		0.958158	2.20902												
		0.960239	2.20907												
		0.96232	2.20912												
		0.9644	2.20918												
		0.966481	2.20923												
		0.968561	2.20928												
		0.970642	2.20933												
		0.972722	2.20938												
		0.974803	2.20943												
		0.976883	2.20948												
		0.978964	2.20953												
		0.981044	2.20958												
		0.983125	2.20963												
		0.985205	2.20968												
		0.987286	2.20972												
		0.989367	2.20977												
		0.991447	2.20982												
		0.993528	2.20987												
		0.995608	2.20992												
		0.997689	2.20996												
		0.999769	2.21001												
		1.00185	2.21006												
