Sym0		Asym0		Sym1		Sym2		Sym3		Sym4		Asym1		Asym2	
459  Points		491  Points		459  Points		138  Points		110  Points		101  Points		321  Points		118  Points	
Freq (MHz)	Vph (m/ms)	Freq (MHz)	Vph (m/ms)	Freq (MHz)	Vph (m/ms)	Freq (MHz)	Vph (m/ms)	Freq (MHz)	Vph (m/ms)	Freq (MHz)	Vph (m/ms)	Freq (MHz)	Vph (m/ms)	Freq (MHz)	Vph (m/ms)
0.00420771	9.49709	0.000292651	0.200325	0.0070293	9.49696	0.27958	383.156	0.458669	1062.81	0.559074	646.856	0.139926	194.084	1.00114	9.5426
0.0130551	9.49638	0.000778465	0.325366	0.015876	9.496	0.279881	168.464	0.458733	336.497	0.559261	311.395	0.140655	85.1087	0.994381	9.56308
0.0218995	9.49491	0.0014848	0.446653	0.0247189	9.49428	0.280415	108.14	0.458863	199.944	0.55958	205.148	0.141945	54.925	0.987586	9.58361
0.0307386	9.49269	0.00239634	0.563053	0.0335559	9.49182	0.28118	79.7728	0.459061	142.272	0.560029	153.039	0.143779	40.8922	0.98076	9.60421
0.0395705	9.4897	0.00349487	0.673689	0.042385	9.48859	0.282174	63.3181	0.459327	110.459	0.560609	122.109	0.146132	32.8553	0.973904	9.62488
0.0483928	9.48594	0.00476049	0.77794	0.0512038	9.48458	0.283394	52.5957	0.459662	90.3062	0.561319	101.637	0.148976	27.6936	0.967019	9.64565
0.0572034	9.48139	0.00617291	0.875459	0.0600101	9.47978	0.284834	45.0698	0.460068	76.4013	0.562158	87.0959	0.15228	24.1287	0.960107	9.66654
0.0659998	9.47603	0.00771226	0.966116	0.0688015	9.47414	0.286491	39.5076	0.460547	66.233	0.563125	76.2405	0.156009	21.5399	0.953169	9.68756
0.0747796	9.46983	0.00936001	1.04998	0.0775755	9.46768	0.288359	35.2377	0.4611	58.4772	0.564219	67.8323	0.160132	19.5892	0.946208	9.70874
0.0835403	9.46277	0.011099	1.12724	0.0863295	9.46033	0.290431	31.8632	0.46173	52.3692	0.56544	61.1316	0.164615	18.0773	0.939224	9.73011
0.092279	9.45482	0.0129141	1.19821	0.0950607	9.45209	0.292703	29.1344	0.462439	47.4369	0.566786	55.6696	0.169427	16.8787	0.932221	9.75168
0.100993	9.44593	0.0147921	1.26326	0.103766	9.44289	0.295166	26.8862	0.463231	43.3729	0.568256	51.1347	0.174537	15.911	0.925198	9.77347
0.109679	9.43606	0.0167217	1.32279	0.112443	9.4327	0.297813	25.0053	0.464109	39.9684	0.569849	47.3115	0.179919	15.1176	0.91816	9.79553
0.118334	9.42518	0.0186931	1.37723	0.121087	9.42148	0.300638	23.4111	0.465077	37.0768	0.571563	44.0466	0.185546	14.4585	0.911106	9.81787
0.126954	9.41321	0.0206981	1.427	0.129695	9.40916	0.303632	22.0448	0.466137	34.592	0.573397	41.2278	0.191395	13.9048	0.90404	9.84052
0.135535	9.40012	0.0224676	1.46689	0.137164	9.39749	0.306789	20.8627	0.467295	32.4353	0.57535	38.7709	0.197444	13.4349	0.896964	9.86352
0.144074	9.38582	0.0239893	1.49852	0.143505	9.38681	0.310099	19.8314	0.468555	30.5473	0.577419	36.6117	0.203674	13.0326	0.889878	9.8869
0.152565	9.37024	0.0252553	1.52315	0.148729	9.37745	0.313556	18.9249	0.469921	28.882	0.579603	34.7003	0.210067	12.6854	0.882786	9.9107
0.161004	9.3533	0.0262607	1.54171	0.152846	9.3697	0.317153	18.1228	0.471399	27.4036	0.581901	32.9973	0.216608	12.3836	0.87569	9.93495
0.169385	9.33492	0.0270021	1.55486	0.155865	9.3638	0.320881	17.409	0.472994	26.0836	0.584311	31.4712	0.223281	12.1196	0.868591	9.95969
0.177702	9.31499	0.0274774	1.56306	0.157794	9.35992	0.324735	16.7704	0.474712	24.899	0.58683	30.0967	0.230073	11.8871	0.861492	9.98496
0.185948	9.2934	0.0281618	1.57457	0.160562	9.35423	0.328708	16.1963	0.476557	23.8312	0.589458	28.8527	0.236972	11.6812	0.854396	10.0108
0.194118	9.27003	0.028907	1.58672	0.163563	9.34786	0.332796	15.678	0.478536	22.8649	0.592193	27.7223	0.243967	11.498	0.847303	10.0373
0.202202	9.24476	0.0299225	1.60265	0.167632	9.3389	0.336992	15.2081	0.480655	21.9873	0.595031	26.6911	0.251049	11.3341	0.840218	10.0644
0.210192	9.21744	0.0312098	1.62188	0.172758	9.32705	0.341293	14.7808	0.482919	21.1879	0.597973	25.747	0.258208	11.1867	0.833142	10.0923
0.218079	9.18793	0.0327702	1.64385	0.178922	9.31191	0.345697	14.3908	0.485334	20.4576	0.601016	24.8799	0.265436	11.0537	0.826077	10.1209
0.225854	9.15606	0.0346047	1.66794	0.186103	9.29297	0.350201	14.034	0.487907	19.7889	0.604158	24.0812	0.272725	10.933	0.819026	10.1504
0.233504	9.12168	0.0367141	1.69356	0.194271	9.26957	0.354805	13.7067	0.490642	19.1752	0.607397	23.3434	0.280068	10.8232	0.811991	10.1808
0.241019	9.0846	0.0388266	1.7172	0.202354	9.24426	0.35951	13.406	0.493545	18.611	0.610731	22.6602	0.287459	10.7227	0.804975	10.2121
0.248387	9.04467	0.0409412	1.73906	0.210342	9.21691	0.364317	13.1291	0.496621	18.0914	0.614159	22.0259	0.294891	10.6305	0.79798	10.2445
0.255594	9.00171	0.043057	1.75931	0.218227	9.18735	0.36923	12.8739	0.499873	17.6121	0.617679	21.4359	0.30236	10.5455	0.791008	10.2779
0.262627	8.95556	0.0451735	1.7781	0.225999	9.15544	0.374253	12.6385	0.503306	17.1694	0.621288	20.8859	0.309859	10.467	0.784062	10.3125
0.269474	8.90608	0.04729	1.79556	0.233647	9.121	0.379391	12.4212	0.506923	16.7601	0.624986	20.3721	0.317383	10.394	0.777144	10.3483
0.276121	8.85315	0.0494063	1.81182	0.24116	9.08388	0.38465	12.2206	0.510725	16.3812	0.62877	19.8913	0.324929	10.3261	0.770256	10.3854
0.282556	8.79668	0.0515221	1.82699	0.248524	9.04389	0.390036	12.0354	0.514716	16.0302	0.632638	19.4407	0.332491	10.2625	0.763401	10.424
0.288766	8.73663	0.053637	1.84116	0.255728	9.00087	0.395554	11.8646	0.518894	15.7046	0.636589	19.0176	0.340065	10.2029	0.75658	10.4639
0.294743	8.67299	0.0557511	1.85442	0.262758	8.95466	0.401211	11.7071	0.523261	15.4024	0.640621	18.6198	0.347648	10.1468	0.749795	10.5055
0.300478	8.60581	0.0578642	1.86685	0.269601	8.90512	0.40701	11.562	0.527815	15.1218	0.644733	18.2453	0.355235	10.0937	0.743913	10.543
0.305965	8.53521	0.0599761	1.87852	0.276244	8.85212	0.412954	11.4284	0.532554	14.8609	0.648922	17.8921	0.362822	10.0434	0.738923	10.576
0.311201	8.46135	0.062087	1.8895	0.282675	8.79558	0.419044	11.3054	0.537476	14.6182	0.653187	17.5586	0.369431	10.0016	0.734814	10.6041
0.316185	8.38445	0.0641967	1.89983	0.288881	8.73546	0.425281	11.1923	0.542578	14.3922	0.657527	17.2434	0.375061	9.96723	0.731576	10.6267
0.320918	8.30478	0.0663053	1.90958	0.294854	8.67175	0.431661	11.0884	0.547856	14.1817	0.661939	16.9451	0.379713	9.93968	0.729201	10.6437
0.325405	8.22264	0.0684126	1.91879	0.300584	8.6045	0.43818	10.9927	0.553305	13.9855	0.666423	16.6625	0.383388	9.91839	0.727021	10.6595
0.329653	8.13838	0.070519	1.9275	0.306067	8.53384	0.444832	10.9047	0.558921	13.8024	0.670977	16.3944	0.386089	9.90301	0.725508	10.6706
0.333669	8.05232	0.0726243	1.93575	0.311298	8.45992	0.451611	10.8237	0.564698	13.6314	0.675599	16.1399	0.387816	9.89327	0.723147	10.6882
0.337465	7.96484	0.0747286	1.94357	0.316276	8.38297	0.458507	10.749	0.570631	13.4717	0.680288	15.8981	0.390298	9.87943	0.719945	10.7125
0.341051	7.87628	0.0768318	1.95099	0.321005	8.30325	0.465512	10.6799	0.576714	13.3222	0.685043	15.6681	0.392993	9.86457	0.715912	10.744
0.344439	7.78697	0.0789341	1.95805	0.325487	8.22107	0.472617	10.616	0.582941	13.1824	0.689862	15.4491	0.396655	9.84467	0.711056	10.7831
0.347641	7.69723	0.0810355	1.96477	0.329731	8.13677	0.479811	10.5567	0.589306	13.0513	0.694745	15.2404	0.40128	9.81997	0.705392	10.8306
0.350669	7.60735	0.083136	1.97117	0.333743	8.05068	0.487086	10.5015	0.595804	12.9285	0.699689	15.0415	0.406862	9.79075	0.698936	10.8872
0.353536	7.51761	0.0852357	1.97728	0.337535	7.96318	0.494432	10.4499	0.602427	12.8132	0.704695	14.8516	0.413394	9.75728	0.692526	10.9462
0.356254	7.42823	0.0873346	1.9831	0.341117	7.87459	0.501841	10.4017	0.609171	12.7048	0.709761	14.6703	0.420863	9.71983	0.686164	11.0078
0.358833	7.33942	0.0894327	1.98867	0.344501	7.78527	0.509303	10.3564	0.616029	12.603	0.714886	14.4971	0.428302	9.68327	0.679849	11.072
0.361284	7.25138	0.0915302	1.994	0.3477	7.69553	0.515844	10.319	0.622996	12.5071	0.72007	14.3314	0.435707	9.64747	0.673582	11.1389
0.363618	7.16425	0.093627	1.99911	0.350725	7.60565	0.521444	10.2886	0.630066	12.4168	0.725311	14.1729	0.443074	9.61229	0.667362	11.2088
0.365844	7.07816	0.0957231	2.004	0.353589	7.51591	0.52609	10.2643	0.637233	12.3316	0.730609	14.0212	0.450399	9.57762	0.66119	11.2816
0.36797	6.99324	0.0978187	2.00869	0.356304	7.42654	0.529771	10.2457	0.644493	12.2512	0.735964	13.8758	0.457679	9.54336	0.655066	11.3577
0.370005	6.90957	0.0999136	2.01319	0.358881	7.33775	0.532482	10.2323	0.651839	12.1752	0.741375	13.7366	0.464911	9.50941	0.648988	11.4371
0.371956	6.82722	0.102008	2.01752	0.36133	7.24972	0.534218	10.2238	0.659266	12.1033	0.746841	13.603	0.47209	9.47567	0.642959	11.52
0.373831	6.74626	0.104102	2.02168	0.363661	7.16261	0.536717	10.2118	0.66677	12.0352	0.752364	13.4749	0.479213	9.44207	0.636976	11.6065
0.375635	6.66672	0.106195	2.02568	0.365885	7.07655	0.539435	10.1989	0.674345	11.9706	0.757942	13.352	0.486276	9.40851	0.631041	11.6969
0.377374	6.58864	0.108288	2.02953	0.368009	6.99165	0.543137	10.1818	0.681986	11.9093	0.763577	13.2341	0.493275	9.37493	0.625152	11.7914
0.379054	6.51205	0.110381	2.03325	0.370043	6.908	0.547823	10.1607	0.689689	11.851	0.769267	13.1208	0.500206	9.34125	0.619311	11.8902
0.38068	6.43695	0.112473	2.03683	0.371992	6.82568	0.553498	10.1358	0.697448	11.7955	0.775015	13.0121	0.507065	9.30741	0.613517	11.9935
0.382256	6.36335	0.114565	2.04028	0.373865	6.74474	0.560161	10.1075	0.705259	11.7426	0.78082	12.9077	0.51385	9.27335	0.60777	12.1016
0.383787	6.29126	0.116656	2.04362	0.375668	6.66523	0.567814	10.0762	0.713116	11.692	0.786685	12.8074	0.520555	9.23901	0.602071	12.2147
0.385276	6.22066	0.118747	2.04684	0.377406	6.58718	0.575468	10.046	0.721015	11.6437	0.792609	12.711	0.527178	9.20435	0.596421	12.3332
0.386727	6.15154	0.120837	2.04995	0.379085	6.51061	0.58312	10.0166	0.728951	11.5973	0.798595	12.6185	0.533714	9.16931	0.590819	12.4574
0.388142	6.0839	0.122928	2.05296	0.38071	6.43554	0.590767	9.98812	0.736918	11.5528	0.804645	12.5296	0.54016	9.13386	0.585267	12.5876
0.389526	6.01771	0.125018	2.05588	0.382286	6.36198	0.598404	9.96035	0.744911	11.51	0.81076	12.4443	0.546514	9.09796	0.579765	12.7242
0.39088	5.95294	0.127107	2.0587	0.383816	6.28991	0.606029	9.93322	0.752924	11.4687	0.816943	12.3624	0.552771	9.06158	0.574315	12.8677
0.392208	5.88959	0.129197	2.06143	0.385304	6.21934	0.613639	9.90666	0.760952	11.4288	0.823198	12.2838	0.55893	9.0247	0.568917	13.0185
0.393511	5.82763	0.131286	2.06408	0.386754	6.15025	0.62123	9.8806	0.768989	11.3901	0.829526	12.2086	0.564986	8.98729	0.563574	13.1772
0.394792	5.76702	0.133375	2.06665	0.388169	6.08263	0.628801	9.85498	0.777029	11.3526	0.835933	12.1364	0.570939	8.94934	0.558286	13.3443
0.396052	5.70775	0.135463	2.06914	0.389552	6.01647	0.636348	9.82973	0.785066	11.3159	0.842421	12.0674	0.576785	8.91084	0.553055	13.5203
0.397294	5.64978	0.137552	2.07156	0.390906	5.95174	0.64387	9.80481	0.793093	11.2802	0.848995	12.0014	0.582523	8.87179	0.547883	13.7061
0.398518	5.59309	0.13964	2.07391	0.392233	5.88841	0.651364	9.78017	0.801103	11.2451	0.855659	11.9384	0.58815	8.83218	0.542771	13.9022
0.399728	5.53766	0.141728	2.07619	0.393536	5.82647	0.658828	9.75576	0.809091	11.2106	0.862418	11.8782	0.593667	8.79201	0.537722	14.1096
0.400923	5.48344	0.143816	2.07841	0.394816	5.76589	0.66626	9.73155	0.817049	11.1766	0.869276	11.821	0.599072	8.7513	0.532738	14.3291
0.402106	5.43042	0.145903	2.08056	0.396076	5.70664	0.673658	9.7075	0.824971	11.1429	0.876237	11.7666	0.604364	8.71006	0.527821	14.5618
0.403277	5.37856	0.147991	2.08266	0.397317	5.6487	0.681019	9.68357	0.832851	11.1095	0.883306	11.7149	0.609542	8.6683	0.522973	14.8087
0.404438	5.32784	0.150078	2.0847	0.398542	5.59204	0.688343	9.65973	0.840684	11.0764	0.890486	11.666	0.614608	8.62605	0.518197	15.0711
0.40559	5.27822	0.152165	2.08668	0.399751	5.53662	0.695626	9.63596	0.847467	11.0476	0.89778	11.6197	0.619561	8.58332	0.513496	15.3503
0.406733	5.22969	0.154252	2.08861	0.400946	5.48243	0.702868	9.61222	0.853216	11.023	0.90519	11.5761	0.624401	8.54014	0.508872	15.6479
0.407869	5.18222	0.156338	2.0905	0.402128	5.42943	0.710067	9.58849	0.857945	11.0028	0.912717	11.5349	0.62913	8.49655	0.504328	15.9655
0.408998	5.13577	0.158425	2.09233	0.403299	5.37759	0.717219	9.56474	0.861669	10.9868	0.920361	11.4961	0.633748	8.45256	0.499866	16.3052
0.410122	5.09033	0.160511	2.09412	0.40446	5.32689	0.724325	9.54096	0.864398	10.975	0.928121	11.4597	0.638257	8.40821	0.49549	16.6691
0.41124	5.04586	0.162598	2.09586	0.405611	5.2773	0.731383	9.51712	0.86614	10.9675	0.935993	11.4255	0.642658	8.36354	0.491203	17.0596
0.412355	5.00235	0.164684	2.09756	0.406754	5.22879	0.738389	9.4932	0.868639	10.9567	0.943975	11.3933	0.646953	8.31856	0.487008	17.4795
0.413465	4.95976	0.16677	2.09922	0.40789	5.18133	0.745344	9.46919	0.871348	10.9449	0.952062	11.3631	0.651143	8.27333	0.482907	17.9319
0.414572	4.91808	0.168855	2.10083	0.40902	5.13491	0.752245	9.44506	0.875019	10.9289	0.96025	11.3348	0.655231	8.22787	0.478905	18.4206
0.415677	4.87728	0.170941	2.10241	0.410143	5.08948	0.75909	9.42081	0.879641	10.9086	0.967463	11.3116	0.659218	8.18221	0.475004	18.9496
0.41678	4.83733	0.173027	2.10395	0.411262	5.04503	0.765879	9.39641	0.8852	10.8841	0.973666	11.2927	0.663107	8.13639	0.471207	19.5239
0.417739	4.80321	0.175112	2.10546	0.412376	5.00154	0.772609	9.37185	0.891679	10.8554	0.97883	11.2777	0.6669	8.09044	0.467518	20.1488
0.418556	4.77461	0.177198	2.10693	0.413486	4.95897	0.77928	9.34713	0.89906	10.8225	0.982936	11.2663	0.6706	8.0444	0.463941	20.8311
0.419232	4.75129	0.179283	2.10837	0.414593	4.9173	0.785889	9.32223	0.906386	10.7897	0.985967	11.2581	0.674207	7.99829	0.460478	21.5783
0.419766	4.73307	0.181368	2.10978	0.415698	4.87651	0.792436	9.29713	0.913662	10.757	0.987912	11.2529	0.677726	7.95214	0.457133	22.3995
0.420158	4.71978	0.183453	2.11115	0.416801	4.83659	0.798918	9.27184	0.920891	10.7245	0.990714	11.2457	0.681159	7.90598	0.453909	23.3055
0.420409	4.71133	0.185538	2.11249	0.417902	4.79749	0.805336	9.24634	0.928079	10.6922	0.99377	11.2379	0.684507	7.85984	0.450809	24.3093
0.42077	4.69926	0.187623	2.11381	0.419001	4.75922	0.811687	9.22063	0.93523	10.6602	0.99794	11.2276	0.687773	7.81376	0.447837	25.4264
0.421163	4.68622	0.189708	2.1151	0.4201	4.72173	0.817971	9.19469	0.942348	10.6284	1.00324	11.215	0.69096	7.76774	0.444996	26.6762
0.421696	4.66865	0.191793	2.11635	0.421199	4.68502	0.824186	9.16854	0.949438	10.597			0.69407	7.72183	0.442289	28.0824
0.422371	4.64668	0.193877	2.11759	0.422297	4.64906	0.830332	9.14215	0.956505	10.566			0.697106	7.67603	0.439719	29.6747
0.423187	4.62048	0.195962	2.11879	0.423396	4.61383	0.836408	9.11554	0.963551	10.5354			0.700069	7.63038	0.437289	31.4907
0.424145	4.59025	0.198046	2.11998	0.424496	4.57932	0.842412	9.08869	0.970581	10.5053			0.702962	7.58489	0.435002	33.579
0.425245	4.55621	0.200131	2.12113	0.425596	4.54551	0.848345	9.06161	0.977597	10.4756			0.705788	7.53959	0.43286	36.003
0.426347	4.52286	0.202215	2.12227	0.426698	4.51237	0.854206	9.0343	0.984603	10.4464			0.708549	7.49449	0.430867	38.8476
0.427449	4.49018	0.204299	2.12338	0.427801	4.4799	0.859993	9.00676	0.991601	10.4176			0.711246	7.44961	0.429025	42.2289
0.428553	4.45815	0.206383	2.12447	0.428906	4.44807	0.865708	8.979	0.998592	10.3894			0.713883	7.40496	0.427336	46.3095
0.42966	4.42675	0.208468	2.12554	0.430013	4.41687	0.871349	8.95101	1.00558	10.3616			0.71646	7.36056	0.425802	51.3255
0.430768	4.39597	0.210552	2.12658	0.431121	4.38628	0.876915	8.92279					0.718981	7.31643	0.424426	57.6319
0.431878	4.36579	0.212636	2.12761	0.432233	4.35629	0.882408	8.89436					0.721447	7.27257	0.423209	65.79
0.432991	4.3362	0.21472	2.12862	0.433346	4.32688	0.887827	8.86572					0.72386	7.229	0.422153	76.7407
0.434106	4.30718	0.216803	2.12961	0.434462	4.29805	0.893172	8.83688					0.726223	7.18573	0.421259	92.1927
0.435224	4.27872	0.218887	2.13058	0.435582	4.26976	0.898442	8.80783					0.728536	7.14277	0.420529	115.605
0.436346	4.25081	0.220971	2.13153	0.436704	4.24202	0.903639	8.77859					0.730802	7.10013	0.419964	155.201
0.43747	4.22343	0.223055	2.13246	0.437829	4.21481	0.908762	8.74917					0.733022	7.05781	0.419564	236.474
0.438597	4.19656	0.225138	2.13338	0.438957	4.1881	0.913811	8.71957					0.735198	7.01583	0.419331	497.689
0.439728	4.17021	0.227222	2.13428	0.440089	4.16191	0.918787	8.6898					0.737332	6.97419		
0.440862	4.14435	0.229306	2.13517	0.441224	4.1362	0.923691	8.65987					0.739425	6.93289		
0.442	4.11896	0.231389	2.13604	0.442363	4.11097	0.928523	8.62979					0.741479	6.89194		
0.443141	4.09405	0.233472	2.13689	0.443506	4.08621	0.933283	8.59956					0.743496	6.85135		
0.444286	4.0696	0.235556	2.13773	0.444652	4.0619	0.937971	8.5692					0.745476	6.81112		
0.445435	4.0456	0.237639	2.13856	0.445802	4.03804	0.942589	8.53871					0.747421	6.77125		
0.446588	4.02204	0.239723	2.13937	0.446956	4.01461	0.947138	8.5081					0.749332	6.73175		
0.447745	3.9989	0.241806	2.14016	0.448114	3.99161	0.951617	8.47739					0.751212	6.69262		
0.448906	3.97618	0.243889	2.14095	0.449277	3.96902	0.956028	8.44658					0.75306	6.65385		
0.45007	3.95387	0.245972	2.14172	0.450443	3.94684	0.960371	8.41567					0.754878	6.61546		
0.45124	3.93196	0.248055	2.14247	0.451613	3.92505	0.964647	8.38469					0.756668	6.57744		
0.452413	3.91044	0.250138	2.14322	0.452788	3.90365	0.968857	8.35363					0.75843	6.53979		
0.45359	3.88929	0.252222	2.14395	0.453967	3.88263	0.973002	8.32251					0.760166	6.50251		
0.454772	3.86852	0.254305	2.14467	0.45515	3.86198	0.977082	8.29134					0.761876	6.46561		
0.455959	3.84812	0.256388	2.14538	0.456338	3.84168	0.981099	8.26012					0.763561	6.42908		
0.457149	3.82806	0.258471	2.14608	0.45753	3.82174	0.985053	8.22886					0.765223	6.39293		
0.458344	3.80836	0.260553	2.14677	0.458726	3.80215	0.988945	8.19757					0.766862	6.35714		
0.459544	3.78899	0.262636	2.14745	0.459927	3.78289	0.992777	8.16626					0.76848	6.32172		
0.460748	3.76996	0.264719	2.14811	0.461133	3.76396	0.996549	8.13494					0.770077	6.28667		
0.461956	3.75125	0.266802	2.14877	0.462343	3.74535	1.00026	8.10362					0.771653	6.25199		
0.463169	3.73286	0.268885	2.14941	0.463557	3.72706							0.77321	6.21767		
0.464387	3.71478	0.270968	2.15005	0.464776	3.70908							0.774749	6.18372		
0.465609	3.697	0.27305	2.15068	0.466	3.69139							0.77627	6.15012		
0.466836	3.67952	0.275133	2.15129	0.467228	3.67401							0.777774	6.11689		
0.468067	3.66233	0.277216	2.1519	0.46846	3.65691							0.779262	6.08401		
0.469303	3.64542	0.279298	2.1525	0.469698	3.64009							0.780734	6.05148		
0.470543	3.6288	0.281381	2.15309	0.47094	3.62355							0.78219	6.0193		
0.471788	3.61244	0.283464	2.15367	0.472186	3.60728							0.783633	5.98747		
0.473038	3.59636	0.285546	2.15425	0.473437	3.59128							0.785061	5.95599		
0.474292	3.58053	0.287629	2.15481	0.474693	3.57554							0.786476	5.92484		
0.475551	3.56496	0.289711	2.15537	0.475953	3.56005							0.787878	5.89404		
0.476815	3.54964	0.291794	2.15592	0.477218	3.5448							0.789268	5.86357		
0.478083	3.53456	0.293876	2.15646	0.478488	3.52981							0.790647	5.83343		
0.479355	3.51973	0.295959	2.15699	0.479762	3.51505							0.792013	5.80362		
0.480633	3.50513	0.298041	2.15752	0.481041	3.50052							0.79337	5.77413		
0.481915	3.49076	0.300123	2.15804	0.482324	3.48622							0.794715	5.74497		
0.483201	3.47661	0.302206	2.15855	0.483612	3.47215							0.796051	5.71613		
0.484492	3.46269	0.304288	2.15906	0.484905	3.4583							0.797378	5.6876		
0.485788	3.44899	0.30637	2.15956	0.486202	3.44466							0.798695	5.65939		
0.487088	3.43549	0.308453	2.16005	0.487504	3.43123							0.800003	5.63148		
0.488393	3.42221	0.310535	2.16053	0.48881	3.41801							0.801303	5.60388		
0.489702	3.40912	0.312617	2.16101	0.490121	3.40499							0.802596	5.57658		
0.491016	3.39624	0.314699	2.16148	0.491436	3.39218							0.80388	5.54958		
0.492334	3.38356	0.316782	2.16195	0.492756	3.37955							0.805158	5.52288		
0.493657	3.37106	0.318864	2.16241	0.49408	3.36712							0.806428	5.49647		
0.494984	3.35876	0.320946	2.16287	0.495409	3.35487							0.807692	5.47034		
0.496316	3.34663	0.323028	2.16332	0.496742	3.34281							0.808949	5.4445		
0.497652	3.33469	0.32511	2.16376	0.498079	3.33093							0.8102	5.41894		
0.498993	3.32293	0.327193	2.1642	0.499421	3.31922							0.811446	5.39366		
0.500338	3.31134	0.329275	2.16463	0.500768	3.30769							0.812686	5.36865		
0.501687	3.29993	0.331357	2.16506	0.502119	3.29632							0.81392	5.34392		
0.503041	3.28868	0.333439	2.16548	0.503474	3.28513							0.81515	5.31945		
0.504399	3.27759	0.335521	2.16589	0.504833	3.27409							0.816375	5.29525		
0.505762	3.26667	0.337603	2.16631	0.506197	3.26322							0.817596	5.27131		
0.507129	3.25591	0.339685	2.16671	0.507565	3.2525							0.818812	5.24763		
0.5085	3.2453	0.341767	2.16711	0.508938	3.24194							0.820024	5.22421		
0.509875	3.23484	0.343849	2.16751	0.510315	3.23153							0.821232	5.20103		
0.511255	3.22453	0.345931	2.1679	0.511696	3.22127							0.822437	5.17811		
0.512639	3.21437	0.348013	2.16829	0.513081	3.21116							0.823638	5.15543		
0.514027	3.20435	0.350095	2.16867	0.51447	3.20119							0.824836	5.13299		
0.515419	3.19448	0.352177	2.16905	0.515864	3.19136							0.826031	5.1108		
0.516815	3.18474	0.354259	2.16942	0.517262	3.18167							0.827223	5.08884		
0.518216	3.17514	0.356341	2.16979	0.518663	3.17211							0.828412	5.06711		
0.519621	3.16568	0.358423	2.17016	0.520069	3.16269							0.829598	5.04561		
0.521029	3.15635	0.360504	2.17052	0.52148	3.1534							0.830783	5.02434		
0.522442	3.14714	0.362586	2.17088	0.522894	3.14423							0.831965	5.0033		
0.523859	3.13807	0.364668	2.17123	0.524312	3.1352							0.833144	4.98248		
0.52528	3.12911	0.36675	2.17158	0.525734	3.12628							0.834322	4.96188		
0.526705	3.12028	0.368832	2.17192	0.52716	3.11749							0.835498	4.94149		
0.528134	3.11157	0.370914	2.17226	0.52859	3.10882							0.836673	4.92132		
0.529567	3.10298	0.372995	2.1726	0.530025	3.10027							0.837846	4.90135		
0.531004	3.09451	0.375077	2.17293	0.531463	3.09183							0.839017	4.8816		
0.532444	3.08615	0.377159	2.17326	0.532905	3.08351							0.840187	4.86205		
0.533889	3.0779	0.379241	2.17359	0.53435	3.07529							0.841356	4.84271		
0.535337	3.06976	0.381323	2.17391	0.5358	3.06719							0.842524	4.82356		
0.53679	3.06173	0.383404	2.17423	0.537254	3.05919							0.843691	4.80461		
0.538246	3.05381	0.385486	2.17455	0.538711	3.0513							0.844857	4.78586		
0.539706	3.04599	0.387568	2.17486	0.540172	3.04352							0.846022	4.7673		
0.541169	3.03828	0.389649	2.17517	0.541637	3.03584							0.847187	4.74893		
0.542637	3.03066	0.391731	2.17548	0.543105	3.02825							0.848351	4.73075		
0.544108	3.02315	0.393813	2.17578	0.544578	3.02077							0.849515	4.71276		
0.545583	3.01573	0.395895	2.17608	0.546054	3.01338							0.850678	4.69494		
0.547061	3.00841	0.397976	2.17638	0.547534	3.00609							0.851841	4.67731		
0.548543	3.00118	0.400058	2.17667	0.549017	2.9989							0.853004	4.65986		
0.550029	2.99405	0.40214	2.17696	0.550504	2.99179							0.854166	4.64258		
0.551519	2.98701	0.404221	2.17725	0.551994	2.98478							0.855329	4.62547		
0.553012	2.98006	0.406303	2.17753	0.553488	2.97786							0.856492	4.60854		
0.554508	2.97319	0.408384	2.17781	0.554986	2.97102							0.857655	4.59178		
0.556008	2.96642	0.410466	2.17809	0.556487	2.96427							0.858818	4.57519		
0.557512	2.95973	0.412548	2.17837	0.557992	2.95761							0.859981	4.55876		
0.559019	2.95312	0.414629	2.17864	0.5595	2.95103							0.861145	4.54249		
0.560529	2.9466	0.416711	2.17891	0.561012	2.94453							0.862309	4.52638		
0.562043	2.94015	0.418792	2.17918	0.562526	2.93812							0.863473	4.51044		
0.56356	2.93379	0.420874	2.17945	0.564045	2.93178							0.864638	4.49465		
0.565081	2.92751	0.422956	2.17971	0.565567	2.92552							0.865804	4.47901		
0.566605	2.92131	0.425037	2.17997	0.567092	2.91934							0.86697	4.46353		
0.568133	2.91518	0.427119	2.18023	0.56862	2.91324							0.868137	4.44821		
0.569663	2.90912	0.4292	2.18048	0.570152	2.90721							0.869305	4.43303		
0.571197	2.90315	0.431282	2.18073	0.571687	2.90125							0.870473	4.41799		
0.572735	2.89724	0.433363	2.18098	0.573226	2.89537							0.871643	4.40311		
0.574275	2.8914	0.435445	2.18123	0.574767	2.88956							0.872813	4.38836		
0.575819	2.88564	0.437526	2.18148	0.576312	2.88382							0.873984	4.37376		
0.577366	2.87995	0.439608	2.18172	0.57786	2.87815							0.875156	4.3593		
0.578916	2.87432	0.441689	2.18196	0.579411	2.87254							0.876329	4.34498		
0.580469	2.86876	0.443771	2.1822	0.580965	2.867							0.877504	4.3308		
0.582026	2.86327	0.445852	2.18244	0.582523	2.86153							0.878679	4.31675		
0.583586	2.85785	0.447934	2.18267	0.584084	2.85613							0.879855	4.30284		
0.585148	2.85248	0.450015	2.1829	0.585647	2.85079							0.881033	4.28905		
0.586714	2.84718	0.452096	2.18313	0.587214	2.84551							0.882212	4.2754		
0.588283	2.84195	0.454178	2.18336	0.588784	2.84029							0.883392	4.26188		
0.589855	2.83677	0.456259	2.18359	0.590357	2.83514							0.884574	4.24848		
0.591429	2.83166	0.458341	2.18381	0.591932	2.83004							0.885757	4.23521		
0.593007	2.8266	0.460422	2.18403	0.593511	2.82501							0.886941	4.22207		
0.594588	2.82161	0.462504	2.18425	0.595093	2.82003							0.888127	4.20904		
0.596172	2.81667	0.464585	2.18447	0.596677	2.81511							0.889314	4.19614		
0.597758	2.81179	0.466666	2.18469	0.598265	2.81025							0.890503	4.18336		
0.599348	2.80697	0.468748	2.1849	0.599856	2.80544							0.891693	4.17069		
0.60094	2.8022	0.470829	2.18511	0.601449	2.80069							0.892884	4.15815		
0.602536	2.79748	0.472911	2.18532	0.603045	2.79599							0.894077	4.14572		
0.604134	2.79282	0.474992	2.18553	0.604644	2.79135							0.895272	4.1334		
0.605735	2.78821	0.477073	2.18574	0.606246	2.78675							0.896468	4.12119		
0.607339	2.78366	0.479155	2.18594	0.607851	2.78221							0.897666	4.1091		
0.608945	2.77915	0.481236	2.18615	0.609458	2.77773							0.898866	4.09712		
0.610554	2.7747	0.483317	2.18635	0.611068	2.77329							0.900067	4.08524		
0.612166	2.77029	0.485399	2.18655	0.612681	2.7689							0.90127	4.07348		
0.613781	2.76594	0.48748	2.18675	0.614297	2.76456							0.902475	4.06182		
0.615399	2.76163	0.489561	2.18694	0.615915	2.76027							0.903681	4.05026		
0.617019	2.75738	0.491643	2.18714	0.617536	2.75603							0.904889	4.03881		
0.618642	2.75316	0.493724	2.18733	0.61916	2.75183							0.906099	4.02747		
0.620267	2.749	0.495805	2.18752	0.620786	2.74768							0.907311	4.01622		
0.621895	2.74488	0.497887	2.18771	0.622415	2.74358							0.908524	4.00507		
0.623526	2.74081	0.499968	2.1879	0.624046	2.73952							0.90974	3.99403		
0.625159	2.73678	0.502049	2.18809	0.62568	2.7355							0.910957	3.98308		
0.626795	2.73279	0.50413	2.18827	0.627317	2.73153							0.912176	3.97223		
0.628433	2.72885	0.506212	2.18846	0.628956	2.7276							0.913397	3.96147		
0.630074	2.72495	0.508293	2.18864	0.630598	2.72372							0.914619	3.95081		
0.631717	2.72109	0.510374	2.18882	0.632242	2.71987							0.915844	3.94024		
0.633363	2.71728	0.512456	2.189	0.633889	2.71607							0.91707	3.92977		
0.635012	2.7135	0.514537	2.18918	0.635538	2.71231							0.918299	3.91938		
0.636662	2.70977	0.516618	2.18935	0.637189	2.70859							0.919529	3.90909		
0.638316	2.70608	0.518699	2.18953	0.638843	2.70491							0.920762	3.89888		
0.639971	2.70242	0.520781	2.1897	0.6405	2.70126							0.921996	3.88877		
0.641629	2.6988	0.522862	2.18987	0.642159	2.69766							0.923232	3.87874		
0.64329	2.69523	0.524943	2.19004	0.64382	2.69409							0.92447	3.8688		
0.644953	2.69169	0.527024	2.19021	0.645483	2.69057							0.925711	3.85894		
0.646618	2.68818	0.529105	2.19038	0.647149	2.68707							0.926953	3.84917		
0.648285	2.68472	0.531187	2.19055	0.648818	2.68362							0.928197	3.83948		
0.649955	2.68129	0.533268	2.19071	0.650488	2.6802							0.929443	3.82988		
0.651627	2.67789	0.535349	2.19088	0.652161	2.67682							0.930692	3.82036		
0.653302	2.67453	0.53743	2.19104	0.653836	2.67347							0.931942	3.81091		
0.654979	2.67121	0.539512	2.1912	0.655514	2.67016							0.933194	3.80155		
0.656657	2.66792	0.541593	2.19136	0.657193	2.66688							0.934448	3.79227		
0.658339	2.66466	0.543674	2.19152	0.658875	2.66363							0.935705	3.78306		
0.660022	2.66144	0.545755	2.19168	0.660559	2.66042							0.936963	3.77393		
0.661708	2.65825	0.547836	2.19184	0.662246	2.65724							0.938224	3.76488		
0.663395	2.65509	0.549917	2.19199	0.663934	2.65409							0.939486	3.75591		
0.665085	2.65197	0.551999	2.19215	0.665625	2.65098							0.940751	3.74701		
0.666777	2.64887	0.55408	2.1923	0.667317	2.64789							0.942018	3.73818		
0.668472	2.64581	0.556161	2.19245	0.669012	2.64484							0.943287	3.72943		
0.670168	2.64278	0.558242	2.1926	0.670709	2.64182							0.944558	3.72075		
0.671866	2.63978	0.560323	2.19275	0.672409	2.63883							0.945831	3.71214		
0.673567	2.63681	0.562404	2.1929	0.67411	2.63587							0.947106	3.7036		
0.67527	2.63387	0.564486	2.19305	0.675813	2.63293							0.948383	3.69513		
0.676974	2.63095	0.566567	2.1932	0.677518	2.63003							0.949662	3.68673		
0.678681	2.62807	0.568648	2.19334	0.679226	2.62716							0.950944	3.6784		
0.68039	2.62522	0.570729	2.19349	0.680935	2.62431							0.952227	3.67014		
0.682101	2.62239	0.57281	2.19363	0.682647	2.6215							0.953513	3.66194		
0.683814	2.61959	0.574891	2.19377	0.68436	2.61871							0.954801	3.65382		
0.685528	2.61682	0.576972	2.19391	0.686076	2.61594							0.95609	3.64575		
0.687245	2.61408	0.579053	2.19405	0.687793	2.61321							0.957382	3.63776		
0.688964	2.61136	0.581135	2.19419	0.689512	2.6105							0.958677	3.62982		
0.690685	2.60867	0.583216	2.19433	0.691234	2.60782							0.959973	3.62195		
0.692407	2.60601	0.585297	2.19447	0.692957	2.60516							0.961271	3.61415		
0.694132	2.60337	0.587378	2.19461	0.694682	2.60253							0.962572	3.6064		
0.695858	2.60076	0.589459	2.19474	0.696409	2.59993							0.963874	3.59872		
0.697587	2.59817	0.59154	2.19488	0.698138	2.59735							0.965179	3.5911		
0.699317	2.59561	0.593621	2.19501	0.699869	2.59479							0.966486	3.58354		
0.701049	2.59307	0.595702	2.19514	0.701602	2.59226							0.967795	3.57604		
0.702783	2.59055	0.597783	2.19527	0.703336	2.58976							0.969106	3.5686		
0.704519	2.58806	0.599864	2.19541	0.705073	2.58727							0.970419	3.56122		
0.706256	2.5856	0.601945	2.19554	0.706811	2.58482							0.971734	3.55389		
0.707996	2.58315	0.604027	2.19566	0.708551	2.58238							0.973052	3.54663		
0.709737	2.58073	0.606108	2.19579	0.710293	2.57997							0.974371	3.53942		
0.71148	2.57834	0.608189	2.19592	0.712036	2.57758							0.975693	3.53226		
0.713225	2.57596	0.61027	2.19605	0.713782	2.57521							0.977017	3.52517		
0.714971	2.57361	0.612351	2.19617	0.715529	2.57287							0.978343	3.51812		
0.71672	2.57128	0.614432	2.1963	0.717278	2.57054							0.979671	3.51114		
0.71847	2.56897	0.616513	2.19642	0.719028	2.56824							0.981001	3.5042		
0.720222	2.56669	0.618594	2.19654	0.720781	2.56596							0.982333	3.49732		
0.721975	2.56442	0.620675	2.19667	0.722535	2.5637							0.983668	3.49049		
0.72373	2.56218	0.622756	2.19679	0.72429	2.56146							0.985004	3.48372		
0.725487	2.55995	0.624837	2.19691	0.726048	2.55925							0.986343	3.477		
0.727246	2.55775	0.626918	2.19703	0.727807	2.55705							0.987684	3.47032		
0.729006	2.55556	0.628999	2.19715	0.729568	2.55487							0.989026	3.4637		
0.730768	2.5534	0.63108	2.19726	0.73133	2.55272							0.990371	3.45713		
0.732531	2.55126	0.633161	2.19738	0.733094	2.55058							0.991718	3.45061		
0.734297	2.54913	0.635242	2.1975	0.73486	2.54846							0.993068	3.44414		
0.736063	2.54703	0.637323	2.19761	0.736627	2.54636							0.994419	3.43772		
0.737832	2.54494	0.639404	2.19773	0.738396	2.54428							0.995772	3.43135		
0.739602	2.54288	0.641485	2.19784	0.740167	2.54222							0.997128	3.42502		
0.741373	2.54083	0.643566	2.19796	0.741939	2.54018							0.998485	3.41874		
0.743147	2.5388	0.645647	2.19807	0.743712	2.53816							0.999845	3.41251		
0.744921	2.53679	0.647728	2.19818	0.745488	2.53615							1.00121	3.40633		
0.746698	2.53479	0.649809	2.19829	0.747264	2.53416										
0.748475	2.53282	0.65189	2.19841	0.749043	2.53219										
0.750255	2.53086	0.653971	2.19852	0.750822	2.53024										
0.752036	2.52892	0.656052	2.19862	0.752604	2.5283										
0.753818	2.527	0.658133	2.19873	0.754387	2.52639										
0.755602	2.52509	0.660214	2.19884	0.756171	2.52449										
0.757387	2.5232	0.662295	2.19895	0.757957	2.5226										
0.759174	2.52133	0.664376	2.19906	0.759744	2.52073										
0.760962	2.51947	0.666457	2.19916	0.761533	2.51888										
0.762752	2.51763	0.668538	2.19927	0.763323	2.51705										
0.764543	2.51581	0.670619	2.19937	0.765115	2.51523										
0.766336	2.514	0.6727	2.19948	0.766908	2.51342										
0.76813	2.5122	0.674781	2.19958	0.768703	2.51164										
0.769926	2.51043	0.676862	2.19968	0.770499	2.50986										
0.771723	2.50866	0.678943	2.19978	0.772296	2.50811										
0.773521	2.50692	0.681024	2.19989	0.774095	2.50636										
0.775321	2.50519	0.683105	2.19999	0.775895	2.50464										
0.777122	2.50347	0.685186	2.20009	0.777697	2.50293										
0.778924	2.50177	0.687267	2.20019	0.7795	2.50123										
0.780728	2.50008	0.689348	2.20029	0.781304	2.49954										
0.782534	2.49841	0.691429	2.20038	0.783109	2.49788										
0.78434	2.49675	0.69351	2.20048	0.784916	2.49622										
0.786148	2.4951	0.69559	2.20058	0.786725	2.49458										
0.787957	2.49347	0.697671	2.20068	0.788534	2.49295										
0.789768	2.49185	0.699752	2.20077	0.790345	2.49134										
0.79158	2.49025	0.701833	2.20087	0.792158	2.48974										
0.793393	2.48866	0.703914	2.20096	0.793971	2.48816										
0.795207	2.48708	0.705995	2.20106	0.795786	2.48658										
0.797023	2.48552	0.708076	2.20115	0.797602	2.48502										
0.79884	2.48397	0.710157	2.20124	0.79942	2.48348										
0.800658	2.48243	0.712238	2.20134	0.801238	2.48194										
0.802478	2.4809	0.714319	2.20143	0.803058	2.48042										
0.804298	2.47939	0.7164	2.20152	0.804879	2.47891										
0.806121	2.47789	0.718481	2.20161	0.806702	2.47742										
0.807944	2.4764	0.720561	2.2017	0.808525	2.47593										
0.809768	2.47493	0.722642	2.20179	0.81035	2.47446										
0.811594	2.47347	0.724723	2.20188	0.812176	2.473										
0.813421	2.47201	0.726804	2.20197	0.814004	2.47155										
0.815249	2.47057	0.728885	2.20206	0.815832	2.47012										
0.817078	2.46915	0.730966	2.20215	0.817662	2.46869										
0.818909	2.46773	0.733047	2.20224	0.819493	2.46728										
0.82074	2.46633	0.735128	2.20232	0.821325	2.46588										
0.822573	2.46493	0.737209	2.20241	0.823158	2.46449										
0.824407	2.46355	0.739289	2.2025	0.824992	2.46311										
0.826242	2.46218	0.74137	2.20258	0.826828	2.46174										
0.828079	2.46082	0.743451	2.20267	0.828665	2.46039										
0.829916	2.45947	0.745532	2.20275	0.830502	2.45904										
0.831755	2.45813	0.747613	2.20284	0.832341	2.45771										
0.833594	2.4568	0.749694	2.20292	0.834181	2.45638										
0.835435	2.45549	0.751775	2.203	0.836023	2.45507										
0.837277	2.45418	0.753856	2.20309	0.837865	2.45376										
0.83912	2.45288	0.755936	2.20317	0.839708	2.45247										
0.840964	2.4516	0.758017	2.20325	0.841553	2.45119										
0.84281	2.45032	0.760098	2.20333	0.843398	2.44992										
0.844656	2.44905	0.762179	2.20341	0.845245	2.44865										
0.846503	2.4478	0.76426	2.20349	0.847093	2.4474										
0.848352	2.44655	0.766341	2.20357	0.848941	2.44616										
0.850201	2.44531	0.768422	2.20365	0.850791	2.44492										
0.852052	2.44409	0.770502	2.20373	0.852642	2.4437										
0.853903	2.44287	0.772583	2.20381	0.854494	2.44248										
0.855756	2.44166	0.774664	2.20389	0.856347	2.44128										
0.85761	2.44046	0.776745	2.20397	0.858201	2.44008										
0.859464	2.43927	0.778826	2.20404	0.860056	2.4389										
0.86132	2.43809	0.780907	2.20412	0.861912	2.43772										
0.863177	2.43692	0.782987	2.2042	0.863769	2.43655										
0.865035	2.43576	0.785068	2.20427	0.865627	2.43539										
0.866893	2.43461	0.787149	2.20435	0.867486	2.43424										
0.868753	2.43346	0.78923	2.20443	0.869346	2.4331										
0.870614	2.43233	0.791311	2.2045	0.871207	2.43197										
0.872476	2.4312	0.793391	2.20458	0.873069	2.43084										
0.874338	2.43008	0.795472	2.20465	0.874932	2.42973										
0.876202	2.42897	0.797553	2.20472	0.876796	2.42862										
0.878067	2.42787	0.799634	2.2048	0.878661	2.42752										
0.879932	2.42678	0.801715	2.20487	0.880527	2.42643										
0.881799	2.42569	0.803796	2.20494	0.882394	2.42535										
0.883666	2.42461	0.805876	2.20502	0.884262	2.42427										
0.885535	2.42355	0.807957	2.20509	0.886131	2.42321										
0.887404	2.42249	0.810038	2.20516	0.888	2.42215										
0.889274	2.42143	0.812119	2.20523	0.889871	2.4211										
0.891145	2.42039	0.8142	2.2053	0.891742	2.42006										
0.893018	2.41935	0.81628	2.20537	0.893615	2.41902										
0.894891	2.41832	0.818361	2.20544	0.895488	2.41799										
0.896765	2.4173	0.820442	2.20551	0.897362	2.41697										
0.898639	2.41628	0.822523	2.20558	0.899238	2.41596										
0.900515	2.41528	0.824604	2.20565	0.901114	2.41496										
0.902392	2.41428	0.826684	2.20572	0.902991	2.41396										
0.904269	2.41328	0.828765	2.20579	0.904868	2.41297										
0.906148	2.4123	0.830846	2.20586	0.906747	2.41199										
0.908027	2.41132	0.832927	2.20592	0.908627	2.41101										
0.909907	2.41035	0.835007	2.20599	0.910507	2.41004										
0.911788	2.40939	0.837088	2.20606	0.912388	2.40908										
0.91367	2.40843	0.839169	2.20613	0.91427	2.40813										
0.915553	2.40748	0.84125	2.20619	0.916153	2.40718										
0.917436	2.40654	0.843331	2.20626	0.918037	2.40624										
0.919321	2.4056	0.845411	2.20632	0.919922	2.4053										
0.921206	2.40467	0.847492	2.20639	0.921807	2.40438										
0.923092	2.40375	0.849573	2.20645	0.923694	2.40346										
0.924979	2.40283	0.851654	2.20652	0.925581	2.40254										
0.926867	2.40192	0.853734	2.20658	0.927469	2.40163										
0.928755	2.40102	0.855815	2.20665	0.929358	2.40073										
0.930645	2.40012	0.857896	2.20671	0.931247	2.39984										
0.932535	2.39923	0.859977	2.20678	0.933138	2.39895										
0.934426	2.39835	0.862057	2.20684	0.935029	2.39807										
0.936317	2.39747	0.864138	2.2069	0.936921	2.39719										
0.93821	2.3966	0.866219	2.20696	0.938814	2.39632										
0.940103	2.39573	0.8683	2.20703	0.940707	2.39546										
0.941997	2.39488	0.87038	2.20709	0.942602	2.3946										
0.943892	2.39402	0.872461	2.20715	0.944497	2.39375										
0.945788	2.39317	0.874542	2.20721	0.946393	2.39291										
0.947684	2.39233	0.876623	2.20727	0.948289	2.39207										
0.949582	2.3915	0.878703	2.20733	0.950187	2.39123										
0.95148	2.39067	0.880784	2.2074	0.952085	2.39041										
0.953378	2.38984	0.882865	2.20746	0.953984	2.38958										
0.955278	2.38903	0.884945	2.20752	0.955884	2.38877										
0.957178	2.38821	0.887026	2.20757	0.957784	2.38796										
0.959079	2.38741	0.889107	2.20763	0.959685	2.38715										
0.960981	2.38661	0.891188	2.20769	0.961587	2.38635										
0.962883	2.38581	0.893268	2.20775	0.96349	2.38556										
0.964786	2.38502	0.895349	2.20781	0.965393	2.38477										
0.96669	2.38424	0.89743	2.20787	0.967297	2.38399										
0.968595	2.38346	0.899511	2.20793	0.969202	2.38321										
0.9705	2.38268	0.901591	2.20799	0.971108	2.38244										
0.972406	2.38191	0.903672	2.20804	0.973014	2.38167										
0.974313	2.38115	0.905753	2.2081	0.974921	2.38091										
0.97622	2.38039	0.907833	2.20816	0.976829	2.38015										
0.978128	2.37964	0.909914	2.20821	0.978737	2.3794										
0.980037	2.37889	0.911995	2.20827	0.980646	2.37865										
0.981947	2.37815	0.914075	2.20833	0.982556	2.37791										
0.983857	2.37741	0.916156	2.20838	0.984466	2.37717										
0.985768	2.37667	0.918237	2.20844	0.986377	2.37644										
0.98768	2.37595	0.920318	2.20849	0.988289	2.37571										
0.989592	2.37522	0.922398	2.20855	0.990202	2.37499										
0.991505	2.3745	0.924479	2.2086	0.992115	2.37428										
0.993418	2.37379	0.92656	2.20866	0.994029	2.37356										
0.995333	2.37308	0.92864	2.20871	0.995943	2.37286										
0.997248	2.37238	0.930721	2.20877	0.997858	2.37215										
0.999163	2.37168	0.932802	2.20882	0.999774	2.37146										
1.00108	2.37098	0.934882	2.20887	1.00169	2.37076										
		0.936963	2.20893												
		0.939044	2.20898												
		0.941125	2.20903												
		0.943205	2.20909												
		0.945286	2.20914												
		0.947367	2.20919												
		0.949447	2.20924												
		0.951528	2.2093												
		0.953609	2.20935												
		0.955689	2.2094												
		0.95777	2.20945												
		0.959851	2.2095												
		0.961931	2.20955												
		0.964012	2.2096												
		0.966093	2.20965												
		0.968173	2.2097												
		0.970254	2.20975												
		0.972335	2.2098												
		0.974415	2.20985												
		0.976496	2.2099												
		0.978576	2.20995												
		0.980657	2.21												
		0.982738	2.21005												
		0.984818	2.2101												
		0.986899	2.21014												
		0.98898	2.21019												
		0.99106	2.21024												
		0.993141	2.21029												
		0.995222	2.21033												
		0.997302	2.21038												
		0.999383	2.21043												
		1.00146	2.21048												
