Sym0		Asym0		Sym1		Sym2		Sym3		Sym4		Asym1		Asym2		Asym3		Asym4	
477  Points		496  Points		251  Points		180  Points		157  Points		120  Points		385  Points		199  Points		159  Points		109  Points	
Freq (MHz)	Vph (m/ms)	Freq (MHz)	Vph (m/ms)	Freq (MHz)	Vph (m/ms)	Freq (MHz)	Vph (m/ms)	Freq (MHz)	Vph (m/ms)	Freq (MHz)	Vph (m/ms)	Freq (MHz)	Vph (m/ms)	Freq (MHz)	Vph (m/ms)	Freq (MHz)	Vph (m/ms)	Freq (MHz)	Vph (m/ms)
0.00166818	5.86084	4.49813e-005	0.0618132	0.27952	524.755	0.431272	628.534	0.55903	807.587	0.838528	2278.26	0.139764	514.063	0.41927	873.067	0.698781	936.469	0.862528	1071.18
0.00712858	5.86074	0.00023356	0.140751	0.279595	190.933	0.431328	266.606	0.559088	344.283	0.838553	645.164	0.139947	116.276	0.419327	296.99	0.698822	416.491	0.862559	496.606
0.012588	5.86029	0.000567343	0.218959	0.279739	116.75	0.43143	169.218	0.559192	218.809	0.838606	375.813	0.140359	65.7338	0.419441	178.971	0.698895	267.819	0.862613	323.245
0.0180459	5.85959	0.00104318	0.296124	0.279953	84.1269	0.431577	123.972	0.559342	160.394	0.838687	265.144	0.140999	45.9734	0.41961	128.113	0.698999	197.386	0.862689	239.616
0.0235014	5.85864	0.00165655	0.371883	0.280237	65.7918	0.43177	97.842	0.559539	126.621	0.838797	204.843	0.141861	35.477	0.419836	99.7943	0.699135	156.302	0.862788	190.377
0.0289539	5.85744	0.00240208	0.445972	0.280589	54.0515	0.432009	80.8305	0.559782	104.618	0.838935	166.901	0.142939	28.9916	0.420117	81.7555	0.699302	129.389	0.86291	157.936
0.0344027	5.85597	0.00327328	0.5181	0.28101	45.8954	0.432295	68.877	0.560071	89.1493	0.8391	140.831	0.144228	24.6036	0.420454	69.263	0.699501	110.395	0.863055	134.95
0.039847	5.85425	0.00426317	0.58806	0.281499	39.9033	0.432626	60.0201	0.560406	77.6822	0.839294	121.815	0.145719	21.4489	0.420847	60.103	0.699731	96.2749	0.863223	117.813
0.045286	5.85227	0.00536433	0.655685	0.282055	35.3177	0.433004	53.1965	0.560787	68.8439	0.839515	107.333	0.147404	19.0803	0.421295	53.1014	0.699992	85.3675	0.863413	104.545
0.050719	5.85002	0.006569	0.720843	0.282678	31.6977	0.43343	47.7798	0.561214	61.8249	0.839765	95.9369	0.149274	17.2428	0.421799	47.5776	0.700285	76.6894	0.863626	93.9698
0.0561452	5.8475	0.00786935	0.783437	0.283367	28.7693	0.433903	43.3768	0.561687	56.1172	0.840043	86.7364	0.15132	15.7808	0.422357	43.1101	0.700609	69.6213	0.863863	85.3437
0.0615639	5.8447	0.0092576	0.843414	0.284121	26.3531	0.434423	39.7285	0.562205	51.3858	0.840348	79.1534	0.153532	14.5936	0.42297	39.4235	0.700964	63.754	0.864122	78.1738
0.066974	5.84162	0.0107264	0.900767	0.28494	24.3268	0.434992	36.6572	0.562769	47.4008	0.840682	72.7964	0.155902	13.6133	0.423637	36.3308	0.701351	58.8059	0.864405	72.1206
0.0723749	5.83826	0.0122683	0.955495	0.285822	22.6041	0.43561	34.0368	0.563377	43.9992	0.841043	67.3908	0.15842	12.7924	0.424359	33.7	0.701768	54.5774	0.86471	66.9423
0.0777656	5.8346	0.0138766	1.00764	0.286767	21.1225	0.436277	31.7757	0.564031	41.0624	0.841432	62.7383	0.161078	12.0969	0.425134	31.4356	0.702217	50.9225	0.865039	62.4625
0.0831452	5.83064	0.0155447	1.05724	0.287774	19.8354	0.436994	29.8053	0.56473	38.5017	0.841849	58.6921	0.163867	11.5016	0.425962	29.4668	0.702696	47.7323	0.865391	58.549
0.0885127	5.82636	0.0172667	1.10437	0.288841	18.7076	0.437761	28.0737	0.565472	36.2498	0.842293	55.1413	0.166779	10.9875	0.426843	27.7399	0.703206	44.9238	0.865767	55.1011
0.093867	5.82177	0.0190369	1.14912	0.289968	17.7118	0.438579	26.5404	0.56626	34.2543	0.842765	52.0005	0.169805	10.5399	0.427777	26.2134	0.703747	42.4327	0.866166	52.0406
0.0992072	5.81685	0.0208503	1.19157	0.291154	16.8266	0.439449	25.1737	0.567091	32.4744	0.843265	49.2028	0.17294	10.1476	0.428763	24.8548	0.704319	40.2084	0.866588	49.306
0.104532	5.81159	0.0227021	1.23181	0.292398	16.0351	0.44037	23.9483	0.567966	30.8771	0.843792	46.6951	0.176175	9.8016	0.4298	23.6382	0.704921	38.2104	0.867035	46.848
0.109841	5.80598	0.024588	1.26994	0.293698	15.3235	0.441345	22.8439	0.568885	29.4361	0.844347	44.4347	0.179071	9.53217	0.430889	22.5429	0.705553	36.4061	0.867505	44.6268
0.115131	5.8	0.0265043	1.30606	0.295055	14.6806	0.442374	21.8437	0.569847	28.1297	0.844929	42.3871	0.181594	9.32296	0.432028	21.552	0.706216	34.7688	0.867998	42.6099
0.120403	5.79365	0.0284474	1.34028	0.296466	14.0973	0.443456	20.9341	0.570852	26.9403	0.845538	40.5236	0.183715	9.16264	0.433217	20.6515	0.706909	33.2765	0.868516	40.7706
0.125655	5.78691	0.0304142	1.37269	0.297932	13.566	0.444593	20.1036	0.5719	25.853	0.846175	38.8206	0.185414	9.04327	0.434455	19.8298	0.707632	31.911	0.869058	39.0865
0.130885	5.77976	0.0324018	1.40338	0.299451	13.0803	0.445786	19.3426	0.57299	24.8554	0.846839	37.2585	0.186675	8.95938	0.435743	19.0773	0.708385	30.6569	0.869624	37.539
0.136091	5.77219	0.0344077	1.43246	0.301023	12.6347	0.447035	18.6431	0.574122	23.9371	0.847529	35.8205	0.187487	8.90732	0.437079	18.3858	0.709168	29.5013	0.870214	36.1121
0.141273	5.76419	0.0364297	1.46	0.302646	12.2248	0.448341	17.9983	0.575296	23.0892	0.848247	34.4926	0.188662	8.83463	0.438463	17.7485	0.70998	28.433	0.870829	34.7924
0.146428	5.75572	0.0384658	1.48611	0.304322	11.8466	0.449704	17.4021	0.576512	22.3039	0.848992	33.2627	0.189948	8.75837	0.439895	17.1593	0.710822	27.4428	0.871468	33.5684
0.151555	5.74678	0.0402501	1.50775	0.306048	11.4969	0.451126	16.8496	0.577768	21.5749	0.849763	32.1205	0.191711	8.65899	0.441373	16.6132	0.711693	26.5224	0.872132	32.4301
0.156651	5.73735	0.0417777	1.52543	0.307825	11.1726	0.452606	16.3364	0.579066	20.8963	0.850561	31.0569	0.193964	8.54001	0.442897	16.1057	0.712594	25.6649	0.872821	31.3689
0.161716	5.72739	0.043045	1.53953	0.309653	10.8713	0.454145	15.8587	0.580404	20.2633	0.851386	30.0642	0.196723	8.40533	0.444467	15.6332	0.713524	24.864	0.873535	30.3774
0.166746	5.7169	0.0440494	1.55036	0.311532	10.5908	0.455744	15.4131	0.581782	19.6716	0.852237	29.1357	0.200004	8.25901	0.446082	15.1921	0.714482	24.1145	0.874274	29.449
0.171739	5.70584	0.0447892	1.55815	0.313461	10.3293	0.457404	14.9967	0.583199	19.1172	0.853115	28.2654	0.203825	8.10496	0.447741	14.7796	0.71547	23.4116	0.875038	28.5778
0.176694	5.69419	0.0452632	1.56306	0.315441	10.0849	0.459124	14.6069	0.584657	18.597	0.854019	27.4481	0.207701	7.96406	0.449444	14.3932	0.716486	22.7513	0.875827	27.759
0.181607	5.68193	0.0459453	1.57002	0.317473	9.85626	0.460906	14.2414	0.586153	18.108	0.854949	26.6791	0.21163	7.83482	0.45119	14.0305	0.71753	22.1297	0.876642	26.9879
0.186477	5.66903	0.0466876	1.57745	0.319286	9.66883	0.46275	13.8983	0.587688	17.6475	0.855905	25.9543	0.215608	7.71595	0.452979	13.6895	0.718603	21.5437	0.877483	26.2605
0.1913	5.65546	0.0476985	1.58733	0.320864	9.51713	0.464655	13.5756	0.589262	17.2131	0.856888	25.2702	0.219632	7.60632	0.454809	13.3684	0.719704	20.9904	0.87835	25.5734
0.196073	5.6412	0.0489792	1.59949	0.32219	9.39696	0.466623	13.2719	0.590874	16.8029	0.857896	24.6233	0.223698	7.50497	0.45668	13.0656	0.720832	20.4672	0.879242	24.9233
0.200794	5.62621	0.0505308	1.61369	0.323254	9.30516	0.468654	12.9855	0.592523	16.4149	0.85893	24.0109	0.227803	7.41106	0.458593	12.7796	0.721989	19.9717	0.880161	24.3074
0.20546	5.61047	0.0523546	1.62967	0.324044	9.23941	0.470748	12.7153	0.59421	16.0474	0.859989	23.4303	0.231946	7.32383	0.460545	12.5092	0.723173	19.5018	0.881106	23.7231
0.210067	5.59396	0.0544516	1.64718	0.324553	9.19808	0.472904	12.4599	0.595933	15.699	0.861074	22.8791	0.236122	7.24264	0.462536	12.2533	0.724385	19.0557	0.882078	23.1681
0.214612	5.57663	0.0565523	1.66383	0.325291	9.13969	0.475123	12.2185	0.597694	15.3682	0.862185	22.3552	0.240331	7.16691	0.464567	12.0106	0.725624	18.6317	0.883076	22.6402
0.219092	5.55848	0.0586563	1.67969	0.326099	9.07753	0.477406	11.9899	0.599491	15.0537	0.86332	21.8566	0.244569	7.09613	0.466635	11.7803	0.72689	18.2281	0.884101	22.1377
0.223504	5.53948	0.0607628	1.69479	0.32721	8.99515	0.479751	11.7733	0.601324	14.7546	0.864481	21.3817	0.248834	7.02985	0.468741	11.5615	0.728183	17.8437	0.885153	21.6588
0.227845	5.5196	0.0628714	1.70919	0.328635	8.89436	0.48216	11.5679	0.603192	14.4696	0.865667	20.9287	0.253124	6.96766	0.470884	11.3535	0.729503	17.477	0.886233	21.2018
0.23211	5.49882	0.0649819	1.72293	0.330387	8.77736	0.48463	11.373	0.605096	14.198	0.866877	20.4963	0.257438	6.9092	0.473064	11.1555	0.730849	17.1269	0.887339	20.7655
0.236298	5.47714	0.0670937	1.73603	0.332484	8.64657	0.487164	11.1878	0.607035	13.9387	0.868113	20.0831	0.261773	6.85416	0.475279	10.9668	0.732222	16.7925	0.888473	20.3483
0.240405	5.45454	0.0692065	1.74855	0.334947	8.50457	0.489759	11.0118	0.609008	13.6911	0.869373	19.6879	0.266128	6.80223	0.47753	10.7868	0.73362	16.4726	0.889635	19.9493
0.244428	5.43101	0.0713201	1.76051	0.337473	8.3707	0.492417	10.8444	0.611016	13.4545	0.870657	19.3096	0.2705	6.75317	0.479815	10.615	0.735045	16.1664	0.890824	19.5671
0.248365	5.40655	0.0734342	1.77194	0.340064	8.24444	0.495135	10.685	0.613058	13.2281	0.871966	18.9471	0.274888	6.70673	0.482135	10.4509	0.736496	15.873	0.892042	19.2009
0.252212	5.38118	0.0755487	1.78288	0.342722	8.12534	0.497914	10.5332	0.615133	13.0113	0.873299	18.5995	0.279291	6.6627	0.484489	10.294	0.737973	15.5918	0.893287	18.8497
0.25597	5.35489	0.0776633	1.79335	0.345448	8.01298	0.500754	10.3885	0.617242	12.8036	0.874656	18.2659	0.283707	6.62088	0.486875	10.1439	0.739475	15.3219	0.894561	18.5126
0.259635	5.32772	0.0797778	1.80338	0.348245	7.90697	0.503653	10.2505	0.619385	12.6044	0.876037	17.9456	0.288134	6.58111	0.489295	10.0002	0.741002	15.0628	0.895864	18.1889
0.263206	5.29968	0.0818923	1.813	0.351115	7.80697	0.506611	10.1189	0.62156	12.4133	0.877441	17.6378	0.292572	6.54322	0.491429	9.87991	0.742555	14.8138	0.897195	17.8777
0.266683	5.27081	0.0840064	1.82222	0.354058	7.71264	0.509628	9.99316	0.623767	12.2298	0.87887	17.3417	0.297018	6.50707	0.493268	9.78078	0.744132	14.5743	0.898554	17.5785
0.270065	5.24114	0.0861203	1.83106	0.357077	7.62367	0.512304	9.8882	0.626007	12.0536	0.880321	17.0568	0.301471	6.47251	0.494802	9.7011	0.745735	14.344	0.899943	17.2905
0.273352	5.21073	0.0882337	1.83956	0.360172	7.53978	0.514619	9.80194	0.628279	11.8841	0.881796	16.7824	0.30593	6.43944	0.496023	9.63951	0.747362	14.1222	0.901361	17.0132
0.276546	5.17961	0.0903466	1.84772	0.363345	7.46069	0.516556	9.73275	0.630583	11.7211	0.883295	16.518	0.310394	6.40774	0.496925	9.595	0.749013	13.9085	0.902808	16.746
0.279646	5.14785	0.092459	1.85556	0.366596	7.38615	0.518103	9.67937	0.632919	11.5643	0.884816	16.2631	0.314862	6.3773	0.497505	9.56686	0.750689	13.7026	0.904285	16.4884
0.282655	5.1155	0.0945708	1.86311	0.369926	7.3159	0.519249	9.64084	0.635286	11.4132	0.88636	16.0172	0.319331	6.34804	0.498341	9.52686	0.752389	13.504	0.905791	16.24
0.285574	5.08263	0.0966819	1.87037	0.373334	7.24972	0.519986	9.6165	0.637684	11.2677	0.887927	15.7798	0.323802	6.31986	0.499254	9.48397	0.754113	13.3123	0.907326	16.0003
0.288406	5.0493	0.0987923	1.87736	0.37682	7.18737	0.521051	9.58194	0.640113	11.1274	0.889516	15.5506	0.328272	6.29268	0.500501	9.42663	0.755861	13.1272	0.908892	15.7688
0.291153	5.01558	0.100902	1.88409	0.380382	7.12863	0.522214	9.54493	0.642573	10.9922	0.891128	15.3291	0.332741	6.26643	0.502089	9.35569	0.757633	12.9485	0.910488	15.5452
0.293817	4.98152	0.103011	1.89058	0.38402	7.0733	0.523808	9.49552	0.645063	10.8617	0.892762	15.1149	0.337208	6.24104	0.504024	9.27217	0.759428	12.7757	0.912113	15.3291
0.296402	4.9472	0.10512	1.89684	0.387731	7.02116	0.525842	9.43451	0.647584	10.7357	0.894418	14.9078	0.341671	6.21645	0.506315	9.17725	0.761247	12.6087	0.913769	15.1202
0.298911	4.91268	0.107227	1.90288	0.391513	6.97203	0.528328	9.36284	0.650135	10.614	0.896096	14.7074	0.346129	6.19259	0.508972	9.0722	0.763089	12.4471	0.915455	14.9181
0.301347	4.87802	0.109334	1.90871	0.395365	6.92571	0.531281	9.28163	0.652717	10.4965	0.897796	14.5134	0.350581	6.16941	0.511659	8.9711	0.764954	12.2908	0.917172	14.7225
0.303713	4.84328	0.11144	1.91435	0.399283	6.88202	0.534718	9.19206	0.655329	10.383	0.899518	14.3254	0.355027	6.14686	0.514374	8.87374	0.766842	12.1394	0.918919	14.5332
0.306013	4.80851	0.113546	1.91979	0.403264	6.84078	0.538205	9.10616	0.65797	10.2732	0.901261	14.1433	0.359465	6.12489	0.517118	8.77996	0.768753	11.9927	0.920697	14.3499
0.30825	4.77378	0.115651	1.92505	0.407305	6.80184	0.541742	9.02375	0.660297	10.1804	0.903026	13.9668	0.363893	6.10346	0.51989	8.68957	0.770686	11.8507	0.922506	14.1723
0.310427	4.73911	0.117755	1.93014	0.411404	6.76502	0.545327	8.94466	0.662298	10.1035	0.904811	13.7956	0.368312	6.08251	0.52269	8.60241	0.772642	11.7129	0.924345	14.0002
0.312548	4.70457	0.119858	1.93507	0.415556	6.73019	0.54896	8.8687	0.663965	10.0412	0.906618	13.6296	0.372719	6.06203	0.525519	8.51834	0.774621	11.5794	0.926215	13.8333
0.314616	4.6702	0.121961	1.93983	0.419758	6.6972	0.552638	8.79574	0.665292	9.99291	0.908445	13.4684	0.377114	6.04195	0.528375	8.43722	0.776622	11.4498	0.928117	13.6714
0.316633	4.63602	0.124063	1.94445	0.424008	6.66591	0.556361	8.72561	0.666271	9.95786	0.910293	13.3119	0.381496	6.02226	0.531258	8.35891	0.778645	11.3241	0.930049	13.5144
0.318602	4.60208	0.126164	1.94893	0.428301	6.6362	0.560129	8.65818	0.6669	9.93563	0.912162	13.16	0.385863	6.00292	0.53417	8.28328	0.78069	11.2021	0.932013	13.3621
0.320282	4.57272	0.128265	1.95326	0.432634	6.60795	0.563939	8.59331	0.667807	9.90398	0.914051	13.0123	0.390216	5.98389	0.537108	8.21023	0.782757	11.0836	0.934008	13.2142
0.321689	4.54787	0.130365	1.95747	0.437005	6.58105	0.56779	8.53089	0.668797	9.86994	0.915961	12.8688	0.394551	5.96515	0.540073	8.13964	0.784846	10.9684	0.936034	13.0705
0.322836	4.52745	0.132464	1.96155	0.441409	6.5554	0.571682	8.47079	0.670149	9.82428	0.91789	12.7293	0.39887	5.94668	0.543066	8.0714	0.786957	10.8566	0.938091	12.931
0.323732	4.51138	0.134563	1.96552	0.445844	6.5309	0.575613	8.41289	0.671868	9.76754	0.91984	12.5936	0.40317	5.92844	0.546086	8.00543	0.789089	10.7478	0.94018	12.7955
0.324385	4.49962	0.136661	1.96936	0.450307	6.50746	0.579582	8.3571	0.673963	9.70039	0.921809	12.4616	0.40745	5.91041	0.549132	7.94162	0.791243	10.6421	0.9423	12.6638
0.324801	4.49212	0.138759	1.9731	0.454795	6.48501	0.583588	8.30331	0.676442	9.62361	0.923798	12.3332	0.41171	5.89256	0.552206	7.87989	0.793419	10.5393	0.944452	12.5357
0.325395	4.48136	0.140856	1.97673	0.459306	6.46346	0.58763	8.25143	0.679314	9.53805	0.925807	12.2081	0.415949	5.87489	0.555306	7.82016	0.795332	10.452	0.946635	12.4112
0.326037	4.46972	0.142953	1.98026	0.463836	6.44273	0.591705	8.20136	0.682217	9.45511	0.927834	12.0864	0.420165	5.85736	0.558433	7.76235	0.796975	10.3792	0.948849	12.2901
0.326902	4.45395	0.145049	1.98369	0.468384	6.42278	0.595814	8.15303	0.68515	9.37471	0.929881	11.9678	0.424358	5.83996	0.561587	7.70638	0.798343	10.3201	0.951094	12.1723
0.327986	4.43413	0.147144	1.98703	0.472946	6.40354	0.599954	8.10634	0.688114	9.29675	0.931947	11.8522	0.428527	5.82267	0.564767	7.6522	0.79943	10.274	0.953371	12.0577
0.32928	4.41036	0.149239	1.99028	0.477522	6.38494	0.604126	8.06121	0.691108	9.22113	0.934032	11.7397	0.43267	5.80547	0.567975	7.59972	0.800233	10.2406	0.95568	11.9461
0.330776	4.38275	0.151333	1.99345	0.482108	6.36695	0.608326	8.01758	0.694134	9.14778	0.936136	11.6299	0.436786	5.78834	0.571209	7.54889	0.800748	10.2193	0.958019	11.8375
0.332467	4.35143	0.153427	1.99653	0.486703	6.3495	0.612554	7.97538	0.69719	9.07662	0.938258	11.5229	0.440876	5.77128	0.57447	7.49964	0.80149	10.189	0.96039	11.7317
0.334131	4.32052	0.155521	1.99953	0.491305	6.33256	0.616809	7.93453	0.700279	9.00757	0.940399	11.4185	0.444938	5.75427	0.577758	7.45192	0.8023	10.1563	0.962792	11.6287
0.335769	4.29002	0.157614	2.00245	0.495912	6.3161	0.621089	7.89496	0.703399	8.94056	0.942558	11.3167	0.44897	5.73729	0.581073	7.40568	0.803405	10.1124	0.965226	11.5284
0.337385	4.25995	0.159707	2.0053	0.500522	6.30006	0.625393	7.85662	0.706552	8.87552	0.944735	11.2174	0.452973	5.72033	0.584415	7.36087	0.804809	10.0576	0.96769	11.4306
0.338978	4.2303	0.161799	2.00808	0.505134	6.28441	0.62972	7.81946	0.709737	8.8124	0.94693	11.1204	0.456945	5.70339	0.587783	7.31742	0.806519	9.99252	0.970185	11.3353
0.340551	4.20109	0.163891	2.01079	0.509747	6.26913	0.634067	7.7834	0.712955	8.75112	0.949143	11.0258	0.460886	5.68645	0.591178	7.2753	0.808538	9.91778	0.972711	11.2425
0.342105	4.17231	0.165982	2.01343	0.514358	6.25418	0.638435	7.74839	0.716208	8.69164	0.951374	10.9334	0.464794	5.6695	0.5946	7.23447	0.810875	9.83405	0.975268	11.1519
0.343642	4.14396	0.168073	2.01601	0.518968	6.23954	0.642821	7.71439	0.719494	8.6339	0.953623	10.8431	0.46867	5.65253	0.598049	7.19487	0.813232	9.75245	0.977856	11.0637
0.345162	4.11605	0.170164	2.01853	0.523573	6.22518	0.647224	7.68134	0.722815	8.57785	0.955596	10.7662	0.472512	5.63554	0.601524	7.15646	0.81561	9.67289	0.980474	10.9776
0.346667	4.08857	0.172254	2.02099	0.528174	6.21108	0.651642	7.6492	0.726172	8.52345	0.957289	10.7018	0.476319	5.61852	0.605026	7.11921	0.818009	9.59531	0.983123	10.8936
0.348158	4.06152	0.174344	2.02339	0.532769	6.19721	0.656074	7.61791	0.729564	8.47063	0.958696	10.6494	0.480092	5.60147	0.608554	7.08307	0.820427	9.51964	0.985456	10.8221
0.349636	4.03491	0.176433	2.02574	0.537357	6.18356	0.660519	7.58744	0.732993	8.41937	0.959813	10.6085	0.48383	5.58437	0.612108	7.04801	0.822866	9.44582	0.987462	10.7623
0.351102	4.00872	0.178523	2.02803	0.541936	6.17011	0.664974	7.55773	0.73646	8.36962	0.960638	10.5787	0.487531	5.56722	0.615689	7.014	0.825325	9.3738	0.989134	10.7137
0.352557	3.98296	0.180612	2.03027	0.546507	6.15684	0.669439	7.52875	0.739964	8.32134	0.961166	10.5597	0.491197	5.55003	0.619296	6.98099	0.827804	9.3035	0.990464	10.6758
0.354001	3.95763	0.1827	2.03247	0.551068	6.14374	0.673912	7.50047	0.743508	8.27449	0.961927	10.5327	0.494825	5.53278	0.622928	6.94895	0.830303	9.23489	0.991447	10.6482
0.355436	3.9327	0.184788	2.03461	0.555618	6.13078	0.678391	7.47283	0.747091	8.22904	0.962757	10.5035	0.498416	5.51548	0.626585	6.91785	0.832822	9.1679	0.992077	10.6306
0.356862	3.9082	0.186876	2.0367	0.560156	6.11796	0.682876	7.44581	0.750714	8.18495	0.963889	10.4642	0.50197	5.49812	0.630268	6.88766	0.835361	9.10249	0.992987	10.6056
0.358281	3.8841	0.188964	2.03876	0.564682	6.10526	0.687363	7.41936	0.754379	8.1422	0.965326	10.415	0.505486	5.48071	0.633975	6.85834	0.837919	9.03861	0.993979	10.5786
0.359691	3.8604	0.191051	2.04076	0.569194	6.09268	0.691852	7.39346	0.758086	8.10075	0.967072	10.3565	0.508965	5.46323	0.637707	6.82987	0.840497	8.9762	0.995334	10.5422
0.361096	3.8371	0.193139	2.04273	0.573693	6.08019	0.696341	7.36808	0.761836	8.06057	0.969132	10.2891	0.512405	5.4457	0.641463	6.80222	0.843095	8.91524	0.997058	10.4969
0.362494	3.8142	0.195225	2.04465	0.578177	6.0678	0.700829	7.34317	0.765629	8.02163	0.971512	10.2134	0.515807	5.4281	0.645242	6.77536	0.845712	8.85566	0.999158	10.4429
0.363887	3.79168	0.197312	2.04653	0.582645	6.05549	0.705314	7.31872	0.769467	7.9839	0.973908	10.1393	0.519171	5.41045	0.649044	6.74925	0.848348	8.79744	1.00164	10.3808
0.365274	3.76954	0.199398	2.04838	0.587098	6.04324	0.709796	7.2947	0.77335	7.94736	0.976321	10.0667	0.522496	5.39275	0.652869	6.72388	0.851003	8.74053		
0.366657	3.74778	0.201484	2.05019	0.591534	6.03106	0.714271	7.27107	0.777279	7.91199	0.97875	9.99576	0.525784	5.37499	0.656716	6.69922	0.853678	8.68489		
0.368037	3.72639	0.20357	2.05196	0.595952	6.01894	0.71874	7.24782	0.781255	7.87775	0.981195	9.92628	0.529033	5.35719	0.660584	6.67523	0.856372	8.63049		
0.369412	3.70537	0.205656	2.05369	0.600353	6.00687	0.723201	7.22493	0.785278	7.84461	0.983656	9.85825	0.532245	5.33933	0.664473	6.65191	0.859085	8.57729		
0.370785	3.6847	0.207741	2.0554	0.604736	5.99483	0.727652	7.20236	0.789348	7.81256	0.986133	9.79165	0.535418	5.32143	0.668382	6.62921	0.861816	8.52526		
0.372155	3.66439	0.209827	2.05706	0.6091	5.98283	0.732094	7.18011	0.793467	7.78157	0.988626	9.72642	0.538555	5.30349	0.672311	6.60712	0.864566	8.47436		
0.373522	3.64442	0.211912	2.0587	0.613444	5.97086	0.736524	7.15815	0.797634	7.75161	0.991134	9.66253	0.541654	5.28552	0.676258	6.58562	0.867335	8.42457		
0.374888	3.62479	0.213996	2.06031	0.617769	5.95892	0.740942	7.13647	0.801851	7.72266	0.993659	9.59995	0.544716	5.26751	0.680224	6.56467	0.870123	8.37584		
0.376251	3.60549	0.216081	2.06188	0.622073	5.94699	0.745348	7.11505	0.806116	7.6947	0.996199	9.53862	0.547741	5.24947	0.684207	6.54427	0.872929	8.32816		
0.377614	3.58653	0.218165	2.06342	0.626357	5.93508	0.74974	7.09388	0.81043	7.66768	0.998754	9.47853	0.55073	5.2314	0.688207	6.52439	0.875753	8.2815		
0.378975	3.56789	0.220249	2.06494	0.63062	5.92318	0.754118	7.07296	0.814793	7.64161	1.00132	9.41964	0.553684	5.21332	0.692223	6.505	0.878596	8.23582		
0.380336	3.54956	0.222333	2.06643	0.63486	5.91128	0.758482	7.05226	0.819205	7.61643			0.556601	5.19522	0.696253	6.48609	0.881457	8.1911		
0.381696	3.53155	0.224417	2.06789	0.639079	5.89939	0.762831	7.03178	0.823666	7.59213			0.559484	5.1771	0.700299	6.46764	0.884336	8.14731		
0.383056	3.51384	0.226501	2.06932	0.643276	5.88749	0.767166	7.01153	0.828174	7.56869			0.562333	5.15898	0.704357	6.44963	0.887233	8.10444		
0.384416	3.49643	0.228584	2.07073	0.64745	5.87559	0.771486	6.99148	0.83273	7.54607			0.565147	5.14086	0.708429	6.43203	0.890148	8.06245		
0.385776	3.47932	0.230668	2.07211	0.651601	5.86368	0.775792	6.97164	0.837332	7.52426			0.567928	5.12274	0.712512	6.41484	0.893081	8.02132		
0.387136	3.46249	0.232751	2.07347	0.655728	5.85176	0.780084	6.952	0.841981	7.50321			0.570676	5.10463	0.716607	6.39804	0.896031	7.98103		
0.388497	3.44595	0.234834	2.07481	0.659832	5.83983	0.784362	6.93256	0.846675	7.48291			0.573392	5.08653	0.720712	6.38161	0.898999	7.94156		
0.389859	3.42969	0.236916	2.07612	0.663911	5.82788	0.788626	6.91332	0.851413	7.46333			0.576076	5.06845	0.724826	6.36552	0.901984	7.90289		
0.391222	3.4137	0.238999	2.07741	0.667967	5.81591	0.792877	6.89428	0.856194	7.44444			0.578728	5.05039	0.72895	6.34978	0.904987	7.86499		
0.392586	3.39798	0.241081	2.07868	0.671998	5.80392	0.797116	6.87544	0.861017	7.42622			0.58135	5.03235	0.733081	6.33436	0.908007	7.82786		
0.393952	3.38252	0.243164	2.07992	0.676004	5.79192	0.801344	6.8568	0.865881	7.40863			0.583941	5.01434	0.737219	6.31924	0.911044	7.79146		
0.395318	3.36732	0.245246	2.08115	0.679985	5.77989	0.80556	6.83835	0.870784	7.39166			0.586503	4.99636	0.741364	6.30442	0.914098	7.75578		
0.396687	3.35237	0.247328	2.08235	0.683941	5.76784	0.809765	6.82011	0.875726	7.37529			0.589036	4.97843	0.745514	6.28988	0.917169	7.7208		
0.398057	3.33767	0.24941	2.08354	0.687871	5.75576	0.813961	6.80208	0.880706	7.35947			0.59154	4.96053	0.749669	6.2756	0.920257	7.68651		
0.399429	3.32321	0.251492	2.0847	0.691776	5.74366	0.818148	6.78424	0.885721	7.3442			0.594016	4.94268	0.753828	6.26158	0.923361	7.65288		
0.400803	3.30899	0.253574	2.08585	0.695655	5.73153	0.822327	6.76662	0.89077	7.32945			0.596465	4.92488	0.75799	6.2478	0.926483	7.61991		
0.402179	3.29501	0.255655	2.08698	0.699509	5.71937	0.826498	6.74919	0.895853	7.31519			0.598887	4.90713	0.762154	6.23425	0.92962	7.58758		
0.403557	3.28125	0.257736	2.08809	0.703336	5.70719	0.830662	6.73198	0.900968	7.30141			0.601283	4.88943	0.766321	6.22092	0.932775	7.55586		
0.404938	3.26772	0.259818	2.08918	0.707137	5.69497	0.83482	6.71497	0.906113	7.28808			0.603654	4.8718	0.770488	6.2078	0.935945	7.52476		
0.406321	3.25441	0.261899	2.09025	0.710912	5.68273	0.838972	6.69818	0.911288	7.27518			0.605999	4.85423	0.774656	6.19488	0.939132	7.49424		
0.407706	3.24132	0.26398	2.09131	0.71466	5.67047	0.84312	6.68159	0.916491	7.2627			0.60832	4.83672	0.778823	6.18214	0.942335	7.4643		
0.409094	3.22844	0.266061	2.09235	0.718382	5.65817	0.847263	6.66521	0.921721	7.25061			0.610617	4.81928	0.782989	6.16958	0.945554	7.43493		
0.410484	3.21577	0.268142	2.09338	0.722078	5.64585	0.851402	6.64904	0.926977	7.2389			0.61289	4.80191	0.787153	6.15719	0.948789	7.40611		
0.411878	3.2033	0.270223	2.09439	0.725748	5.6335	0.855539	6.63308	0.932257	7.22755			0.61514	4.78462	0.791315	6.14496	0.952039	7.37783		
0.413273	3.19104	0.272303	2.09538	0.72939	5.62113	0.859672	6.61733	0.937561	7.21654			0.617368	4.7674	0.795474	6.13288	0.955305	7.35007		
0.414672	3.17897	0.274384	2.09636	0.733007	5.60872	0.863804	6.60179	0.942887	7.20586			0.619575	4.75026	0.799629	6.12095	0.958587	7.32283		
0.416074	3.16709	0.276464	2.09733	0.736597	5.5963	0.867933	6.58645	0.948233	7.19549			0.62176	4.7332	0.803779	6.10915	0.961885	7.29609		
0.417478	3.1554	0.278544	2.09828	0.74016	5.58385	0.872061	6.57131	0.9536	7.18541			0.623923	4.71622	0.807925	6.09748	0.965198	7.26984		
0.418886	3.1439	0.280625	2.09922	0.743698	5.57137	0.876188	6.55638	0.958986	7.17562			0.626067	4.69933	0.812065	6.08593	0.968526	7.24407		
0.420296	3.13258	0.282705	2.10014	0.747209	5.55887	0.880314	6.54165	0.96439	7.16609			0.628191	4.68252	0.816198	6.0745	0.971869	7.21878		
0.42171	3.12144	0.284785	2.10105	0.750693	5.54636	0.88444	6.52711	0.969811	7.15683			0.630295	4.66581	0.820325	6.06317	0.975228	7.19394		
0.423127	3.11048	0.286865	2.10195	0.754152	5.53382	0.888565	6.51277	0.975247	7.1478			0.632381	4.64918	0.824445	6.05194	0.978601	7.16955		
0.424546	3.09969	0.288945	2.10283	0.757585	5.52126	0.892689	6.49863	0.980699	7.13901			0.634447	4.63264	0.828557	6.04081	0.98199	7.1456		
0.425969	3.08906	0.291024	2.1037	0.760991	5.50868	0.896814	6.48467	0.986164	7.13043			0.636496	4.6162	0.83266	6.02976	0.985393	7.12208		
0.427395	3.0786	0.293104	2.10456	0.764372	5.49609	0.900939	6.4709	0.991643	7.12206			0.638528	4.59985	0.836754	6.0188	0.988811	7.09898		
0.428825	3.06831	0.295184	2.10541	0.767727	5.48348	0.905063	6.45732	0.997133	7.11389			0.640542	4.5836	0.840839	6.00792	0.992243	7.07629		
0.430257	3.05817	0.297263	2.10624	0.771057	5.47085	0.909188	6.44391	1.00263	7.10591			0.64254	4.56744	0.844913	5.99711	0.99569	7.054		
0.431693	3.04819	0.299342	2.10707	0.774361	5.45822	0.913313	6.43068					0.644521	4.55138	0.848978	5.98637	0.999151	7.0321		
0.433133	3.03837	0.301422	2.10788	0.777641	5.44557	0.917438	6.41763					0.646486	4.53542	0.853031	5.9757	1.00263	7.01059		
0.434575	3.02869	0.303501	2.10868	0.780895	5.43291	0.921564	6.40474					0.648436	4.51956	0.857073	5.96508				
0.436021	3.01916	0.30558	2.10947	0.784124	5.42024	0.925689	6.39202					0.650371	4.50379	0.861104	5.95452				
0.43747	3.00978	0.307659	2.11025	0.787329	5.40757	0.929814	6.37946					0.652291	4.48813	0.865122	5.94401				
0.438923	3.00054	0.309738	2.11102	0.790509	5.39489	0.933939	6.36706					0.654197	4.47257	0.869127	5.93355				
0.440378	2.99144	0.311817	2.11178	0.793665	5.3822	0.938063	6.35482					0.656088	4.45712	0.87312	5.92313				
0.441838	2.98248	0.313896	2.11253	0.796797	5.36952	0.942187	6.34272					0.657967	4.44176	0.877099	5.91275				
0.4433	2.97365	0.315975	2.11327	0.799905	5.35683	0.946311	6.33078					0.659832	4.42651	0.881064	5.90241				
0.444767	2.96495	0.318054	2.114	0.802989	5.34414	0.950433	6.31897					0.661684	4.41136	0.885015	5.8921				
0.446236	2.95639	0.320133	2.11472	0.80605	5.33145	0.954555	6.3073					0.663523	4.39632	0.888951	5.88183				
0.447709	2.94795	0.322211	2.11543	0.809088	5.31877	0.958675	6.29577					0.665351	4.38138	0.892873	5.87158				
0.449185	2.93963	0.32429	2.11614	0.812103	5.30609	0.962794	6.28436					0.667166	4.36655	0.89678	5.86136				
0.450665	2.93144	0.326368	2.11683	0.815095	5.29342	0.966911	6.27309					0.66897	4.35182	0.900671	5.85116				
0.452148	2.92337	0.328447	2.11751	0.818065	5.28075	0.971026	6.26193					0.670763	4.33719	0.904547	5.84098				
0.453634	2.91542	0.330525	2.11819	0.821012	5.26809	0.975139	6.2509					0.672544	4.32267	0.908407	5.83083				
0.455124	2.90759	0.332603	2.11886	0.823938	5.25544	0.979249	6.23998					0.674315	4.30825	0.91225	5.82069				
0.456617	2.89987	0.334681	2.11952	0.826841	5.24281	0.983357	6.22917					0.676076	4.29394	0.916078	5.81057				
0.458114	2.89226	0.33676	2.12017	0.829723	5.23019	0.987462	6.21848					0.677826	4.27973	0.919888	5.80046				
0.459614	2.88476	0.338838	2.12081	0.832584	5.21758	0.991563	6.20788					0.679567	4.26563	0.923682	5.79036				
0.461118	2.87737	0.340916	2.12145	0.835424	5.20498	0.995661	6.19739					0.681299	4.25163	0.927458	5.78027				
0.462624	2.87009	0.342994	2.12207	0.838243	5.1924	0.999755	6.18699					0.68302	4.23774	0.931218	5.7702				
0.464135	2.86291	0.345072	2.12269	0.841041	5.17984	1.00384	6.17669					0.684733	4.22395	0.934959	5.76013				
0.465648	2.85583	0.34715	2.12331	0.843819	5.1673							0.686438	4.21027	0.938684	5.75007				
0.467165	2.84885	0.349228	2.12391	0.846577	5.15478							0.688133	4.19669	0.94239	5.74002				
0.468685	2.84198	0.351305	2.12451	0.849315	5.14228							0.689821	4.18321	0.946079	5.72997				
0.470209	2.8352	0.353383	2.1251	0.852034	5.1298							0.6915	4.16983	0.94975	5.71992				
0.471736	2.82852	0.355461	2.12569	0.854733	5.11735							0.693172	4.15656	0.953403	5.70988				
0.473266	2.82193	0.357538	2.12626	0.857412	5.10491							0.694836	4.14339	0.957038	5.69985				
0.474799	2.81543	0.359616	2.12684	0.860073	5.09251							0.696493	4.13032	0.960654	5.68981				
0.476336	2.80902	0.361693	2.1274	0.862716	5.08013							0.698142	4.11736	0.964252	5.67978				
0.477876	2.80271	0.363771	2.12796	0.86534	5.06777							0.699785	4.10449	0.967832	5.66975				
0.47942	2.79648	0.365848	2.12851	0.867945	5.05545							0.701421	4.09173	0.971394	5.65973				
0.480966	2.79033	0.367926	2.12905	0.870533	5.04315							0.70305	4.07906	0.974937	5.6497				
0.482516	2.78427	0.370003	2.12959	0.873103	5.03089							0.704674	4.0665	0.978461	5.63968				
0.484069	2.7783	0.37208	2.13013	0.875655	5.01865							0.706291	4.05403	0.981967	5.62965				
0.485625	2.77241	0.374158	2.13065	0.87819	5.00645							0.707902	4.04167	0.985455	5.61963				
0.487184	2.76659	0.376235	2.13118	0.880708	4.99428							0.709507	4.0294	0.988924	5.60961				
0.488747	2.76086	0.378312	2.13169	0.883209	4.98214							0.711107	4.01723	0.992375	5.59959				
0.490313	2.7552	0.380389	2.1322	0.885694	4.97003							0.712702	4.00515	0.995807	5.58957				
0.491882	2.74962	0.382466	2.13271	0.888162	4.95796							0.714291	3.99318	0.999221	5.57956				
0.493454	2.74412	0.384543	2.13321	0.890613	4.94592							0.715875	3.9813	1.00262	5.56954				
0.495029	2.73869	0.38662	2.1337	0.893049	4.93392							0.717454	3.96951						
0.496607	2.73333	0.388697	2.13419	0.895469	4.92195							0.719029	3.95782						
0.498188	2.72804	0.390774	2.13467	0.897874	4.91003							0.720599	3.94622						
0.499772	2.72283	0.392851	2.13515	0.900263	4.89814							0.722164	3.93472						
0.50136	2.71768	0.394928	2.13562	0.902637	4.88628							0.723726	3.92331						
0.50295	2.7126	0.397004	2.13609	0.904996	4.87447							0.725283	3.912						
0.504543	2.70759	0.399081	2.13655	0.90734	4.86269							0.726836	3.90077						
0.50614	2.70264	0.401158	2.13701	0.90967	4.85095							0.728385	3.88964						
0.507739	2.69776	0.403234	2.13747	0.911985	4.83926							0.729931	3.87859						
0.509341	2.69294	0.405311	2.13792	0.914286	4.8276							0.731473	3.86764						
0.510946	2.68819	0.407388	2.13836	0.916573	4.81599							0.733011	3.85677						
0.512554	2.68349	0.409464	2.1388	0.918847	4.80441							0.734547	3.846						
0.514165	2.67886	0.411541	2.13924	0.921107	4.79288							0.736079	3.83531						
0.515779	2.67429	0.413617	2.13967	0.923353	4.78139							0.737608	3.82471						
0.517396	2.66977	0.415694	2.14009	0.925586	4.76994							0.739134	3.8142						
0.519016	2.66532	0.41777	2.14052	0.927806	4.75853							0.740657	3.80377						
0.520638	2.66092	0.419846	2.14094	0.930014	4.74717							0.742177	3.79343						
0.522263	2.65657	0.421923	2.14135	0.932208	4.73585							0.743695	3.78317						
0.523891	2.65229	0.423999	2.14176	0.93439	4.72457							0.74521	3.77299						
0.525522	2.64805	0.426075	2.14217	0.93656	4.71334							0.746723	3.7629						
0.527155	2.64387	0.428152	2.14257	0.938718	4.70215							0.748234	3.75289						
0.528792	2.63974	0.430228	2.14297	0.940864	4.69101							0.749742	3.74297						
0.530431	2.63566	0.432304	2.14336	0.942998	4.67991							0.751248	3.73312						
0.532072	2.63164	0.43438	2.14375	0.94512	4.66885							0.752752	3.72336						
0.533717	2.62766	0.436456	2.14414	0.947231	4.65784							0.754254	3.71367						
0.535364	2.62374	0.438532	2.14452	0.949331	4.64688							0.755755	3.70407						
0.537013	2.61986	0.440608	2.1449	0.951419	4.63596							0.757253	3.69454						
0.538665	2.61603	0.442684	2.14528	0.953497	4.62508							0.75875	3.6851						
0.54032	2.61224	0.44476	2.14565	0.955564	4.61425							0.760245	3.67572						
0.541978	2.60851	0.446836	2.14602	0.95762	4.60347							0.761739	3.66643						
0.543638	2.60482	0.448912	2.14639	0.959665	4.59274							0.763231	3.65721						
0.5453	2.60117	0.450988	2.14675	0.961701	4.58205							0.764722	3.64807						
0.546965	2.59757	0.453064	2.14711	0.963726	4.5714							0.766212	3.639						
0.548633	2.59401	0.45514	2.14746	0.965741	4.5608							0.7677	3.63001						
0.550303	2.5905	0.457216	2.14782	0.967746	4.55025							0.769188	3.62109						
0.551976	2.58702	0.459291	2.14817	0.969742	4.53975							0.770674	3.61224						
0.553651	2.58359	0.461367	2.14851	0.971728	4.52929							0.772159	3.60347						
0.555328	2.5802	0.463443	2.14885	0.973704	4.51888							0.773643	3.59476						
0.557008	2.57685	0.465519	2.14919	0.975672	4.50852							0.775127	3.58613						
0.55869	2.57354	0.467594	2.14953	0.97763	4.4982							0.776609	3.57757						
0.560375	2.57027	0.46967	2.14987	0.979579	4.48793							0.778091	3.56908						
0.562062	2.56704	0.471745	2.1502	0.981519	4.4777							0.779572	3.56066						
0.563751	2.56385	0.473821	2.15052	0.983451	4.46753							0.781053	3.5523						
0.565443	2.56069	0.475897	2.15085	0.985374	4.4574							0.782533	3.54401						
0.567137	2.55757	0.477972	2.15117	0.987288	4.44731							0.784012	3.5358						
0.568834	2.55449	0.480048	2.15149	0.989194	4.43728							0.785491	3.52764						
0.570532	2.55144	0.482123	2.15181	0.991092	4.42729							0.78697	3.51956						
0.572233	2.54843	0.484199	2.15212	0.992982	4.41735							0.788448	3.51154						
0.573937	2.54545	0.486274	2.15243	0.994865	4.40745							0.789926	3.50358						
0.575642	2.54251	0.488349	2.15274	0.996739	4.3976							0.791404	3.49569						
0.57735	2.5396	0.490425	2.15305	0.998605	4.3878							0.792881	3.48786						
0.579059	2.53673	0.4925	2.15335	1.00046	4.37805							0.794359	3.4801						
0.580772	2.53388	0.494576	2.15365									0.795836	3.47239						
0.582486	2.53107	0.496651	2.15395									0.797313	3.46475						
0.584202	2.5283	0.498726	2.15425									0.79879	3.45718						
0.585921	2.52555	0.500801	2.15454									0.800267	3.44966						
0.587641	2.52284	0.502877	2.15483									0.801744	3.4422						
0.589364	2.52015	0.504952	2.15512									0.803222	3.4348						
0.591089	2.5175	0.507027	2.1554									0.804699	3.42747						
0.592816	2.51487	0.509102	2.15569									0.806177	3.42019						
0.594545	2.51228	0.511177	2.15597									0.807654	3.41297						
0.596276	2.50971	0.513252	2.15625									0.809132	3.4058						
0.598009	2.50717	0.515328	2.15652									0.810611	3.3987						
0.599744	2.50467	0.517403	2.1568									0.812089	3.39165						
0.601481	2.50218	0.519478	2.15707									0.813568	3.38465						
0.60322	2.49973	0.521553	2.15734									0.815048	3.37772						
0.604961	2.4973	0.523628	2.15761									0.816527	3.37083						
0.606704	2.4949	0.525703	2.15788									0.818008	3.36401						
0.608449	2.49253	0.527778	2.15814									0.819488	3.35723						
0.610196	2.49018	0.529853	2.1584									0.82097	3.35051						
0.611945	2.48786	0.531928	2.15866									0.822451	3.34384						
0.613695	2.48556	0.534003	2.15892									0.823934	3.33723						
0.615448	2.48329	0.536077	2.15917									0.825416	3.33067						
0.617202	2.48104	0.538152	2.15943									0.8269	3.32415						
0.618958	2.47881	0.540227	2.15968									0.828384	3.31769						
0.620717	2.47661	0.542302	2.15993									0.829869	3.31129						
0.622476	2.47444	0.544377	2.16018									0.831354	3.30493						
0.624238	2.47228	0.546452	2.16042									0.832841	3.29862						
0.626002	2.47015	0.548526	2.16066									0.834327	3.29236						
0.627767	2.46805	0.550601	2.16091									0.835815	3.28615						
0.629534	2.46596	0.552676	2.16115									0.837304	3.27998						
0.631303	2.4639	0.55475	2.16139									0.838793	3.27387						
0.633074	2.46186	0.556825	2.16162									0.840283	3.2678						
0.634846	2.45984	0.5589	2.16186									0.841774	3.26178						
0.63662	2.45784	0.560974	2.16209									0.843266	3.25581						
0.638396	2.45586	0.563049	2.16232									0.844758	3.24988						
0.640173	2.4539	0.565124	2.16255									0.846252	3.244						
0.641952	2.45196	0.567198	2.16278									0.847747	3.23816						
0.643733	2.45005	0.569273	2.163									0.849242	3.23237						
0.645516	2.44815	0.571347	2.16323									0.850738	3.22662						
0.6473	2.44627	0.573422	2.16345									0.852236	3.22092						
0.649085	2.44441	0.575496	2.16367									0.853734	3.21526						
0.650873	2.44258	0.577571	2.16389									0.855233	3.20965						
0.652662	2.44076	0.579645	2.16411									0.856734	3.20407						
0.654452	2.43895	0.58172	2.16433									0.858235	3.19854						
0.656245	2.43717	0.583794	2.16454									0.859738	3.19306						
0.658038	2.4354	0.585869	2.16476									0.861241	3.18761						
0.659833	2.43366	0.587943	2.16497									0.862746	3.18221						
0.66163	2.43193	0.590018	2.16518									0.864251	3.17684						
0.663429	2.43022	0.592092	2.16539									0.865758	3.17152						
0.665228	2.42852	0.594166	2.16559									0.867266	3.16624						
0.66703	2.42684	0.596241	2.1658									0.868775	3.16099						
0.668833	2.42518	0.598315	2.166									0.870285	3.15579						
0.670637	2.42354	0.600389	2.16621									0.871796	3.15062						
0.672443	2.42191	0.602463	2.16641									0.873308	3.1455						
0.67425	2.42029	0.604538	2.16661									0.874822	3.14041						
0.676059	2.4187	0.606612	2.16681									0.876337	3.13536						
0.677869	2.41712	0.608686	2.167									0.877852	3.13035						
0.679681	2.41555	0.61076	2.1672									0.87937	3.12538						
0.681494	2.414	0.612835	2.16739									0.880888	3.12044						
0.683309	2.41247	0.614909	2.16759									0.882407	3.11554						
0.685125	2.41095	0.616983	2.16778									0.883928	3.11068						
0.686942	2.40945	0.619057	2.16797									0.88545	3.10585						
0.688761	2.40796	0.621131	2.16816									0.886973	3.10106						
0.690581	2.40648	0.623205	2.16835									0.888497	3.0963						
0.692402	2.40502	0.625279	2.16853									0.890023	3.09158						
0.694225	2.40357	0.627354	2.16872									0.89155	3.08689						
0.696049	2.40214	0.629428	2.1689									0.893078	3.08224						
0.697875	2.40072	0.631502	2.16909									0.894607	3.07762						
0.699701	2.39931	0.633576	2.16927									0.896138	3.07304						
0.701529	2.39792	0.63565	2.16945									0.89767	3.06849						
0.703359	2.39654	0.637724	2.16963									0.899203	3.06397						
0.70519	2.39518	0.639798	2.16981									0.900738	3.05949						
0.707022	2.39382	0.641872	2.16998									0.902274	3.05504						
0.708855	2.39248	0.643946	2.17016									0.903811	3.05062						
0.710689	2.39116	0.64602	2.17034									0.905349	3.04623						
0.712525	2.38984	0.648093	2.17051									0.906889	3.04188						
0.714362	2.38854	0.650167	2.17068									0.90843	3.03755						
0.716201	2.38725	0.652241	2.17085									0.909972	3.03326						
0.71804	2.38597	0.654315	2.17102									0.911516	3.029						
0.719881	2.3847	0.656389	2.17119									0.913061	3.02477						
0.721723	2.38345	0.658463	2.17136									0.914607	3.02057						
0.723566	2.38221	0.660537	2.17153									0.916155	3.0164						
0.72541	2.38098	0.66261	2.17169									0.917704	3.01226						
0.727256	2.37976	0.664684	2.17186									0.919254	3.00815						
0.729103	2.37855	0.666758	2.17202									0.920806	3.00406						
0.73095	2.37735	0.668832	2.17218									0.922359	3.00001						
0.732799	2.37616	0.670906	2.17235									0.923913	2.99599						
0.73465	2.37499	0.672979	2.17251									0.925469	2.99199						
0.736501	2.37382	0.675053	2.17267									0.927026	2.98803						
0.738353	2.37267	0.677127	2.17282									0.928585	2.98409						
0.740207	2.37152	0.6792	2.17298									0.930144	2.98018						
0.742062	2.37039	0.681274	2.17314									0.931706	2.9763						
0.743918	2.36927	0.683348	2.17329									0.933268	2.97244						
0.745775	2.36815	0.685421	2.17345									0.934832	2.96861						
0.747633	2.36705	0.687495	2.1736									0.936397	2.96481						
0.749492	2.36596	0.689569	2.17376									0.937964	2.96104						
0.751352	2.36488	0.691642	2.17391									0.939532	2.95729						
0.753213	2.3638	0.693716	2.17406									0.941101	2.95357						
0.755076	2.36274	0.695789	2.17421									0.942672	2.94987						
0.756939	2.36168	0.697863	2.17436									0.944244	2.9462						
0.758804	2.36064	0.699936	2.17451									0.945817	2.94256						
0.760669	2.3596	0.70201	2.17465									0.947392	2.93894						
0.762536	2.35858	0.704084	2.1748									0.948968	2.93534						
0.764403	2.35756	0.706157	2.17495									0.950546	2.93177						
0.766272	2.35655	0.708231	2.17509									0.952124	2.92823						
0.768141	2.35555	0.710304	2.17523									0.953705	2.92471						
0.770012	2.35456	0.712377	2.17538									0.955286	2.92121						
0.771884	2.35358	0.714451	2.17552									0.956869	2.91774						
0.773756	2.3526	0.716524	2.17566									0.958454	2.91429						
0.77563	2.35164	0.718598	2.1758									0.960039	2.91086						
0.777504	2.35068	0.720671	2.17594									0.961626	2.90746						
0.77938	2.34973	0.722745	2.17608									0.963215	2.90409						
0.781257	2.34879	0.724818	2.17622									0.964805	2.90073						
0.783134	2.34786	0.726891	2.17635									0.966396	2.8974						
0.785013	2.34694	0.728965	2.17649									0.967988	2.89409						
0.786892	2.34602	0.731038	2.17663									0.969582	2.8908						
0.788772	2.34511	0.733111	2.17676									0.971177	2.88754						
0.790653	2.34421	0.735185	2.17689									0.972774	2.88429						
0.792536	2.34332	0.737258	2.17703									0.974372	2.88107						
0.794419	2.34244	0.739331	2.17716									0.975971	2.87787						
0.796303	2.34156	0.741404	2.17729									0.977572	2.8747						
0.798188	2.34069	0.743478	2.17742									0.979174	2.87154						
0.800074	2.33983	0.745551	2.17755									0.980777	2.8684						
0.80196	2.33897	0.747624	2.17768									0.982382	2.86529						
0.803848	2.33812	0.749697	2.17781									0.983988	2.8622						
0.805736	2.33728	0.751771	2.17794									0.985596	2.85912						
0.807626	2.33645	0.753844	2.17807									0.987205	2.85607						
0.809516	2.33562	0.755917	2.17819									0.988815	2.85304						
0.811407	2.3348	0.75799	2.17832									0.990426	2.85003						
0.813299	2.33399	0.760063	2.17844									0.992039	2.84704						
0.815192	2.33318	0.762136	2.17857									0.993653	2.84406						
0.817086	2.33238	0.76421	2.17869									0.995269	2.84111						
0.81898	2.33159	0.766283	2.17881									0.996885	2.83818						
0.820875	2.3308	0.768356	2.17894									0.998504	2.83526						
0.822772	2.33002	0.770429	2.17906									1.00012	2.83237						
0.824669	2.32925	0.772502	2.17918																
0.826567	2.32848	0.774575	2.1793																
0.828465	2.32772	0.776648	2.17942																
0.830365	2.32697	0.778721	2.17954																
0.832265	2.32622	0.780794	2.17966																
0.834166	2.32548	0.782867	2.17977																
0.836068	2.32474	0.78494	2.17989																
0.83797	2.32401	0.787013	2.18001																
0.839874	2.32328	0.789086	2.18012																
0.841778	2.32257	0.791159	2.18024																
0.843683	2.32185	0.793232	2.18035																
0.845589	2.32115	0.795305	2.18046																
0.847495	2.32045	0.797378	2.18058																
0.849403	2.31975	0.799451	2.18069																
0.851311	2.31906	0.801524	2.1808																
0.853219	2.31838	0.803596	2.18091																
0.855129	2.3177	0.805669	2.18102																
0.857039	2.31702	0.807742	2.18114																
0.85895	2.31635	0.809815	2.18124																
0.860862	2.31569	0.811888	2.18135																
0.862774	2.31503	0.813961	2.18146																
0.864687	2.31438	0.816033	2.18157																
0.866601	2.31373	0.818106	2.18168																
0.868516	2.31309	0.820179	2.18178																
0.870431	2.31246	0.822252	2.18189																
0.872347	2.31182	0.824325	2.182																
0.874264	2.3112	0.826397	2.1821																
0.876181	2.31057	0.82847	2.18221																
0.878099	2.30996	0.830543	2.18231																
0.880018	2.30934	0.832615	2.18241																
0.881937	2.30874	0.834688	2.18252																
0.883857	2.30813	0.836761	2.18262																
0.885778	2.30753	0.838833	2.18272																
0.8877	2.30694	0.840906	2.18282																
0.889622	2.30635	0.842979	2.18292																
0.891544	2.30577	0.845051	2.18302																
0.893468	2.30519	0.847124	2.18312																
0.895392	2.30461	0.849197	2.18322																
0.897316	2.30404	0.851269	2.18332																
0.899242	2.30347	0.853342	2.18342																
0.901168	2.30291	0.855414	2.18352																
0.903094	2.30235	0.857487	2.18361																
0.905022	2.3018	0.859559	2.18371																
0.906949	2.30125	0.861632	2.18381																
0.908878	2.3007	0.863705	2.1839																
0.910807	2.30016	0.865777	2.184																
0.912737	2.29962	0.86785	2.18409																
0.914667	2.29909	0.869922	2.18419																
0.916598	2.29856	0.871994	2.18428																
0.918529	2.29803	0.874067	2.18437																
0.920461	2.29751	0.876139	2.18447																
0.922394	2.29699	0.878212	2.18456																
0.924327	2.29648	0.880284	2.18465																
0.926261	2.29597	0.882357	2.18474																
0.928196	2.29546	0.884429	2.18483																
0.930131	2.29496	0.886501	2.18492																
0.932066	2.29446	0.888574	2.18501																
0.934003	2.29397	0.890646	2.1851																
0.935939	2.29348	0.892719	2.18519																
0.937877	2.29299	0.894791	2.18528																
0.939815	2.29251	0.896863	2.18537																
0.941753	2.29202	0.898936	2.18546																
0.943692	2.29155	0.901008	2.18555																
0.945632	2.29107	0.90308	2.18563																
0.947572	2.2906	0.905152	2.18572																
0.949512	2.29014	0.907225	2.18581																
0.951454	2.28967	0.909297	2.18589																
0.953395	2.28921	0.911369	2.18598																
0.955338	2.28876	0.913442	2.18606																
0.95728	2.2883	0.915514	2.18615																
0.959224	2.28785	0.917586	2.18623																
0.961167	2.28741	0.919658	2.18632																
0.963112	2.28696	0.92173	2.1864																
0.965057	2.28652	0.923803	2.18648																
0.967002	2.28609	0.925875	2.18657																
0.968948	2.28565	0.927947	2.18665																
0.970894	2.28522	0.930019	2.18673																
0.972841	2.28479	0.932091	2.18681																
0.974789	2.28437	0.934163	2.18689																
0.976737	2.28395	0.936235	2.18697																
0.978685	2.28353	0.938307	2.18705																
0.980634	2.28311	0.94038	2.18713																
0.982584	2.2827	0.942452	2.18721																
0.984533	2.28229	0.944524	2.18729																
0.986484	2.28188	0.946596	2.18737																
0.988435	2.28148	0.948668	2.18745																
0.990386	2.28108	0.95074	2.18753																
0.992338	2.28068	0.952812	2.18761																
0.99429	2.28028	0.954884	2.18768																
0.996243	2.27989	0.956956	2.18776																
0.998196	2.2795	0.959028	2.18784																
1.00015	2.27911	0.9611	2.18792																
		0.963172	2.18799																
		0.965244	2.18807																
		0.967316	2.18814																
		0.969388	2.18822																
		0.971459	2.18829																
		0.973531	2.18837																
		0.975603	2.18844																
		0.977675	2.18851																
		0.979747	2.18859																
		0.981819	2.18866																
		0.983891	2.18873																
		0.985963	2.18881																
		0.988034	2.18888																
		0.990106	2.18895																
		0.992178	2.18902																
		0.99425	2.18909																
		0.996322	2.18916																
		0.998393	2.18923																
		1.00047	2.1893																
