Sym0		Asym0		Sym1		Sym2		Sym3		Sym4		Asym1		Asym2		Asym3		Asym4	
484  Points		501  Points		285  Points		222  Points		204  Points		148  Points		397  Points		239  Points		198  Points		153  Points	
Freq (MHz)	Vph (m/ms)	Freq (MHz)	Vph (m/ms)	Freq (MHz)	Vph (m/ms)	Freq (MHz)	Vph (m/ms)	Freq (MHz)	Vph (m/ms)	Freq (MHz)	Vph (m/ms)	Freq (MHz)	Vph (m/ms)	Freq (MHz)	Vph (m/ms)	Freq (MHz)	Vph (m/ms)	Freq (MHz)	Vph (m/ms)
0.00257121	4.71291	1.8533e-006	0.0111941	0.279512	764.959	0.408615	2591.14	0.559031	619.591	0.838534	919.495	0.139781	257.189	0.419269	738.652	0.698776	1033.27	0.817233	1433.46
0.00696218	4.71289	8.2285e-005	0.0749916	0.279548	215.519	0.408636	375.105	0.559075	304.847	0.838561	454.838	0.139953	94.871	0.419309	279.668	0.6988	434.584	0.81725	544.177
0.0113527	4.7127	0.000280791	0.138392	0.279624	125.46	0.408687	202.212	0.559149	202.176	0.838605	302.163	0.140282	58.2836	0.419385	172.515	0.698843	275.171	0.817282	335.846
0.0157426	4.71243	0.000596027	0.201317	0.279741	88.5123	0.408769	138.435	0.559253	151.258	0.838668	226.237	0.140767	42.1636	0.419497	124.75	0.698905	201.334	0.81733	242.877
0.0201317	4.71209	0.00102599	0.263591	0.279898	68.3984	0.408882	105.261	0.559387	120.843	0.838749	180.814	0.141405	33.1138	0.419645	97.7193	0.698986	158.75	0.817393	190.229
0.0245197	4.71167	0.00156788	0.325015	0.280096	55.753	0.409026	84.9277	0.559551	100.625	0.838847	150.589	0.142193	27.3344	0.419829	80.3333	0.699087	131.044	0.817472	156.347
0.0289064	4.71115	0.00221833	0.385413	0.280333	47.0708	0.409201	71.1918	0.559744	86.2149	0.838964	129.029	0.143127	23.3347	0.420049	68.2143	0.699207	111.579	0.817566	132.716
0.0332915	4.71055	0.00297343	0.44463	0.28061	40.7433	0.409407	61.2925	0.559968	75.4254	0.839099	112.876	0.144204	20.41	0.420304	59.2856	0.699346	97.1564	0.817676	115.296
0.0376747	4.70985	0.00382878	0.502522	0.280927	35.9289	0.409644	53.8208	0.560221	67.0456	0.839251	100.323	0.145417	18.1839	0.420595	52.4356	0.699504	86.0416	0.817801	101.923
0.042056	4.70908	0.0047798	0.558987	0.281283	32.1442	0.409912	47.9825	0.560504	60.3503	0.839422	90.2875	0.146763	16.4371	0.420922	47.0153	0.699681	77.2144	0.817941	91.3353
0.0464348	4.70821	0.00582158	0.613929	0.281677	29.0919	0.410212	43.2957	0.560817	54.8787	0.83961	82.0822	0.148235	15.0333	0.421284	42.6204	0.699878	70.0352	0.818097	82.7442
0.0508111	4.70726	0.0069491	0.667272	0.282111	26.5791	0.410543	39.4512	0.561159	50.3241	0.839817	75.2484	0.149829	13.8831	0.421682	38.9859	0.700093	64.0822	0.818269	75.6342
0.0551846	4.70621	0.00815719	0.718955	0.282583	24.4751	0.410906	36.2413	0.561531	46.4743	0.840041	69.4691	0.151538	12.9256	0.422115	35.9309	0.700328	59.0664	0.818456	69.6531
0.0595548	4.70506	0.00944084	0.768948	0.283093	22.6884	0.4113	33.5215	0.561932	43.178	0.840283	64.5181	0.153358	12.1178	0.422583	33.3276	0.700582	54.783	0.818658	64.552
0.0639217	4.70382	0.0107949	0.817223	0.283641	21.1528	0.411727	31.188	0.562362	40.3243	0.840543	60.2295	0.155282	11.4285	0.423086	31.0833	0.700855	51.0827	0.818876	60.1502
0.0682848	4.70249	0.0122146	0.863775	0.284226	19.8194	0.412185	29.1645	0.562822	37.83	0.840821	56.4788	0.157306	10.8346	0.423624	29.129	0.701147	47.8543	0.81911	56.3135
0.0726438	4.70105	0.0136952	0.908611	0.284848	18.651	0.412676	27.3934	0.563311	35.6314	0.841117	53.1711	0.159424	10.3183	0.424196	27.4122	0.701457	45.0131	0.819359	52.9396
0.0769986	4.69951	0.015232	0.951741	0.285506	17.6192	0.4132	25.8306	0.563829	33.6794	0.841431	50.2324	0.161631	9.86621	0.424803	25.8925	0.701787	42.4937	0.819624	49.9499
0.0813486	4.69787	0.0168209	0.9932	0.2862	16.7018	0.413756	24.4418	0.564376	31.9348	0.841762	47.6043	0.163923	9.46766	0.425444	24.5381	0.702136	40.2444	0.819904	47.2823
0.0856936	4.69611	0.0184576	1.03301	0.286929	15.8809	0.414345	23.1998	0.564952	30.3665	0.842111	45.2404	0.165985	9.15735	0.426119	23.3237	0.702503	38.2242	0.8202	44.8876
0.0900332	4.69425	0.0201384	1.07122	0.287694	15.1423	0.414968	22.0826	0.565556	28.9492	0.842478	43.1027	0.167789	8.9164	0.426829	22.2289	0.702889	36.3999	0.820512	42.7261
0.0943671	4.69227	0.0218595	1.10787	0.288493	14.4746	0.415624	21.0727	0.566189	27.6624	0.842863	41.1603	0.169311	8.73171	0.427571	21.2371	0.703294	34.7445	0.82084	40.7654
0.0986949	4.69018	0.0236177	1.143	0.289326	13.8681	0.416313	20.1556	0.566851	26.4889	0.843265	39.3879	0.170533	8.59417	0.428348	20.3347	0.703718	33.2357	0.821184	38.9789
0.103016	4.68797	0.0254097	1.17667	0.290192	13.315	0.417037	19.3192	0.567541	25.4147	0.843685	37.7641	0.171442	8.49749	0.429157	19.5102	0.70416	31.8548	0.821543	37.3444
0.10733	4.68563	0.0272327	1.20893	0.291092	12.8087	0.417794	18.5535	0.568259	24.4277	0.844122	36.271	0.172029	8.43749	0.43	18.7541	0.704621	30.5865	0.821918	35.8434
0.111637	4.68317	0.029084	1.23984	0.292025	12.3437	0.418586	17.8501	0.569005	23.5178	0.844577	34.8936	0.172877	8.35369	0.430875	18.0585	0.7051	29.4176	0.822309	34.4603
0.115936	4.68057	0.030961	1.26943	0.292989	11.9152	0.419413	17.2019	0.56978	22.6766	0.84505	33.6191	0.173808	8.26575	0.431783	17.4164	0.705598	28.3369	0.822717	33.1818
0.120227	4.67783	0.0328614	1.29778	0.293986	11.5193	0.420274	16.6028	0.570581	21.8966	0.84554	32.4363	0.175087	8.15114	0.432723	16.8222	0.706114	27.3348	0.82314	31.9966
0.124508	4.67496	0.0347832	1.32492	0.295013	11.1524	0.421171	16.0476	0.571411	21.1714	0.846047	31.3358	0.176724	8.01386	0.433695	16.2706	0.706649	26.4032	0.823579	30.8948
0.128781	4.67193	0.0367243	1.35092	0.296072	10.8116	0.422103	15.5317	0.572268	20.4957	0.846572	30.3093	0.178735	7.8584	0.434699	15.7575	0.707201	25.5349	0.824034	29.8679
0.133043	4.66875	0.038683	1.37582	0.297161	10.4944	0.42307	15.0513	0.573152	19.8645	0.847114	29.3497	0.181134	7.6894	0.435734	15.279	0.707772	24.7238	0.824506	28.9088
0.137294	4.66541	0.0406576	1.39966	0.298281	10.1984	0.424074	14.603	0.574064	19.2737	0.847674	28.4507	0.183938	7.51134	0.4368	14.8319	0.708362	23.9645	0.824994	28.0108
0.141535	4.66191	0.0426466	1.42251	0.299431	9.92161	0.425113	14.1837	0.575002	18.7197	0.848251	27.6068	0.186794	7.34837	0.437898	14.4131	0.708969	23.2521	0.825498	27.1685
0.145763	4.65823	0.0446488	1.44441	0.30061	9.6624	0.426189	13.7909	0.575967	18.1991	0.848845	26.8131	0.189698	7.19877	0.439025	14.0203	0.709594	22.5826	0.826018	26.3768
0.149979	4.65438	0.0466628	1.46539	0.301819	9.41917	0.427301	13.4222	0.576959	17.7091	0.849457	26.0653	0.192649	7.06109	0.440184	13.6511	0.710238	21.9521	0.826555	25.6314
0.154181	4.65033	0.0486873	1.48551	0.302896	9.2192	0.42845	13.0756	0.577978	17.2471	0.850085	25.3596	0.195643	6.93404	0.441372	13.3036	0.710899	21.3575	0.827108	24.9283
0.158369	4.64609	0.0507216	1.5048	0.303832	9.05689	0.429636	12.7493	0.579022	16.8109	0.850731	24.6925	0.198679	6.81654	0.44259	12.9759	0.711578	20.7958	0.827677	24.2641
0.162543	4.64165	0.0525013	1.52096	0.304618	8.92801	0.430859	12.4416	0.580093	16.3984	0.851393	24.0611	0.201753	6.70762	0.443837	12.6665	0.712274	20.2644	0.828263	23.6357
0.1667	4.63699	0.0540233	1.53429	0.305247	8.82935	0.432119	12.1511	0.58119	16.0078	0.852073	23.4625	0.204865	6.60644	0.445113	12.3739	0.712989	19.761	0.828866	23.0404
0.17084	4.63211	0.0552848	1.54501	0.305715	8.75856	0.433416	11.8764	0.582312	15.6374	0.85277	22.8943	0.208012	6.51226	0.446418	12.0968	0.713721	19.2833	0.829485	22.4755
0.174962	4.627	0.0562841	1.55329	0.306015	8.71402	0.434751	11.6164	0.58346	15.2858	0.853483	22.3543	0.211193	6.42444	0.447752	11.8342	0.71447	18.8296	0.830121	21.9389
0.179066	4.62164	0.0570199	1.55928	0.306451	8.651	0.436123	11.3701	0.584633	14.9516	0.854214	21.8405	0.214404	6.34238	0.449114	11.5849	0.715237	18.398	0.830774	21.4285
0.183149	4.61602	0.0574913	1.56306	0.306927	8.58382	0.437533	11.1363	0.585832	14.6336	0.854961	21.351	0.217646	6.2656	0.450503	11.348	0.716021	17.9871	0.831443	20.9425
0.187211	4.61014	0.0581693	1.56844	0.307582	8.49461	0.438981	10.9143	0.587055	14.3306	0.855725	20.8842	0.220916	6.19361	0.45192	11.1227	0.716823	17.5954	0.832129	20.4792
0.19125	4.60397	0.0589071	1.57421	0.308419	8.3852	0.440467	10.7033	0.588303	14.0417	0.856506	20.4385	0.224213	6.12603	0.453365	10.9081	0.717641	17.2217	0.832833	20.037
0.195265	4.59751	0.0599115	1.58192	0.309447	8.25775	0.441991	10.5026	0.589576	13.766	0.857303	20.0126	0.227536	6.06248	0.454836	10.7036	0.718477	16.8647	0.833553	19.6147
0.199255	4.59075	0.0611838	1.59147	0.310673	8.11466	0.443552	10.3114	0.590873	13.5025	0.858117	19.6052	0.230882	6.00263	0.456334	10.5084	0.71933	16.5233	0.83429	19.2109
0.203218	4.58366	0.0627246	1.60269	0.312108	7.95847	0.445152	10.1292	0.592195	13.2506	0.858947	19.2151	0.234251	5.9462	0.457858	10.3221	0.7202	16.1967	0.835045	18.8244
0.207152	4.57623	0.0645355	1.61545	0.313573	7.81028	0.446789	9.9554	0.59354	13.0095	0.859794	18.8414	0.237643	5.89291	0.459408	10.1439	0.721087	15.8838	0.835817	18.4542
0.211056	4.56846	0.0666172	1.62955	0.315069	7.66956	0.448464	9.7895	0.59491	12.7786	0.860657	18.4829	0.241054	5.84252	0.460984	9.97355	0.72199	15.5839	0.836605	18.0993
0.214929	4.56031	0.0687026	1.64312	0.316596	7.53582	0.450177	9.63102	0.596303	12.5572	0.861537	18.1389	0.244485	5.79482	0.462585	9.81044	0.72291	15.2961	0.837412	17.7588
0.218768	4.55178	0.0707913	1.65617	0.318155	7.40863	0.451928	9.47952	0.597719	12.3448	0.862433	17.8084	0.247934	5.74961	0.464212	9.65417	0.723847	15.0198	0.838235	17.4318
0.222571	4.54285	0.0728827	1.66872	0.319747	7.28759	0.453484	9.35287	0.599159	12.1409	0.863345	17.4907	0.251401	5.7067	0.465863	9.50434	0.7248	14.7544	0.839076	17.1176
0.226337	4.5335	0.0749767	1.68081	0.321372	7.17233	0.454833	9.24867	0.600622	11.945	0.864273	17.1852	0.254884	5.66594	0.467321	9.37875	0.72577	14.4991	0.839934	16.8155
0.230063	4.52372	0.0770728	1.69245	0.323032	7.06252	0.455964	9.16501	0.602107	11.7567	0.865217	16.891	0.258383	5.62716	0.468579	9.27516	0.726757	14.2535	0.84081	16.5248
0.233748	4.51349	0.0791708	1.70367	0.324728	6.95786	0.456868	9.10041	0.603616	11.5756	0.866177	16.6077	0.261896	5.59024	0.469629	9.19182	0.727759	14.0171	0.841704	16.2449
0.237389	4.50279	0.0812705	1.71448	0.32646	6.85806	0.457539	9.05376	0.605146	11.4013	0.867153	16.3346	0.265423	5.55505	0.470466	9.12735	0.728778	13.7892	0.842615	15.9753
0.240984	4.49161	0.0833715	1.7249	0.32823	6.76288	0.45797	9.02427	0.6067	11.2333	0.868145	16.0712	0.268962	5.52147	0.471085	9.08074	0.729813	13.5696	0.843544	15.7153
0.244532	4.47993	0.0854737	1.73495	0.330039	6.67208	0.458594	8.98238	0.608275	11.0715	0.869153	15.8171	0.272514	5.48939	0.471483	9.05125	0.730864	13.3577	0.844491	15.4645
0.248029	4.46774	0.0875769	1.74464	0.33189	6.58545	0.459277	8.93749	0.609872	10.9155	0.870177	15.5717	0.276077	5.45872	0.472056	9.00931	0.731931	13.1533	0.845455	15.2224
0.251474	4.45503	0.0896809	1.754	0.333783	6.5028	0.460212	8.87753	0.611491	10.7649	0.871216	15.3346	0.279651	5.42936	0.472683	8.96434	0.733014	12.9558	0.846438	14.9887
0.254865	4.44179	0.0917856	1.76304	0.33572	6.42393	0.461408	8.80341	0.613131	10.6196	0.872271	15.1055	0.283235	5.40124	0.473539	8.90417	0.734112	12.765	0.847438	14.7628
0.2582	4.42801	0.0938908	1.77177	0.337702	6.34868	0.462873	8.71625	0.614793	10.4793	0.873341	14.8839	0.286828	5.37427	0.474631	8.82967	0.735227	12.5806	0.848457	14.5445
0.261477	4.41368	0.0959964	1.78021	0.339732	6.2769	0.464617	8.61734	0.616476	10.3437	0.874427	14.6694	0.290429	5.34838	0.475962	8.74188	0.736357	12.4022	0.849493	14.3334
0.264694	4.3988	0.0981023	1.78836	0.341812	6.20845	0.466652	8.50806	0.61818	10.2127	0.875529	14.4619	0.294038	5.3235	0.47754	8.64199	0.737503	12.2296	0.850548	14.129
0.26785	4.38338	0.100208	1.79624	0.343942	6.14318	0.468723	8.40308	0.619905	10.0859	0.876645	14.2609	0.297655	5.29959	0.479371	8.53129	0.738665	12.0625	0.851621	13.9312
0.270943	4.36741	0.102315	1.80387	0.346125	6.08098	0.470829	8.30217	0.62165	9.96328	0.877777	14.0661	0.301278	5.27656	0.481225	8.42459	0.739842	11.9007	0.852712	13.7397
0.273587	4.35306	0.104421	1.81125	0.348363	6.02172	0.472971	8.20514	0.623416	9.84457	0.878924	13.8773	0.304907	5.25438	0.483101	8.32169	0.741034	11.7438	0.853821	13.5541
0.275802	4.3405	0.106527	1.81839	0.350656	5.9653	0.475148	8.11179	0.625202	9.72963	0.880086	13.6942	0.308541	5.23299	0.484998	8.22241	0.742242	11.5918	0.854949	13.3742
0.277607	4.3299	0.108633	1.82531	0.353007	5.9116	0.477359	8.02195	0.626775	9.6324	0.881263	13.5165	0.31218	5.21235	0.486917	8.12658	0.743465	11.4444	0.856095	13.1997
0.279016	4.32139	0.110739	1.83202	0.355417	5.86051	0.479605	7.93544	0.628127	9.55159	0.882455	13.3441	0.315824	5.1924	0.488857	8.03403	0.744703	11.3014	0.857259	13.0305
0.280043	4.31505	0.112844	1.83851	0.357887	5.81196	0.481885	7.85212	0.629254	9.48617	0.883662	13.1767	0.319471	5.17312	0.490818	7.94461	0.745956	11.1626	0.858442	12.8662
0.280695	4.31096	0.114949	1.84481	0.360419	5.76583	0.484198	7.77182	0.630151	9.43531	0.884884	13.0141	0.323121	5.15446	0.4928	7.85818	0.747225	11.0278	0.859643	12.7068
0.281628	4.30504	0.117054	1.85091	0.363012	5.72203	0.486544	7.69441	0.630813	9.3984	0.88612	12.8562	0.326773	5.13639	0.494802	7.7746	0.748508	10.8969	0.860863	12.552
0.282633	4.29854	0.119159	1.85684	0.365668	5.68046	0.488923	7.61976	0.631238	9.37499	0.887371	12.7026	0.330428	5.11887	0.496824	7.69375	0.749807	10.7697	0.862102	12.4016
0.283987	4.2896	0.121263	1.86258	0.368386	5.64105	0.491334	7.54774	0.63185	9.34161	0.888637	12.5533	0.334084	5.10187	0.498867	7.6155	0.75112	10.6461	0.863359	12.2554
0.285677	4.27815	0.123367	1.86816	0.371167	5.60369	0.493777	7.47824	0.632519	9.30572	0.889917	12.4081	0.337741	5.08536	0.500929	7.53974	0.752448	10.5259	0.864634	12.1133
0.287688	4.26407	0.12547	1.87358	0.374011	5.5683	0.496251	7.41114	0.633432	9.25751	0.891211	12.2668	0.341398	5.06932	0.503011	7.46637	0.753792	10.4091	0.865929	11.9751
0.290001	4.24725	0.127573	1.87884	0.376917	5.53478	0.498757	7.34633	0.634593	9.19755	0.89252	12.1292	0.345056	5.05371	0.505112	7.39529	0.755149	10.2954	0.867242	11.8407
0.292597	4.22757	0.129676	1.88396	0.379883	5.50306	0.501292	7.28373	0.636007	9.12649	0.893843	11.9953	0.348712	5.03851	0.507232	7.3264	0.756522	10.1847	0.868574	11.7099
0.295129	4.20753	0.131777	1.88893	0.38291	5.47304	0.503858	7.22322	0.637679	9.04511	0.89518	11.8649	0.352368	5.0237	0.509372	7.25961	0.757909	10.077	0.869924	11.5827
0.2976	4.18713	0.133879	1.89376	0.385996	5.44463	0.506454	7.16473	0.639616	8.95424	0.896532	11.7379	0.356022	5.00925	0.511531	7.19484	0.759311	9.9721	0.871294	11.4588
0.300011	4.16644	0.13598	1.89846	0.389138	5.41776	0.509078	7.10817	0.641571	8.86598	0.897897	11.6141	0.359674	4.99515	0.513708	7.132	0.760545	9.88292	0.872682	11.3381
0.302363	4.14547	0.13808	1.90303	0.392336	5.39234	0.511731	7.05346	0.643545	8.78021	0.899276	11.4934	0.363323	4.98138	0.515904	7.07102	0.761605	9.80848	0.874089	11.2205
0.304659	4.12427	0.14018	1.90748	0.395588	5.36829	0.514412	7.00051	0.645538	8.69685	0.90067	11.3758	0.366969	4.96791	0.518118	7.01183	0.762488	9.748	0.875515	11.106
0.306901	4.10286	0.14228	1.91181	0.398891	5.34552	0.517121	6.94927	0.647549	8.6158	0.902077	11.261	0.370611	4.95472	0.520351	6.95436	0.76319	9.70085	0.87696	10.9944
0.30909	4.0813	0.144379	1.91602	0.402243	5.32398	0.519858	6.89965	0.649578	8.53697	0.903497	11.1491	0.37425	4.94181	0.522602	6.89854	0.763708	9.66656	0.878424	10.8856
0.311229	4.0596	0.146477	1.92013	0.405643	5.30357	0.52262	6.8516	0.651626	8.46029	0.904932	11.0399	0.377883	4.92915	0.524871	6.84432	0.764041	9.64477	0.879906	10.7795
0.31332	4.0378	0.148575	1.92413	0.409087	5.28423	0.52541	6.80504	0.653691	8.38567	0.90638	10.9333	0.381512	4.91672	0.527158	6.79163	0.764521	9.61367	0.881408	10.6761
0.315366	4.01594	0.150673	1.92803	0.412574	5.26589	0.528225	6.75993	0.655775	8.31303	0.907841	10.8292	0.385135	4.90452	0.529463	6.74042	0.765044	9.58017	0.882928	10.5751
0.317368	3.99405	0.15277	1.93183	0.4161	5.2485	0.531065	6.7162	0.657876	8.24232	0.909316	10.7276	0.388751	4.89253	0.531786	6.69063	0.765758	9.53508	0.884467	10.4767
0.319329	3.97215	0.154866	1.93554	0.419665	5.23197	0.533931	6.67381	0.659994	8.17346	0.910804	10.6283	0.392361	4.88074	0.534127	6.64222	0.766666	9.47883	0.886026	10.3806
0.321251	3.95028	0.156962	1.93915	0.423266	5.21627	0.536821	6.63268	0.662131	8.10638	0.912305	10.5313	0.395964	4.86913	0.536485	6.59513	0.767772	9.41196	0.887603	10.2867
0.323136	3.92845	0.159057	1.94268	0.426899	5.20133	0.539735	6.59279	0.664284	8.04102	0.91382	10.4365	0.39956	4.85768	0.538861	6.54933	0.769079	9.33508	0.889199	10.1952
0.324986	3.9067	0.161152	1.94612	0.430565	5.1871	0.542672	6.55409	0.666455	7.97733	0.915347	10.3439	0.403147	4.8464	0.541254	6.50476	0.770592	9.24885	0.890605	10.1171
0.326804	3.88504	0.163247	1.94948	0.434259	5.17354	0.545633	6.51652	0.668643	7.91525	0.916888	10.2534	0.406726	4.83526	0.543666	6.46139	0.77212	9.1647	0.891815	10.0518
0.328591	3.86349	0.165341	1.95276	0.43798	5.16059	0.548616	6.48004	0.670848	7.85472	0.918241	10.1761	0.410295	4.82426	0.546094	6.41918	0.773662	9.08256	0.892823	9.99868
0.33035	3.84208	0.167434	1.95596	0.441726	5.14821	0.551622	6.44462	0.673069	7.79569	0.919402	10.1114	0.413855	4.81339	0.548541	6.37808	0.775218	9.00237	0.893626	9.95721
0.332081	3.82081	0.169527	1.95909	0.445496	5.13637	0.554649	6.41022	0.675308	7.73811	0.920367	10.0587	0.417405	4.80264	0.551004	6.33807	0.776789	8.92405	0.894219	9.92701
0.333787	3.79971	0.17162	1.96215	0.449287	5.12503	0.557698	6.37679	0.677563	7.68194	0.921134	10.0176	0.420944	4.79199	0.553486	6.2991	0.778374	8.84756	0.894599	9.90781
0.33547	3.77879	0.173712	1.96513	0.453098	5.11415	0.560769	6.34431	0.679835	7.62714	0.9217	9.98758	0.424472	4.78143	0.555985	6.26115	0.779973	8.77283	0.895148	9.88039
0.33713	3.75805	0.175804	1.96805	0.456926	5.10369	0.563859	6.31274	0.682124	7.57365	0.922063	9.96851	0.427988	4.77097	0.558501	6.22418	0.781586	8.6998	0.895747	9.85082
0.33877	3.73751	0.177895	1.97091	0.460772	5.09363	0.56697	6.28204	0.684429	7.52143	0.922586	9.94126	0.431492	4.76059	0.561035	6.18817	0.783213	8.62843	0.896566	9.811
0.340391	3.71719	0.179986	1.9737	0.464632	5.08394	0.570101	6.25219	0.68675	7.47045	0.923156	9.91186	0.434984	4.75028	0.563587	6.15308	0.784855	8.55867	0.897607	9.76126
0.341994	3.69707	0.182076	1.97643	0.468506	5.0746	0.573252	6.22315	0.689088	7.42067	0.923933	9.87225	0.438462	4.74004	0.566156	6.1189	0.786511	8.49046	0.898876	9.70204
0.34358	3.67718	0.184166	1.9791	0.472392	5.06557	0.576421	6.1949	0.691442	7.37206	0.924921	9.82273	0.441927	4.72985	0.568743	6.08558	0.78818	8.42377	0.900378	9.63382
0.345151	3.65752	0.186256	1.98171	0.476289	5.05684	0.579609	6.16741	0.693812	7.32457	0.926122	9.76372	0.445377	4.71972	0.571348	6.0531	0.789864	8.35853	0.902119	9.55718
0.346707	3.6381	0.188345	1.98427	0.480195	5.04838	0.582816	6.14065	0.696198	7.27817	0.927539	9.69567	0.448813	4.70963	0.573971	6.02145	0.791563	8.29472	0.903879	9.48222
0.34825	3.61891	0.190434	1.98677	0.484111	5.04017	0.586041	6.11461	0.6986	7.23283	0.929177	9.61911	0.452234	4.69958	0.576611	5.9906	0.793275	8.23229	0.905657	9.40892
0.349781	3.59996	0.192522	1.98923	0.488033	5.0322	0.589283	6.08924	0.701018	7.18853	0.930828	9.54414	0.455639	4.68956	0.57927	5.96052	0.795001	8.1712	0.907454	9.33721
0.3513	3.58126	0.19461	1.99163	0.491962	5.02444	0.592543	6.06454	0.703452	7.14522	0.932491	9.47072	0.459028	4.67957	0.581946	5.9312	0.796742	8.11141	0.90927	9.26705
0.352809	3.5628	0.196698	1.99398	0.495897	5.01688	0.59582	6.04048	0.705902	7.10289	0.934165	9.39879	0.462401	4.6696	0.584641	5.90261	0.798496	8.05289	0.911104	9.1984
0.354308	3.54459	0.198785	1.99629	0.499835	5.00951	0.599114	6.01704	0.708368	7.0615	0.935852	9.32832	0.465756	4.65964	0.587353	5.87474	0.800265	7.9956	0.912957	9.13121
0.355798	3.52663	0.200872	1.99855	0.503777	5.00231	0.602424	5.9942	0.71085	7.02103	0.937552	9.25926	0.469095	4.6497	0.590084	5.84756	0.802047	7.9395	0.914828	9.06545
0.35728	3.50891	0.202959	2.00076	0.507722	4.99527	0.60575	5.97193	0.713347	6.98145	0.939262	9.19159	0.472415	4.63976	0.592833	5.82105	0.803844	7.88457	0.916718	9.00107
0.358755	3.49145	0.205045	2.00293	0.511669	4.98837	0.609092	5.95022	0.71586	6.94274	0.940985	9.12525	0.475716	4.62982	0.5956	5.79521	0.805655	7.83077	0.918626	8.93804
0.360222	3.47423	0.207131	2.00506	0.515616	4.9816	0.61245	5.92906	0.718389	6.90487	0.94272	9.06021	0.479	4.61988	0.598385	5.77	0.80748	7.77807	0.920552	8.87632
0.361684	3.45725	0.209217	2.00714	0.519564	4.97496	0.615823	5.90842	0.720933	6.86783	0.944467	8.99644	0.482263	4.60994	0.601189	5.74542	0.809319	7.72644	0.922497	8.81587
0.363139	3.44052	0.211302	2.00919	0.523511	4.96843	0.61921	5.88829	0.723494	6.83158	0.946225	8.9339	0.485508	4.59998	0.604011	5.72145	0.811172	7.67586	0.92446	8.75666
0.364589	3.42404	0.213387	2.0112	0.527456	4.962	0.622613	5.86864	0.72607	6.79612	0.947994	8.87256	0.488732	4.59002	0.606852	5.69807	0.813039	7.62629	0.926441	8.69866
0.366035	3.4078	0.215471	2.01317	0.5314	4.95567	0.62603	5.84948	0.728661	6.76141	0.949776	8.81238	0.491936	4.58003	0.609711	5.67526	0.81492	7.57771	0.92844	8.64183
0.367476	3.3918	0.217556	2.0151	0.535341	4.94942	0.629461	5.83078	0.731269	6.72744	0.951568	8.75335	0.495119	4.57003	0.612588	5.65302	0.816815	7.5301	0.930457	8.58615
0.368914	3.37603	0.21964	2.017	0.539279	4.94324	0.632905	5.81252	0.733892	6.69419	0.953372	8.69542	0.498282	4.56	0.615484	5.63133	0.818724	7.48342	0.932493	8.53158
0.370348	3.3605	0.221724	2.01886	0.543213	4.93714	0.636364	5.7947	0.73653	6.66165	0.955188	8.63857	0.501423	4.54995	0.618398	5.61017	0.820648	7.43766	0.934546	8.4781
0.371779	3.34521	0.223807	2.02069	0.547143	4.9311	0.639835	5.7773	0.739185	6.62979	0.957014	8.58277	0.504542	4.53988	0.621331	5.58953	0.822585	7.39279	0.936617	8.42567
0.373208	3.33015	0.225891	2.02249	0.551067	4.92511	0.64332	5.76031	0.741855	6.5986	0.958852	8.52799	0.50764	4.52978	0.624282	5.56939	0.824536	7.3488	0.938705	8.37427
0.374634	3.31531	0.227973	2.02425	0.554985	4.91917	0.646818	5.74371	0.744541	6.56806	0.960701	8.47422	0.510716	4.51964	0.627251	5.54975	0.826501	7.30565	0.940812	8.32388
0.376059	3.3007	0.230056	2.02598	0.558898	4.91327	0.650328	5.72749	0.747242	6.53815	0.962561	8.42141	0.513769	4.50948	0.630238	5.53059	0.828481	7.26332	0.942936	8.27446
0.377481	3.28632	0.232139	2.02769	0.562804	4.90741	0.653851	5.71165	0.74996	6.50887	0.964432	8.36956	0.516799	4.49929	0.633244	5.5119	0.830474	7.22181	0.945078	8.226
0.378903	3.27215	0.234221	2.02936	0.566702	4.90159	0.657386	5.69617	0.752693	6.48019	0.966314	8.31863	0.519807	4.48906	0.636267	5.49367	0.832481	7.18108	0.947237	8.17847
0.380323	3.2582	0.236303	2.031	0.570593	4.89579	0.660932	5.68104	0.755442	6.4521	0.968206	8.2686	0.522792	4.4788	0.639309	5.47588	0.834502	7.14113	0.949413	8.13185
0.381743	3.24447	0.238384	2.03262	0.574476	4.89001	0.66449	5.66624	0.758207	6.4246	0.97011	8.21946	0.525754	4.46851	0.642368	5.45852	0.836537	7.10192	0.951607	8.08611
0.383162	3.23094	0.240466	2.0342	0.57835	4.88425	0.66806	5.65178	0.760988	6.39765	0.972024	8.17117	0.528693	4.45819	0.645445	5.44158	0.838587	7.06345	0.953818	8.04124
0.384581	3.21763	0.242547	2.03577	0.582215	4.87851	0.671641	5.63764	0.763785	6.37126	0.973949	8.12373	0.531609	4.44783	0.648539	5.42506	0.84065	7.02569	0.956046	7.9972
0.385999	3.20452	0.244628	2.0373	0.58607	4.87277	0.675233	5.62381	0.766599	6.34542	0.975884	8.0771	0.534501	4.43744	0.65165	5.40893	0.842727	6.98863	0.958291	7.954
0.387418	3.19161	0.246709	2.03881	0.589915	4.86704	0.678835	5.61028	0.769428	6.32009	0.97783	8.03128	0.53737	4.42701	0.654778	5.39319	0.844817	6.95225	0.960554	7.91159
0.388837	3.1789	0.24879	2.04029	0.59375	4.86131	0.682448	5.59704	0.772273	6.29529	0.979787	7.98623	0.540215	4.41655	0.657924	5.37782	0.846922	6.91654	0.962833	7.86997
0.390257	3.16639	0.25087	2.04175	0.597574	4.85558	0.686072	5.58409	0.775135	6.27099	0.981753	7.94195	0.543038	4.40607	0.661085	5.36282	0.849041	6.88148	0.965128	7.82911
0.391677	3.15407	0.25295	2.04319	0.601387	4.84984	0.689705	5.57141	0.778013	6.24718	0.983731	7.89841	0.545836	4.39555	0.664263	5.34818	0.851173	6.84706	0.967441	7.789
0.393098	3.14194	0.25503	2.0446	0.605188	4.8441	0.693348	5.559	0.780907	6.22386	0.985718	7.85561	0.548612	4.385	0.667457	5.33389	0.85332	6.81326	0.96977	7.74962
0.39452	3.13	0.25711	2.046	0.608977	4.83835	0.697001	5.54685	0.783818	6.20102	0.987716	7.81351	0.551364	4.37442	0.670667	5.31993	0.85548	6.78007	0.972115	7.71095
0.395943	3.11824	0.259189	2.04736	0.612754	4.83259	0.700663	5.53496	0.786746	6.17864	0.989724	7.77211	0.554094	4.36382	0.673892	5.30629	0.857653	6.74748	0.974477	7.67298
0.397368	3.10666	0.261269	2.04871	0.616519	4.82681	0.704334	5.52331	0.78969	6.15671	0.991742	7.73139	0.5568	4.35319	0.677132	5.29298	0.859841	6.71546	0.976855	7.63569
0.398793	3.09526	0.263348	2.05004	0.62027	4.82101	0.708014	5.51189	0.792651	6.13523	0.99377	7.69134	0.559483	4.34254	0.680387	5.27997	0.862042	6.68402	0.97925	7.59906
0.400221	3.08404	0.265427	2.05134	0.624008	4.81519	0.711703	5.50071	0.795628	6.11418	0.995808	7.65193	0.562144	4.33186	0.683656	5.26725	0.864257	6.65313	0.98166	7.56309
0.401649	3.07298	0.267506	2.05263	0.627732	4.80935	0.7154	5.48975	0.798623	6.09356	0.997856	7.61317	0.564782	4.32117	0.68694	5.25483	0.866486	6.62279	0.984087	7.52775
0.40308	3.0621	0.269584	2.0539	0.631442	4.80349	0.719105	5.47901	0.801634	6.07337	0.999914	7.57502	0.567398	4.31045	0.690237	5.24269	0.868728	6.59297	0.986529	7.49303
0.404512	3.05139	0.271662	2.05514	0.635138	4.7976	0.722818	5.46848	0.804663	6.05358	1.00198	7.53749	0.569991	4.29972	0.693547	5.23081	0.870984	6.56368	0.988987	7.45891
0.405946	3.04083	0.273741	2.05637	0.63882	4.79169	0.726538	5.45816	0.807708	6.0342			0.572563	4.28898	0.69687	5.2192	0.873254	6.5349	0.991461	7.4254
0.407383	3.03044	0.275819	2.05758	0.642486	4.78575	0.730266	5.44803	0.810771	6.01521			0.575112	4.27822	0.700206	5.20784	0.875537	6.50662	0.99395	7.39246
0.408821	3.02021	0.277897	2.05877	0.646138	4.77977	0.734001	5.4381	0.813851	5.99661			0.577641	4.26745	0.703553	5.19673	0.877833	6.47883	0.996455	7.36008
0.410262	3.01013	0.279975	2.05995	0.649774	4.77377	0.737743	5.42835	0.816949	5.97839			0.580148	4.25667	0.706913	5.18585	0.880143	6.45152	0.998975	7.32827
0.411704	3.00021	0.282052	2.0611	0.653394	4.76773	0.741492	5.41878	0.820064	5.96055			0.582633	4.24588	0.710283	5.17521	0.882467	6.42467	1.00151	7.29699
0.413149	2.99043	0.28413	2.06224	0.656999	4.76167	0.745247	5.40939	0.823197	5.94307			0.585099	4.23509	0.713665	5.16479	0.884803	6.39828		
0.414597	2.98081	0.286207	2.06337	0.660588	4.75556	0.749007	5.40017	0.826347	5.92596			0.587543	4.2243	0.717056	5.15457	0.887154	6.37235		
0.416046	2.97133	0.288284	2.06448	0.664161	4.74943	0.752774	5.39111	0.829515	5.90919			0.589968	4.21351	0.720458	5.14457	0.889517	6.34685		
0.417499	2.96199	0.290361	2.06557	0.667717	4.74326	0.756546	5.38221	0.832701	5.89278			0.592372	4.20271	0.723869	5.13477	0.891894	6.32178		
0.418953	2.95279	0.292438	2.06664	0.671256	4.73705	0.760323	5.37347	0.835905	5.8767			0.594757	4.19192	0.727289	5.12516	0.894284	6.29713		
0.420411	2.94374	0.294514	2.06771	0.674779	4.7308	0.764106	5.36487	0.839126	5.86096			0.597123	4.18114	0.730718	5.11573	0.896687	6.2729		
0.421871	2.93481	0.296591	2.06875	0.678285	4.72452	0.767893	5.35642	0.842366	5.84555			0.599469	4.17037	0.734155	5.10649	0.899103	6.24908		
0.423333	2.92602	0.298667	2.06978	0.681774	4.7182	0.771684	5.34811	0.845624	5.83046			0.601797	4.1596	0.7376	5.09741	0.901533	6.22565		
0.424799	2.91736	0.300744	2.0708	0.685246	4.71185	0.775479	5.33993	0.8489	5.81569			0.604107	4.14884	0.741052	5.0885	0.903975	6.2026		
0.426267	2.90883	0.30282	2.07181	0.6887	4.70546	0.779278	5.33189	0.852195	5.80123			0.606398	4.1381	0.74451	5.07976	0.90643	6.17995		
0.427738	2.90043	0.304896	2.0728	0.692137	4.69903	0.783081	5.32396	0.855507	5.78708			0.608672	4.12738	0.747976	5.07116	0.908899	6.15766		
0.429211	2.89215	0.306972	2.07377	0.695556	4.69256	0.786886	5.31616	0.858838	5.77323			0.610928	4.11667	0.751447	5.06271	0.91138	6.13574		
0.430688	2.88399	0.309047	2.07474	0.698958	4.68605	0.790695	5.30848	0.862188	5.75967			0.613167	4.10598	0.754923	5.05441	0.913874	6.11418		
0.432167	2.87596	0.311123	2.07569	0.702342	4.67951	0.794506	5.30091	0.865556	5.74641			0.615389	4.09531	0.758405	5.04624	0.916381	6.09297		
0.433649	2.86804	0.313198	2.07663	0.705709	4.67293	0.798319	5.29345	0.868943	5.73342			0.617595	4.08466	0.761891	5.03821	0.918901	6.07211		
0.435134	2.86024	0.315274	2.07755	0.709057	4.66632	0.802135	5.28609	0.872347	5.72072			0.619784	4.07404	0.765382	5.0303	0.921434	6.05159		
0.436622	2.85255	0.317349	2.07847	0.712388	4.65967	0.805952	5.27883	0.875771	5.7083			0.621958	4.06344	0.768876	5.02251	0.923979	6.0314		
0.438113	2.84497	0.319424	2.07937	0.715701	4.65298	0.80977	5.27167	0.879213	5.69614			0.624116	4.05287	0.772374	5.01484	0.926537	6.01154		
0.439607	2.8375	0.321499	2.08026	0.718996	4.64626	0.81359	5.26461	0.882674	5.68425			0.626258	4.04232	0.775875	5.00727	0.929107	5.99199		
0.441104	2.83015	0.323574	2.08114	0.722273	4.6395	0.81741	5.25763	0.886153	5.67262			0.628386	4.03181	0.779378	4.99982	0.93169	5.97276		
0.442604	2.8229	0.325649	2.08201	0.725532	4.63271	0.821231	5.25074	0.889651	5.66125			0.630499	4.02133	0.782883	4.99247	0.934286	5.95384		
0.444107	2.81575	0.327724	2.08287	0.728773	4.62588	0.825052	5.24393	0.893167	5.65012			0.632598	4.01088	0.78639	4.98521	0.936894	5.93522		
0.445613	2.8087	0.329798	2.08371	0.731996	4.61903	0.828873	5.23721	0.896702	5.63925			0.634682	4.00047	0.789899	4.97805	0.939514	5.9169		
0.447122	2.80176	0.331873	2.08455	0.735201	4.61214	0.832694	5.23056	0.900255	5.62861			0.636753	3.99009	0.793408	4.97098	0.942147	5.89887		
0.448634	2.79492	0.333947	2.08538	0.738388	4.60521	0.836514	5.22398	0.903826	5.61822			0.638811	3.97974	0.796918	4.96399	0.944792	5.88112		
0.450149	2.78817	0.336021	2.08619	0.741558	4.59826	0.840334	5.21747	0.907416	5.60805			0.640855	3.96944	0.800428	4.95709	0.947449	5.86365		
0.451667	2.78152	0.338095	2.087	0.744709	4.59128	0.844152	5.21104	0.911025	5.59812			0.642886	3.95917	0.803938	4.95026	0.950119	5.84646		
0.453188	2.77497	0.34017	2.08779	0.747843	4.58427	0.847969	5.20466	0.914651	5.58841			0.644904	3.94894	0.807447	4.94351	0.9528	5.82954		
0.454712	2.76851	0.342243	2.08858	0.750959	4.57723	0.851784	5.19835	0.918295	5.57891			0.64691	3.93876	0.810955	4.93683	0.955494	5.81289		
0.456239	2.76214	0.344317	2.08935	0.754058	4.57016	0.855598	5.1921	0.921958	5.56964			0.648904	3.92861	0.814462	4.93021	0.9582	5.7965		
0.457769	2.75585	0.346391	2.09012	0.757139	4.56307	0.859409	5.18591	0.925638	5.56057			0.650887	3.91851	0.817967	4.92366	0.960918	5.78036		
0.459302	2.74966	0.348465	2.09088	0.760203	4.55595	0.863218	5.17978	0.929336	5.55171			0.652857	3.90845	0.821471	4.91718	0.963648	5.76447		
0.460838	2.74355	0.350538	2.09163	0.763249	4.54881	0.867024	5.17369	0.933051	5.54306			0.654816	3.89843	0.824972	4.91074	0.96639	5.74884		
0.462377	2.73753	0.352612	2.09237	0.766278	4.54164	0.870828	5.16766	0.936784	5.5346			0.656765	3.88846	0.82847	4.90437	0.969144	5.73344		
0.463919	2.7316	0.354685	2.0931	0.76929	4.53445	0.874629	5.16168	0.940534	5.52634			0.658702	3.87854	0.831965	4.89804	0.97191	5.71828		
0.465465	2.72574	0.356758	2.09382	0.772284	4.52724	0.878426	5.15574	0.944302	5.51826			0.660629	3.86866	0.835457	4.89177	0.974687	5.70336		
0.467013	2.71997	0.358832	2.09454	0.775262	4.52001	0.882221	5.14985	0.948086	5.51038			0.662545	3.85883	0.838945	4.88554	0.977476	5.68867		
0.468564	2.71427	0.360905	2.09524	0.778222	4.51276	0.886012	5.144	0.951887	5.50267			0.664451	3.84905	0.842429	4.87935	0.980277	5.6742		
0.470118	2.70866	0.362978	2.09594	0.781166	4.50549	0.889799	5.13819	0.955704	5.49514			0.666348	3.83931	0.845908	4.87321	0.98309	5.65996		
0.471675	2.70312	0.365051	2.09663	0.784094	4.4982	0.893582	5.13243	0.959538	5.48779			0.668235	3.82962	0.849383	4.86711	0.985914	5.64594		
0.473236	2.69766	0.367124	2.09731	0.787004	4.49089	0.897361	5.1267	0.963388	5.4806			0.670112	3.81999	0.852854	4.86104	0.98875	5.63213		
0.474799	2.69227	0.369196	2.09799	0.789899	4.48357	0.901136	5.12101	0.967254	5.47358			0.67198	3.8104	0.856318	4.85501	0.991598	5.61853		
0.476365	2.68695	0.371269	2.09866	0.792777	4.47623	0.904907	5.11535	0.971135	5.46672			0.673839	3.80086	0.859778	4.849	0.994457	5.60514		
0.477934	2.68171	0.373342	2.09931	0.795639	4.46888	0.908674	5.10973	0.975032	5.46002			0.67569	3.79137	0.863231	4.84303	0.997327	5.59195		
0.479506	2.67654	0.375414	2.09997	0.798484	4.46152	0.912435	5.10414	0.978944	5.45348			0.677532	3.78194	0.866679	4.83709	1.00021	5.57896		
0.481081	2.67144	0.377487	2.10061	0.801314	4.45415	0.916193	5.09859	0.98287	5.44708			0.679365	3.77255	0.87012	4.83117				
0.482659	2.6664	0.379559	2.10125	0.804129	4.44676	0.919945	5.09306	0.986812	5.44083			0.681191	3.76322	0.873554	4.82528				
0.484239	2.66144	0.381631	2.10188	0.806927	4.43936	0.923693	5.08757	0.990767	5.43472			0.683008	3.75394	0.876982	4.81941				
0.485823	2.65654	0.383704	2.10251	0.809711	4.43196	0.927435	5.0821	0.994737	5.42875			0.684818	3.74471	0.880402	4.81356				
0.48741	2.6517	0.385776	2.10312	0.812478	4.42455	0.931173	5.07667	0.99872	5.42292			0.68662	3.73553	0.883815	4.80773				
0.488999	2.64694	0.387848	2.10373	0.815231	4.41712	0.934905	5.07125	1.00272	5.41721			0.688414	3.7264	0.88722	4.80192				
0.490592	2.64223	0.38992	2.10434	0.817969	4.4097	0.938632	5.06587					0.690202	3.71733	0.890618	4.79612				
0.492187	2.63759	0.391992	2.10494	0.820691	4.40226	0.942354	5.06051					0.691982	3.70831	0.894007	4.79034				
0.493785	2.633	0.394064	2.10553	0.823399	4.39482	0.94607	5.05517					0.693756	3.69935	0.897388	4.78457				
0.495386	2.62848	0.396135	2.10611	0.826093	4.38738	0.949781	5.04986					0.695523	3.69044	0.900761	4.77881				
0.496989	2.62402	0.398207	2.10669	0.828772	4.37994	0.953486	5.04457					0.697283	3.68158	0.904125	4.77307				
0.498596	2.61961	0.400279	2.10726	0.831436	4.37249	0.957186	5.03931					0.699038	3.67277	0.90748	4.76733				
0.500205	2.61527	0.40235	2.10783	0.834086	4.36504	0.96088	5.03406					0.700786	3.66402	0.910825	4.7616				
0.501817	2.61097	0.404422	2.10839	0.836723	4.35759	0.964568	5.02884					0.702527	3.65532	0.914162	4.75588				
0.503432	2.60674	0.406493	2.10895	0.839345	4.35014	0.96825	5.02363					0.704264	3.64667	0.917489	4.75016				
0.505049	2.60256	0.408565	2.1095	0.841954	4.34269	0.971927	5.01845					0.705994	3.63808	0.920806	4.74445				
0.506669	2.59843	0.410636	2.11004	0.844549	4.33524	0.975598	5.01329					0.707719	3.62955	0.924113	4.73874				
0.508292	2.59436	0.412707	2.11058	0.847131	4.3278	0.979262	5.00814					0.709438	3.62106	0.927411	4.73304				
0.509918	2.59034	0.414779	2.11111	0.849699	4.32035	0.982921	5.00301					0.711152	3.61263	0.930698	4.72734				
0.511546	2.58637	0.41685	2.11164	0.852255	4.31292	0.986573	4.9979					0.712861	3.60425	0.933975	4.72164				
0.513177	2.58245	0.418921	2.11216	0.854797	4.30548	0.99022	4.99281					0.714565	3.59593	0.937242	4.71594				
0.514811	2.57858	0.420992	2.11268	0.857326	4.29805	0.99386	4.98773					0.716265	3.58766	0.940498	4.71024				
0.516447	2.57476	0.423063	2.11319	0.859843	4.29063	0.997494	4.98267					0.717959	3.57944	0.943743	4.70454				
0.518086	2.57099	0.425133	2.1137	0.862347	4.28321	1.00112	4.97762					0.719649	3.57128	0.946978	4.69884				
0.519727	2.56727	0.427204	2.1142	0.864838	4.2758							0.721334	3.56317	0.950201	4.69314				
0.521371	2.56359	0.429275	2.1147	0.867318	4.26839							0.723016	3.55511	0.953414	4.68744				
0.523018	2.55996	0.431346	2.11519	0.869785	4.261							0.724692	3.54711	0.956615	4.68173				
0.524667	2.55637	0.433416	2.11568	0.87224	4.25361							0.726365	3.53916	0.959805	4.67602				
0.526319	2.55283	0.435487	2.11617	0.874683	4.24623							0.728034	3.53126	0.962985	4.67031				
0.527973	2.54933	0.437558	2.11664	0.877114	4.23886							0.729699	3.52341	0.966152	4.6646				
0.52963	2.54588	0.439628	2.11712	0.879534	4.2315							0.73136	3.51562	0.969308	4.65888				
0.531289	2.54247	0.441698	2.11759	0.881942	4.22415							0.733018	3.50787	0.972453	4.65316				
0.53295	2.5391	0.443769	2.11805	0.884339	4.21681							0.734672	3.50018	0.975586	4.64743				
0.534615	2.53577	0.445839	2.11851	0.886724	4.20949							0.736323	3.49254	0.978708	4.6417				
0.536281	2.53248	0.447909	2.11897	0.889098	4.20217							0.73797	3.48496	0.981818	4.63597				
0.53795	2.52924	0.449979	2.11942	0.891462	4.19487							0.739615	3.47742	0.984917	4.63023				
0.539621	2.52603	0.45205	2.11987	0.893814	4.18758							0.741256	3.46994	0.988003	4.62448				
0.541295	2.52286	0.45412	2.12031	0.896156	4.18031							0.742894	3.46251	0.991078	4.61873				
0.542971	2.51973	0.45619	2.12075	0.898487	4.17304							0.744529	3.45512	0.994142	4.61298				
0.54465	2.51664	0.45826	2.12119	0.900808	4.16579							0.746161	3.44779	0.997193	4.60722				
0.546331	2.51359	0.46033	2.12162	0.903118	4.15856							0.747791	3.44051	1.00023	4.60146				
0.548014	2.51057	0.462399	2.12205	0.905418	4.15134							0.749418	3.43328						
0.549699	2.50759	0.464469	2.12247	0.907707	4.14414							0.751042	3.4261						
0.551387	2.50464	0.466539	2.12289	0.909987	4.13695							0.752664	3.41896						
0.553077	2.50173	0.468609	2.12331	0.912257	4.12977							0.754284	3.41188						
0.55477	2.49886	0.470678	2.12372	0.914517	4.12262							0.755901	3.40485						
0.556464	2.49601	0.472748	2.12413	0.916767	4.11547							0.757516	3.39786						
0.558161	2.49321	0.474818	2.12453	0.919008	4.10835							0.759129	3.39093						
0.55986	2.49043	0.476887	2.12493	0.921239	4.10124							0.76074	3.38404						
0.561561	2.48769	0.478957	2.12533	0.923461	4.09415							0.762349	3.3772						
0.563265	2.48498	0.481026	2.12573	0.925674	4.08708							0.763956	3.37041						
0.56497	2.4823	0.483095	2.12612	0.927877	4.08003							0.765561	3.36366						
0.566678	2.47965	0.485165	2.1265	0.930072	4.07299							0.767164	3.35696						
0.568388	2.47704	0.487234	2.12689	0.932257	4.06597							0.768766	3.35031						
0.5701	2.47445	0.489303	2.12727	0.934434	4.05897							0.770366	3.34371						
0.571814	2.47189	0.491372	2.12765	0.936602	4.05199							0.771965	3.33715						
0.573531	2.46937	0.493442	2.12802	0.938761	4.04503							0.773562	3.33064						
0.575249	2.46687	0.495511	2.12839	0.940912	4.03808							0.775157	3.32418						
0.576969	2.4644	0.49758	2.12876	0.943054	4.03116							0.776752	3.31776						
0.578692	2.46196	0.499649	2.12913	0.945188	4.02425							0.778344	3.31138						
0.580416	2.45955	0.501718	2.12949	0.947314	4.01737							0.779936	3.30505						
0.582143	2.45716	0.503787	2.12985	0.949432	4.0105							0.781527	3.29877						
0.583871	2.4548	0.505856	2.1302	0.951542	4.00366							0.783116	3.29253						
0.585601	2.45247	0.507924	2.13056	0.953644	3.99683							0.784704	3.28634						
0.587334	2.45017	0.509993	2.13091	0.955738	3.99003							0.786291	3.28018						
0.589068	2.44789	0.512062	2.13125	0.957824	3.98325							0.787878	3.27408						
0.590805	2.44564	0.514131	2.1316	0.959903	3.97648							0.789463	3.26801						
0.592543	2.44341	0.516199	2.13194	0.961974	3.96974							0.791048	3.26199						
0.594283	2.44121	0.518268	2.13228	0.964037	3.96302							0.792631	3.25601						
0.596025	2.43903	0.520337	2.13261	0.966094	3.95632							0.794214	3.25007						
0.597769	2.43687	0.522405	2.13295	0.968143	3.94964							0.795796	3.24418						
0.599515	2.43474	0.524474	2.13328	0.970185	3.94298							0.797378	3.23833						
0.601263	2.43264	0.526542	2.1336	0.972219	3.93635							0.798959	3.23252						
0.603013	2.43055	0.52861	2.13393	0.974247	3.92974							0.800539	3.22675						
0.604764	2.42849	0.530679	2.13425	0.976268	3.92314							0.802119	3.22102						
0.606517	2.42645	0.532747	2.13457	0.978282	3.91657							0.803698	3.21533						
0.608272	2.42444	0.534815	2.13489	0.980289	3.91002							0.805277	3.20968						
0.610029	2.42245	0.536884	2.1352	0.98229	3.9035							0.806856	3.20408						
0.611788	2.42047	0.538952	2.13552	0.984284	3.89699							0.808434	3.19851						
0.613548	2.41852	0.54102	2.13583	0.986271	3.89051							0.810011	3.19298						
0.61531	2.41659	0.543088	2.13613	0.988253	3.88405							0.811589	3.18749						
0.617074	2.41469	0.545156	2.13644	0.990227	3.87761							0.813166	3.18204						
0.61884	2.4128	0.547224	2.13674	0.992196	3.8712							0.814743	3.17663						
0.620607	2.41093	0.549292	2.13704	0.994158	3.86481							0.81632	3.17126						
0.622376	2.40908	0.55136	2.13734	0.996115	3.85844							0.817896	3.16593						
0.624147	2.40726	0.553428	2.13764	0.998065	3.85209							0.819473	3.16063						
0.62592	2.40545	0.555496	2.13793	1.00001	3.84576							0.821049	3.15537						
0.627694	2.40366	0.557564	2.13822									0.822626	3.15015						
0.629469	2.40189	0.559632	2.13851									0.824202	3.14497						
0.631247	2.40014	0.5617	2.1388									0.825778	3.13982						
0.633026	2.39841	0.563767	2.13908									0.827355	3.13471						
0.634806	2.39669	0.565835	2.13936									0.828931	3.12963						
0.636589	2.395	0.567903	2.13965									0.830508	3.12459						
0.638373	2.39332	0.56997	2.13992									0.832085	3.11959						
0.640158	2.39166	0.572038	2.1402									0.833662	3.11462						
0.641945	2.39002	0.574106	2.14047									0.835239	3.10969						
0.643734	2.38839	0.576173	2.14075									0.836816	3.10479						
0.645524	2.38678	0.578241	2.14102									0.838394	3.09993						
0.647315	2.38519	0.580308	2.14128									0.839972	3.0951						
0.649108	2.38362	0.582375	2.14155									0.84155	3.09031						
0.650903	2.38206	0.584443	2.14182									0.843128	3.08555						
0.652699	2.38051	0.58651	2.14208									0.844707	3.08082						
0.654497	2.37898	0.588577	2.14234									0.846286	3.07613						
0.656296	2.37747	0.590645	2.1426									0.847865	3.07147						
0.658097	2.37598	0.592712	2.14285									0.849445	3.06684						
0.659899	2.3745	0.594779	2.14311									0.851026	3.06225						
0.661702	2.37303	0.596846	2.14336									0.852607	3.05768						
0.663507	2.37158	0.598914	2.14361									0.854188	3.05315						
0.665314	2.37014	0.600981	2.14386									0.855769	3.04865						
0.667121	2.36872	0.603048	2.14411									0.857352	3.04418						
0.668931	2.36731	0.605115	2.14435									0.858934	3.03975						
0.670741	2.36592	0.607182	2.1446									0.860518	3.03534						
0.672553	2.36454	0.609249	2.14484									0.862102	3.03097						
0.674367	2.36317	0.611316	2.14508									0.863686	3.02663						
0.676181	2.36182	0.613383	2.14532									0.865271	3.02231						
0.677997	2.36048	0.615449	2.14556									0.866857	3.01803						
0.679815	2.35916	0.617516	2.14579									0.868443	3.01378						
0.681634	2.35785	0.619583	2.14603									0.87003	3.00955						
0.683454	2.35655	0.62165	2.14626									0.871617	3.00536						
0.685275	2.35526	0.623717	2.14649									0.873206	3.00119						
0.687098	2.35399	0.625783	2.14672									0.874795	2.99706						
0.688922	2.35273	0.62785	2.14695									0.876384	2.99295						
0.690747	2.35148	0.629917	2.14717									0.877975	2.98887						
0.692574	2.35024	0.631983	2.1474									0.879566	2.98482						
0.694401	2.34902	0.63405	2.14762									0.881158	2.9808						
0.69623	2.34781	0.636116	2.14784									0.88275	2.9768						
0.698061	2.34661	0.638183	2.14806									0.884343	2.97284						
0.699892	2.34542	0.640249	2.14828									0.885937	2.9689						
0.701725	2.34424	0.642316	2.1485									0.887532	2.96498						
0.703559	2.34307	0.644382	2.14872									0.889128	2.9611						
0.705394	2.34192	0.646449	2.14893									0.890725	2.95724						
0.707231	2.34078	0.648515	2.14914									0.892322	2.95341						
0.709069	2.33964	0.650581	2.14935									0.89392	2.9496						
0.710907	2.33852	0.652648	2.14956									0.895519	2.94582						
0.712747	2.33741	0.654714	2.14977									0.897119	2.94207						
0.714589	2.33631	0.65678	2.14998									0.89872	2.93834						
0.716431	2.33522	0.658846	2.15019									0.900321	2.93463						
0.718274	2.33414	0.660912	2.15039									0.901924	2.93096						
0.720119	2.33307	0.662978	2.15059									0.903527	2.9273						
0.721965	2.33201	0.665045	2.15079									0.905132	2.92368						
0.723812	2.33096	0.667111	2.15099									0.906737	2.92007						
0.72566	2.32992	0.669177	2.15119									0.908343	2.9165						
0.727509	2.32889	0.671243	2.15139									0.90995	2.91294						
0.729359	2.32787	0.673309	2.15159									0.911558	2.90941						
0.73121	2.32686	0.675375	2.15178									0.913167	2.9059						
0.733063	2.32586	0.677441	2.15198									0.914776	2.90242						
0.734916	2.32487	0.679506	2.15217									0.916387	2.89896						
0.736771	2.32389	0.681572	2.15236									0.917999	2.89553						
0.738627	2.32291	0.683638	2.15255									0.919612	2.89212						
0.740483	2.32195	0.685704	2.15274									0.921225	2.88873						
0.742341	2.32099	0.68777	2.15293									0.92284	2.88536						
0.7442	2.32005	0.689835	2.15312									0.924456	2.88202						
0.74606	2.31911	0.691901	2.1533									0.926072	2.87869						
0.74792	2.31818	0.693967	2.15349									0.92769	2.87539						
0.749782	2.31726	0.696032	2.15367									0.929309	2.87212						
0.751645	2.31635	0.698098	2.15385									0.930928	2.86886						
0.753509	2.31544	0.700164	2.15403									0.932549	2.86563						
0.755374	2.31455	0.702229	2.15421									0.93417	2.86242						
0.75724	2.31366	0.704295	2.15439									0.935793	2.85923						
0.759107	2.31278	0.70636	2.15457									0.937417	2.85606						
0.760975	2.31191	0.708426	2.15475									0.939041	2.85291						
0.762843	2.31104	0.710491	2.15492									0.940667	2.84978						
0.764713	2.31019	0.712557	2.1551									0.942294	2.84667						
0.766584	2.30934	0.714622	2.15527									0.943922	2.84359						
0.768455	2.3085	0.716687	2.15544									0.945551	2.84052						
0.770328	2.30766	0.718753	2.15561									0.947181	2.83748						
0.772202	2.30684	0.720818	2.15578									0.948812	2.83445						
0.774076	2.30602	0.722883	2.15595									0.950444	2.83145						
0.775952	2.30521	0.724948	2.15612									0.952077	2.82846						
0.777828	2.3044	0.727014	2.15629									0.953711	2.82549						
0.779705	2.30361	0.729079	2.15646									0.955346	2.82255						
0.781583	2.30282	0.731144	2.15662									0.956982	2.81962						
0.783463	2.30204	0.733209	2.15678									0.958619	2.81671						
0.785342	2.30126	0.735274	2.15695									0.960258	2.81382						
0.787223	2.30049	0.737339	2.15711									0.961897	2.81095						
0.789105	2.29973	0.739404	2.15727									0.963538	2.8081						
0.790988	2.29897	0.741469	2.15743									0.965179	2.80527						
0.792871	2.29822	0.743534	2.15759									0.966822	2.80245						
0.794755	2.29748	0.745599	2.15775									0.968466	2.79966						
0.796641	2.29674	0.747664	2.15791									0.97011	2.79688						
0.798527	2.29601	0.749729	2.15806									0.971756	2.79412						
0.800414	2.29529	0.751794	2.15822									0.973403	2.79138						
0.802301	2.29457	0.753859	2.15837									0.975051	2.78865						
0.80419	2.29386	0.755924	2.15853									0.976701	2.78595						
0.806079	2.29316	0.757989	2.15868									0.978351	2.78326						
0.807969	2.29246	0.760053	2.15883									0.980002	2.78058						
0.80986	2.29177	0.762118	2.15898									0.981654	2.77793						
0.811752	2.29108	0.764183	2.15913									0.983308	2.77529						
0.813645	2.2904	0.766247	2.15928									0.984962	2.77267						
0.815538	2.28972	0.768312	2.15943									0.986618	2.77007						
0.817433	2.28905	0.770377	2.15958									0.988275	2.76748						
0.819328	2.28839	0.772441	2.15973									0.989933	2.76491						
0.821223	2.28773	0.774506	2.15987									0.991592	2.76235						
0.82312	2.28708	0.77657	2.16002									0.993252	2.75981						
0.825017	2.28643	0.778635	2.16016									0.994913	2.75729						
0.826916	2.28579	0.780699	2.16031									0.996575	2.75478						
0.828814	2.28515	0.782764	2.16045									0.998238	2.75229						
0.830714	2.28452	0.784828	2.16059									0.999903	2.74982						
0.832615	2.2839	0.786893	2.16073									1.00157	2.74736						
0.834516	2.28328	0.788957	2.16087																
0.836418	2.28266	0.791021	2.16101																
0.83832	2.28205	0.793086	2.16115																
0.840224	2.28145	0.79515	2.16129																
0.842128	2.28085	0.797214	2.16143																
0.844033	2.28025	0.799279	2.16156																
0.845938	2.27966	0.801343	2.1617																
0.847844	2.27908	0.803407	2.16183																
0.849751	2.2785	0.805471	2.16197																
0.851659	2.27792	0.807535	2.1621																
0.853567	2.27735	0.809599	2.16223																
0.855477	2.27678	0.811663	2.16237																
0.857386	2.27622	0.813728	2.1625																
0.859297	2.27566	0.815792	2.16263																
0.861208	2.27511	0.817856	2.16276																
0.86312	2.27456	0.81992	2.16289																
0.865032	2.27402	0.821984	2.16301																
0.866945	2.27348	0.824047	2.16314																
0.868859	2.27295	0.826111	2.16327																
0.870774	2.27242	0.828175	2.1634																
0.872689	2.27189	0.830239	2.16352																
0.874605	2.27137	0.832303	2.16365																
0.876521	2.27085	0.834367	2.16377																
0.878438	2.27034	0.83643	2.16389																
0.880356	2.26983	0.838494	2.16402																
0.882274	2.26932	0.840558	2.16414																
0.884193	2.26882	0.842622	2.16426																
0.886113	2.26833	0.844685	2.16438																
0.888033	2.26783	0.846749	2.1645																
0.889954	2.26734	0.848813	2.16462																
0.891875	2.26686	0.850876	2.16474																
0.893797	2.26638	0.85294	2.16486																
0.89572	2.2659	0.855003	2.16498																
0.897643	2.26542	0.857067	2.16509																
0.899567	2.26495	0.85913	2.16521																
0.901492	2.26449	0.861194	2.16533																
0.903417	2.26402	0.863257	2.16544																
0.905343	2.26356	0.865321	2.16556																
0.907269	2.26311	0.867384	2.16567																
0.909196	2.26266	0.869447	2.16579																
0.911123	2.26221	0.871511	2.1659																
0.913051	2.26176	0.873574	2.16601																
0.91498	2.26132	0.875637	2.16612																
0.916909	2.26088	0.8777	2.16623																
0.918838	2.26045	0.879764	2.16634																
0.920769	2.26002	0.881827	2.16645																
0.9227	2.25959	0.88389	2.16656																
0.924631	2.25916	0.885953	2.16667																
0.926563	2.25874	0.888016	2.16678																
0.928495	2.25832	0.890079	2.16689																
0.930428	2.25791	0.892142	2.167																
0.932362	2.2575	0.894205	2.1671																
0.934296	2.25709	0.896268	2.16721																
0.93623	2.25668	0.898331	2.16732																
0.938166	2.25628	0.900394	2.16742																
0.940101	2.25588	0.902457	2.16753																
0.942037	2.25548	0.90452	2.16763																
0.943974	2.25509	0.906583	2.16773																
0.945911	2.2547	0.908646	2.16784																
0.947849	2.25431	0.910709	2.16794																
0.949787	2.25393	0.912772	2.16804																
0.951726	2.25355	0.914834	2.16814																
0.953665	2.25317	0.916897	2.16824																
0.955605	2.25279	0.91896	2.16834																
0.957545	2.25242	0.921023	2.16844																
0.959486	2.25205	0.923085	2.16854																
0.961427	2.25168	0.925148	2.16864																
0.963369	2.25131	0.927211	2.16874																
0.965311	2.25095	0.929273	2.16884																
0.967254	2.25059	0.931336	2.16894																
0.969197	2.25024	0.933398	2.16903																
0.971141	2.24988	0.935461	2.16913																
0.973085	2.24953	0.937524	2.16923																
0.975029	2.24918	0.939586	2.16932																
0.976974	2.24883	0.941648	2.16942																
0.97892	2.24849	0.943711	2.16951																
0.980866	2.24815	0.945773	2.16961																
0.982812	2.24781	0.947836	2.1697																
0.984759	2.24747	0.949898	2.16979																
0.986707	2.24714	0.95196	2.16989																
0.988654	2.24681	0.954023	2.16998																
0.990603	2.24648	0.956085	2.17007																
0.992551	2.24615	0.958147	2.17016																
0.994501	2.24583	0.96021	2.17025																
0.99645	2.24551	0.962272	2.17034																
0.9984	2.24519	0.964334	2.17043																
1.00035	2.24487	0.966396	2.17052																
		0.968458	2.17061																
		0.97052	2.1707																
		0.972582	2.17079																
		0.974644	2.17088																
		0.976707	2.17097																
		0.978769	2.17105																
		0.980831	2.17114																
		0.982892	2.17123																
		0.984954	2.17131																
		0.987016	2.1714																
		0.989078	2.17148																
		0.99114	2.17157																
		0.993202	2.17165																
		0.995264	2.17174																
		0.997326	2.17182																
		0.999387	2.1719																
		1.00145	2.17199																
