Sym0		Asym0		Sym1		Sym2		Sym3		Sym4		Asym1		Asym2		Asym3		Asym4	
478  Points		495  Points		259  Points		189  Points		168  Points		127  Points		388  Points		208  Points		168  Points		120  Points	
Freq (MHz)	Vph (m/ms)	Freq (MHz)	Vph (m/ms)	Freq (MHz)	Vph (m/ms)	Freq (MHz)	Vph (m/ms)	Freq (MHz)	Vph (m/ms)	Freq (MHz)	Vph (m/ms)	Freq (MHz)	Vph (m/ms)	Freq (MHz)	Vph (m/ms)	Freq (MHz)	Vph (m/ms)	Freq (MHz)	Vph (m/ms)
0.00487064	5.54513	0.00050539	0.201107	0.279518	552.737	0.424158	927.031	0.559036	632.131	0.838525	78151	0.139755	1404.47	0.419273	697.956	0.698772	3738.35	0.848312	1154.79
0.0100366	5.54491	0.000945157	0.274377	0.279581	194.506	0.424198	305.345	0.559096	307.862	0.838538	889.767	0.139883	135.65	0.419331	273.641	0.698791	624.694	0.848338	509.115
0.0152015	5.54443	0.00151632	0.346473	0.279706	118.065	0.424279	182.805	0.559197	203.511	0.838576	447.451	0.140218	71.4344	0.419439	170.219	0.698839	340.846	0.848385	326.554
0.0203648	5.54378	0.00221419	0.417133	0.279892	84.7956	0.4244	130.479	0.559341	152.017	0.838639	298.893	0.140761	48.6289	0.419597	123.563	0.698914	234.377	0.848451	240.376
0.025526	5.54294	0.00303325	0.486112	0.280138	66.1878	0.424562	101.465	0.559525	121.342	0.838728	224.408	0.141506	36.9827	0.419805	97.0087	0.699018	178.608	0.848538	190.196
0.0306846	5.5419	0.00396734	0.553208	0.280445	54.306	0.424765	83.0264	0.559751	100.986	0.838841	179.654	0.14245	29.9392	0.420063	79.8721	0.699149	144.291	0.848645	157.358
0.03584	5.54067	0.00501002	0.618277	0.280812	46.066	0.425008	70.2759	0.560018	86.4955	0.83898	149.794	0.143587	25.2365	0.420371	67.9016	0.699308	121.049	0.848773	134.198
0.0409916	5.53924	0.0061543	0.68117	0.281239	40.0194	0.425293	60.9354	0.560326	75.6561	0.839143	128.455	0.144911	21.8853	0.420729	59.0697	0.699495	104.266	0.848921	116.988
0.046139	5.53761	0.00739328	0.741805	0.281725	35.3959	0.42562	53.8003	0.560676	67.244	0.839332	112.446	0.146413	19.3846	0.421136	52.2873	0.69971	91.5794	0.849089	103.697
0.0512813	5.53578	0.00871995	0.800121	0.28227	31.748	0.425988	48.1734	0.561066	60.5274	0.839546	99.9937	0.148088	17.4534	0.421593	46.9168	0.699953	81.6541	0.849277	93.1239
0.0564181	5.53373	0.0101275	0.856083	0.282873	28.798	0.426398	43.6235	0.561498	55.0417	0.839784	90.0314	0.149926	15.9217	0.422099	42.5603	0.700223	73.6777	0.849486	84.5129
0.0615489	5.53148	0.0116091	0.909687	0.283533	26.3645	0.42685	39.8695	0.56197	50.4778	0.840048	81.881	0.151921	14.681	0.422654	38.9566	0.700522	67.1283	0.849716	77.3647
0.0666728	5.52902	0.0131585	0.96094	0.28425	24.3239	0.427345	36.7201	0.562483	46.6221	0.840337	75.0899	0.154063	13.6582	0.423258	35.927	0.700847	61.6549	0.849966	71.3361
0.0717893	5.52634	0.0147696	1.00988	0.285023	22.5891	0.427883	34.0411	0.563036	43.3224	0.84065	69.3448	0.156345	12.803	0.42391	33.3453	0.701201	57.013	0.850236	66.1836
0.0768977	5.52343	0.0164366	1.05655	0.285852	21.097	0.428464	31.7351	0.563629	40.4671	0.840989	64.4216	0.158759	12.0791	0.424611	31.1197	0.701582	53.027	0.850528	61.7294
0.0819972	5.52029	0.0181542	1.10102	0.286735	19.8006	0.429089	29.7298	0.564263	37.9725	0.841352	60.1561	0.161296	11.4598	0.425359	29.1819	0.70199	49.5674	0.85084	57.8408
0.0870871	5.51691	0.0199175	1.14336	0.287672	18.6644	0.429758	27.9706	0.564936	35.7747	0.84174	56.425	0.163951	10.9253	0.426155	27.48	0.702426	46.5366	0.851172	54.4168
0.0921667	5.51329	0.0217219	1.18363	0.288662	17.6611	0.430473	26.4153	0.56565	33.8243	0.842153	53.1342	0.166716	10.4601	0.426999	25.9739	0.702889	43.86	0.851526	51.379
0.0972351	5.50942	0.0235631	1.22193	0.289704	16.7689	0.431232	25.0308	0.566403	32.0819	0.842591	50.2103	0.169584	10.0524	0.427889	24.632	0.703379	41.4791	0.8519	48.6658
0.102291	5.50529	0.0254374	1.25833	0.290797	15.9709	0.432037	23.7909	0.567195	30.5164	0.843053	47.5953	0.172549	9.69284	0.428825	23.4293	0.703897	39.3477	0.852296	46.2279
0.107335	5.5009	0.0273412	1.29292	0.29194	15.2532	0.432888	22.6745	0.568027	29.1023	0.84354	45.2431	0.175207	9.41286	0.429808	22.3456	0.704441	37.4288	0.852712	44.0257
0.112365	5.49623	0.0292713	1.32577	0.293134	14.6046	0.433786	21.6642	0.568897	27.819	0.844052	43.1159	0.177525	9.19545	0.430837	21.3642	0.705013	35.6923	0.85315	42.0267
0.117379	5.49127	0.0312248	1.35699	0.294376	14.0159	0.434731	20.7461	0.569806	26.6493	0.844588	41.1833	0.179476	9.02884	0.43191	20.4716	0.705611	34.1135	0.853608	40.2041
0.122378	5.48601	0.0331992	1.38665	0.295666	13.4794	0.435724	19.9083	0.570753	25.579	0.845148	39.4198	0.181039	8.90478	0.433029	19.6566	0.706237	32.6721	0.854088	38.5357
0.12736	5.48045	0.0351921	1.41483	0.297004	12.9887	0.436765	19.1411	0.571739	24.5962	0.845733	37.8042	0.182201	8.81758	0.434192	18.9096	0.706888	31.3509	0.85459	37.0028
0.132324	5.47457	0.0372013	1.44161	0.298388	12.5383	0.437856	18.4361	0.572763	23.6906	0.846343	36.3189	0.182949	8.76347	0.435399	18.2228	0.707567	30.1358	0.855113	35.5897
0.137269	5.46835	0.039225	1.46706	0.299818	12.1238	0.438995	17.7863	0.573824	22.8538	0.846976	34.9488	0.184031	8.68792	0.436649	17.5892	0.708272	29.0145	0.855657	34.283
0.142193	5.46179	0.0412614	1.49126	0.301294	11.7411	0.440185	17.1858	0.574922	22.0783	0.847634	33.681	0.185216	8.60864	0.437943	17.0032	0.709003	27.9766	0.856223	33.0711
0.147095	5.45487	0.0430452	1.51138	0.302814	11.3869	0.441425	16.6293	0.576058	21.3578	0.848316	32.5048	0.186843	8.50533	0.439279	16.4597	0.709761	27.0134	0.856811	31.9443
0.151974	5.44757	0.0445718	1.52785	0.304379	11.0584	0.442716	16.1124	0.577231	20.6867	0.849022	31.4105	0.188922	8.38164	0.440657	15.9543	0.710545	26.1171	0.857421	30.8939
0.156827	5.43987	0.0458379	1.54102	0.305989	10.7528	0.444059	15.6313	0.57844	20.0602	0.849751	30.39	0.191471	8.24162	0.442077	15.4834	0.711355	25.2811	0.858053	29.9125
0.161654	5.43177	0.0468414	1.55116	0.307642	10.4682	0.445453	15.1824	0.579686	19.4742	0.850505	29.4361	0.194504	8.08946	0.443537	15.0437	0.71219	24.4996	0.858707	28.9936
0.166453	5.42324	0.0475804	1.55846	0.30934	10.2025	0.446901	14.7629	0.580967	18.9249	0.851283	28.5426	0.198039	7.92926	0.445039	14.6322	0.713052	23.7675	0.859383	28.1314
0.171222	5.41426	0.0480538	1.56306	0.311081	9.95407	0.448401	14.3702	0.582284	18.4091	0.852084	27.704	0.201631	7.78273	0.44658	14.2465	0.713939	23.0803	0.860082	27.3211
0.175959	5.40482	0.048735	1.56959	0.312866	9.72138	0.449954	14.0019	0.583637	17.9239	0.852909	26.9155	0.205274	7.64831	0.448161	13.8843	0.714851	22.4341	0.860803	26.558
0.180662	5.39488	0.0494764	1.57657	0.314458	9.53042	0.451561	13.656	0.585025	17.4667	0.853757	26.1728	0.208966	7.52467	0.449781	13.5435	0.715789	21.8253	0.861546	25.8382
0.185329	5.38444	0.0504859	1.58587	0.315842	9.3757	0.453222	13.3306	0.586447	17.0353	0.854629	25.472	0.212705	7.41065	0.451439	13.2225	0.716753	21.251	0.862312	25.1582
0.189957	5.37346	0.0517647	1.59732	0.317006	9.25303	0.454938	13.0242	0.587905	16.6276	0.855525	24.8097	0.216486	7.30526	0.453135	12.9196	0.717741	20.7083	0.863101	24.5148
0.194545	5.36192	0.053314	1.61073	0.317938	9.15925	0.456708	12.7352	0.589396	16.2418	0.856443	24.183	0.220307	7.20761	0.454869	12.6334	0.718754	20.1946	0.863913	23.9053
0.19909	5.3498	0.0551349	1.62586	0.31863	9.09203	0.458533	12.4623	0.590921	15.8762	0.857385	23.589	0.224166	7.11693	0.45664	12.3627	0.719792	19.7079	0.864748	23.327
0.203589	5.33708	0.0572285	1.64248	0.319076	9.04977	0.460413	12.2043	0.59248	15.5294	0.85835	23.0253	0.228061	7.03255	0.458446	12.1063	0.720855	19.246	0.865607	22.7777
0.20804	5.32373	0.059326	1.65833	0.319721	8.99002	0.462348	11.9603	0.594072	15.1999	0.859338	22.4897	0.231988	6.95388	0.460289	11.8631	0.721942	18.8072	0.866488	22.2553
0.21244	5.30972	0.0614266	1.67346	0.320429	8.92639	0.464339	11.7291	0.595697	14.8866	0.860348	21.9802	0.235947	6.88038	0.462167	11.6321	0.723054	18.3898	0.867394	21.7578
0.216785	5.29504	0.0635299	1.68792	0.321401	8.84199	0.466385	11.5099	0.597355	14.5884	0.861382	21.495	0.239934	6.81159	0.46408	11.4127	0.72419	17.9924	0.868322	21.2837
0.221074	5.27965	0.0656355	1.70174	0.322646	8.73865	0.468487	11.3019	0.599045	14.3042	0.862438	21.0323	0.243949	6.7471	0.466028	11.2039	0.72535	17.6135	0.869275	20.8313
0.225304	5.26354	0.0677429	1.71495	0.324176	8.61853	0.470643	11.1043	0.600767	14.0331	0.863517	20.5908	0.247988	6.68652	0.468009	11.005	0.726534	17.2519	0.870251	20.3993
0.229471	5.24668	0.0698518	1.72759	0.326005	8.48404	0.472855	10.9165	0.602522	13.7743	0.864618	20.169	0.252051	6.62952	0.470023	10.8154	0.727742	16.9066	0.871251	19.9862
0.233572	5.22906	0.0719619	1.73969	0.328152	8.33774	0.475123	10.7379	0.604307	13.527	0.865741	19.7656	0.256136	6.57581	0.47207	10.6345	0.728973	16.5764	0.872276	19.591
0.237604	5.21065	0.074073	1.75128	0.33035	8.19949	0.477445	10.5679	0.606124	13.2905	0.866887	19.3795	0.26024	6.52511	0.47415	10.4618	0.730228	16.2604	0.873325	19.2125
0.241565	5.19145	0.0761848	1.76239	0.332602	8.0688	0.479821	10.4059	0.607972	13.0641	0.868055	19.0097	0.264363	6.47718	0.476262	10.2967	0.731507	15.9578	0.874398	18.8498
0.245453	5.17144	0.0782972	1.77304	0.334909	7.94519	0.482252	10.2515	0.60985	12.8473	0.869245	18.6551	0.268504	6.4318	0.478404	10.1388	0.732808	15.6678	0.875496	18.5018
0.249263	5.15062	0.0804098	1.78326	0.337273	7.82825	0.484737	10.1042	0.611759	12.6394	0.870457	18.3149	0.27266	6.38877	0.480578	9.98767	0.734133	15.3895	0.876618	18.1679
0.252995	5.12899	0.0825226	1.79307	0.339697	7.7176	0.487276	9.96359	0.613697	12.44	0.871691	17.9883	0.27683	6.34791	0.482782	9.84289	0.735481	15.1224	0.877765	17.847
0.256646	5.10655	0.0846355	1.80248	0.342181	7.61289	0.489868	9.82933	0.615666	12.2486	0.872946	17.6743	0.281014	6.30905	0.484728	9.72163	0.736851	14.8658	0.878937	17.5386
0.260214	5.08331	0.0867482	1.81153	0.344728	7.51381	0.49217	9.71721	0.617664	12.0647	0.874223	17.3725	0.285209	6.27205	0.486404	9.62169	0.738244	14.6191	0.880135	17.2419
0.263698	5.05928	0.0888608	1.82024	0.34734	7.42006	0.494163	9.62504	0.619691	11.888	0.875521	17.082	0.289415	6.23675	0.487802	9.54133	0.73966	14.3818	0.881357	16.9564
0.267096	5.03449	0.090973	1.8286	0.350019	7.33136	0.495833	9.5511	0.621747	11.718	0.87684	16.8023	0.29363	6.20305	0.488916	9.4792	0.741098	14.1534	0.882605	16.6814
0.270409	5.00896	0.0930849	1.83666	0.352766	7.24747	0.497168	9.49404	0.623832	11.5544	0.878181	16.5329	0.297854	6.17081	0.489739	9.43429	0.742558	13.9334	0.883878	16.4164
0.273635	4.98272	0.0951964	1.84441	0.355583	7.16814	0.498157	9.45286	0.625946	11.3969	0.879543	16.2731	0.302084	6.13995	0.490268	9.40589	0.74404	13.7213	0.885177	16.1609
0.276774	4.95581	0.0973075	1.85189	0.358472	7.09315	0.498793	9.42684	0.628087	11.2451	0.880926	16.0224	0.306321	6.11035	0.49103	9.36552	0.745544	13.5168	0.886502	15.9143
0.279828	4.92828	0.099418	1.85909	0.361433	7.02229	0.499712	9.38989	0.630257	11.0988	0.88233	15.7806	0.310563	6.08193	0.491863	9.32223	0.747071	13.3195	0.887853	15.6764
0.282797	4.90016	0.101528	1.86603	0.364468	6.95534	0.500717	9.35032	0.632454	10.9577	0.883754	15.547	0.314808	6.0546	0.493001	9.26434	0.748618	13.129	0.889229	15.4466
0.285682	4.8715	0.103637	1.87273	0.367576	6.89213	0.502095	9.29748	0.634679	10.8216	0.885199	15.3213	0.319057	6.02829	0.494449	9.1927	0.750188	12.945	0.890632	15.2246
0.288485	4.84237	0.105746	1.8792	0.370759	6.83245	0.503855	9.23221	0.636931	10.6901	0.886664	15.1031	0.323308	6.00293	0.496215	9.10833	0.751778	12.7672	0.892061	15.0099
0.291208	4.81281	0.107854	1.88545	0.374016	6.77613	0.506007	9.15555	0.63921	10.5632	0.888149	14.892	0.327559	5.97845	0.498307	9.0124	0.75339	12.5953	0.893516	14.8024
0.293853	4.78288	0.109962	1.89148	0.377347	6.72298	0.508567	9.06864	0.641517	10.4406	0.889655	14.6878	0.331811	5.95479	0.500732	8.90619	0.755023	12.429	0.894998	14.6015
0.296423	4.75264	0.112069	1.89731	0.38075	6.67285	0.51155	8.97276	0.64385	10.322	0.891181	14.4901	0.336062	5.93189	0.503185	8.80392	0.756678	12.268	0.896506	14.4071
0.298921	4.72214	0.114175	1.90296	0.384224	6.62555	0.514581	8.88079	0.646209	10.2074	0.892727	14.2987	0.340311	5.9097	0.505664	8.70539	0.758353	12.1122	0.898041	14.2189
0.301348	4.69144	0.11628	1.90841	0.387768	6.58093	0.517659	8.79253	0.648595	10.0965	0.894292	14.1131	0.344557	5.88817	0.50817	8.61042	0.760049	11.9613	0.899602	14.0366
0.303708	4.66058	0.118385	1.9137	0.39138	6.53884	0.520783	8.7078	0.650695	10.0028	0.895878	13.9333	0.348799	5.86725	0.510702	8.51884	0.761766	11.8151	0.901191	13.8599
0.306005	4.62963	0.120489	1.91881	0.395057	6.49911	0.523953	8.62642	0.652501	9.92493	0.897482	13.7589	0.353037	5.84691	0.51326	8.4305	0.763503	11.6734	0.902806	13.6886
0.30824	4.59863	0.122593	1.92377	0.398797	6.4616	0.527168	8.54822	0.654005	9.86196	0.899106	13.5897	0.35727	5.82709	0.515844	8.34523	0.765261	11.5359	0.904448	13.5224
0.310418	4.56763	0.124696	1.92857	0.402598	6.42617	0.530426	8.47305	0.655202	9.81304	0.90075	13.4254	0.361496	5.80776	0.518454	8.2629	0.767039	11.4026	0.906118	13.3613
0.31254	4.53666	0.126798	1.93322	0.406456	6.39269	0.533728	8.40077	0.656085	9.77754	0.902412	13.266	0.365714	5.78889	0.521088	8.18337	0.768838	11.2732	0.907814	13.2049
0.314347	4.50975	0.128899	1.93774	0.410369	6.36102	0.537072	8.33123	0.656653	9.75503	0.904094	13.1111	0.369925	5.77044	0.523748	8.10653	0.770656	11.1475	0.909538	13.0531
0.315858	4.48687	0.131	1.94212	0.414334	6.33104	0.540458	8.2643	0.65747	9.72296	0.905794	12.9607	0.374127	5.75238	0.526433	8.03225	0.772495	11.0256	0.911289	12.9056
0.317088	4.46801	0.133101	1.94637	0.418347	6.30263	0.543884	8.19987	0.658362	9.68848	0.907514	12.8145	0.378318	5.73467	0.529142	7.96043	0.774354	10.907	0.913068	12.7624
0.318048	4.45314	0.1352	1.9505	0.422405	6.27569	0.54735	8.13781	0.659581	9.6422	0.909251	12.6723	0.382499	5.7173	0.531876	7.89096	0.776233	10.7919	0.914874	12.6233
0.318747	4.44223	0.137299	1.95452	0.426506	6.2501	0.550854	8.07802	0.66113	9.58465	0.911008	12.534	0.386669	5.70024	0.534635	7.82374	0.778131	10.6799	0.916707	12.488
0.319191	4.43526	0.139398	1.95842	0.430647	6.22577	0.554397	8.02039	0.663017	9.51652	0.912782	12.3995	0.390825	5.68346	0.537418	7.75868	0.780049	10.5711	0.918568	12.3566
0.319826	4.42527	0.141496	1.96221	0.434824	6.20261	0.557977	7.96482	0.665248	9.43855	0.914575	12.2685	0.394969	5.66693	0.540225	7.6957	0.781987	10.4652	0.920457	12.2287
0.320512	4.41442	0.143593	1.96589	0.439034	6.18053	0.561593	7.91122	0.667831	9.35159	0.916386	12.1411	0.399098	5.65064	0.543057	7.6347	0.783945	10.3622	0.922373	12.1043
0.321435	4.39972	0.14569	1.96948	0.443275	6.15945	0.565244	7.8595	0.670441	9.26722	0.918215	12.017	0.403212	5.63456	0.545912	7.57562	0.785666	10.2747	0.924317	11.9833
0.32259	4.3812	0.147786	1.97297	0.447544	6.13929	0.56893	7.80958	0.673075	9.18534	0.920062	11.8961	0.40731	5.61867	0.548792	7.51838	0.787146	10.2017	0.926288	11.8656
0.323966	4.35893	0.149882	1.97636	0.451839	6.11999	0.572649	7.76137	0.675734	9.10586	0.921927	11.7783	0.411391	5.60296	0.551696	7.4629	0.788377	10.1424	0.928287	11.7509
0.325556	4.33298	0.151978	1.97967	0.456157	6.10147	0.576401	7.7148	0.678419	9.02868	0.923809	11.6635	0.415455	5.58741	0.554624	7.40913	0.789356	10.0962	0.930314	11.6393
0.327348	4.30346	0.154072	1.98289	0.460495	6.08368	0.580185	7.6698	0.681129	8.95372	0.925708	11.5516	0.4195	5.57199	0.557576	7.357	0.790078	10.0627	0.932369	11.5306
0.329107	4.27424	0.156167	1.98603	0.464852	6.06657	0.583999	7.6263	0.683864	8.88091	0.927625	11.4425	0.423526	5.5567	0.560552	7.30644	0.790542	10.0413	0.934451	11.4247
0.330836	4.24532	0.15826	1.98909	0.469225	6.05008	0.587844	7.58423	0.686624	8.81015	0.929559	11.3361	0.427531	5.54151	0.563552	7.25741	0.79121	10.0109	0.936561	11.3215
0.332537	4.21673	0.160354	1.99207	0.473612	6.03415	0.591718	7.54354	0.689409	8.74139	0.93151	11.2323	0.431516	5.52642	0.566576	7.20985	0.791939	9.97811	0.938698	11.221
0.334211	4.18848	0.162447	1.99498	0.478011	6.01876	0.595621	7.50415	0.692219	8.67455	0.933478	11.131	0.435479	5.51141	0.569624	7.16371	0.792935	9.93401	0.940863	11.123
0.335861	4.16057	0.164539	1.99782	0.482421	6.00385	0.59955	7.46602	0.695055	8.60956	0.935463	11.0321	0.439419	5.49646	0.572697	7.11894	0.7942	9.87902	0.943056	11.0275
0.337487	4.13302	0.166631	2.00059	0.486839	5.98939	0.603506	7.4291	0.697916	8.54637	0.937464	10.9355	0.443335	5.48157	0.575794	7.07549	0.795739	9.81368	0.945276	10.9343
0.339092	4.10582	0.168723	2.00329	0.491265	5.97534	0.607488	7.39332	0.700802	8.48491	0.939483	10.8412	0.447228	5.46672	0.578915	7.03331	0.797559	9.73861	0.947524	10.8434
0.340677	4.079	0.170814	2.00593	0.495696	5.96167	0.611495	7.35864	0.703714	8.42512	0.941517	10.7491	0.451095	5.4519	0.58206	6.99237	0.799664	9.65448	0.9498	10.7548
0.342243	4.05254	0.172905	2.00851	0.50013	5.94835	0.615526	7.32502	0.706652	8.36696	0.943568	10.6592	0.454937	5.43711	0.585229	6.95263	0.801789	9.57246	0.952102	10.6683
0.343792	4.02646	0.174995	2.01103	0.504567	5.93536	0.619579	7.2924	0.709616	8.31038	0.945368	10.5824	0.458752	5.42233	0.588423	6.91404	0.803932	9.49246	0.954131	10.5947
0.345324	4.00075	0.177085	2.01349	0.509006	5.92266	0.623655	7.26075	0.712605	8.25531	0.946913	10.5182	0.46254	5.40755	0.591641	6.87657	0.806095	9.41443	0.955878	10.5331
0.346842	3.97543	0.179175	2.01589	0.513444	5.91023	0.627751	7.23002	0.715621	8.20173	0.948197	10.466	0.4663	5.39277	0.594883	6.84019	0.808276	9.33829	0.957333	10.483
0.348346	3.95048	0.181264	2.01824	0.517881	5.89805	0.631868	7.20017	0.718663	8.14957	0.949216	10.4251	0.470032	5.37798	0.59815	6.80485	0.810476	9.26398	0.958491	10.444
0.349837	3.9259	0.183353	2.02054	0.522316	5.88609	0.636005	7.17117	0.721732	8.09881	0.949968	10.3954	0.473734	5.36317	0.601441	6.77052	0.812694	9.19146	0.959346	10.4155
0.351316	3.9017	0.185442	2.02279	0.526747	5.87435	0.640159	7.14298	0.724828	8.04939	0.95045	10.3765	0.477407	5.34834	0.604756	6.73718	0.814931	9.12065	0.959896	10.3975
0.352784	3.87788	0.18753	2.02499	0.531173	5.8628	0.644331	7.11556	0.727952	8.00129	0.951145	10.3495	0.48105	5.33348	0.608095	6.70479	0.817187	9.05151	0.960688	10.3716
0.354241	3.85443	0.189618	2.02714	0.535594	5.85142	0.64852	7.08888	0.731102	7.95446	0.951902	10.3204	0.484662	5.31858	0.611459	6.67332	0.819461	8.98399	0.961552	10.3438
0.35569	3.83135	0.191706	2.02925	0.540009	5.8402	0.652724	7.06291	0.734281	7.90887	0.952935	10.2811	0.488242	5.30365	0.614846	6.64275	0.821753	8.91803	0.962733	10.3064
0.35713	3.80864	0.193793	2.03131	0.544416	5.82913	0.656943	7.03761	0.737488	7.86449	0.954246	10.2321	0.491791	5.28867	0.618258	6.61304	0.824064	8.85359	0.964236	10.2596
0.358562	3.78629	0.19588	2.03333	0.548815	5.81819	0.661176	7.01295	0.740723	7.82129	0.95584	10.1737	0.495308	5.27365	0.621693	6.58417	0.826394	8.79062	0.966067	10.2039
0.359986	3.7643	0.197967	2.03531	0.553205	5.80737	0.665421	6.98891	0.743988	7.77923	0.957721	10.1064	0.498792	5.25858	0.625152	6.55611	0.828741	8.72908	0.968234	10.1398
0.361405	3.74266	0.200054	2.03724	0.557585	5.79666	0.669678	6.96546	0.747282	7.73829	0.959894	10.0307	0.502243	5.24346	0.628634	6.52883	0.831107	8.66892	0.970745	10.0679
0.362817	3.72138	0.20214	2.03914	0.561955	5.78604	0.673946	6.94257	0.750606	7.69843	0.962082	9.9566	0.505661	5.22829	0.632139	6.50232	0.833491	8.61011	0.973284	9.99763
0.364223	3.70045	0.204226	2.041	0.566313	5.77551	0.678223	6.92022	0.75396	7.65964	0.964285	9.8841	0.509046	5.21307	0.635667	6.47654	0.835893	8.55261	0.975848	9.92896
0.365625	3.67986	0.206312	2.04283	0.57066	5.76506	0.682509	6.89837	0.757345	7.62188	0.966503	9.81312	0.512397	5.19779	0.639218	6.45147	0.838313	8.49638	0.97844	9.86183
0.367022	3.6596	0.208397	2.04461	0.574994	5.75468	0.686803	6.87701	0.760761	7.58514	0.968736	9.74362	0.515714	5.18246	0.64279	6.4271	0.840751	8.44138	0.981057	9.79622
0.368416	3.63968	0.210482	2.04637	0.579315	5.74436	0.691103	6.85611	0.764209	7.54939	0.970984	9.67557	0.518997	5.16708	0.646385	6.40339	0.843207	8.38757	0.983701	9.73208
0.369806	3.62009	0.212567	2.04809	0.583622	5.73409	0.695409	6.83564	0.767689	7.51461	0.973247	9.6089	0.522247	5.15164	0.650002	6.38032	0.84568	8.33493	0.986371	9.66937
0.371192	3.60083	0.214652	2.04977	0.587914	5.72387	0.69972	6.8156	0.771202	7.48077	0.975525	9.5436	0.525462	5.13616	0.653639	6.35788	0.848172	8.28343	0.989066	9.60804
0.372576	3.58188	0.216737	2.05143	0.592192	5.71369	0.704034	6.79595	0.774749	7.44786	0.977817	9.47962	0.528643	5.12062	0.657297	6.33604	0.850681	8.23302	0.991788	9.54806
0.373958	3.56325	0.218821	2.05305	0.596454	5.70355	0.708351	6.77667	0.778329	7.41585	0.980124	9.41693	0.53179	5.10503	0.660975	6.31479	0.853208	8.18368	0.994535	9.48939
0.375338	3.54492	0.220905	2.05464	0.600701	5.69343	0.71267	6.75775	0.781943	7.38474	0.982445	9.35548	0.534904	5.0894	0.664673	6.29409	0.855753	8.13539	0.997307	9.43199
0.376716	3.5269	0.222989	2.05621	0.604931	5.68333	0.716989	6.73917	0.785593	7.35449	0.98478	9.29525	0.537983	5.07373	0.668391	6.27394	0.858315	8.08811	1.0001	9.37584
0.378092	3.50918	0.225073	2.05774	0.609144	5.67326	0.721308	6.72091	0.789277	7.32509	0.987129	9.2362	0.54103	5.05801	0.672127	6.25431	0.860894	8.04181		
0.379468	3.49175	0.227156	2.05925	0.61334	5.66319	0.725625	6.70295	0.792998	7.29653	0.989493	9.1783	0.544042	5.04225	0.675881	6.23519	0.863491	7.99647		
0.380843	3.47462	0.229239	2.06073	0.617518	5.65314	0.729941	6.68528	0.796754	7.26878	0.99187	9.12153	0.547022	5.02646	0.679652	6.21655	0.866106	7.95207		
0.382217	3.45776	0.231323	2.06219	0.621677	5.64309	0.734253	6.66787	0.800548	7.24184	0.994262	9.06584	0.549968	5.01064	0.68344	6.19838	0.868737	7.90858		
0.383591	3.44119	0.233406	2.06361	0.625818	5.63304	0.738562	6.65073	0.804378	7.21567	0.996667	9.01122	0.552882	4.99479	0.687245	6.18066	0.871386	7.86598		
0.384965	3.42489	0.235488	2.06502	0.62994	5.62298	0.742865	6.63383	0.808246	7.19027	0.999086	8.95763	0.555764	4.97892	0.691066	6.16337	0.874052	7.82424		
0.386339	3.40886	0.237571	2.0664	0.634043	5.61293	0.747164	6.61715	0.812152	7.16563	1.00152	8.90506	0.558613	4.96302	0.694901	6.1465	0.876735	7.78334		
0.387714	3.39309	0.239653	2.06775	0.638126	5.60286	0.751455	6.6007	0.816096	7.14172			0.561431	4.94711	0.698751	6.13004	0.879434	7.74326		
0.389089	3.37759	0.241736	2.06909	0.642189	5.59278	0.75574	6.58445	0.820078	7.11852			0.564218	4.93118	0.702614	6.11396	0.882151	7.70398		
0.390465	3.36234	0.243818	2.0704	0.646232	5.58269	0.760018	6.5684	0.824098	7.09603			0.566974	4.91524	0.706491	6.09825	0.884884	7.66548		
0.391842	3.34734	0.2459	2.07169	0.650254	5.57258	0.764287	6.55254	0.828157	7.07423			0.569699	4.8993	0.710379	6.0829	0.887635	7.62774		
0.393219	3.33258	0.247981	2.07295	0.654255	5.56245	0.768548	6.53685	0.832254	7.0531			0.572395	4.88335	0.71428	6.06788	0.890401	7.59074		
0.394599	3.31807	0.250063	2.0742	0.658234	5.55231	0.7728	6.52133	0.83639	7.03262			0.575061	4.8674	0.718191	6.0532	0.893185	7.55447		
0.395979	3.3038	0.252145	2.07543	0.662192	5.54214	0.777042	6.50598	0.840564	7.01278			0.577698	4.85146	0.722113	6.03883	0.895985	7.5189		
0.397361	3.28975	0.254226	2.07663	0.666129	5.53195	0.781275	6.49079	0.844777	6.99356			0.580306	4.83553	0.726044	6.02476	0.898801	7.48402		
0.398745	3.27594	0.256307	2.07782	0.670043	5.52173	0.785497	6.47575	0.849027	6.97495			0.582886	4.81961	0.729983	6.01099	0.901633	7.44981		
0.400131	3.26235	0.258388	2.07899	0.673935	5.51149	0.78971	6.46085	0.853315	6.95693			0.585438	4.80371	0.733931	5.99748	0.904482	7.41625		
0.401518	3.24898	0.260469	2.08014	0.677804	5.50122	0.793913	6.4461	0.85764	6.93948			0.587964	4.78783	0.737887	5.98424	0.907347	7.38334		
0.402907	3.23583	0.26255	2.08127	0.681651	5.49092	0.798106	6.43149	0.862002	6.92259			0.590462	4.77197	0.741849	5.97126	0.910228	7.35105		
0.404299	3.22289	0.26463	2.08238	0.685475	5.48059	0.802288	6.41701	0.866401	6.90623			0.592935	4.75614	0.745818	5.95852	0.913125	7.31937		
0.405693	3.21016	0.266711	2.08348	0.689276	5.47023	0.806461	6.40267	0.870835	6.89041			0.595382	4.74034	0.749791	5.946	0.916037	7.28829		
0.407089	3.19763	0.268791	2.08456	0.693054	5.45984	0.810624	6.38847	0.875304	6.87508			0.597803	4.72458	0.75377	5.93371	0.918966	7.25779		
0.408487	3.18531	0.270872	2.08562	0.696809	5.44942	0.814777	6.37439	0.879807	6.86025			0.6002	4.70885	0.757752	5.92163	0.92191	7.22785		
0.409888	3.17318	0.272952	2.08667	0.70054	5.43897	0.818921	6.36045	0.884345	6.8459			0.602573	4.69316	0.761738	5.90975	0.92487	7.19848		
0.411292	3.16124	0.275032	2.0877	0.704248	5.42849	0.823055	6.34664	0.888915	6.832			0.604922	4.67751	0.765727	5.89806	0.927845	7.16964		
0.412698	3.14949	0.277112	2.08872	0.707931	5.41797	0.827181	6.33296	0.893517	6.81854			0.607247	4.66191	0.769717	5.88656	0.930836	7.14134		
0.414106	3.13793	0.279192	2.08972	0.711592	5.40743	0.831299	6.3194	0.89815	6.80551			0.609551	4.64635	0.77371	5.87523	0.933842	7.11356		
0.415518	3.12655	0.281271	2.0907	0.715228	5.39685	0.835408	6.30598	0.902814	6.7929			0.611831	4.63085	0.777703	5.86406	0.936863	7.08628		
0.416932	3.11535	0.283351	2.09168	0.718841	5.38625	0.83951	6.29269	0.907507	6.78068			0.61409	4.6154	0.781696	5.85305	0.9399	7.0595		
0.418349	3.10433	0.28543	2.09263	0.72243	5.37561	0.843605	6.27953	0.912229	6.76883			0.616328	4.60001	0.785689	5.84219	0.942952	7.0332		
0.419769	3.09348	0.28751	2.09358	0.725995	5.36494	0.847692	6.26649	0.916978	6.75736			0.618545	4.58468	0.789681	5.83148	0.946018	7.00738		
0.421192	3.0828	0.289589	2.09451	0.729536	5.35425	0.851774	6.25359	0.921754	6.74624			0.620742	4.5694	0.793671	5.82089	0.9491	6.98202		
0.422617	3.07228	0.291668	2.09543	0.733053	5.34352	0.855849	6.24082	0.926557	6.73546			0.622919	4.55419	0.797659	5.81044	0.952196	6.95711		
0.424046	3.06193	0.293747	2.09633	0.736546	5.33277	0.859918	6.22818	0.931384	6.725			0.625076	4.53905	0.801645	5.80011	0.955307	6.93265		
0.425478	3.05174	0.295826	2.09722	0.740015	5.32198	0.863982	6.21567	0.936235	6.71485			0.627214	4.52396	0.805627	5.78989	0.958433	6.90862		
0.426913	3.04171	0.297905	2.0981	0.743461	5.31118	0.868041	6.20329	0.941109	6.70501			0.629334	4.50895	0.809605	5.77978	0.961574	6.88502		
0.428351	3.03183	0.299984	2.09897	0.746882	5.30034	0.872095	6.19104	0.946005	6.69545			0.631435	4.49401	0.81358	5.76978	0.964728	6.86184		
0.429792	3.0221	0.302062	2.09983	0.75028	5.28948	0.876145	6.17892	0.950923	6.68617			0.633519	4.47914	0.817549	5.75987	0.967898	6.83906		
0.431236	3.01252	0.304141	2.10067	0.753655	5.2786	0.88019	6.16694	0.955861	6.67715			0.635586	4.46434	0.821513	5.75005	0.971081	6.81668		
0.432684	3.00308	0.30622	2.1015	0.757005	5.26769	0.884232	6.15508	0.960819	6.66838			0.637635	4.44962	0.825471	5.74032	0.974279	6.79468		
0.434135	2.99379	0.308298	2.10233	0.760332	5.25676	0.888271	6.14335	0.965796	6.65985			0.639668	4.43497	0.829422	5.73067	0.977491	6.77308		
0.435589	2.98464	0.310376	2.10314	0.763636	5.24581	0.892306	6.13174	0.97079	6.65156			0.641685	4.4204	0.833367	5.7211	0.980717	6.75184		
0.437046	2.97563	0.312455	2.10394	0.766917	5.23484	0.896338	6.12027	0.975802	6.64349			0.643687	4.40591	0.837305	5.7116	0.983957	6.73097		
0.438506	2.96676	0.314533	2.10472	0.770174	5.22386	0.900367	6.10891	0.98083	6.63563			0.645673	4.3915	0.841234	5.70216	0.987211	6.71046		
0.43997	2.95801	0.316611	2.1055	0.773408	5.21285	0.904394	6.09769	0.985873	6.62797			0.647644	4.37717	0.845156	5.69279	0.990479	6.6903		
0.441437	2.9494	0.318689	2.10627	0.77662	5.20183	0.908418	6.08658	0.990931	6.62051			0.6496	4.36292	0.849069	5.68348	0.99376	6.67049		
0.442907	2.94092	0.320767	2.10703	0.779808	5.19079	0.912439	6.0756	0.996003	6.61323			0.651542	4.34875	0.852973	5.67423	0.997055	6.65101		
0.444381	2.93256	0.322845	2.10778	0.782974	5.17975	0.916458	6.06474	1.00109	6.60612			0.653471	4.33467	0.856867	5.66502	1.00036	6.63186		
0.445858	2.92432	0.324923	2.10852	0.786118	5.16868	0.920475	6.05399					0.655386	4.32067	0.860752	5.65586				
0.447338	2.91621	0.327	2.10925	0.789239	5.15761	0.92449	6.04336					0.657287	4.30675	0.864626	5.64675				
0.448821	2.90822	0.329078	2.10997	0.792338	5.14653	0.928502	6.03285					0.659176	4.29292	0.86849	5.63768				
0.450308	2.90034	0.331156	2.11068	0.795416	5.13544	0.932512	6.02245					0.661053	4.27917	0.872342	5.62865				
0.451798	2.89258	0.333233	2.11139	0.798471	5.12434	0.93652	6.01215					0.662917	4.26551	0.876184	5.61965				
0.453292	2.88494	0.335311	2.11208	0.801505	5.11324	0.940525	6.00197					0.664769	4.25194	0.880013	5.61068				
0.454788	2.8774	0.337388	2.11277	0.804517	5.10213	0.944529	5.99189					0.666609	4.23846	0.883831	5.60175				
0.456288	2.86997	0.339465	2.11345	0.807509	5.09102	0.94853	5.98192					0.668439	4.22506	0.887636	5.59284				
0.457792	2.86265	0.341542	2.11412	0.810479	5.07991	0.952528	5.97204					0.670257	4.21175	0.891429	5.58396				
0.459298	2.85544	0.34362	2.11478	0.813428	5.06879	0.956524	5.96227					0.672064	4.19853	0.895208	5.57509				
0.460808	2.84833	0.345697	2.11543	0.816357	5.05768	0.960518	5.95259					0.673862	4.18539	0.898975	5.56625				
0.462322	2.84132	0.347774	2.11608	0.819266	5.04657	0.964508	5.94301					0.675649	4.17235	0.902728	5.55743				
0.463838	2.83441	0.349851	2.11671	0.822154	5.03546	0.968496	5.93351					0.677426	4.15939	0.906467	5.54863				
0.465358	2.8276	0.351928	2.11734	0.825022	5.02436	0.97248	5.92411					0.679193	4.14652	0.910192	5.53983				
0.466881	2.82088	0.354005	2.11797	0.82787	5.01326	0.976462	5.91479					0.680951	4.13374	0.913903	5.53106				
0.468408	2.81426	0.356081	2.11858	0.830699	5.00217	0.98044	5.90556					0.6827	4.12105	0.9176	5.52229				
0.469937	2.80774	0.358158	2.11919	0.833509	4.99108	0.984415	5.89641					0.68444	4.10845	0.921282	5.51353				
0.47147	2.8013	0.360235	2.11979	0.836299	4.98001	0.988386	5.88734					0.686172	4.09593	0.924949	5.50479				
0.473006	2.79496	0.362311	2.12039	0.83907	4.96894	0.992353	5.87835					0.687895	4.08351	0.928601	5.49604				
0.474545	2.7887	0.364388	2.12098	0.841823	4.95789	0.996316	5.86943					0.68961	4.07117	0.932237	5.48731				
0.476088	2.78253	0.366465	2.12156	0.844557	4.94684	1.00027	5.86059					0.691317	4.05893	0.935859	5.47858				
0.477634	2.77644	0.368541	2.12213	0.847272	4.93581							0.693016	4.04677	0.939465	5.46986				
0.479183	2.77044	0.370617	2.1227	0.84997	4.9248							0.694708	4.0347	0.943055	5.46114				
0.480735	2.76453	0.372694	2.12326	0.85265	4.9138							0.696393	4.02271	0.946629	5.45242				
0.48229	2.75869	0.37477	2.12382	0.855311	4.90281							0.69807	4.01082	0.950188	5.4437				
0.483849	2.75293	0.376846	2.12437	0.857956	4.89185							0.699741	3.99901	0.95373	5.43498				
0.48541	2.74725	0.378923	2.12491	0.860583	4.8809							0.701405	3.98729	0.957257	5.42627				
0.486975	2.74165	0.380999	2.12545	0.863193	4.86997							0.703063	3.97565	0.960767	5.41755				
0.488543	2.73613	0.383075	2.12598	0.865786	4.85905							0.704714	3.9641	0.964261	5.40884				
0.490114	2.73068	0.385151	2.12651	0.868362	4.84816							0.706359	3.95264	0.967738	5.40012				
0.491688	2.7253	0.387227	2.12703	0.870922	4.83729							0.707998	3.94127	0.971199	5.39141				
0.493265	2.71999	0.389303	2.12754	0.873466	4.82644							0.709632	3.92998	0.974644	5.38269				
0.494845	2.71476	0.391379	2.12805	0.875993	4.81562							0.711259	3.91877	0.978072	5.37397				
0.496428	2.70959	0.393455	2.12856	0.878505	4.80482							0.712882	3.90765	0.981484	5.36525				
0.498014	2.7045	0.39553	2.12906	0.881001	4.79404							0.714499	3.89662	0.984879	5.35653				
0.499603	2.69947	0.397606	2.12955	0.883481	4.78329							0.716111	3.88567	0.988257	5.3478				
0.501195	2.69451	0.399682	2.13004	0.885947	4.77256							0.717719	3.8748	0.991619	5.33908				
0.50279	2.68961	0.401758	2.13052	0.888397	4.76186							0.719321	3.86402	0.994965	5.33035				
0.504388	2.68478	0.403833	2.131	0.890832	4.75118							0.720919	3.85331	0.998294	5.32163				
0.505989	2.68001	0.405909	2.13147	0.893252	4.74053							0.722513	3.84269	1.00161	5.3129				
0.507593	2.6753	0.407984	2.13194	0.895658	4.72991							0.724102	3.83216						
0.5092	2.67066	0.41006	2.1324	0.898049	4.71932							0.725687	3.8217						
0.510809	2.66607	0.412136	2.13286	0.900426	4.70876							0.727268	3.81133						
0.512422	2.66154	0.414211	2.13332	0.902789	4.69823							0.728845	3.80103						
0.514037	2.65708	0.416286	2.13377	0.905139	4.68772							0.730418	3.79082						
0.515655	2.65267	0.418362	2.13421	0.907475	4.67725							0.731987	3.78068						
0.517276	2.64831	0.420437	2.13466	0.909797	4.66681							0.733553	3.77063						
0.5189	2.64401	0.422512	2.13509	0.912106	4.6564							0.735116	3.76065						
0.520527	2.63977	0.424587	2.13552	0.914402	4.64602							0.736676	3.75075						
0.522156	2.63558	0.426663	2.13595	0.916684	4.63568							0.738232	3.74093						
0.523788	2.63144	0.428738	2.13638	0.918955	4.62536							0.739785	3.73118						
0.525423	2.62736	0.430813	2.1368	0.921212	4.61508							0.741335	3.72151						
0.52706	2.62332	0.432888	2.13721	0.923457	4.60484							0.742883	3.71192						
0.5287	2.61934	0.434963	2.13762	0.92569	4.59463							0.744427	3.7024						
0.530343	2.61541	0.437038	2.13803	0.927911	4.58445							0.745969	3.69296						
0.531989	2.61152	0.439113	2.13844	0.930119	4.5743							0.747509	3.68359						
0.533637	2.60769	0.441188	2.13884	0.932316	4.56419							0.749046	3.6743						
0.535288	2.6039	0.443263	2.13923	0.934501	4.55412							0.750581	3.66507						
0.536941	2.60015	0.445338	2.13963	0.936675	4.54408							0.752114	3.65592						
0.538597	2.59646	0.447413	2.14002	0.938837	4.53408							0.753644	3.64685						
0.540255	2.59281	0.449487	2.1404	0.940989	4.52411							0.755173	3.63784						
0.541916	2.5892	0.451562	2.14078	0.943129	4.51418							0.756699	3.62891						
0.54358	2.58564	0.453637	2.14116	0.945258	4.50429							0.758224	3.62005						
0.545246	2.58212	0.455712	2.14154	0.947377	4.49443							0.759747	3.61125						
0.546914	2.57865	0.457786	2.14191	0.949485	4.48461							0.761268	3.60253						
0.548585	2.57521	0.459861	2.14228	0.951583	4.47482							0.762787	3.59387						
0.550259	2.57182	0.461936	2.14264	0.95367	4.46508							0.764305	3.58529						
0.551935	2.56847	0.46401	2.143	0.955747	4.45537							0.765822	3.57677						
0.553613	2.56516	0.466085	2.14336	0.957815	4.44569							0.767337	3.56832						
0.555294	2.56188	0.468159	2.14372	0.959872	4.43606							0.768851	3.55993						
0.556977	2.55865	0.470234	2.14407	0.96192	4.42646							0.770363	3.55162						
0.558662	2.55546	0.472308	2.14442	0.963958	4.41691							0.771874	3.54336						
0.56035	2.5523	0.474382	2.14476	0.965987	4.40739							0.773385	3.53518						
0.56204	2.54918	0.476457	2.1451	0.968006	4.3979							0.774894	3.52705						
0.563733	2.5461	0.478531	2.14544	0.970016	4.38846							0.776402	3.519						
0.565427	2.54305	0.480605	2.14578	0.972017	4.37906							0.777909	3.511						
0.567125	2.54004	0.48268	2.14611	0.97401	4.36969							0.779416	3.50307						
0.568824	2.53706	0.484754	2.14645	0.975993	4.36036							0.780922	3.4952						
0.570525	2.53412	0.486828	2.14677	0.977968	4.35108							0.782426	3.48739						
0.572229	2.53121	0.488902	2.1471	0.979935	4.34183							0.783931	3.47965						
0.573935	2.52834	0.490977	2.14742	0.981893	4.33262							0.785434	3.47196						
0.575644	2.5255	0.493051	2.14774	0.983842	4.32345							0.786937	3.46434						
0.577354	2.52269	0.495125	2.14806	0.985784	4.31431							0.78844	3.45678						
0.579067	2.51992	0.497199	2.14837	0.987717	4.30522							0.789942	3.44927						
0.580781	2.51717	0.499273	2.14868	0.989643	4.29617							0.791443	3.44183						
0.582498	2.51446	0.501347	2.14899	0.991561	4.28715							0.792945	3.43444						
0.584217	2.51178	0.503421	2.1493	0.993471	4.27818							0.794446	3.42711						
0.585938	2.50913	0.505495	2.1496	0.995374	4.26924							0.795946	3.41984						
0.587662	2.50651	0.507569	2.14991	0.997269	4.26035							0.797447	3.41263						
0.589387	2.50392	0.509643	2.1502	0.999157	4.25149							0.798947	3.40547						
0.591114	2.50135	0.511717	2.1505	1.00104	4.24267							0.800447	3.39837						
0.592844	2.49882	0.513791	2.1508									0.801947	3.39132						
0.594575	2.49632	0.515865	2.15109									0.803447	3.38433						
0.596309	2.49384	0.517938	2.15138									0.804947	3.37739						
0.598044	2.49139	0.520012	2.15166									0.806447	3.37051						
0.599782	2.48897	0.522086	2.15195									0.807947	3.36368						
0.601521	2.48657	0.52416	2.15223									0.809447	3.35691						
0.603262	2.4842	0.526233	2.15251									0.810948	3.35018						
0.605006	2.48186	0.528307	2.15279									0.812448	3.34351						
0.606751	2.47954	0.530381	2.15306									0.813949	3.33689						
0.608498	2.47725	0.532454	2.15334									0.81545	3.33033						
0.610247	2.47498	0.534528	2.15361									0.816951	3.32381						
0.611998	2.47274	0.536602	2.15388									0.818452	3.31734						
0.613751	2.47052	0.538675	2.15415									0.819954	3.31093						
0.615505	2.46833	0.540749	2.15441									0.821456	3.30456						
0.617262	2.46616	0.542822	2.15467									0.822959	3.29824						
0.61902	2.46401	0.544896	2.15493									0.824462	3.29198						
0.62078	2.46189	0.546969	2.15519									0.825965	3.28576						
0.622542	2.45978	0.549043	2.15545									0.827469	3.27958						
0.624306	2.45771	0.551116	2.15571									0.828974	3.27346						
0.626071	2.45565	0.553189	2.15596									0.830479	3.26738						
0.627839	2.45361	0.555263	2.15621									0.831984	3.26135						
0.629608	2.4516	0.557336	2.15646									0.833491	3.25536						
0.631379	2.44961	0.559409	2.15671									0.834997	3.24942						
0.633151	2.44764	0.561483	2.15695									0.836505	3.24353						
0.634925	2.44569	0.563556	2.1572									0.838013	3.23768						
0.636701	2.44376	0.565629	2.15744									0.839521	3.23188						
0.638479	2.44185	0.567703	2.15768									0.841031	3.22612						
0.640258	2.43996	0.569776	2.15792									0.842541	3.2204						
0.642039	2.43809	0.571849	2.15815									0.844052	3.21473						
0.643821	2.43624	0.573922	2.15839									0.845564	3.2091						
0.645605	2.43441	0.575995	2.15862									0.847076	3.20351						
0.647391	2.43259	0.578068	2.15885									0.848589	3.19796						
0.649179	2.4308	0.580142	2.15908									0.850103	3.19246						
0.650967	2.42903	0.582215	2.15931									0.851618	3.187						
0.652758	2.42727	0.584288	2.15954									0.853134	3.18158						
0.65455	2.42553	0.586361	2.15976									0.854651	3.1762						
0.656344	2.42381	0.588434	2.15998									0.856168	3.17086						
0.658139	2.4221	0.590507	2.16021									0.857686	3.16556						
0.659936	2.42042	0.59258	2.16043									0.859206	3.1603						
0.661734	2.41875	0.594653	2.16064									0.860726	3.15508						
0.663534	2.41709	0.596726	2.16086									0.862247	3.1499						
0.665335	2.41546	0.598799	2.16108									0.863769	3.14475						
0.667138	2.41384	0.600871	2.16129									0.865293	3.13965						
0.668943	2.41224	0.602944	2.1615									0.866817	3.13458						
0.670748	2.41065	0.605017	2.16171									0.868342	3.12955						
0.672556	2.40908	0.60709	2.16192									0.869868	3.12456						
0.674364	2.40752	0.609163	2.16213									0.871395	3.11961						
0.676174	2.40598	0.611236	2.16234									0.872923	3.11469						
0.677986	2.40446	0.613308	2.16254									0.874453	3.10981						
0.679799	2.40294	0.615381	2.16275									0.875983	3.10496						
0.681613	2.40145	0.617454	2.16295									0.877514	3.10015						
0.683429	2.39997	0.619527	2.16315									0.879047	3.09538						
0.685246	2.3985	0.621599	2.16335									0.88058	3.09064						
0.687065	2.39705	0.623672	2.16355									0.882115	3.08593						
0.688885	2.39561	0.625745	2.16374									0.883651	3.08126						
0.690706	2.39419	0.627817	2.16394									0.885188	3.07663						
0.692529	2.39278	0.62989	2.16413									0.886726	3.07202						
0.694353	2.39138	0.631963	2.16432									0.888265	3.06745						
0.696178	2.39	0.634035	2.16452									0.889805	3.06292						
0.698004	2.38863	0.636108	2.16471									0.891346	3.05842						
0.699832	2.38727	0.63818	2.1649									0.892889	3.05395						
0.701661	2.38593	0.640253	2.16508									0.894433	3.04951						
0.703492	2.3846	0.642325	2.16527									0.895978	3.0451						
0.705324	2.38328	0.644398	2.16545									0.897524	3.04073						
0.707157	2.38198	0.64647	2.16564									0.899071	3.03639						
0.708991	2.38069	0.648543	2.16582									0.90062	3.03208						
0.710826	2.37941	0.650615	2.166									0.90217	3.0278						
0.712663	2.37814	0.652688	2.16618									0.903721	3.02355						
0.714501	2.37688	0.65476	2.16636									0.905273	3.01933						
0.71634	2.37564	0.656832	2.16654									0.906826	3.01514						
0.718181	2.3744	0.658905	2.16672									0.908381	3.01098						
0.720023	2.37318	0.660977	2.16689									0.909937	3.00685						
0.721865	2.37197	0.663049	2.16707									0.911494	3.00275						
0.723709	2.37077	0.665122	2.16724									0.913052	2.99868						
0.725555	2.36958	0.667194	2.16741									0.914612	2.99464						
0.727401	2.36841	0.669266	2.16759									0.916172	2.99063						
0.729249	2.36724	0.671339	2.16776									0.917734	2.98665						
0.731097	2.36609	0.673411	2.16792									0.919298	2.98269						
0.732947	2.36494	0.675483	2.16809									0.920862	2.97876						
0.734798	2.36381	0.677555	2.16826									0.922428	2.97486						
0.73665	2.36269	0.679627	2.16843									0.923995	2.97099						
0.738503	2.36157	0.6817	2.16859									0.925564	2.96714						
0.740358	2.36047	0.683772	2.16875									0.927133	2.96332						
0.742213	2.35938	0.685844	2.16892									0.928704	2.95953						
0.74407	2.35829	0.687916	2.16908									0.930276	2.95576						
0.745927	2.35722	0.689988	2.16924									0.93185	2.95203						
0.747786	2.35616	0.69206	2.1694									0.933425	2.94831						
0.749646	2.3551	0.694132	2.16956									0.935001	2.94462						
0.751507	2.35406	0.696204	2.16972									0.936578	2.94096						
0.753369	2.35303	0.698276	2.16987									0.938157	2.93733						
0.755232	2.352	0.700348	2.17003									0.939736	2.93371						
0.757096	2.35098	0.70242	2.17019									0.941318	2.93013						
0.758961	2.34998	0.704492	2.17034									0.9429	2.92657						
0.760827	2.34898	0.706564	2.17049									0.944484	2.92303						
0.762694	2.34799	0.708636	2.17064									0.946069	2.91952						
0.764562	2.34701	0.710708	2.1708									0.947655	2.91603						
0.766431	2.34604	0.71278	2.17095									0.949243	2.91256						
0.768301	2.34507	0.714852	2.1711									0.950832	2.90912						
0.770173	2.34412	0.716924	2.17124									0.952422	2.90571						
0.772045	2.34317	0.718996	2.17139									0.954014	2.90231						
0.773918	2.34223	0.721067	2.17154									0.955607	2.89894						
0.775792	2.3413	0.723139	2.17169									0.957201	2.89559						
0.777667	2.34038	0.725211	2.17183									0.958796	2.89227						
0.779543	2.33947	0.727283	2.17197									0.960393	2.88896						
0.78142	2.33856	0.729355	2.17212									0.961991	2.88568						
0.783298	2.33766	0.731426	2.17226									0.963591	2.88243						
0.785177	2.33677	0.733498	2.1724									0.965191	2.87919						
0.787056	2.33589	0.73557	2.17254									0.966793	2.87598						
0.788937	2.33501	0.737642	2.17268									0.968397	2.87278						
0.790819	2.33415	0.739713	2.17282									0.970001	2.86961						
0.792701	2.33329	0.741785	2.17296									0.971607	2.86646						
0.794585	2.33243	0.743857	2.1731									0.973214	2.86333						
0.796469	2.33159	0.745928	2.17324									0.974823	2.86022						
0.798354	2.33075	0.748	2.17337									0.976433	2.85714						
0.800241	2.32992	0.750071	2.17351									0.978044	2.85407						
0.802128	2.3291	0.752143	2.17364									0.979656	2.85102						
0.804015	2.32828	0.754215	2.17378									0.98127	2.848						
0.805904	2.32747	0.756286	2.17391									0.982885	2.84499						
0.807794	2.32667	0.758358	2.17404									0.984501	2.84201						
0.809684	2.32587	0.760429	2.17417									0.986119	2.83904						
0.811576	2.32508	0.762501	2.1743									0.987737	2.83609						
0.813468	2.3243	0.764572	2.17443									0.989358	2.83317						
0.815361	2.32352	0.766644	2.17456									0.990979	2.83026						
0.817255	2.32275	0.768715	2.17469									0.992602	2.82737						
0.81915	2.32199	0.770787	2.17482									0.994226	2.8245						
0.821045	2.32123	0.772858	2.17495									0.995851	2.82165						
0.822942	2.32048	0.77493	2.17507									0.997478	2.81882						
0.824839	2.31973	0.777001	2.1752									0.999106	2.816						
0.826737	2.319	0.779072	2.17532									1.00073	2.81321						
0.828635	2.31826	0.781144	2.17545																
0.830535	2.31754	0.783215	2.17557																
0.832436	2.31682	0.785287	2.17569																
0.834337	2.3161	0.787358	2.17582																
0.836239	2.31539	0.789429	2.17594																
0.838141	2.31469	0.791501	2.17606																
0.840045	2.31399	0.793572	2.17618																
0.841949	2.3133	0.795643	2.1763																
0.843854	2.31262	0.797714	2.17642																
0.84576	2.31194	0.799786	2.17654																
0.847666	2.31126	0.801857	2.17665																
0.849574	2.31059	0.803928	2.17677																
0.851482	2.30993	0.805999	2.17689																
0.853391	2.30927	0.80807	2.177																
0.8553	2.30862	0.810142	2.17712																
0.85721	2.30797	0.812213	2.17723																
0.859121	2.30733	0.814284	2.17735																
0.861033	2.30669	0.816355	2.17746																
0.862945	2.30605	0.818426	2.17757																
0.864859	2.30543	0.820497	2.17769																
0.866772	2.3048	0.822568	2.1778																
0.868687	2.30419	0.824639	2.17791																
0.870602	2.30357	0.82671	2.17802																
0.872518	2.30297	0.828781	2.17813																
0.874435	2.30236	0.830852	2.17824																
0.876352	2.30176	0.832923	2.17835																
0.87827	2.30117	0.834994	2.17845																
0.880188	2.30058	0.837065	2.17856																
0.882108	2.3	0.839136	2.17867																
0.884028	2.29942	0.841207	2.17877																
0.885948	2.29884	0.843278	2.17888																
0.887869	2.29827	0.845349	2.17899																
0.889791	2.2977	0.84742	2.17909																
0.891714	2.29714	0.849491	2.1792																
0.893637	2.29658	0.851562	2.1793																
0.895561	2.29603	0.853633	2.1794																
0.897486	2.29548	0.855703	2.1795																
0.899411	2.29494	0.857774	2.17961																
0.901336	2.2944	0.859845	2.17971																
0.903263	2.29386	0.861916	2.17981																
0.90519	2.29333	0.863987	2.17991																
0.907117	2.2928	0.866057	2.18001																
0.909046	2.29227	0.868128	2.18011																
0.910974	2.29175	0.870199	2.18021																
0.912904	2.29124	0.87227	2.18031																
0.914834	2.29073	0.87434	2.18041																
0.916765	2.29022	0.876411	2.1805																
0.918696	2.28971	0.878482	2.1806																
0.920628	2.28921	0.880552	2.1807																
0.92256	2.28871	0.882623	2.18079																
0.924493	2.28822	0.884694	2.18089																
0.926427	2.28773	0.886764	2.18098																
0.928361	2.28724	0.888835	2.18108																
0.930295	2.28676	0.890906	2.18117																
0.932231	2.28628	0.892976	2.18127																
0.934167	2.28581	0.895047	2.18136																
0.936103	2.28534	0.897117	2.18145																
0.93804	2.28487	0.899188	2.18155																
0.939977	2.2844	0.901258	2.18164																
0.941916	2.28394	0.903329	2.18173																
0.943854	2.28348	0.905399	2.18182																
0.945793	2.28303	0.90747	2.18191																
0.947733	2.28258	0.90954	2.182																
0.949673	2.28213	0.911611	2.18209																
0.951614	2.28168	0.913681	2.18218																
0.953555	2.28124	0.915752	2.18227																
0.955497	2.2808	0.917822	2.18236																
0.95744	2.28037	0.919892	2.18245																
0.959382	2.27994	0.921963	2.18253																
0.961326	2.27951	0.924033	2.18262																
0.96327	2.27908	0.926104	2.18271																
0.965214	2.27866	0.928174	2.18279																
0.967159	2.27824	0.930244	2.18288																
0.969105	2.27782	0.932314	2.18296																
0.971051	2.27741	0.934385	2.18305																
0.972997	2.277	0.936455	2.18313																
0.974944	2.27659	0.938525	2.18322																
0.976891	2.27619	0.940596	2.1833																
0.978839	2.27579	0.942666	2.18339																
0.980788	2.27539	0.944736	2.18347																
0.982737	2.27499	0.946806	2.18355																
0.984686	2.2746	0.948877	2.18363																
0.986636	2.27421	0.950947	2.18372																
0.988586	2.27382	0.953017	2.1838																
0.990537	2.27344	0.955087	2.18388																
0.992488	2.27305	0.957157	2.18396																
0.99444	2.27267	0.959227	2.18404																
0.996392	2.2723	0.961297	2.18412																
0.998345	2.27192	0.963368	2.1842																
1.0003	2.27155	0.965438	2.18428																
		0.967508	2.18436																
		0.969578	2.18444																
		0.971648	2.18452																
		0.973718	2.18459																
		0.975788	2.18467																
		0.977858	2.18475																
		0.979928	2.18483																
		0.981998	2.1849																
		0.984068	2.18498																
		0.986138	2.18505																
		0.988208	2.18513																
		0.990278	2.1852																
		0.992348	2.18528																
		0.994418	2.18535																
		0.996487	2.18543																
		0.998557	2.1855																
		1.00063	2.18558																
