Sym0		Asym0		Sym1		Sym2		Sym3		Sym4		Asym1		Asym2		Asym3		Asym4	
478  Points		495  Points		255  Points		185  Points		162  Points		123  Points		387  Points		203  Points		164  Points		115  Points	
Freq (MHz)	Vph (m/ms)	Freq (MHz)	Vph (m/ms)	Freq (MHz)	Vph (m/ms)	Freq (MHz)	Vph (m/ms)	Freq (MHz)	Vph (m/ms)	Freq (MHz)	Vph (m/ms)	Freq (MHz)	Vph (m/ms)	Freq (MHz)	Vph (m/ms)	Freq (MHz)	Vph (m/ms)	Freq (MHz)	Vph (m/ms)
0.00110672	5.70415	0.000522183	0.207305	0.27952	516.283	0.427635	5622.29	0.559033	703.087	0.838532	1322.89	0.139759	686.073	0.419272	760.237	0.698771	13423.7	0.85527	3061.37
0.00642095	5.70389	0.000975019	0.282564	0.27959	189.797	0.42766	424.369	0.559092	323.772	0.838563	535.632	0.139918	123.232	0.41933	282.721	0.698788	710.331	0.855287	706.225
0.0117345	5.70355	0.00156262	0.356575	0.279726	116.32	0.427728	220.541	0.559196	210.342	0.838621	335.817	0.140295	67.8705	0.419441	173.69	0.698834	364.842	0.855326	399.169
0.0170467	5.70296	0.00227985	0.429028	0.279928	83.8988	0.427838	149.013	0.559343	155.797	0.838706	244.596	0.140889	46.9819	0.419606	125.383	0.69891	245.478	0.855386	278.223
0.022357	5.70214	0.00312084	0.499678	0.280194	65.6471	0.427992	112.545	0.559534	123.739	0.838817	192.361	0.141695	36.0503	0.419824	98.129	0.699016	184.982	0.855468	213.538
0.0276646	5.7011	0.00407898	0.568309	0.280525	53.9483	0.428189	90.4396	0.559769	102.642	0.838955	158.523	0.14271	29.3509	0.420094	80.6326	0.699151	148.423	0.85557	173.268
0.032969	5.69985	0.00514737	0.634766	0.28092	45.8153	0.42843	75.6111	0.560048	87.7091	0.839119	134.819	0.143925	24.8409	0.420417	68.4532	0.699316	123.943	0.855695	145.786
0.0382697	5.69838	0.00631863	0.698904	0.281379	39.837	0.428714	64.9771	0.56037	76.5849	0.83931	117.292	0.145335	21.6093	0.420793	59.4898	0.699511	106.407	0.855841	125.836
0.0435657	5.69667	0.00758549	0.760643	0.281902	35.2599	0.429042	56.9805	0.560735	67.9789	0.839528	103.807	0.146931	19.1884	0.421222	52.6194	0.699736	93.2283	0.856009	110.696
0.0488566	5.69472	0.0089405	0.819916	0.282487	31.6453	0.429414	50.7502	0.561145	61.1244	0.839772	93.1102	0.148706	17.3136	0.421703	47.1874	0.69999	82.9636	0.856198	98.8153
0.0541417	5.69255	0.0103764	0.876692	0.283134	28.7202	0.42983	45.7606	0.561597	55.5373	0.840042	84.4194	0.15065	15.8235	0.422236	42.7864	0.700273	74.7436	0.856409	89.2434
0.0594202	5.69014	0.0118863	0.93098	0.283842	26.3059	0.430291	41.6759	0.562092	50.8968	0.840339	77.2192	0.152756	14.6145	0.42282	39.1495	0.700586	68.0134	0.856641	81.3677
0.0646914	5.68748	0.0134636	0.982797	0.284611	24.2806	0.430798	38.2713	0.562631	46.982	0.840662	71.1569	0.155014	13.6168	0.423456	36.0946	0.700928	62.4024	0.856895	74.7746
0.0699546	5.68457	0.0151018	1.03218	0.28544	22.5583	0.431349	35.391	0.563212	43.6357	0.841012	65.9829	0.157416	12.7817	0.424144	33.4933	0.7013	57.6533	0.857171	69.1746
0.075209	5.6814	0.0167952	1.0792	0.286328	21.0765	0.431947	32.9233	0.563836	40.743	0.841388	61.5158	0.159954	12.0743	0.424882	31.2523	0.701701	53.5822	0.857469	64.3596
0.0804537	5.67797	0.0185383	1.12392	0.287273	19.789	0.432592	30.7862	0.564502	38.2181	0.84179	57.6202	0.162619	11.4689	0.425671	29.3022	0.702131	50.054	0.857789	60.1755
0.0856881	5.67428	0.020326	1.16641	0.288277	18.6605	0.433283	28.9179	0.56521	35.9956	0.842218	54.1934	0.165404	10.9461	0.42651	27.5905	0.702591	46.9672	0.858131	56.5062
0.090911	5.6703	0.0221535	1.20677	0.289336	17.6637	0.434021	27.2714	0.565961	34.0245	0.842673	51.1558	0.168301	10.491	0.427399	26.0763	0.703079	44.2442	0.858495	53.2625
0.0961219	5.66605	0.0240168	1.24508	0.290451	16.7775	0.434808	25.8099	0.566753	32.2649	0.843154	48.4449	0.171304	10.092	0.428338	24.7279	0.703597	41.8246	0.858881	50.3746
0.101319	5.6615	0.0259119	1.28143	0.29162	15.9848	0.435643	24.5043	0.567587	30.6848	0.84366	46.011	0.174406	9.74015	0.429325	23.5199	0.704143	39.6605	0.859289	47.7872
0.106503	5.65664	0.0278353	1.31591	0.292843	15.2719	0.436528	23.3313	0.568462	29.2584	0.844193	43.8138	0.177185	9.46611	0.430361	22.4317	0.704718	37.7138	0.859719	45.4559
0.111671	5.65148	0.0297837	1.34862	0.294119	14.6277	0.437462	22.2721	0.569379	27.9646	0.844752	41.8205	0.179606	9.25331	0.431446	21.4467	0.705322	35.9534	0.860172	43.3446
0.116823	5.64599	0.0317544	1.37965	0.295446	14.043	0.438446	21.3114	0.570336	26.7859	0.845336	40.0043	0.181643	9.09023	0.432577	20.5512	0.705954	34.3541	0.860648	41.4238
0.121957	5.64016	0.0337447	1.40909	0.296825	13.5102	0.439481	20.4362	0.571333	25.7078	0.845947	38.3426	0.183275	8.96879	0.433757	19.7337	0.706615	32.8948	0.861146	39.6689
0.127073	5.63398	0.0357524	1.43702	0.298254	13.023	0.440568	19.636	0.572371	24.7183	0.846583	36.8167	0.184487	8.88343	0.434982	18.9848	0.707304	31.5581	0.861666	38.0594
0.132168	5.62744	0.0377753	1.46352	0.299732	12.5759	0.441707	18.9019	0.573449	23.8069	0.847245	35.4107	0.185268	8.83047	0.436254	18.2963	0.708022	30.3294	0.86221	36.5781
0.137243	5.62053	0.0398116	1.48867	0.301259	12.1645	0.442898	18.2262	0.574567	22.965	0.847932	34.1111	0.186397	8.75651	0.437572	17.6614	0.708767	29.1961	0.862776	35.2104
0.142294	5.61322	0.0415956	1.50956	0.302835	11.7848	0.444143	17.6025	0.575724	22.1851	0.848645	32.9064	0.187633	8.67891	0.438935	17.0744	0.709541	28.1476	0.863366	33.9438
0.147321	5.6055	0.0431228	1.52663	0.304459	11.4334	0.445442	17.0253	0.57692	21.4607	0.849383	31.7867	0.189328	8.57779	0.440343	16.53	0.710342	27.175	0.863978	32.7676
0.152322	5.59735	0.0443896	1.54027	0.306131	11.1076	0.446795	16.4898	0.578155	20.7863	0.850147	30.7434	0.191496	8.45671	0.441794	16.0241	0.711171	26.2704	0.864614	31.6725
0.157295	5.58876	0.0453936	1.55076	0.307849	10.8047	0.448203	15.9919	0.579428	20.1569	0.850936	29.7689	0.194151	8.31966	0.443289	15.5527	0.712028	25.4269	0.865273	30.6506
0.162239	5.57971	0.046133	1.5583	0.309615	10.5226	0.449667	15.5279	0.58074	19.5683	0.85175	28.8568	0.197309	8.17072	0.444828	15.1127	0.712912	24.6387	0.865956	29.6947
0.167151	5.57017	0.0466067	1.56306	0.311429	10.2593	0.451187	15.0948	0.582089	19.0167	0.852589	28.0014	0.200989	8.01392	0.446408	14.7011	0.713824	23.9007	0.866662	28.7989
0.17203	5.56013	0.0472884	1.56981	0.313289	10.0133	0.452763	14.6896	0.583476	18.499	0.853453	27.1975	0.204725	7.87049	0.448031	14.3153	0.714763	23.2081	0.867392	27.9576
0.176873	5.54955	0.0480302	1.57701	0.315198	9.78297	0.454397	14.31	0.584901	18.0121	0.854342	26.4408	0.208513	7.73892	0.449695	13.9531	0.715729	22.5571	0.868146	27.1661
0.181679	5.53843	0.0490405	1.58661	0.3169	9.59403	0.456088	13.9539	0.586362	17.5534	0.855255	25.7272	0.212349	7.6179	0.451399	13.6124	0.716721	21.944	0.868923	26.4201
0.186444	5.52672	0.0503203	1.59842	0.31838	9.44103	0.457836	13.6192	0.58786	17.1207	0.856194	25.0533	0.216232	7.50629	0.453144	13.2916	0.717741	21.3657	0.869725	25.716
0.191167	5.51442	0.0518708	1.61222	0.319625	9.31977	0.459643	13.3042	0.589394	16.7119	0.857157	24.4158	0.220157	7.40312	0.454928	12.989	0.718787	20.8195	0.870552	25.0503
0.195844	5.50149	0.0536931	1.62779	0.320622	9.2271	0.461508	13.0074	0.590964	16.3252	0.858144	23.812	0.224122	7.30751	0.456752	12.7031	0.719859	20.3026	0.871403	24.4201
0.200474	5.4879	0.0557885	1.64485	0.321363	9.1607	0.463432	12.7274	0.59257	15.9588	0.859156	23.2393	0.228125	7.21873	0.458614	12.4327	0.720958	19.813	0.872278	23.8227
0.205052	5.47364	0.0578877	1.66111	0.321841	9.11896	0.465415	12.463	0.594211	15.6113	0.860192	22.6954	0.232162	7.1361	0.460513	12.1767	0.722083	19.3485	0.873178	23.2555
0.209577	5.45867	0.0599901	1.67662	0.322532	9.05996	0.467457	12.2129	0.595887	15.2813	0.861252	22.1781	0.236232	7.05904	0.46245	11.9339	0.723234	18.9073	0.874103	22.7164
0.214046	5.44297	0.062095	1.6914	0.32329	8.99714	0.469558	11.9763	0.597597	14.9675	0.862336	21.6858	0.240333	6.98704	0.464424	11.7034	0.724411	18.4878	0.875053	22.2035
0.218454	5.42651	0.0642023	1.70552	0.324331	8.91385	0.471718	11.7521	0.599342	14.6689	0.863444	21.2165	0.244461	6.91963	0.466434	11.4845	0.725613	18.0884	0.876028	21.7149
0.2228	5.40927	0.0663112	1.719	0.325665	8.81191	0.473938	11.5396	0.601121	14.3844	0.864576	20.7689	0.248615	6.85641	0.46848	11.2762	0.726841	17.7077	0.877028	21.249
0.22708	5.39123	0.0684216	1.73188	0.327305	8.69349	0.476216	11.3379	0.602934	14.1132	0.865731	20.3414	0.252794	6.797	0.470561	11.0778	0.728095	17.3445	0.878054	20.8042
0.231291	5.37237	0.0705333	1.74419	0.329268	8.56099	0.478554	11.1463	0.60478	13.8542	0.86691	19.9327	0.256995	6.74109	0.472676	10.8888	0.729373	16.9977	0.879106	20.3792
0.23543	5.35267	0.0726456	1.75597	0.331572	8.417	0.48095	10.9641	0.606659	13.6069	0.868113	19.5417	0.261217	6.68837	0.474826	10.7085	0.730677	16.6662	0.880183	19.9728
0.239494	5.33211	0.0747587	1.76725	0.333933	8.28108	0.483404	10.7909	0.60857	13.3703	0.869339	19.1673	0.265458	6.63859	0.477009	10.5363	0.732005	16.3491	0.881286	19.5838
0.24348	5.31069	0.0768722	1.77805	0.336353	8.15274	0.485917	10.626	0.610515	13.144	0.870588	18.8085	0.269716	6.59149	0.479225	10.3718	0.733358	16.0454	0.882415	19.2112
0.247385	5.28841	0.0789859	1.7884	0.338835	8.03151	0.488488	10.4689	0.612491	12.9272	0.87186	18.4643	0.27399	6.54688	0.481473	10.2145	0.734736	15.7544	0.883571	18.8539
0.251208	5.26525	0.0810996	1.79832	0.341379	7.91698	0.491116	10.3192	0.614499	12.7195	0.873154	18.1339	0.278278	6.50454	0.483754	10.064	0.736138	15.4753	0.884753	18.5111
0.254945	5.24123	0.0832134	1.80784	0.343988	7.80876	0.493801	10.1764	0.616539	12.5203	0.874472	17.8166	0.28258	6.46431	0.486066	9.9198	0.737564	15.2074	0.885961	18.1819
0.258595	5.21636	0.0853269	1.81698	0.346664	7.70652	0.496543	10.0401	0.61861	12.3291	0.875812	17.5115	0.286893	6.42601	0.488107	9.79907	0.739014	14.9501	0.887196	17.8657
0.262157	5.19065	0.0874401	1.82576	0.349409	7.60992	0.49934	9.90999	0.620712	12.1454	0.877175	17.218	0.291216	6.38951	0.489865	9.69959	0.740488	14.7029	0.888458	17.5616
0.265629	5.16414	0.089553	1.83419	0.352225	7.51868	0.501823	9.80133	0.622845	11.969	0.878561	16.9354	0.295548	6.35466	0.491331	9.61961	0.741986	14.465	0.889747	17.2691
0.269011	5.13684	0.0916656	1.84231	0.355112	7.4325	0.503973	9.71203	0.625008	11.7993	0.879968	16.6633	0.299889	6.32134	0.492499	9.55778	0.743508	14.2361	0.891063	16.9874
0.272302	5.1088	0.0937775	1.85011	0.358074	7.35112	0.505773	9.64039	0.627201	11.636	0.881398	16.401	0.304235	6.28945	0.493361	9.5131	0.745053	14.0156	0.892406	16.7161
0.275503	5.08005	0.095889	1.85762	0.36111	7.27431	0.507211	9.58512	0.629424	11.4788	0.882849	16.1481	0.308587	6.25886	0.493916	9.48484	0.746621	13.8032	0.893776	16.4546
0.278614	5.05065	0.0979999	1.86485	0.364221	7.20183	0.508276	9.54522	0.631677	11.3275	0.884323	15.904	0.312943	6.2295	0.494715	9.44467	0.748212	13.5984	0.895174	16.2024
0.281636	5.02063	0.10011	1.87182	0.367409	7.13344	0.508961	9.52002	0.63396	11.1816	0.885818	15.6683	0.317303	6.20127	0.495588	9.40161	0.749827	13.4008	0.8966	15.9591
0.284571	4.99007	0.10222	1.87854	0.370673	7.06894	0.509951	9.48423	0.636272	11.0409	0.887335	15.4407	0.321664	6.17408	0.496781	9.34402	0.751464	13.2101	0.898054	15.7242
0.28742	4.95902	0.104329	1.88503	0.374013	7.00812	0.511034	9.44591	0.638612	10.9052	0.888873	15.2207	0.326026	6.14787	0.498299	9.27276	0.753124	13.026	0.899535	15.4973
0.290186	4.92753	0.106437	1.89128	0.377429	6.95078	0.512516	9.39473	0.640982	10.7743	0.890432	15.008	0.330388	6.12256	0.50015	9.18886	0.754806	12.848	0.901045	15.2781
0.292871	4.89566	0.108545	1.89732	0.380919	6.89672	0.51441	9.33154	0.643381	10.6478	0.892013	14.8022	0.334749	6.09808	0.502342	9.09348	0.756511	12.676	0.902582	15.0662
0.295477	4.86348	0.110651	1.90315	0.384482	6.84575	0.516725	9.25731	0.645807	10.5257	0.893615	14.603	0.339108	6.07438	0.504884	8.9879	0.758239	12.5097	0.904148	14.8612
0.298008	4.83105	0.112758	1.90879	0.388117	6.7977	0.519477	9.17318	0.648262	10.4077	0.895237	14.4101	0.343463	6.05141	0.507453	8.88626	0.759988	12.3487	0.905743	14.6629
0.300466	4.79842	0.114863	1.91424	0.391821	6.75239	0.522682	9.08038	0.650746	10.2936	0.89688	14.2232	0.347815	6.0291	0.510051	8.78836	0.761759	12.1929	0.907366	14.4709
0.302854	4.76566	0.116968	1.91952	0.395592	6.70965	0.525936	8.99139	0.653257	10.1832	0.898544	14.0421	0.35216	6.00741	0.512676	8.69403	0.763553	12.042	0.909017	14.2849
0.305176	4.73281	0.119072	1.92462	0.399428	6.66932	0.529239	8.906	0.655468	10.09	0.900228	13.8666	0.3565	5.9863	0.515329	8.60308	0.765368	11.8959	0.910698	14.1048
0.307435	4.69993	0.121176	1.92956	0.403325	6.63123	0.53259	8.82404	0.65737	10.0126	0.901933	13.6963	0.360832	5.96571	0.518008	8.51537	0.767205	11.7542	0.912407	13.9303
0.309634	4.66707	0.123279	1.93435	0.407281	6.59525	0.535987	8.74533	0.658954	9.94997	0.903657	13.531	0.365157	5.94562	0.520715	8.43074	0.769063	11.6168	0.914145	13.7611
0.311776	4.63428	0.125381	1.93899	0.411293	6.56122	0.539431	8.66971	0.660214	9.90133	0.905402	13.3706	0.369472	5.92598	0.523448	8.34904	0.770943	11.4836	0.915912	13.597
0.313864	4.60159	0.127482	1.94348	0.415357	6.52901	0.542919	8.59704	0.661144	9.86605	0.907167	13.2148	0.373776	5.90676	0.526207	8.27015	0.772844	11.3544	0.917708	13.4378
0.315902	4.56905	0.129583	1.94784	0.41947	6.49849	0.546451	8.52716	0.661742	9.84369	0.908951	13.0635	0.37807	5.88792	0.528993	8.19395	0.774766	11.2289	0.919533	13.2833
0.317638	4.54084	0.131683	1.95207	0.42363	6.46955	0.550025	8.45995	0.662603	9.81182	0.910755	12.9165	0.382352	5.86944	0.531804	8.12031	0.776709	11.1071	0.921387	13.1333
0.31909	4.51691	0.133783	1.95618	0.427832	6.44206	0.553642	8.39527	0.663542	9.77755	0.912578	12.7736	0.38662	5.85128	0.534642	8.04913	0.778673	10.9888	0.923271	12.9877
0.320274	4.49723	0.135882	1.96017	0.432073	6.41592	0.5573	8.33301	0.664826	9.73157	0.914421	12.6346	0.390875	5.83341	0.537505	7.9803	0.780659	10.8738	0.925184	12.8462
0.321198	4.48173	0.13798	1.96404	0.436351	6.39103	0.560997	8.27304	0.666458	9.67442	0.916283	12.4994	0.395115	5.81582	0.540395	7.91373	0.782665	10.7621	0.927126	12.7088
0.321871	4.47037	0.140078	1.96781	0.440663	6.36729	0.564734	8.21526	0.668446	9.60676	0.918164	12.3679	0.399339	5.79847	0.543309	7.84932	0.784691	10.6535	0.929098	12.5752
0.3223	4.46312	0.142175	1.97147	0.445005	6.34462	0.568508	8.15958	0.670797	9.52935	0.920063	12.2399	0.403546	5.78135	0.54625	7.78698	0.786739	10.5478	0.9311	12.4454
0.322912	4.45272	0.144272	1.97502	0.449375	6.32293	0.572319	8.10588	0.673521	9.44307	0.921982	12.1152	0.407735	5.76443	0.549215	7.72663	0.788806	10.4451	0.93313	12.3191
0.323573	4.44145	0.146368	1.97848	0.45377	6.30215	0.576166	8.05409	0.676272	9.35938	0.923919	11.9938	0.411906	5.74768	0.552207	7.66821	0.790625	10.3578	0.935191	12.1963
0.324464	4.42619	0.148464	1.98185	0.458188	6.28221	0.580048	8.00411	0.679051	9.2782	0.925874	11.8756	0.416057	5.7311	0.555223	7.61162	0.792187	10.285	0.937281	12.0768
0.325579	4.40699	0.150559	1.98513	0.462625	6.26305	0.583963	7.95585	0.681857	9.19943	0.927848	11.7604	0.420188	5.71465	0.558266	7.5568	0.793488	10.2259	0.9394	11.9605
0.326909	4.38393	0.152654	1.98832	0.46708	6.2446	0.587912	7.90925	0.684691	9.12299	0.92984	11.6481	0.424297	5.69833	0.561333	7.50369	0.794522	10.1799	0.941549	11.8473
0.328447	4.35711	0.154748	1.99143	0.471551	6.22681	0.591892	7.86422	0.687552	9.04878	0.93185	11.5386	0.428383	5.68212	0.564426	7.45222	0.795285	10.1464	0.943727	11.7372
0.330182	4.32665	0.156841	1.99446	0.476035	6.20962	0.595902	7.8207	0.690441	8.97673	0.933878	11.4318	0.432447	5.666	0.567545	7.40234	0.795774	10.1251	0.945935	11.6299
0.331888	4.29655	0.158935	1.99742	0.48053	6.19299	0.599942	7.7786	0.693358	8.90676	0.935923	11.3276	0.436486	5.64995	0.570689	7.35398	0.79648	10.0948	0.948173	11.5253
0.333566	4.26681	0.161027	2.0003	0.485035	6.17688	0.604011	7.73788	0.696303	8.83881	0.937987	11.226	0.440501	5.63397	0.573858	7.30709	0.79725	10.0621	0.95044	11.4235
0.335219	4.23746	0.16312	2.0031	0.489547	6.16124	0.608107	7.69847	0.699276	8.77279	0.940067	11.1268	0.44449	5.61804	0.577053	7.26163	0.798301	10.0182	0.952736	11.3243
0.336848	4.20848	0.165212	2.00584	0.494065	6.14604	0.612229	7.66031	0.702278	8.70865	0.942166	11.03	0.448452	5.60215	0.580273	7.21753	0.799637	9.96336	0.955062	11.2276
0.338455	4.1799	0.167303	2.00852	0.498588	6.13123	0.616377	7.62333	0.705308	8.64633	0.944281	10.9355	0.452387	5.58628	0.583519	7.17476	0.801262	9.89826	0.957417	11.1334
0.340041	4.15172	0.169394	2.01113	0.503113	6.1168	0.620549	7.5875	0.708367	8.58577	0.946414	10.8432	0.456293	5.57043	0.586791	7.13327	0.803183	9.82346	0.959801	11.0415
0.341608	4.12394	0.171485	2.01367	0.50764	6.1027	0.624744	7.55275	0.711455	8.52691	0.948563	10.7531	0.46017	5.55459	0.590088	7.09301	0.805406	9.73966	0.962215	10.9518
0.343157	4.09656	0.173575	2.01616	0.512166	6.08892	0.628961	7.51904	0.714572	8.46969	0.95045	10.6762	0.464018	5.53875	0.593411	7.05395	0.807648	9.65796	0.964658	10.8644
0.344689	4.06959	0.175665	2.01859	0.516691	6.07543	0.633199	7.48632	0.71772	8.41408	0.952068	10.6119	0.467836	5.52289	0.596759	7.01605	0.80991	9.5783	0.967129	10.7792
0.346206	4.04302	0.177755	2.02097	0.521214	6.06219	0.637456	7.45454	0.720897	8.36002	0.953414	10.5595	0.471622	5.50702	0.600132	6.97926	0.812192	9.50061	0.969307	10.7066
0.347708	4.01686	0.179844	2.02329	0.525733	6.0492	0.641732	7.42366	0.724105	8.30746	0.954482	10.5186	0.475376	5.49112	0.603531	6.94356	0.814494	9.42481	0.97118	10.6459
0.349197	3.9911	0.181933	2.02556	0.530247	6.03643	0.646025	7.39363	0.727344	8.25637	0.95527	10.4888	0.479098	5.47519	0.606956	6.9089	0.816815	9.35086	0.972742	10.5965
0.350673	3.96575	0.184022	2.02778	0.534755	6.02386	0.650335	7.36443	0.730614	8.2067	0.955775	10.4699	0.482788	5.45923	0.610405	6.87525	0.819155	9.27868	0.973984	10.558
0.352138	3.94079	0.18611	2.02995	0.539257	6.01147	0.654659	7.336	0.733917	8.15841	0.956503	10.4429	0.486444	5.44322	0.61388	6.84258	0.821515	9.20823	0.974902	10.5299
0.353593	3.91624	0.188198	2.03207	0.54375	5.99925	0.658997	7.30831	0.737251	8.11147	0.957296	10.4137	0.490066	5.42717	0.61738	6.81086	0.823894	9.13945	0.975491	10.5121
0.355038	3.89208	0.190286	2.03415	0.548235	5.98719	0.663348	7.28132	0.740619	8.06584	0.958378	10.3744	0.493654	5.41107	0.620905	6.78006	0.826292	9.07229	0.97634	10.4867
0.356474	3.86831	0.192373	2.03619	0.55271	5.97526	0.66771	7.25501	0.74402	8.02149	0.959753	10.3253	0.497207	5.39492	0.624454	6.75014	0.82871	9.0067	0.977267	10.4593
0.357902	3.84493	0.19446	2.03818	0.557175	5.96346	0.672082	7.22933	0.747455	7.97838	0.961423	10.2668	0.500725	5.37872	0.628027	6.72107	0.831146	8.94263	0.978534	10.4223
0.359322	3.82193	0.196547	2.04013	0.561628	5.95178	0.676464	7.20426	0.750925	7.93649	0.963393	10.1994	0.504207	5.36246	0.631625	6.69284	0.833601	8.88003	0.980145	10.3763
0.360735	3.79932	0.198634	2.04204	0.56607	5.9402	0.680852	7.17975	0.754431	7.89579	0.965669	10.1237	0.507654	5.34615	0.635246	6.66541	0.836076	8.81886	0.982108	10.3214
0.362142	3.77707	0.20072	2.04391	0.570499	5.92871	0.685247	7.1558	0.757972	7.85624	0.967961	10.0495	0.511066	5.32978	0.638891	6.63875	0.838569	8.75908	0.984431	10.2583
0.363544	3.7552	0.202806	2.04574	0.574914	5.9173	0.689647	7.13235	0.76155	7.81783	0.970268	9.97699	0.514441	5.31335	0.642559	6.61285	0.841081	8.70064	0.987123	10.1874
0.36494	3.73369	0.204892	2.04754	0.579316	5.90597	0.694051	7.10939	0.765165	7.78053	0.972592	9.90598	0.51778	5.29687	0.646249	6.58766	0.843612	8.64352	0.989842	10.1182
0.366332	3.71254	0.206977	2.0493	0.583703	5.8947	0.698458	7.0869	0.768818	7.7443	0.974931	9.83646	0.521083	5.28033	0.649962	6.56318	0.846161	8.58766	0.99259	10.0506
0.367719	3.69174	0.209063	2.05103	0.588074	5.88349	0.702866	7.06483	0.772509	7.70914	0.977285	9.76838	0.524351	5.26374	0.653697	6.53936	0.848729	8.53303	0.995365	9.98447
0.369103	3.67129	0.211148	2.05272	0.59243	5.87233	0.707273	7.04318	0.77624	7.67501	0.979655	9.70172	0.527582	5.2471	0.657453	6.5162	0.851315	8.4796	0.998167	9.91988
0.370483	3.65119	0.213233	2.05438	0.59677	5.86122	0.71168	7.02192	0.780011	7.64189	0.98204	9.63643	0.530776	5.23041	0.661229	6.49367	0.85392	8.42734	1.001	9.85673
0.371861	3.63142	0.215317	2.05601	0.601092	5.85014	0.716085	7.00101	0.783822	7.60977	0.98444	9.57246	0.533935	5.21367	0.665026	6.47174	0.856543	8.37621		
0.373236	3.61199	0.217402	2.05761	0.605397	5.83909	0.720486	6.98046	0.787674	7.57861	0.986855	9.50979	0.537059	5.19689	0.668843	6.4504	0.859184	8.32618		
0.374609	3.59288	0.219486	2.05918	0.609684	5.82807	0.724883	6.96023	0.791567	7.54841	0.989285	9.44838	0.540147	5.18007	0.672678	6.42961	0.861843	8.27722		
0.37598	3.57409	0.22157	2.06072	0.613953	5.81706	0.729274	6.9403	0.795503	7.51914	0.99173	9.38819	0.543199	5.16321	0.676532	6.40937	0.864521	8.22929		
0.37735	3.55562	0.223654	2.06223	0.618203	5.80608	0.733658	6.92066	0.799481	7.49077	0.99419	9.3292	0.546216	5.14631	0.680404	6.38965	0.867216	8.18239		
0.378719	3.53746	0.225738	2.06371	0.622434	5.7951	0.738035	6.9013	0.803502	7.46329	0.996664	9.27136	0.549199	5.12939	0.684293	6.37044	0.86993	8.13646		
0.380087	3.51961	0.227821	2.06517	0.626644	5.78413	0.742404	6.88219	0.807566	7.43669	0.999153	9.21465	0.552147	5.11244	0.688198	6.3517	0.872661	8.0915		
0.381454	3.50206	0.229905	2.0666	0.630835	5.77317	0.746763	6.86332	0.811674	7.41093	1.00166	9.15904	0.555061	5.09546	0.692119	6.33343	0.87541	8.04746		
0.382821	3.4848	0.231988	2.06801	0.635005	5.7622	0.751113	6.84469	0.815825	7.386			0.557942	5.07847	0.696055	6.3156	0.878177	8.00434		
0.384187	3.46783	0.234071	2.06939	0.639155	5.75123	0.755452	6.82627	0.820019	7.36187			0.560789	5.06146	0.700005	6.2982	0.880961	7.9621		
0.385554	3.45114	0.236153	2.07074	0.643283	5.74025	0.75978	6.80806	0.824257	7.33854			0.563604	5.04444	0.703969	6.28121	0.883762	7.92072		
0.386921	3.43473	0.238236	2.07208	0.647389	5.72926	0.764096	6.79006	0.828539	7.31597			0.566386	5.02742	0.707946	6.26461	0.886581	7.88019		
0.388289	3.4186	0.240319	2.07339	0.651474	5.71826	0.768401	6.77224	0.832864	7.29415			0.569136	5.0104	0.711934	6.24839	0.889417	7.84047		
0.389657	3.40273	0.242401	2.07468	0.655537	5.70725	0.772694	6.75461	0.837231	7.27306			0.571854	4.99337	0.715935	6.23254	0.892271	7.80155		
0.391026	3.38713	0.244483	2.07594	0.659576	5.69621	0.776974	6.73716	0.841642	7.25267			0.574542	4.97636	0.719945	6.21703	0.895141	7.7634		
0.392397	3.37179	0.246565	2.07719	0.663594	5.68516	0.781242	6.71988	0.846094	7.23296			0.577199	4.95935	0.723966	6.20185	0.898029	7.72602		
0.393768	3.3567	0.248647	2.07841	0.667588	5.67409	0.785498	6.70277	0.850588	7.21392			0.579827	4.94236	0.727995	6.18699	0.900933	7.68937		
0.395141	3.34186	0.250729	2.07962	0.671558	5.66299	0.789742	6.68583	0.855122	7.19552			0.582425	4.92539	0.732033	6.17243	0.903855	7.65344		
0.396516	3.32727	0.25281	2.0808	0.675506	5.65188	0.793974	6.66905	0.859697	7.17774			0.584994	4.90844	0.736079	6.15816	0.906793	7.61822		
0.397892	3.31292	0.254892	2.08197	0.679429	5.64073	0.798194	6.65244	0.864311	7.16056			0.587534	4.89152	0.740131	6.14417	0.909747	7.58368		
0.399269	3.2988	0.256973	2.08312	0.683329	5.62956	0.802403	6.63599	0.868963	7.14396			0.590047	4.87463	0.74419	6.13045	0.912719	7.54981		
0.400649	3.28491	0.259054	2.08425	0.687204	5.61836	0.806601	6.6197	0.873653	7.12792			0.592533	4.85777	0.748253	6.11698	0.915706	7.51659		
0.402031	3.27125	0.261135	2.08536	0.691055	5.60714	0.810788	6.60357	0.878379	7.11242			0.594991	4.84095	0.752322	6.10375	0.91871	7.48402		
0.403415	3.25781	0.263216	2.08645	0.694882	5.59588	0.814965	6.5876	0.883141	7.09743			0.597424	4.82417	0.756394	6.09075	0.92173	7.45206		
0.404801	3.24459	0.265297	2.08753	0.698684	5.5846	0.819132	6.57179	0.887937	7.08294			0.599831	4.80744	0.76047	6.07797	0.924766	7.42071		
0.406189	3.23159	0.267378	2.08859	0.702461	5.57329	0.82329	6.55615	0.892767	7.06894			0.602213	4.79076	0.764548	6.06539	0.927819	7.38995		
0.40758	3.2188	0.269458	2.08963	0.706214	5.56195	0.82744	6.54066	0.897629	7.05538			0.60457	4.77412	0.768628	6.05302	0.930887	7.35978		
0.408973	3.20621	0.271539	2.09066	0.709942	5.55058	0.831582	6.52535	0.902523	7.04228			0.606903	4.75754	0.772709	6.04084	0.933971	7.33017		
0.410369	3.19382	0.273619	2.09168	0.713644	5.53917	0.835716	6.51019	0.907446	7.02959			0.609212	4.74102	0.77679	6.02883	0.937071	7.30111		
0.411767	3.18163	0.275699	2.09267	0.717322	5.52774	0.839844	6.4952	0.912399	7.01731			0.611498	4.72456	0.780872	6.017	0.940187	7.27259		
0.413168	3.16964	0.277779	2.09366	0.720974	5.51628	0.843965	6.48038	0.91738	7.00542			0.613762	4.70816	0.784952	6.00533	0.943318	7.2446		
0.414572	3.15784	0.279859	2.09462	0.724601	5.5048	0.84808	6.46572	0.922387	6.9939			0.616004	4.69182	0.789031	5.99381	0.946465	7.21713		
0.415979	3.14623	0.281939	2.09558	0.728203	5.49328	0.85219	6.45123	0.927421	6.98273			0.618224	4.67555	0.793108	5.98244	0.949627	7.19016		
0.417388	3.1348	0.284019	2.09652	0.73178	5.48173	0.856295	6.4369	0.932479	6.97191			0.620423	4.65935	0.797182	5.97121	0.952805	7.16368		
0.418801	3.12355	0.286099	2.09744	0.735332	5.47016	0.860395	6.42275	0.937561	6.96141			0.622602	4.64322	0.801253	5.96011	0.955997	7.13768		
0.420216	3.11248	0.288178	2.09836	0.738858	5.45856	0.864492	6.40875	0.942665	6.95122			0.62476	4.62717	0.80532	5.94913	0.959205	7.11216		
0.421634	3.10158	0.290258	2.09926	0.74236	5.44694	0.868585	6.39493	0.947791	6.94133			0.626899	4.61119	0.809383	5.93827	0.962428	7.0871		
0.423056	3.09085	0.292337	2.10015	0.745836	5.43529	0.872675	6.38127	0.952938	6.93173			0.629018	4.59529	0.81344	5.92752	0.965666	7.06248		
0.42448	3.08029	0.294417	2.10102	0.749288	5.42362	0.876762	6.36777	0.958105	6.9224			0.631119	4.57946	0.817492	5.91687	0.968918	7.03831		
0.425908	3.06989	0.296496	2.10189	0.752714	5.41192	0.880846	6.35443	0.96329	6.91332			0.633201	4.56372	0.821538	5.90633	0.972186	7.01457		
0.427339	3.05966	0.298575	2.10274	0.756116	5.4002	0.884928	6.34126	0.968493	6.9045			0.635266	4.54806	0.825577	5.89587	0.975468	6.99126		
0.428772	3.04958	0.300654	2.10358	0.759493	5.38847	0.889008	6.32825	0.973713	6.89591			0.637313	4.53248	0.829609	5.8855	0.978764	6.96835		
0.43021	3.03966	0.302733	2.1044	0.762845	5.37671	0.893087	6.3154	0.978949	6.88754			0.639344	4.51699	0.833633	5.87522	0.982075	6.94585		
0.43165	3.02989	0.304812	2.10522	0.766173	5.36493	0.897164	6.3027	0.9842	6.87939			0.641357	4.50159	0.837649	5.86501	0.9854	6.92374		
0.433093	3.02027	0.306891	2.10603	0.769476	5.35314	0.901239	6.29016	0.989465	6.87145			0.643355	4.48627	0.841656	5.85488	0.98874	6.90203		
0.43454	3.0108	0.30897	2.10682	0.772755	5.34133	0.905313	6.27777	0.994744	6.8637			0.645336	4.47104	0.845654	5.84481	0.992094	6.88069		
0.43599	3.00147	0.311049	2.10761	0.77601	5.32951	0.909386	6.26554	1.00004	6.85613			0.647303	4.4559	0.849643	5.8348	0.995462	6.85972		
0.437444	2.99228	0.313127	2.10838	0.779241	5.31767	0.913457	6.25345					0.649254	4.44085	0.853621	5.82485	0.998843	6.83911		
0.4389	2.98323	0.315206	2.10914	0.782448	5.30582	0.917528	6.2415					0.651191	4.42589	0.857589	5.81496	1.00224	6.81886		
0.44036	2.97432	0.317284	2.1099	0.785632	5.29397	0.921598	6.2297					0.653113	4.41103	0.861546	5.80512				
0.441824	2.96554	0.319362	2.11064	0.788792	5.2821	0.925666	6.21804					0.655022	4.39625	0.865492	5.79532				
0.44329	2.9569	0.321441	2.11138	0.791929	5.27022	0.929733	6.20652					0.656917	4.38157	0.869426	5.78557				
0.44476	2.94838	0.323519	2.1121	0.795043	5.25834	0.933799	6.19513					0.658798	4.36699	0.873349	5.77586				
0.446234	2.93999	0.325597	2.11282	0.798134	5.24646	0.937864	6.18388					0.660667	4.3525	0.877258	5.76619				
0.447711	2.93172	0.327675	2.11352	0.801202	5.23457	0.941928	6.17275					0.662524	4.3381	0.881155	5.75655				
0.449191	2.92358	0.329753	2.11422	0.804248	5.22267	0.94599	6.16175					0.664368	4.3238	0.885039	5.74694				
0.450674	2.91555	0.331831	2.11491	0.807271	5.21078	0.95005	6.15087					0.6662	4.30959	0.888909	5.73736				
0.452161	2.90765	0.333909	2.11559	0.810273	5.19889	0.954109	6.14011					0.668021	4.29548	0.892766	5.72781				
0.453651	2.89985	0.335987	2.11626	0.813252	5.187	0.958166	6.12946					0.669831	4.28146	0.896608	5.71828				
0.455145	2.89218	0.338065	2.11693	0.81621	5.17511	0.962221	6.11893					0.671629	4.26755	0.900437	5.70878				
0.456642	2.88461	0.340142	2.11758	0.819147	5.16323	0.966274	6.10852					0.673417	4.25372	0.90425	5.69929				
0.458142	2.87715	0.34222	2.11823	0.822062	5.15135	0.970324	6.0982					0.675195	4.24	0.908049	5.68982				
0.459645	2.86981	0.344298	2.11887	0.824956	5.13948	0.974372	6.08799					0.676962	4.22637	0.911833	5.68037				
0.461152	2.86256	0.346375	2.11951	0.82783	5.12762	0.978417	6.07789					0.67872	4.21284	0.915601	5.67093				
0.462663	2.85542	0.348453	2.12013	0.830683	5.11577	0.982459	6.06788					0.680468	4.1994	0.919353	5.6615				
0.464176	2.84839	0.35053	2.12075	0.833515	5.10393	0.986498	6.05796					0.682206	4.18606	0.92309	5.65208				
0.465693	2.84145	0.352607	2.12136	0.836328	5.0921	0.990533	6.04814					0.683936	4.17282	0.926811	5.64268				
0.467213	2.83461	0.354685	2.12196	0.839121	5.08029	0.994565	6.03841					0.685657	4.15968	0.930516	5.63328				
0.468737	2.82787	0.356762	2.12256	0.841894	5.06849	0.998593	6.02876					0.687369	4.14663	0.934204	5.62388				
0.470264	2.82122	0.358839	2.12315	0.844647	5.0567	1.00262	6.01919					0.689073	4.13367	0.937876	5.6145				
0.471794	2.81467	0.360916	2.12373	0.847382	5.04493							0.690769	4.12081	0.941531	5.60512				
0.473327	2.80821	0.362993	2.12431	0.850097	5.03318							0.692457	4.10805	0.94517	5.59574				
0.474864	2.80184	0.36507	2.12488	0.852794	5.02144							0.694138	4.09539	0.948792	5.58637				
0.476404	2.79556	0.367147	2.12544	0.855472	5.00973							0.695811	4.08281	0.952396	5.577				
0.477947	2.78936	0.369224	2.12599	0.858132	4.99804							0.697477	4.07034	0.955984	5.56763				
0.479493	2.78325	0.371301	2.12654	0.860774	4.98636							0.699136	4.05795	0.959554	5.55826				
0.481043	2.77723	0.373378	2.12709	0.863398	4.97472							0.700788	4.04567	0.963107	5.5489				
0.482596	2.77129	0.375455	2.12763	0.866004	4.96309							0.702434	4.03347	0.966643	5.53953				
0.484152	2.76543	0.377531	2.12816	0.868593	4.95149							0.704073	4.02137	0.970161	5.53017				
0.485711	2.75965	0.379608	2.12869	0.871164	4.93991							0.705706	4.00936	0.973662	5.5208				
0.487273	2.75394	0.381685	2.12921	0.873719	4.92836							0.707333	3.99744	0.977145	5.51144				
0.488839	2.74832	0.383761	2.12972	0.876257	4.91683							0.708954	3.98562	0.980611	5.50207				
0.490407	2.74277	0.385838	2.13023	0.878778	4.90534							0.71057	3.97389	0.98406	5.49271				
0.491979	2.7373	0.387914	2.13074	0.881283	4.89387							0.71218	3.96225	0.987491	5.48334				
0.493554	2.7319	0.389991	2.13123	0.883771	4.88242							0.713785	3.9507	0.990904	5.47398				
0.495131	2.72657	0.392067	2.13173	0.886244	4.87101							0.715384	3.93924	0.9943	5.46461				
0.496712	2.72131	0.394144	2.13222	0.888701	4.85963							0.716979	3.92787	0.997679	5.45525				
0.498296	2.71613	0.39622	2.1327	0.891142	4.84828							0.718569	3.91659	1.00104	5.44588				
0.499883	2.71101	0.398296	2.13318	0.893568	4.83696							0.720154	3.9054						
0.501473	2.70596	0.400373	2.13365	0.895979	4.82568							0.721735	3.89429						
0.503066	2.70097	0.402449	2.13412	0.898375	4.81442							0.723311	3.88328						
0.504662	2.69606	0.404525	2.13458	0.900756	4.8032							0.724883	3.87235						
0.506261	2.6912	0.406601	2.13504	0.903123	4.79201							0.726452	3.8615						
0.507863	2.68641	0.408677	2.13549	0.905475	4.78086							0.728016	3.85075						
0.509467	2.68169	0.410753	2.13594	0.907813	4.76974							0.729576	3.84008						
0.511075	2.67702	0.412829	2.13639	0.910137	4.75865							0.731133	3.82949						
0.512686	2.67241	0.414905	2.13683	0.912447	4.74761							0.732686	3.81899						
0.514299	2.66787	0.416981	2.13727	0.914744	4.73659							0.734236	3.80857						
0.515915	2.66338	0.419057	2.1377	0.917027	4.72562							0.735782	3.79824						
0.517534	2.65895	0.421133	2.13812	0.919297	4.71468							0.737326	3.78799						
0.519156	2.65457	0.423209	2.13855	0.921554	4.70378							0.738866	3.77782						
0.520781	2.65026	0.425284	2.13897	0.923798	4.69291							0.740403	3.76773						
0.522408	2.64599	0.42736	2.13938	0.926029	4.68209							0.741938	3.75772						
0.524039	2.64178	0.429436	2.13979	0.928247	4.6713							0.743469	3.74779						
0.525672	2.63763	0.431512	2.1402	0.930454	4.66055							0.744999	3.73795						
0.527307	2.63352	0.433587	2.1406	0.932648	4.64984							0.746525	3.72818						
0.528946	2.62947	0.435663	2.141	0.93483	4.63917							0.74805	3.71849						
0.530587	2.62547	0.437738	2.1414	0.937	4.62854							0.749571	3.70888						
0.532231	2.62152	0.439814	2.14179	0.939158	4.61794							0.751091	3.69934						
0.533877	2.61761	0.441889	2.14218	0.941305	4.60739							0.752609	3.68988						
0.535526	2.61376	0.443965	2.14256	0.94344	4.59688							0.754124	3.6805						
0.537178	2.60995	0.44604	2.14294	0.945564	4.58641							0.755638	3.6712						
0.538832	2.60619	0.448116	2.14332	0.947677	4.57598							0.75715	3.66197						
0.540489	2.60248	0.450191	2.14369	0.949779	4.56559							0.75866	3.65281						
0.542148	2.59881	0.452266	2.14406	0.951871	4.55524							0.760168	3.64373						
0.54381	2.59519	0.454342	2.14443	0.953952	4.54494							0.761675	3.63472						
0.545475	2.59161	0.456417	2.14479	0.956022	4.53467							0.76318	3.62578						
0.547142	2.58807	0.458492	2.14515	0.958082	4.52445							0.764684	3.61691						
0.548811	2.58458	0.460568	2.14551	0.960132	4.51427							0.766186	3.60812						
0.550483	2.58112	0.462643	2.14586	0.962172	4.50413							0.767687	3.59939						
0.552158	2.57771	0.464718	2.14621	0.964202	4.49403							0.769187	3.59074						
0.553835	2.57435	0.466793	2.14656	0.966222	4.48397							0.770686	3.58216						
0.555514	2.57102	0.468868	2.1469	0.968233	4.47396							0.772184	3.57364						
0.557196	2.56773	0.470943	2.14725	0.970234	4.46399							0.77368	3.5652						
0.55888	2.56448	0.473018	2.14758	0.972226	4.45406							0.775176	3.55682						
0.560566	2.56127	0.475093	2.14792	0.974209	4.44418							0.776671	3.54851						
0.562255	2.55809	0.477168	2.14825	0.976183	4.43433							0.778165	3.54026						
0.563946	2.55496	0.479243	2.14858	0.978148	4.42453							0.779658	3.53208						
0.56564	2.55186	0.481318	2.14891	0.980104	4.41478							0.78115	3.52397						
0.567335	2.5488	0.483393	2.14923	0.982052	4.40506							0.782642	3.51592						
0.569033	2.54577	0.485468	2.14955	0.983991	4.39539							0.784134	3.50794						
0.570734	2.54278	0.487543	2.14987	0.985921	4.38576							0.785624	3.50002						
0.572436	2.53982	0.489618	2.15018	0.987844	4.37618							0.787115	3.49217						
0.574141	2.5369	0.491692	2.1505	0.989758	4.36664							0.788604	3.48437						
0.575848	2.53401	0.493767	2.15081	0.991665	4.35714							0.790094	3.47664						
0.577557	2.53115	0.495842	2.15111	0.993564	4.34768							0.791583	3.46897						
0.579269	2.52833	0.497917	2.15142	0.995455	4.33827							0.793072	3.46136						
0.580982	2.52554	0.499991	2.15172	0.997338	4.3289							0.79456	3.45382						
0.582698	2.52278	0.502066	2.15202	0.999214	4.31957							0.796049	3.44633						
0.584416	2.52005	0.504141	2.15232	1.00108	4.31029							0.797537	3.4389						
0.586136	2.51735	0.506215	2.15261									0.799025	3.43153						
0.587858	2.51469	0.50829	2.15291									0.800513	3.42422						
0.589582	2.51205	0.510365	2.1532									0.802001	3.41697						
0.591309	2.50944	0.512439	2.15348									0.80349	3.40977						
0.593037	2.50687	0.514514	2.15377									0.804978	3.40264						
0.594767	2.50432	0.516588	2.15405									0.806466	3.39555						
0.5965	2.5018	0.518663	2.15433									0.807954	3.38853						
0.598234	2.49931	0.520737	2.15461									0.809443	3.38156						
0.599971	2.49684	0.522812	2.15489									0.810932	3.37464						
0.601709	2.49441	0.524886	2.15516									0.812421	3.36778						
0.60345	2.492	0.52696	2.15543									0.81391	3.36098						
0.605192	2.48961	0.529035	2.1557									0.8154	3.35422						
0.606936	2.48725	0.531109	2.15597									0.81689	3.34752						
0.608682	2.48492	0.533183	2.15623									0.818381	3.34087						
0.61043	2.48262	0.535258	2.1565									0.819871	3.33428						
0.612181	2.48033	0.537332	2.15676									0.821363	3.32773						
0.613932	2.47808	0.539406	2.15702									0.822854	3.32124						
0.615686	2.47585	0.54148	2.15728									0.824347	3.3148						
0.617442	2.47364	0.543554	2.15753									0.825839	3.30841						
0.619199	2.47145	0.545629	2.15778									0.827333	3.30206						
0.620959	2.46929	0.547703	2.15803									0.828827	3.29577						
0.62272	2.46716	0.549777	2.15828									0.830321	3.28953						
0.624483	2.46504	0.551851	2.15853									0.831816	3.28333						
0.626247	2.46295	0.553925	2.15878									0.833312	3.27718						
0.628014	2.46088	0.555999	2.15902									0.834809	3.27108						
0.629782	2.45883	0.558073	2.15926									0.836306	3.26503						
0.631552	2.4568	0.560147	2.1595									0.837804	3.25902						
0.633324	2.4548	0.562221	2.15974									0.839302	3.25306						
0.635097	2.45282	0.564295	2.15998									0.840802	3.24715						
0.636872	2.45085	0.566369	2.16021									0.842302	3.24128						
0.638649	2.44891	0.568443	2.16044									0.843803	3.23546						
0.640427	2.44699	0.570517	2.16068									0.845305	3.22968						
0.642208	2.44508	0.572591	2.16091									0.846807	3.22394						
0.643989	2.4432	0.574665	2.16113									0.848311	3.21825						
0.645773	2.44134	0.576739	2.16136									0.849815	3.2126						
0.647558	2.43949	0.578813	2.16158									0.851321	3.207						
0.649345	2.43767	0.580886	2.16181									0.852827	3.20143						
0.651133	2.43586	0.58296	2.16203									0.854334	3.19591						
0.652923	2.43408	0.585034	2.16225									0.855842	3.19044						
0.654714	2.43231	0.587108	2.16247									0.857351	3.185						
0.656507	2.43055	0.589182	2.16268									0.858861	3.1796						
0.658302	2.42882	0.591255	2.1629									0.860372	3.17425						
0.660098	2.4271	0.593329	2.16311									0.861884	3.16893						
0.661896	2.42541	0.595403	2.16332									0.863397	3.16366						
0.663695	2.42372	0.597476	2.16353									0.864911	3.15843						
0.665496	2.42206	0.59955	2.16374									0.866426	3.15323						
0.667298	2.42041	0.601624	2.16395									0.867943	3.14807						
0.669102	2.41878	0.603697	2.16416									0.86946	3.14296						
0.670907	2.41716	0.605771	2.16436									0.870978	3.13788						
0.672714	2.41556	0.607844	2.16456									0.872498	3.13283						
0.674522	2.41398	0.609918	2.16477									0.874018	3.12783						
0.676332	2.41241	0.611992	2.16497									0.87554	3.12286						
0.678143	2.41086	0.614065	2.16516									0.877063	3.11793						
0.679955	2.40933	0.616139	2.16536									0.878586	3.11304						
0.681769	2.4078	0.618212	2.16556									0.880111	3.10818						
0.683584	2.4063	0.620286	2.16575									0.881638	3.10336						
0.685401	2.4048	0.622359	2.16595									0.883165	3.09858						
0.687219	2.40333	0.624432	2.16614									0.884694	3.09383						
0.689038	2.40186	0.626506	2.16633									0.886223	3.08911						
0.690859	2.40041	0.628579	2.16652									0.887754	3.08443						
0.692681	2.39898	0.630653	2.16671									0.889286	3.07978						
0.694505	2.39756	0.632726	2.1669									0.89082	3.07517						
0.69633	2.39615	0.634799	2.16708									0.892354	3.07059						
0.698156	2.39476	0.636873	2.16727									0.89389	3.06605						
0.699983	2.39338	0.638946	2.16745									0.895427	3.06153						
0.701812	2.39201	0.641019	2.16763									0.896965	3.05706						
0.703642	2.39066	0.643093	2.16781									0.898504	3.05261						
0.705474	2.38932	0.645166	2.16799									0.900045	3.04819						
0.707306	2.38799	0.647239	2.16817									0.901587	3.04381						
0.70914	2.38667	0.649312	2.16835									0.90313	3.03946						
0.710975	2.38537	0.651385	2.16852									0.904674	3.03514						
0.712812	2.38408	0.653459	2.1687									0.90622	3.03085						
0.714649	2.3828	0.655532	2.16887									0.907767	3.0266						
0.716488	2.38153	0.657605	2.16905									0.909315	3.02237						
0.718328	2.38028	0.659678	2.16922									0.910865	3.01817						
0.72017	2.37903	0.661751	2.16939									0.912415	3.01401						
0.722012	2.3778	0.663824	2.16956									0.913968	3.00987						
0.723856	2.37658	0.665897	2.16973									0.915521	3.00576						
0.725701	2.37537	0.66797	2.1699									0.917076	3.00169						
0.727547	2.37417	0.670044	2.17006									0.918632	2.99764						
0.729394	2.37299	0.672117	2.17023									0.920189	2.99362						
0.731243	2.37181	0.67419	2.17039									0.921747	2.98963						
0.733092	2.37065	0.676263	2.17055									0.923307	2.98566						
0.734943	2.36949	0.678336	2.17072									0.924868	2.98173						
0.736795	2.36835	0.680409	2.17088									0.926431	2.97782						
0.738648	2.36721	0.682482	2.17104									0.927995	2.97394						
0.740502	2.36609	0.684554	2.1712									0.92956	2.97009						
0.742357	2.36498	0.686627	2.17136									0.931126	2.96626						
0.744213	2.36388	0.6887	2.17151									0.932694	2.96246						
0.746071	2.36278	0.690773	2.17167									0.934263	2.95869						
0.747929	2.3617	0.692846	2.17182									0.935833	2.95495						
0.749789	2.36063	0.694919	2.17198									0.937405	2.95123						
0.751649	2.35957	0.696992	2.17213									0.938978	2.94753						
0.753511	2.35851	0.699065	2.17228									0.940553	2.94387						
0.755374	2.35747	0.701137	2.17244									0.942128	2.94022						
0.757238	2.35643	0.70321	2.17259									0.943705	2.93661						
0.759103	2.35541	0.705283	2.17274									0.945284	2.93302						
0.760969	2.35439	0.707356	2.17289									0.946863	2.92945						
0.762835	2.35338	0.709429	2.17303									0.948444	2.92591						
0.764703	2.35238	0.711501	2.17318									0.950027	2.92239						
0.766572	2.35139	0.713574	2.17333									0.951611	2.91889						
0.768442	2.35041	0.715647	2.17347									0.953196	2.91542						
0.770313	2.34944	0.717719	2.17362									0.954782	2.91198						
0.772185	2.34848	0.719792	2.17376									0.95637	2.90856						
0.774058	2.34752	0.721865	2.1739									0.957959	2.90516						
0.775932	2.34657	0.723937	2.17404									0.959549	2.90178						
0.777807	2.34563	0.72601	2.17419									0.961141	2.89843						
0.779683	2.3447	0.728083	2.17433									0.962734	2.8951						
0.78156	2.34378	0.730155	2.17446									0.964328	2.89179						
0.783438	2.34287	0.732228	2.1746									0.965924	2.88851						
0.785316	2.34196	0.7343	2.17474									0.967521	2.88524						
0.787196	2.34106	0.736373	2.17488									0.96912	2.882						
0.789077	2.34017	0.738446	2.17501									0.970719	2.87878						
0.790958	2.33928	0.740518	2.17515									0.97232	2.87559						
0.792841	2.33841	0.742591	2.17528									0.973923	2.87241						
0.794724	2.33754	0.744663	2.17542									0.975526	2.86926						
0.796609	2.33668	0.746736	2.17555									0.977132	2.86612						
0.798494	2.33582	0.748808	2.17568									0.978738	2.86301						
0.80038	2.33498	0.750881	2.17581									0.980346	2.85992						
0.802267	2.33414	0.752953	2.17595									0.981955	2.85685						
0.804155	2.33331	0.755025	2.17608									0.983565	2.8538						
0.806043	2.33248	0.757098	2.1762									0.985177	2.85077						
0.807933	2.33166	0.75917	2.17633									0.98679	2.84776						
0.809823	2.33085	0.761243	2.17646									0.988404	2.84477						
0.811715	2.33005	0.763315	2.17659									0.99002	2.8418						
0.813607	2.32925	0.765387	2.17671									0.991637	2.83885						
0.8155	2.32846	0.76746	2.17684									0.993255	2.83591						
0.817394	2.32767	0.769532	2.17697									0.994875	2.833						
0.819289	2.3269	0.771604	2.17709									0.996495	2.83011						
0.821184	2.32612	0.773677	2.17721									0.998118	2.82724						
0.823081	2.32536	0.775749	2.17734									0.999741	2.82438						
0.824978	2.3246	0.777821	2.17746									1.00137	2.82154						
0.826876	2.32385	0.779893	2.17758																
0.828775	2.3231	0.781966	2.1777																
0.830674	2.32236	0.784038	2.17782																
0.832575	2.32163	0.78611	2.17794																
0.834476	2.3209	0.788182	2.17806																
0.836378	2.32018	0.790255	2.17818																
0.838281	2.31946	0.792327	2.1783																
0.840184	2.31875	0.794399	2.17841																
0.842088	2.31804	0.796471	2.17853																
0.843994	2.31734	0.798543	2.17864																
0.8459	2.31665	0.800615	2.17876																
0.847806	2.31596	0.802687	2.17887																
0.849714	2.31528	0.804759	2.17899																
0.851622	2.3146	0.806832	2.1791																
0.85353	2.31393	0.808904	2.17921																
0.85544	2.31327	0.810976	2.17933																
0.85735	2.31261	0.813048	2.17944																
0.859261	2.31195	0.81512	2.17955																
0.861173	2.3113	0.817192	2.17966																
0.863086	2.31066	0.819264	2.17977																
0.864999	2.31002	0.821336	2.17988																
0.866913	2.30938	0.823408	2.17999																
0.868828	2.30875	0.82548	2.18009																
0.870743	2.30813	0.827552	2.1802																
0.872659	2.30751	0.829624	2.18031																
0.874576	2.30689	0.831695	2.18041																
0.876493	2.30628	0.833767	2.18052																
0.878411	2.30568	0.835839	2.18062																
0.88033	2.30507	0.837911	2.18073																
0.882249	2.30448	0.839983	2.18083																
0.884169	2.30389	0.842055	2.18094																
0.88609	2.3033	0.844127	2.18104																
0.888012	2.30272	0.846198	2.18114																
0.889934	2.30214	0.84827	2.18124																
0.891856	2.30157	0.850342	2.18135																
0.89378	2.301	0.852414	2.18145																
0.895704	2.30043	0.854486	2.18155																
0.897629	2.29987	0.856557	2.18165																
0.899554	2.29932	0.858629	2.18175																
0.90148	2.29877	0.860701	2.18185																
0.903406	2.29822	0.862773	2.18194																
0.905334	2.29768	0.864844	2.18204																
0.907261	2.29714	0.866916	2.18214																
0.90919	2.2966	0.868988	2.18224																
0.911119	2.29607	0.871059	2.18233																
0.913048	2.29554	0.873131	2.18243																
0.914979	2.29502	0.875203	2.18252																
0.91691	2.2945	0.877274	2.18262																
0.918841	2.29399	0.879346	2.18271																
0.920773	2.29348	0.881417	2.18281																
0.922706	2.29297	0.883489	2.1829																
0.924639	2.29246	0.885561	2.18299																
0.926573	2.29196	0.887632	2.18309																
0.928507	2.29147	0.889704	2.18318																
0.930442	2.29098	0.891775	2.18327																
0.932378	2.29049	0.893847	2.18336																
0.934314	2.29	0.895918	2.18345																
0.93625	2.28952	0.89799	2.18354																
0.938188	2.28904	0.900061	2.18363																
0.940125	2.28857	0.902133	2.18372																
0.942064	2.2881	0.904204	2.18381																
0.944003	2.28763	0.906276	2.1839																
0.945942	2.28717	0.908347	2.18399																
0.947882	2.2867	0.910418	2.18408																
0.949823	2.28625	0.91249	2.18416																
0.951764	2.28579	0.914561	2.18425																
0.953705	2.28534	0.916633	2.18434																
0.955647	2.2849	0.918704	2.18442																
0.95759	2.28445	0.920775	2.18451																
0.959533	2.28401	0.922847	2.18459																
0.961477	2.28357	0.924918	2.18468																
0.963421	2.28314	0.926989	2.18476																
0.965366	2.28271	0.929061	2.18485																
0.967311	2.28228	0.931132	2.18493																
0.969257	2.28185	0.933203	2.18501																
0.971203	2.28143	0.935274	2.1851																
0.97315	2.28101	0.937346	2.18518																
0.975097	2.2806	0.939417	2.18526																
0.977045	2.28018	0.941488	2.18534																
0.978993	2.27977	0.943559	2.18543																
0.980942	2.27936	0.94563	2.18551																
0.982891	2.27896	0.947702	2.18559																
0.984841	2.27856	0.949773	2.18567																
0.986791	2.27816	0.951844	2.18575																
0.988742	2.27776	0.953915	2.18583																
0.990693	2.27737	0.955986	2.18591																
0.992645	2.27698	0.958057	2.18598																
0.994597	2.27659	0.960129	2.18606																
0.996549	2.27621	0.9622	2.18614																
0.998502	2.27583	0.964271	2.18622																
1.00046	2.27545	0.966342	2.1863																
		0.968413	2.18637																
		0.970484	2.18645																
		0.972555	2.18653																
		0.974626	2.1866																
		0.976697	2.18668																
		0.978768	2.18675																
		0.980839	2.18683																
		0.98291	2.1869																
		0.984981	2.18698																
		0.987052	2.18705																
		0.989123	2.18712																
		0.991194	2.1872																
		0.993265	2.18727																
		0.995336	2.18734																
		0.997406	2.18742																
		0.999477	2.18749																
		1.00155	2.18756																
