Sym0		Asym0		Sym1		Sym2		Sym3		Sym4		Asym1		Asym3	
460  Points		492  Points		460  Points		145  Points		113  Points		104  Points		326  Points		123  Points	
Freq (MHz)	Vph (m/ms)	Freq (MHz)	Vph (m/ms)	Freq (MHz)	Vph (m/ms)	Freq (MHz)	Vph (m/ms)	Freq (MHz)	Vph (m/ms)	Freq (MHz)	Vph (m/ms)	Freq (MHz)	Vph (m/ms)	Freq (MHz)	Vph (m/ms)
0.00133964	9.2221	2.2442e-006	0.017368	0.00355887	9.22223	0.279512	1758.39	0.458683	615.053	0.559019	3272.39	0.139763	839.256	0.419263	10313.1
0.00993148	9.22178	0.000150234	0.141608	0.0121502	9.22152	0.279658	256.413	0.458769	273.491	0.559103	507.112	0.140131	127.597	0.419348	431.273
0.018521	9.2206	0.000526699	0.264327	0.0207388	9.22015	0.280023	138.464	0.458922	175.89	0.559311	274.951	0.141036	69.4784	0.419588	220.367
0.0271061	9.21867	0.00112319	0.384089	0.0293225	9.21805	0.280604	94.9899	0.459143	129.67	0.559642	188.691	0.142465	48.1039	0.419984	148.104
0.0356847	9.21599	0.00192717	0.499786	0.0378991	9.21519	0.281401	72.4189	0.459432	102.723	0.560095	143.702	0.144401	37.0896	0.420534	111.624
0.0442549	9.2126	0.00292258	0.610437	0.0464667	9.21159	0.282409	58.6224	0.45979	85.0796	0.560671	116.098	0.14682	30.429	0.421239	89.642
0.0528143	9.20843	0.00409149	0.715372	0.055023	9.20722	0.283627	49.334	0.460219	72.6364	0.561369	97.443	0.149695	26.0036	0.422097	74.9619
0.0613609	9.20349	0.00541483	0.814127	0.0624683	9.20278	0.28505	42.6669	0.460721	63.3936	0.562188	84.0003	0.152995	22.8747	0.423107	64.4733
0.069892	9.19775	0.00687355	0.906469	0.0688058	9.19852	0.286674	37.6582	0.461297	56.2604	0.563128	73.8587	0.156691	20.5629	0.424268	56.6127
0.0784056	9.19118	0.00844924	0.992339	0.0740392	9.19465	0.288494	33.7648	0.46195	50.5913	0.564187	65.9398	0.160752	18.7974	0.425578	50.5082
0.0868987	9.18376	0.0101248	1.07185	0.0781722	9.19137	0.290503	30.6571	0.462682	45.9799	0.565365	59.5887	0.165147	17.4141	0.427035	45.6351
0.0953689	9.17546	0.0118848	1.14521	0.0812082	9.18883	0.292698	28.1235	0.463497	42.1575	0.56666	54.3847	0.169847	16.3077	0.428639	41.6587
0.103813	9.16625	0.0137153	1.21272	0.0831498	9.18715	0.295071	26.022	0.464396	38.9395	0.568072	50.0452	0.174826	15.4074	0.430386	38.3554
0.112229	9.15607	0.0156044	1.27474	0.0859388	9.18464	0.297615	24.2536	0.465384	36.1947	0.569599	46.3735	0.180059	14.6645	0.432275	35.5703
0.120612	9.14489	0.0175415	1.33163	0.0889676	9.18182	0.300325	22.7473	0.466463	33.8274	0.571241	43.2281	0.185521	14.0437	0.434303	33.1925
0.128959	9.13265	0.019518	1.3838	0.093082	9.1778	0.303194	21.4508	0.467639	31.7664	0.572995	40.5051	0.191192	13.5195	0.436468	31.1405
0.137267	9.11929	0.0215262	1.43161	0.0982769	9.17241	0.306214	20.3247	0.468914	29.957	0.57486	38.1259	0.197051	13.0725	0.438768	29.3534
0.145531	9.10475	0.0232973	1.47003	0.104545	9.1654	0.309378	19.3388	0.470293	28.3573	0.576836	36.0305	0.203081	12.6883	0.4412	27.7843
0.153747	9.08897	0.0248199	1.50056	0.111878	9.15652	0.312681	18.4696	0.471781	26.9339	0.57892	34.172	0.209265	12.3555	0.443761	26.3968
0.16191	9.07185	0.0260863	1.52438	0.120263	9.14538	0.316116	17.6985	0.473382	25.6604	0.581111	32.5133	0.215589	12.0651	0.446448	25.1621
0.170014	9.05332	0.0270918	1.54236	0.128612	9.13318	0.319676	17.0105	0.475102	24.5155	0.583408	31.0245	0.222038	11.8103	0.449259	24.0573
0.178054	9.03329	0.0278332	1.5551	0.136921	9.11987	0.323355	16.3935	0.476944	23.4816	0.585808	29.6816	0.228601	11.5852	0.452191	23.0636
0.186023	9.01165	0.0283085	1.56306	0.145187	9.10538	0.327149	15.8378	0.478915	22.5445	0.58831	28.4646	0.235267	11.3854	0.455241	22.1659
0.193916	8.98829	0.0289928	1.57424	0.153405	9.08965	0.331052	15.3351	0.481019	21.6922	0.590913	27.3573	0.242024	11.2071	0.458406	21.3513
0.201723	8.9631	0.029738	1.58605	0.16157	9.07259	0.335062	14.8786	0.483262	20.9146	0.593616	26.346	0.248864	11.0473	0.461682	20.6096
0.209437	8.93594	0.0307534	1.60154	0.169677	9.05412	0.339173	14.4628	0.485648	20.2032	0.596415	25.4192	0.255779	10.9033	0.465068	19.9317
0.21705	8.90669	0.0320405	1.62028	0.17772	9.03416	0.343384	14.0829	0.488183	19.5509	0.59931	24.567	0.26276	10.773	0.468559	19.3103
0.224552	8.87519	0.0336006	1.64171	0.185692	9.01259	0.347695	13.7349	0.490871	18.9514	0.602299	23.7813	0.2698	10.6546	0.472153	18.7389
0.231932	8.84131	0.0354348	1.66527	0.193588	8.9893	0.352103	13.4153	0.493716	18.3994	0.60538	23.0548	0.276892	10.5467	0.475847	18.2121
0.23918	8.8049	0.0375437	1.69037	0.201399	8.96419	0.356611	13.1213	0.496724	17.8903	0.608552	22.3815	0.284031	10.4478	0.479638	17.7251
0.246285	8.76581	0.039656	1.71359	0.209117	8.93712	0.36122	12.8503	0.499897	17.4201	0.611813	21.7559	0.29121	10.3569	0.483523	17.2739
0.253235	8.72389	0.0417703	1.7351	0.216735	8.90795	0.365932	12.6003	0.503239	16.9851	0.615161	21.1735	0.298424	10.2731	0.487499	16.855
0.260019	8.67902	0.043886	1.75506	0.224241	8.87655	0.370752	12.3695	0.506752	16.5822	0.618594	20.6301	0.305669	10.1955	0.491564	16.4651
0.266624	8.63108	0.0460026	1.77362	0.231626	8.84278	0.375685	12.1562	0.510438	16.2087	0.622112	20.1222	0.312938	10.1234	0.495713	16.1016
0.273039	8.57996	0.0481192	1.79089	0.23888	8.80647	0.380734	11.959	0.514299	15.862	0.625712	19.6465	0.320229	10.0561	0.499946	15.7621
0.279253	8.52562	0.0502358	1.80701	0.245992	8.7675	0.385906	11.7768	0.518336	15.5399	0.629392	19.2004	0.327535	9.99319	0.504258	15.4444
0.285256	8.46802	0.0523519	1.82206	0.252949	8.7257	0.391205	11.6085	0.522547	15.2405	0.633152	18.7813	0.333913	9.94152	0.508648	15.1466
0.291039	8.40716	0.0544673	1.83614	0.25974	8.68095	0.396637	11.453	0.526934	14.9619	0.636989	18.387	0.339356	9.89956	0.513112	14.867
0.296595	8.34312	0.0565818	1.84934	0.266352	8.63314	0.402204	11.3095	0.531493	14.7024	0.640903	18.0154	0.343859	9.8662	0.517649	14.6042
0.30192	8.276	0.0586954	1.86173	0.272776	8.58216	0.407909	11.1771	0.536224	14.4605	0.644891	17.6649	0.34742	9.84061	0.522255	14.3568
0.30701	8.20595	0.060808	1.87338	0.278998	8.52795	0.413754	11.055	0.541123	14.235	0.648951	17.3337	0.35004	9.82223	0.526929	14.1236
0.311864	8.13317	0.0629195	1.88434	0.28501	8.47048	0.419738	10.9425	0.546187	14.0245	0.653084	17.0205	0.351716	9.81064	0.531669	13.9034
0.316486	8.0579	0.0650298	1.89467	0.290802	8.40977	0.425859	10.8388	0.551413	13.8279	0.657287	16.724	0.354126	9.79423	0.536472	13.6953
0.320878	7.98041	0.0671391	1.90443	0.296368	8.34586	0.432113	10.7432	0.556796	13.6441	0.661558	16.4429	0.356745	9.77669	0.541336	13.4985
0.325046	7.901	0.0692472	1.91366	0.301702	8.27886	0.438495	10.6551	0.562332	13.4722	0.665897	16.1761	0.360306	9.75334	0.54626	13.312
0.328998	7.81997	0.0713543	1.92239	0.306802	8.20892	0.444999	10.5738	0.568016	13.3112	0.670303	15.9228	0.364809	9.72457	0.551242	13.1351
0.332743	7.73763	0.0734603	1.93067	0.311666	8.13625	0.451617	10.4986	0.573844	13.1604	0.674773	15.6819	0.370252	9.69085	0.556279	12.9673
0.336291	7.6543	0.0755653	1.93852	0.316297	8.06108	0.458341	10.429	0.579809	13.019	0.679308	15.4527	0.37663	9.65266	0.561372	12.8078
0.339652	7.57026	0.0776693	1.94598	0.320699	7.98368	0.465163	10.3645	0.585906	12.8864	0.683905	15.2344	0.383938	9.61047	0.566517	12.6562
0.342837	7.48581	0.0797723	1.95308	0.324876	7.90435	0.472074	10.3046	0.592131	12.7618	0.688563	15.0263	0.391231	9.56984	0.571715	12.5119
0.345858	7.40119	0.0818744	1.95984	0.328837	7.82338	0.478161	10.2557	0.598478	12.6447	0.693283	14.8278	0.398505	9.53059	0.576963	12.3744
0.348725	7.31666	0.0839756	1.96629	0.332591	7.74109	0.483394	10.2163	0.604941	12.5345	0.698062	14.6383	0.405759	9.49254	0.582261	12.2434
0.351448	7.23243	0.086076	1.97244	0.336147	7.65779	0.48775	10.1851	0.611515	12.4307	0.7029	14.4573	0.412987	9.45554	0.587608	12.1184
0.354039	7.14868	0.0881756	1.97831	0.339515	7.57378	0.49121	10.1614	0.618194	12.3329	0.707797	14.2843	0.420187	9.41946	0.593003	11.9991
0.356507	7.06559	0.0902744	1.98393	0.342708	7.48933	0.493763	10.1444	0.624974	12.2406	0.712751	14.1188	0.427356	9.38417	0.598446	11.8852
0.358862	6.98331	0.0923725	1.98931	0.345735	7.40472	0.4954	10.1337	0.631849	12.1535	0.717761	13.9604	0.43449	9.34954	0.603935	11.7763
0.361111	6.90194	0.0944698	1.99446	0.348608	7.32019	0.497759	10.1185	0.638814	12.0712	0.722829	13.8087	0.441585	9.31546	0.609472	11.6722
0.363264	6.82161	0.0965666	1.9994	0.351337	7.23594	0.500329	10.1024	0.645863	11.9932	0.727952	13.6634	0.448639	9.28184	0.615055	11.5726
0.365327	6.7424	0.0986627	2.00414	0.353934	7.15217	0.503833	10.0811	0.652993	11.9194	0.733132	13.5241	0.455649	9.24858	0.620683	11.4774
0.367309	6.66437	0.100758	2.00869	0.356407	7.06905	0.508281	10.0549	0.660197	11.8494	0.738367	13.3906	0.462609	9.21559	0.626358	11.3861
0.369215	6.5876	0.102853	2.01306	0.358766	6.98672	0.513679	10.0245	0.667471	11.7829	0.743657	13.2624	0.469518	9.18278	0.632079	11.2988
0.371052	6.51212	0.104948	2.01727	0.361019	6.90532	0.520036	9.99024	0.67481	11.7197	0.749004	13.1395	0.476371	9.15009	0.637846	11.2151
0.372825	6.43796	0.107041	2.02132	0.363176	6.82494	0.527357	9.95276	0.682209	11.6595	0.754407	13.0214	0.483166	9.11743	0.643659	11.1349
0.374539	6.36516	0.109135	2.02522	0.365243	6.74568	0.534703	9.91701	0.689663	11.6022	0.759867	12.9081	0.489898	9.08475	0.649518	11.058
0.376199	6.29372	0.111228	2.02898	0.367228	6.66761	0.542067	9.88281	0.697168	11.5474	0.765385	12.7992	0.496565	9.05198	0.655424	10.9843
0.37781	6.22366	0.11332	2.0326	0.369137	6.59078	0.549444	9.84999	0.704718	11.4951	0.770961	12.6947	0.503162	9.01906	0.661375	10.9136
0.379375	6.15498	0.115413	2.0361	0.370976	6.51524	0.556829	9.8184	0.712308	11.445	0.776597	12.5943	0.509686	8.98594	0.667373	10.8459
0.380899	6.08767	0.117504	2.03948	0.372752	6.44103	0.564219	9.78791	0.719933	11.3969	0.782294	12.4978	0.516134	8.95257	0.673417	10.7808
0.382384	6.02174	0.119596	2.04275	0.374468	6.36817	0.57161	9.75839	0.727588	11.3506	0.788054	12.4052	0.522503	8.9189	0.678721	10.7263
0.383834	5.95717	0.121687	2.0459	0.376131	6.29667	0.578997	9.72975	0.735267	11.3061	0.793879	12.3163	0.52879	8.88491	0.683271	10.6814
0.385251	5.89394	0.123777	2.04896	0.377744	6.22655	0.586378	9.70188	0.742965	11.2631	0.799771	12.2309	0.534991	8.85055	0.687052	10.6453
0.386639	5.83204	0.125867	2.05191	0.379311	6.15782	0.593749	9.67469	0.750677	11.2215	0.805732	12.1489	0.541104	8.8158	0.690053	10.6173
0.387999	5.77146	0.127958	2.05477	0.380836	6.09046	0.601107	9.64812	0.758395	11.1812	0.811767	12.0704	0.547126	8.78062	0.692267	10.5971
0.389335	5.71216	0.130047	2.05755	0.382323	6.02447	0.60845	9.62209	0.766114	11.1419	0.817878	11.9951	0.553054	8.745	0.693687	10.5844
0.390648	5.65413	0.132137	2.06024	0.383774	5.95984	0.615775	9.59653	0.773828	11.1037	0.824068	11.9229	0.558886	8.70891	0.695733	10.5662
0.39194	5.59735	0.134226	2.06284	0.385193	5.89655	0.62308	9.5714	0.78153	11.0662	0.830342	11.8539	0.56462	8.67236	0.697961	10.5468
0.393213	5.54179	0.136315	2.06537	0.386582	5.8346	0.630362	9.54662	0.789215	11.0295	0.836704	11.7879	0.570254	8.63533	0.701001	10.5208
0.394468	5.48743	0.138403	2.06783	0.387943	5.77396	0.637619	9.52217	0.796875	10.9935	0.843157	11.7249	0.575787	8.59781	0.704861	10.4886
0.395708	5.43424	0.140492	2.07021	0.38928	5.71461	0.644849	9.49799	0.803525	10.9624	0.849706	11.6649	0.581218	8.55981	0.70955	10.4507
0.396933	5.3822	0.14258	2.07253	0.390594	5.65653	0.65205	9.47404	0.809172	10.9362	0.856356	11.6077	0.586544	8.52133	0.715081	10.4077
0.398144	5.33128	0.144668	2.07478	0.391886	5.5997	0.65922	9.45029	0.813825	10.9147	0.86311	11.5534	0.591766	8.48238	0.721467	10.3602
0.399344	5.28146	0.146756	2.07697	0.39316	5.54409	0.666357	9.42669	0.817493	10.8977	0.869971	11.5018	0.596883	8.44298	0.727894	10.3145
0.400533	5.2327	0.148843	2.0791	0.394416	5.48967	0.673459	9.40323	0.820183	10.8853	0.876944	11.4529	0.601895	8.40313	0.734361	10.2705
0.401713	5.185	0.150931	2.08117	0.395656	5.43644	0.680525	9.37987	0.821901	10.8773	0.884029	11.4066	0.606802	8.36285	0.740866	10.2282
0.402883	5.13832	0.153018	2.08319	0.396882	5.38435	0.687553	9.35658	0.824367	10.866	0.891229	11.3629	0.611604	8.32217	0.747407	10.1875
0.404046	5.09263	0.155105	2.08516	0.398094	5.33338	0.694541	9.33334	0.827041	10.8536	0.898544	11.3217	0.616302	8.28111	0.753983	10.1483
0.405202	5.04792	0.157192	2.08707	0.399294	5.28351	0.701487	9.31012	0.830667	10.8368	0.905972	11.2828	0.620896	8.23969	0.760592	10.1104
0.406351	5.00416	0.159278	2.08893	0.400484	5.23472	0.70839	9.2869	0.835235	10.8157	0.913514	11.2462	0.625388	8.19793	0.767232	10.0739
0.407495	4.96132	0.161365	2.09075	0.401664	5.18697	0.715249	9.26366	0.84073	10.7901	0.920175	11.2161	0.629778	8.15587	0.773901	10.0387
0.408635	4.91939	0.163451	2.09252	0.402835	5.14025	0.722061	9.24039	0.847137	10.7602	0.925917	11.1917	0.634068	8.11354	0.780598	10.0046
0.40977	4.87834	0.165538	2.09425	0.403998	5.09452	0.728825	9.21705	0.854435	10.726	0.930709	11.1723	0.63826	8.07095	0.787319	9.97171
0.410901	4.83814	0.167624	2.09594	0.405154	5.04977	0.73554	9.19365	0.861674	10.6918	0.934524	11.1575	0.642354	8.02815	0.794063	9.93983
0.411885	4.8038	0.16971	2.09759	0.406303	5.00597	0.742204	9.17015	0.868855	10.6577	0.937345	11.1469	0.646354	7.98515	0.800827	9.90894
0.412722	4.77502	0.171796	2.09919	0.407448	4.96309	0.748815	9.14655	0.87598	10.6237	0.939156	11.1403	0.65026	7.94199	0.807609	9.87898
0.413413	4.75155	0.173881	2.10076	0.408587	4.92112	0.755373	9.12283	0.883052	10.5898	0.941769	11.1308	0.654075	7.8987	0.814408	9.84988
0.413959	4.73321	0.175967	2.1023	0.409722	4.88003	0.761876	9.09898	0.890073	10.556	0.94462	11.1208	0.6578	7.85531	0.82122	9.8216
0.41436	4.71984	0.178052	2.10379	0.410854	4.8398	0.768322	9.07499	0.897048	10.5225	0.948517	11.1075	0.661438	7.81184	0.828044	9.79408
0.414617	4.71133	0.180138	2.10526	0.411983	4.80041	0.774711	9.05085	0.90398	10.4892	0.953475	11.0912	0.664991	7.76832	0.834877	9.76726
0.414985	4.69918	0.182223	2.10669	0.413109	4.76184	0.781041	9.02655	0.910875	10.4561	0.959514	11.0723	0.66846	7.72477	0.841717	9.74111
0.415386	4.68606	0.184308	2.10809	0.414233	4.72406	0.787311	9.00208	0.917735	10.4234	0.966654	11.0512	0.671849	7.68123	0.848563	9.71557
0.415931	4.66837	0.186393	2.10946	0.415355	4.68706	0.79352	8.97744	0.924567	10.391	0.97492	11.0282	0.675159	7.63771	0.855411	9.69061
0.41662	4.64626	0.188478	2.1108	0.416477	4.65082	0.799667	8.95261	0.931373	10.3591	0.983257	11.0065	0.678392	7.59425	0.86226	9.66617
0.417452	4.61988	0.190563	2.11211	0.417597	4.61532	0.80575	8.9276	0.938158	10.3275	0.991659	10.986	0.681551	7.55085	0.869107	9.64222
0.418428	4.58945	0.192648	2.11339	0.418718	4.58053	0.81177	8.90239	0.944926	10.2964	1.00012	10.9666	0.684637	7.50755	0.875951	9.61873
0.419549	4.55518	0.194733	2.11465	0.419838	4.54645	0.817724	8.87699	0.951678	10.2658			0.687654	7.46437	0.88279	9.59565
0.420669	4.52161	0.196817	2.11588	0.420959	4.51305	0.823613	8.8514	0.958419	10.2356			0.690602	7.42132	0.889621	9.57295
0.42179	4.48871	0.198902	2.11708	0.42208	4.48032	0.829436	8.8256	0.965151	10.206			0.693484	7.37842	0.896443	9.55061
0.422912	4.45646	0.200986	2.11826	0.423202	4.44823	0.835191	8.79961	0.971876	10.1768			0.696303	7.33569	0.903253	9.52859
0.424035	4.42485	0.203071	2.11942	0.424325	4.41679	0.840879	8.77342	0.978596	10.1482			0.699059	7.29314	0.910051	9.50686
0.425159	4.39386	0.205155	2.12055	0.42545	4.38596	0.8465	8.74703	0.985313	10.12			0.701756	7.2508	0.916834	9.4854
0.426285	4.36348	0.207239	2.12166	0.426576	4.35573	0.852052	8.72044	0.992028	10.0924			0.704395	7.20867	0.923601	9.46418
0.427412	4.33369	0.209323	2.12275	0.427704	4.32609	0.857535	8.69366	0.998742	10.0653			0.706978	7.16677	0.930349	9.44317
0.428542	4.30448	0.211407	2.12382	0.428834	4.29703	0.86295	8.66669	1.00546	10.0387			0.709507	7.12511	0.937077	9.42236
0.429674	4.27584	0.213491	2.12487	0.429966	4.26853	0.868296	8.63954					0.711983	7.0837	0.943784	9.40171
0.430808	4.24774	0.215575	2.12589	0.431101	4.24057	0.873572	8.61221					0.714409	7.04255	0.950467	9.38122
0.431945	4.22018	0.217659	2.1269	0.432239	4.21315	0.87878	8.58469					0.716786	7.00168	0.957126	9.36086
0.433084	4.19314	0.219743	2.12789	0.433379	4.18624	0.883919	8.55701					0.719116	6.96109	0.963758	9.34062
0.434226	4.16661	0.221827	2.12886	0.434522	4.15984	0.888989	8.52917					0.721401	6.92079	0.970363	9.32047
0.435371	4.14059	0.22391	2.12982	0.435668	4.13394	0.89399	8.50116					0.723642	6.88078	0.976939	9.3004
0.43652	4.11505	0.225994	2.13075	0.436817	4.10853	0.898923	8.473					0.72584	6.84108	0.983484	9.2804
0.437671	4.08998	0.228077	2.13167	0.437969	4.08358	0.903789	8.4447					0.727998	6.80169	0.989998	9.26045
0.438826	4.06538	0.230161	2.13257	0.439125	4.0591	0.908586	8.41626					0.730116	6.76261	0.996478	9.24053
0.439985	4.04123	0.232244	2.13346	0.440285	4.03506	0.913316	8.38769					0.732196	6.72385	1.00292	9.22064
0.441147	4.01752	0.234328	2.13433	0.441447	4.01147	0.91798	8.35899					0.73424	6.68542		
0.442312	3.99424	0.236411	2.13519	0.442614	3.9883	0.922577	8.33018					0.736248	6.64732		
0.443482	3.97139	0.238495	2.13603	0.443784	3.96555	0.927109	8.30126					0.738223	6.60954		
0.444655	3.94895	0.240578	2.13686	0.444958	3.94322	0.931575	8.27225					0.740165	6.57211		
0.445832	3.92691	0.242661	2.13767	0.446136	3.92128	0.935977	8.24314					0.742075	6.535		
0.447013	3.90526	0.244744	2.13847	0.447318	3.89973	0.940315	8.21394					0.743954	6.49824		
0.448198	3.884	0.246827	2.13926	0.448504	3.87857	0.94459	8.18468					0.745805	6.46182		
0.449387	3.86311	0.248911	2.14003	0.449694	3.85778	0.948803	8.15534					0.747627	6.42574		
0.45058	3.84259	0.250994	2.14079	0.450889	3.83735	0.952954	8.12594					0.749423	6.39		
0.451777	3.82243	0.253077	2.14154	0.452087	3.81728	0.957043	8.09649					0.751192	6.3546		
0.452978	3.80262	0.25516	2.14228	0.453289	3.79756	0.961073	8.06699					0.752936	6.31955		
0.454184	3.78315	0.257243	2.143	0.454496	3.77818	0.965043	8.03746					0.754656	6.28484		
0.455394	3.76402	0.259325	2.14372	0.455707	3.75913	0.968954	8.0079					0.756352	6.25047		
0.456609	3.74522	0.261408	2.14442	0.456923	3.74041	0.972807	7.97831					0.758027	6.21644		
0.457827	3.72673	0.263491	2.14511	0.458143	3.72201	0.976604	7.94871					0.759679	6.18275		
0.45905	3.70856	0.265574	2.14579	0.459367	3.70392	0.980344	7.9191					0.761311	6.1494		
0.460278	3.6907	0.267657	2.14646	0.460595	3.68613	0.984029	7.88949					0.762923	6.11639		
0.46151	3.67314	0.269739	2.14712	0.461828	3.66865	0.987659	7.85988					0.764516	6.08372		
0.462746	3.65587	0.271822	2.14777	0.463066	3.65145	0.991235	7.83028					0.76609	6.05138		
0.463987	3.63888	0.273905	2.14841	0.464308	3.63454	0.994759	7.8007					0.767647	6.01938		
0.465232	3.62218	0.275987	2.14904	0.465554	3.61791	0.99823	7.77115					0.769186	5.9877		
0.466482	3.60576	0.27807	2.14966	0.466805	3.60156	1.00165	7.74163					0.770709	5.95636		
0.467736	3.5896	0.280153	2.15027	0.46806	3.58547							0.772216	5.92534		
0.468995	3.57371	0.282235	2.15087	0.46932	3.56964							0.773709	5.89465		
0.470258	3.55807	0.284318	2.15147	0.470585	3.55408							0.775186	5.86428		
0.471525	3.54269	0.2864	2.15206	0.471854	3.53876							0.77665	5.83423		
0.472798	3.52756	0.288483	2.15263	0.473127	3.52369							0.7781	5.8045		
0.474074	3.51266	0.290565	2.1532	0.474405	3.50886							0.779537	5.77508		
0.475356	3.49801	0.292647	2.15376	0.475687	3.49426							0.780962	5.74598		
0.476641	3.48359	0.29473	2.15432	0.476974	3.4799							0.782375	5.71718		
0.477932	3.46939	0.296812	2.15486	0.478266	3.46576							0.783776	5.68869		
0.479226	3.45542	0.298894	2.1554	0.479562	3.45185							0.785167	5.66051		
0.480526	3.44167	0.300977	2.15593	0.480862	3.43815							0.786547	5.63262		
0.481829	3.42813	0.303059	2.15646	0.482167	3.42467							0.787916	5.60504		
0.483138	3.4148	0.305141	2.15697	0.483476	3.41139							0.789277	5.57774		
0.48445	3.40168	0.307223	2.15748	0.48479	3.39832							0.790628	5.55074		
0.485768	3.38876	0.309306	2.15798	0.486108	3.38545							0.791969	5.52403		
0.487089	3.37603	0.311388	2.15848	0.487431	3.37278							0.793303	5.4976		
0.488415	3.36351	0.31347	2.15897	0.488758	3.3603							0.794628	5.47146		
0.489746	3.35117	0.315552	2.15945	0.49009	3.34801							0.795945	5.4456		
0.491081	3.33901	0.317634	2.15993	0.491426	3.3359							0.797255	5.42001		
0.49242	3.32704	0.319716	2.1604	0.492766	3.32398							0.798558	5.3947		
0.493763	3.31525	0.321798	2.16087	0.494111	3.31223							0.799854	5.36965		
0.495111	3.30364	0.32388	2.16133	0.49546	3.30066							0.801143	5.34488		
0.496464	3.29219	0.325962	2.16178	0.496814	3.28926							0.802426	5.32036		
0.49782	3.28092	0.328044	2.16223	0.498172	3.27803							0.803703	5.29611		
0.499182	3.26981	0.330127	2.16267	0.499534	3.26697							0.804974	5.27212		
0.500547	3.25887	0.332208	2.16311	0.5009	3.25606							0.80624	5.24839		
0.501916	3.24808	0.33429	2.16354	0.502271	3.24532							0.8075	5.2249		
0.50329	3.23745	0.336372	2.16396	0.503646	3.23473							0.808756	5.20167		
0.504668	3.22698	0.338454	2.16438	0.505025	3.2243							0.810007	5.17868		
0.506051	3.21665	0.340536	2.1648	0.506408	3.21401							0.811253	5.15594		
0.507437	3.20648	0.342618	2.16521	0.507796	3.20387							0.812495	5.13343		
0.508828	3.19644	0.3447	2.16561	0.509188	3.19388							0.813733	5.11117		
0.510223	3.18656	0.346782	2.16602	0.510584	3.18403							0.814967	5.08914		
0.511622	3.17681	0.348864	2.16641	0.511984	3.17431							0.816197	5.06734		
0.513025	3.1672	0.350946	2.1668	0.513388	3.16474							0.817424	5.04577		
0.514432	3.15772	0.353027	2.16719	0.514796	3.1553							0.818648	5.02443		
0.515844	3.14838	0.355109	2.16757	0.516209	3.14599							0.819868	5.00331		
0.517259	3.13917	0.357191	2.16795	0.517625	3.13681							0.821086	4.98241		
0.518678	3.13008	0.359273	2.16832	0.519046	3.12776							0.822301	4.96173		
0.520102	3.12113	0.361354	2.16869	0.52047	3.11883							0.823513	4.94126		
0.521529	3.11229	0.363436	2.16906	0.521898	3.11003							0.824722	4.92101		
0.522961	3.10358	0.365518	2.16942	0.523331	3.10134							0.82593	4.90097		
0.524396	3.09498	0.3676	2.16978	0.524767	3.09278							0.827135	4.88113		
0.525835	3.0865	0.369681	2.17013	0.526207	3.08433							0.828338	4.8615		
0.527278	3.07814	0.371763	2.17048	0.527652	3.076							0.829539	4.84208		
0.528725	3.06989	0.373845	2.17082	0.5291	3.06778							0.830739	4.82285		
0.530176	3.06175	0.375926	2.17116	0.530551	3.05967							0.831937	4.80382		
0.531631	3.05372	0.378008	2.1715	0.532007	3.05167							0.833133	4.78499		
0.533089	3.0458	0.38009	2.17184	0.533467	3.04377							0.834328	4.76635		
0.534551	3.03798	0.382171	2.17217	0.53493	3.03598							0.835522	4.74789		
0.536018	3.03027	0.384253	2.17249	0.536397	3.02829							0.836715	4.72963		
0.537487	3.02266	0.386334	2.17282	0.537867	3.02071							0.837906	4.71155		
0.538961	3.01515	0.388416	2.17314	0.539342	3.01322							0.839097	4.69366		
0.540438	3.00773	0.390498	2.17345	0.54082	3.00583							0.840287	4.67594		
0.541919	3.00042	0.392579	2.17377	0.542302	2.99854							0.841476	4.65841		
0.543403	2.99319	0.394661	2.17408	0.543787	2.99134							0.842664	4.64105		
0.544891	2.98607	0.396742	2.17438	0.545276	2.98424							0.843852	4.62387		
0.546383	2.97903	0.398824	2.17469	0.546769	2.97723							0.84504	4.60686		
0.547878	2.97209	0.400905	2.17499	0.548265	2.97031							0.846227	4.59001		
0.549377	2.96523	0.402987	2.17528	0.549765	2.96347							0.847414	4.57334		
0.550879	2.95846	0.405068	2.17558	0.551268	2.95673							0.8486	4.55683		
0.552385	2.95178	0.40715	2.17587	0.552775	2.95007							0.849787	4.54049		
0.553894	2.94518	0.409231	2.17616	0.554285	2.94349							0.850973	4.5243		
0.555407	2.93866	0.411313	2.17644	0.555798	2.937							0.85216	4.50828		
0.556923	2.93223	0.413394	2.17673	0.557316	2.93058							0.853347	4.49241		
0.558443	2.92588	0.415476	2.17701	0.558836	2.92425							0.854533	4.4767		
0.559966	2.91961	0.417557	2.17728	0.56036	2.918							0.85572	4.46115		
0.561492	2.91341	0.419638	2.17756	0.561887	2.91183							0.856908	4.44574		
0.563022	2.9073	0.42172	2.17783	0.563418	2.90573							0.858095	4.43049		
0.564555	2.90125	0.423801	2.1781	0.564951	2.89971							0.859284	4.41538		
0.566091	2.89529	0.425883	2.17836	0.566489	2.89376							0.860472	4.40043		
0.567631	2.88939	0.427964	2.17863	0.568029	2.88788							0.861661	4.38561		
0.569174	2.88357	0.430045	2.17889	0.569573	2.88208							0.862851	4.37094		
0.57072	2.87782	0.432127	2.17915	0.571119	2.87634							0.864042	4.35641		
0.572269	2.87214	0.434208	2.1794	0.57267	2.87068							0.865233	4.34202		
0.573821	2.86652	0.436289	2.17966	0.574223	2.86509							0.866425	4.32776		
0.575377	2.86098	0.438371	2.17991	0.575779	2.85956							0.867617	4.31365		
0.576936	2.8555	0.440452	2.18016	0.577339	2.8541							0.868811	4.29966		
0.578497	2.85009	0.442533	2.18041	0.578901	2.8487							0.870006	4.28582		
0.580062	2.84474	0.444615	2.18065	0.580467	2.84337							0.871201	4.2721		
0.58163	2.83946	0.446696	2.18089	0.582036	2.8381							0.872397	4.25851		
0.583201	2.83423	0.448777	2.18113	0.583608	2.8329							0.873595	4.24505		
0.584775	2.82907	0.450859	2.18137	0.585182	2.82775							0.874793	4.23171		
0.586353	2.82398	0.45294	2.18161	0.58676	2.82267							0.875993	4.2185		
0.587933	2.81894	0.455021	2.18184	0.588341	2.81764							0.877194	4.20542		
0.589516	2.81396	0.457102	2.18207	0.589925	2.81268							0.878396	4.19245		
0.591102	2.80903	0.459184	2.1823	0.591512	2.80777							0.879599	4.17961		
0.59269	2.80417	0.461265	2.18253	0.593101	2.80292							0.880804	4.16688		
0.594282	2.79936	0.463346	2.18275	0.594694	2.79813							0.882009	4.15428		
0.595877	2.79461	0.465427	2.18298	0.596289	2.79339							0.883216	4.14179		
0.597474	2.78991	0.467509	2.1832	0.597887	2.7887							0.884425	4.12941		
0.599075	2.78526	0.46959	2.18342	0.599489	2.78407							0.885635	4.11715		
0.600678	2.78067	0.471671	2.18363	0.601092	2.77949							0.886846	4.105		
0.602284	2.77613	0.473752	2.18385	0.602699	2.77497							0.888058	4.09296		
0.603893	2.77165	0.475833	2.18406	0.604309	2.77049							0.889273	4.08104		
0.605504	2.76721	0.477915	2.18427	0.605921	2.76607							0.890488	4.06922		
0.607119	2.76282	0.479996	2.18448	0.607536	2.7617							0.891705	4.0575		
0.608735	2.75848	0.482077	2.18469	0.609154	2.75737							0.892924	4.0459		
0.610355	2.7542	0.484158	2.1849	0.610774	2.7531							0.894144	4.03439		
0.611977	2.74996	0.486239	2.1851	0.612397	2.74887							0.895366	4.02299		
0.613602	2.74576	0.488321	2.1853	0.614023	2.74469							0.896589	4.0117		
0.61523	2.74162	0.490402	2.18551	0.615651	2.74055							0.897814	4.0005		
0.61686	2.73751	0.492483	2.18571	0.617282	2.73646							0.899041	3.9894		
0.618493	2.73346	0.494564	2.1859	0.618915	2.73242							0.90027	3.97841		
0.620129	2.72945	0.496645	2.1861	0.620552	2.72842							0.9015	3.96751		
0.621767	2.72548	0.498726	2.18629	0.62219	2.72446							0.902731	3.95671		
0.623407	2.72156	0.500807	2.18649	0.623831	2.72055							0.903965	3.946		
0.62505	2.71768	0.502889	2.18668	0.625475	2.71668							0.9052	3.93538		
0.626696	2.71384	0.50497	2.18687	0.627121	2.71285							0.906437	3.92486		
0.628344	2.71004	0.507051	2.18706	0.62877	2.70907							0.907676	3.91444		
0.629995	2.70628	0.509132	2.18724	0.630421	2.70532							0.908917	3.9041		
0.631648	2.70257	0.511213	2.18743	0.632075	2.70162							0.910159	3.89385		
0.633303	2.69889	0.513294	2.18761	0.633731	2.69795							0.911403	3.8837		
0.634961	2.69526	0.515375	2.18779	0.63539	2.69432							0.912649	3.87363		
0.636621	2.69166	0.517456	2.18797	0.637051	2.69074							0.913897	3.86364		
0.638284	2.6881	0.519537	2.18815	0.638714	2.68719							0.915147	3.85375		
0.639949	2.68458	0.521618	2.18833	0.64038	2.68368							0.916398	3.84394		
0.641617	2.68109	0.523699	2.18851	0.642048	2.6802							0.917652	3.83421		
0.643286	2.67765	0.52578	2.18868	0.643718	2.67676							0.918907	3.82457		
0.644958	2.67424	0.527861	2.18885	0.64539	2.67336							0.920165	3.81501		
0.646633	2.67086	0.529942	2.18903	0.647065	2.66999							0.921424	3.80553		
0.648309	2.66752	0.532024	2.1892	0.648743	2.66666							0.922685	3.79613		
0.649988	2.66422	0.534105	2.18937	0.650422	2.66337							0.923948	3.78681		
0.651669	2.66094	0.536186	2.18954	0.652104	2.6601							0.925213	3.77757		
0.653353	2.65771	0.538267	2.1897	0.653788	2.65688							0.92648	3.76841		
0.655038	2.6545	0.540348	2.18987	0.655474	2.65368							0.927749	3.75932		
0.656726	2.65133	0.542429	2.19003	0.657162	2.65052							0.92902	3.75031		
0.658416	2.64819	0.54451	2.1902	0.658853	2.64739							0.930293	3.74138		
0.660108	2.64509	0.546591	2.19036	0.660546	2.64429							0.931568	3.73252		
0.661802	2.64201	0.548672	2.19052	0.66224	2.64122							0.932844	3.72374		
0.663499	2.63897	0.550753	2.19068	0.663937	2.63819							0.934123	3.71503		
0.665197	2.63596	0.552834	2.19084	0.665636	2.63518							0.935404	3.70639		
0.666898	2.63298	0.554915	2.19099	0.667338	2.63221							0.936687	3.69782		
0.668601	2.63002	0.556996	2.19115	0.669041	2.62927							0.937972	3.68932		
0.670306	2.6271	0.559077	2.1913	0.670746	2.62635							0.939259	3.68089		
0.672013	2.62421	0.561158	2.19146	0.672454	2.62347							0.940548	3.67253		
0.673722	2.62135	0.563239	2.19161	0.674163	2.62061							0.941839	3.66425		
0.675433	2.61851	0.565319	2.19176	0.675875	2.61778							0.943132	3.65602		
0.677146	2.6157	0.5674	2.19191	0.677588	2.61498							0.944427	3.64787		
0.678861	2.61292	0.569481	2.19206	0.679304	2.61221							0.945724	3.63978		
0.680578	2.61017	0.571562	2.19221	0.681021	2.60947							0.947023	3.63176		
0.682296	2.60745	0.573643	2.19236	0.682741	2.60675							0.948324	3.6238		
0.684017	2.60475	0.575724	2.1925	0.684462	2.60406							0.949627	3.61591		
0.68574	2.60208	0.577805	2.19265	0.686186	2.60139							0.950932	3.60807		
0.687465	2.59943	0.579886	2.19279	0.687911	2.59876							0.95224	3.60031		
0.689192	2.59682	0.581967	2.19293	0.689638	2.59614							0.953549	3.5926		
0.69092	2.59422	0.584048	2.19308	0.691367	2.59356							0.95486	3.58496		
0.692651	2.59165	0.586129	2.19322	0.693098	2.59099							0.956174	3.57738		
0.694383	2.58911	0.58821	2.19336	0.694831	2.58846							0.957489	3.56986		
0.696118	2.58659	0.590291	2.1935	0.696566	2.58594							0.958807	3.56239		
0.697854	2.58409	0.592371	2.19363	0.698302	2.58345							0.960127	3.55499		
0.699592	2.58162	0.594452	2.19377	0.700041	2.58099							0.961448	3.54765		
0.701331	2.57918	0.596533	2.19391	0.701781	2.57855							0.962772	3.54036		
0.703073	2.57675	0.598614	2.19404	0.703523	2.57613							0.964098	3.53313		
0.704816	2.57435	0.600695	2.19418	0.705267	2.57373							0.965426	3.52596		
0.706562	2.57197	0.602776	2.19431	0.707013	2.57136							0.966756	3.51884		
0.708308	2.56962	0.604857	2.19444	0.70876	2.56901							0.968088	3.51178		
0.710057	2.56728	0.606938	2.19457	0.710509	2.56668							0.969422	3.50477		
0.711808	2.56497	0.609019	2.1947	0.71226	2.56438							0.970758	3.49782		
0.71356	2.56268	0.611099	2.19483	0.714013	2.56209							0.972096	3.49093		
0.715314	2.56041	0.61318	2.19496	0.715767	2.55983							0.973437	3.48408		
0.717069	2.55817	0.615261	2.19509	0.717523	2.55759							0.974779	3.47729		
0.718827	2.55594	0.617342	2.19522	0.719281	2.55537							0.976124	3.47055		
0.720586	2.55373	0.619423	2.19534	0.72104	2.55317							0.97747	3.46386		
0.722346	2.55155	0.621504	2.19547	0.722801	2.55099							0.978819	3.45723		
0.724109	2.54938	0.623585	2.19559	0.724564	2.54883							0.980169	3.45064		
0.725873	2.54724	0.625665	2.19572	0.726329	2.54669							0.981522	3.44411		
0.727638	2.54511	0.627746	2.19584	0.728095	2.54457							0.982877	3.43763		
0.729406	2.54301	0.629827	2.19596	0.729862	2.54247							0.984234	3.43119		
0.731175	2.54092	0.631908	2.19608	0.731632	2.54039							0.985592	3.4248		
0.732945	2.53885	0.633989	2.1962	0.733403	2.53832							0.986953	3.41846		
0.734717	2.53681	0.63607	2.19632	0.735175	2.53628							0.988316	3.41217		
0.736491	2.53478	0.63815	2.19644	0.736949	2.53425							0.989681	3.40593		
0.738266	2.53276	0.640231	2.19656	0.738725	2.53225							0.991048	3.39973		
0.740043	2.53077	0.642312	2.19668	0.740502	2.53026							0.992417	3.39358		
0.741821	2.5288	0.644393	2.19679	0.742281	2.52829							0.993789	3.38748		
0.743601	2.52684	0.646474	2.19691	0.744061	2.52633							0.995162	3.38142		
0.745383	2.5249	0.648554	2.19702	0.745843	2.5244							0.996537	3.37541		
0.747165	2.52297	0.650635	2.19714	0.747626	2.52248							0.997914	3.36944		
0.74895	2.52107	0.652716	2.19725	0.749411	2.52058							0.999294	3.36352		
0.750736	2.51918	0.654797	2.19736	0.751197	2.51869							1.00067	3.35764		
0.752523	2.51731	0.656878	2.19748	0.752985	2.51683										
0.754312	2.51545	0.658958	2.19759	0.754775	2.51497										
0.756103	2.51361	0.661039	2.1977	0.756565	2.51314										
0.757895	2.51179	0.66312	2.19781	0.758358	2.51132										
0.759688	2.50998	0.665201	2.19792	0.760151	2.50952										
0.761483	2.50819	0.667281	2.19803	0.761946	2.50773										
0.763279	2.50642	0.669362	2.19813	0.763743	2.50596										
0.765076	2.50466	0.671443	2.19824	0.765541	2.5042										
0.766875	2.50291	0.673524	2.19835	0.76734	2.50246										
0.768676	2.50118	0.675605	2.19845	0.769141	2.50074										
0.770477	2.49947	0.677685	2.19856	0.770943	2.49903										
0.77228	2.49777	0.679766	2.19866	0.772746	2.49733										
0.774085	2.49608	0.681847	2.19877	0.774551	2.49565										
0.775891	2.49441	0.683928	2.19887	0.776358	2.49398										
0.777698	2.49275	0.686008	2.19897	0.778165	2.49233										
0.779507	2.49111	0.688089	2.19908	0.779974	2.49069										
0.781317	2.48948	0.69017	2.19918	0.781784	2.48906										
0.783128	2.48787	0.69225	2.19928	0.783596	2.48745										
0.78494	2.48627	0.694331	2.19938	0.785409	2.48586										
0.786754	2.48468	0.696412	2.19948	0.787223	2.48427										
0.788569	2.48311	0.698493	2.19958	0.789038	2.4827										
0.790386	2.48155	0.700573	2.19968	0.790855	2.48114										
0.792203	2.48	0.702654	2.19977	0.792673	2.4796										
0.794023	2.47846	0.704735	2.19987	0.794492	2.47807										
0.795843	2.47694	0.706816	2.19997	0.796313	2.47655										
0.797664	2.47543	0.708896	2.20006	0.798135	2.47505										
0.799487	2.47394	0.710977	2.20016	0.799958	2.47355										
0.801311	2.47245	0.713058	2.20025	0.801782	2.47207										
0.803136	2.47098	0.715138	2.20035	0.803608	2.4706										
0.804963	2.46952	0.717219	2.20044	0.805435	2.46915										
0.80679	2.46807	0.7193	2.20054	0.807262	2.4677										
0.808619	2.46664	0.72138	2.20063	0.809092	2.46627										
0.810449	2.46521	0.723461	2.20072	0.810922	2.46485										
0.81228	2.4638	0.725542	2.20081	0.812754	2.46344										
0.814113	2.4624	0.727622	2.20091	0.814586	2.46204										
0.815946	2.46101	0.729703	2.201	0.81642	2.46065										
0.817781	2.45963	0.731784	2.20109	0.818255	2.45928										
0.819617	2.45827	0.733864	2.20118	0.820091	2.45792										
0.821454	2.45691	0.735945	2.20127	0.821929	2.45656										
0.823292	2.45557	0.738026	2.20135	0.823767	2.45522										
0.825132	2.45423	0.740107	2.20144	0.825607	2.45389										
0.826972	2.45291	0.742187	2.20153	0.827448	2.45257										
0.828814	2.4516	0.744268	2.20162	0.82929	2.45126										
0.830657	2.45029	0.746348	2.2017	0.831133	2.44996										
0.8325	2.449	0.748429	2.20179	0.832977	2.44867										
0.834345	2.44772	0.75051	2.20188	0.834822	2.44739										
0.836191	2.44645	0.75259	2.20196	0.836668	2.44612										
0.838038	2.44519	0.754671	2.20205	0.838516	2.44486										
0.839887	2.44394	0.756752	2.20213	0.840364	2.44362										
0.841736	2.4427	0.758832	2.20222	0.842214	2.44238										
0.843586	2.44146	0.760913	2.2023	0.844064	2.44115										
0.845437	2.44024	0.762994	2.20238	0.845916	2.43993										
0.84729	2.43903	0.765074	2.20246	0.847768	2.43872										
0.849143	2.43783	0.767155	2.20255	0.849622	2.43752										
0.850998	2.43663	0.769236	2.20263	0.851477	2.43633										
0.852853	2.43545	0.771316	2.20271	0.853333	2.43515										
0.85471	2.43427	0.773397	2.20279	0.85519	2.43397										
0.856567	2.43311	0.775477	2.20287	0.857047	2.43281										
0.858426	2.43195	0.777558	2.20295	0.858906	2.43165										
0.860286	2.4308	0.779639	2.20303	0.860766	2.43051										
0.862146	2.42967	0.781719	2.20311	0.862627	2.42937										
0.864008	2.42853	0.7838	2.20319	0.864489	2.42824										
0.86587	2.42741	0.785881	2.20327	0.866351	2.42712										
0.867734	2.4263	0.787961	2.20334	0.868215	2.42601										
0.869598	2.4252	0.790042	2.20342	0.87008	2.42491										
0.871464	2.4241	0.792122	2.2035	0.871946	2.42382										
0.87333	2.42301	0.794203	2.20357	0.873812	2.42273										
0.875198	2.42193	0.796284	2.20365	0.87568	2.42165										
0.877066	2.42086	0.798364	2.20373	0.877549	2.42058										
0.878935	2.4198	0.800445	2.2038	0.879418	2.41952										
0.880805	2.41874	0.802525	2.20388	0.881289	2.41847										
0.882677	2.41769	0.804606	2.20395	0.88316	2.41743										
0.884549	2.41665	0.806687	2.20403	0.885032	2.41639										
0.886422	2.41562	0.808767	2.2041	0.886905	2.41536										
0.888295	2.4146	0.810848	2.20417	0.88878	2.41434										
0.89017	2.41358	0.812928	2.20425	0.890655	2.41332										
0.892046	2.41257	0.815009	2.20432	0.892531	2.41231										
0.893923	2.41157	0.817089	2.20439	0.894407	2.41132										
0.8958	2.41058	0.81917	2.20446	0.896285	2.41032										
0.897678	2.40959	0.821251	2.20454	0.898164	2.40934										
0.899558	2.40861	0.823331	2.20461	0.900043	2.40836										
0.901438	2.40764	0.825412	2.20468	0.901924	2.40739										
0.903319	2.40668	0.827492	2.20475	0.903805	2.40643										
0.905201	2.40572	0.829573	2.20482	0.905687	2.40547										
0.907083	2.40477	0.831653	2.20489	0.90757	2.40452										
0.908967	2.40382	0.833734	2.20496	0.909454	2.40358										
0.910851	2.40289	0.835815	2.20503	0.911338	2.40264										
0.912737	2.40196	0.837895	2.2051	0.913224	2.40172										
0.914623	2.40103	0.839976	2.20516	0.91511	2.40079										
0.91651	2.40012	0.842056	2.20523	0.916997	2.39988										
0.918397	2.39921	0.844137	2.2053	0.918885	2.39897										
0.920286	2.3983	0.846217	2.20537	0.920774	2.39807										
0.922175	2.3974	0.848298	2.20543	0.922664	2.39717										
0.924066	2.39651	0.850378	2.2055	0.924554	2.39628										
0.925957	2.39563	0.852459	2.20557	0.926445	2.3954										
0.927849	2.39475	0.854539	2.20563	0.928337	2.39453										
0.929741	2.39388	0.85662	2.2057	0.93023	2.39366										
0.931635	2.39301	0.8587	2.20577	0.932124	2.39279										
0.933529	2.39215	0.860781	2.20583	0.934018	2.39193										
0.935424	2.3913	0.862862	2.2059	0.935913	2.39108										
0.93732	2.39045	0.864942	2.20596	0.937809	2.39024										
0.939216	2.38961	0.867023	2.20602	0.939706	2.3894										
0.941113	2.38878	0.869103	2.20609	0.941604	2.38856										
0.943011	2.38795	0.871184	2.20615	0.943502	2.38774										
0.94491	2.38712	0.873264	2.20621	0.945401	2.38691										
0.94681	2.38631	0.875345	2.20628	0.947301	2.3861										
0.94871	2.3855	0.877425	2.20634	0.949201	2.38529										
0.950611	2.38469	0.879506	2.2064	0.951102	2.38448										
0.952513	2.38389	0.881586	2.20647	0.953004	2.38368										
0.954416	2.38309	0.883667	2.20653	0.954907	2.38289										
0.956319	2.3823	0.885747	2.20659	0.956811	2.3821										
0.958223	2.38152	0.887828	2.20665	0.958715	2.38132										
0.960128	2.38074	0.889908	2.20671	0.96062	2.38054										
0.962033	2.37997	0.891989	2.20677	0.962526	2.37977										
0.963939	2.3792	0.894069	2.20683	0.964432	2.379										
0.965846	2.37844	0.89615	2.20689	0.966339	2.37824										
0.967754	2.37768	0.89823	2.20695	0.968247	2.37748										
0.969662	2.37693	0.900311	2.20701	0.970155	2.37673										
0.971571	2.37618	0.902391	2.20707	0.972064	2.37599										
0.973481	2.37544	0.904472	2.20713	0.973974	2.37524										
0.975391	2.3747	0.906552	2.20719	0.975885	2.37451										
0.977303	2.37397	0.908633	2.20725	0.977796	2.37378										
0.979214	2.37324	0.910713	2.2073	0.979708	2.37305										
0.981127	2.37252	0.912794	2.20736	0.981621	2.37233										
0.98304	2.3718	0.914874	2.20742	0.983534	2.37162										
0.984954	2.37109	0.916954	2.20748	0.985448	2.3709										
0.986868	2.37038	0.919035	2.20753	0.987363	2.3702										
0.988783	2.36968	0.921115	2.20759	0.989278	2.3695										
0.990699	2.36898	0.923196	2.20765	0.991194	2.3688										
0.992616	2.36828	0.925276	2.2077	0.993111	2.36811										
0.994533	2.3676	0.927357	2.20776	0.995028	2.36742										
0.99645	2.36691	0.929437	2.20782	0.996946	2.36674										
0.998369	2.36623	0.931518	2.20787	0.998864	2.36606										
1.00029	2.36556	0.933598	2.20793	1.00078	2.36538										
		0.935679	2.20798												
		0.937759	2.20804												
		0.93984	2.20809												
		0.94192	2.20815												
		0.944	2.2082												
		0.946081	2.20825												
		0.948161	2.20831												
		0.950242	2.20836												
		0.952322	2.20841												
		0.954403	2.20847												
		0.956483	2.20852												
		0.958563	2.20857												
		0.960644	2.20862												
		0.962724	2.20868												
		0.964805	2.20873												
		0.966885	2.20878												
		0.968966	2.20883												
		0.971046	2.20888												
		0.973126	2.20893												
		0.975207	2.20898												
		0.977287	2.20903												
		0.979368	2.20908												
		0.981448	2.20913												
		0.983529	2.20918												
		0.985609	2.20923												
		0.987689	2.20928												
		0.98977	2.20933												
		0.99185	2.20938												
		0.993931	2.20943												
		0.996011	2.20948												
		0.998091	2.20953												
		1.00017	2.20958												
