Sym0		Asym0		Sym1		Sym2		Sym3		Sym4		Asym1		Asym2		Asym3		Asym4	
483  Points		498  Points		279  Points		214  Points		197  Points		142  Points		394  Points		232  Points		191  Points		146  Points	
Freq (MHz)	Vph (m/ms)	Freq (MHz)	Vph (m/ms)	Freq (MHz)	Vph (m/ms)	Freq (MHz)	Vph (m/ms)	Freq (MHz)	Vph (m/ms)	Freq (MHz)	Vph (m/ms)	Freq (MHz)	Vph (m/ms)	Freq (MHz)	Vph (m/ms)	Freq (MHz)	Vph (m/ms)	Freq (MHz)	Vph (m/ms)
0.00293978	4.88562	0.000421443	0.172491	0.279513	646.587	0.411502	786.431	0.559017	24593.6	0.838533	1003.46	0.139794	217.12	0.419271	690.863	0.698777	1052.62	0.823001	935.012
0.0074914	4.88543	0.000801157	0.237382	0.279556	204.955	0.411536	282.853	0.559034	585.728	0.83856	474.478	0.139995	88.8545	0.419316	272.535	0.698802	437.972	0.823024	454.233
0.0120426	4.88523	0.00129832	0.301468	0.279644	121.813	0.411603	172.461	0.559083	296.42	0.838607	310.707	0.140362	55.9827	0.419399	169.779	0.698848	276.527	0.823064	299.995
0.0165931	4.88491	0.00190947	0.364516	0.279775	86.6882	0.411702	124.069	0.559164	198.439	0.838673	230.993	0.140895	40.9705	0.419521	123.317	0.698916	202.061	0.82312	223.961
0.0211425	4.88449	0.00263066	0.426359	0.279951	67.311	0.411834	96.9015	0.559278	149.16	0.838758	183.841	0.14159	32.3957	0.419682	96.8425	0.699004	159.204	0.823192	178.683
0.0256907	4.88397	0.00345744	0.486843	0.280171	55.0352	0.411999	79.51	0.559423	119.504	0.838863	152.684	0.142443	26.8643	0.419882	79.7443	0.699113	131.355	0.82328	148.642
0.0302372	4.88336	0.00438498	0.54584	0.280435	46.5649	0.412196	67.4248	0.559601	99.6991	0.838987	130.565	0.143451	23.011	0.42012	67.7936	0.699243	111.807	0.823385	127.255
0.0347818	4.88262	0.00540799	0.603224	0.280743	40.3705	0.412426	58.5407	0.559811	85.5379	0.83913	114.051	0.144609	20.1806	0.420397	58.9721	0.699394	97.3313	0.823506	111.253
0.0393242	4.8818	0.00652124	0.658921	0.281094	35.6454	0.412689	51.7361	0.560053	74.9105	0.839293	101.251	0.145911	18.0194	0.420712	52.1947	0.699566	86.181	0.823643	98.832
0.0438642	4.88086	0.00771914	0.712852	0.281488	31.9236	0.412985	46.3585	0.560327	66.6422	0.839475	91.0405	0.147351	16.3195	0.421065	46.826	0.699759	77.3291	0.823796	88.9105
0.0484013	4.87981	0.00899628	0.764975	0.281925	28.9176	0.413315	42.0026	0.560632	60.0269	0.839677	82.7057	0.148924	14.951	0.421457	42.4692	0.699973	70.132	0.823966	80.8035
0.0529353	4.87866	0.0103473	0.815264	0.282404	26.44	0.413677	38.4034	0.56097	54.6149	0.839897	75.7737	0.150624	13.8283	0.421887	38.8638	0.700207	64.1656	0.824152	74.0555
0.0574658	4.87739	0.0117668	0.863707	0.282925	24.3636	0.414074	35.38	0.561339	50.1058	0.840137	69.9184	0.152445	12.8926	0.422354	35.8316	0.700462	59.1397	0.824355	68.3514
0.0619925	4.87602	0.0132498	0.910304	0.283488	22.5989	0.414504	32.8052	0.56174	46.2918	0.840397	64.9072	0.154381	12.1027	0.42286	33.2465	0.700738	54.8485	0.824574	63.4666
0.066515	4.87452	0.0147913	0.955076	0.284092	21.0813	0.414968	30.5866	0.562173	43.0241	0.840675	60.5701	0.156426	11.4283	0.423403	31.0171	0.701034	51.1421	0.824809	59.2368
0.0710331	4.87291	0.0163867	0.998052	0.284737	19.7628	0.415466	28.6554	0.562637	40.1936	0.840973	56.7801	0.158574	10.8469	0.423983	29.0752	0.701352	47.9089	0.825061	55.5386
0.0755462	4.87117	0.0180316	1.03926	0.285421	18.6071	0.415999	26.9597	0.563132	37.7185	0.84129	53.4398	0.16082	10.3415	0.4246	27.3689	0.701689	45.064	0.825329	52.278
0.0800542	4.86932	0.0197219	1.07875	0.286146	17.5861	0.416566	25.4593	0.563659	35.5362	0.841626	50.474	0.163158	9.89876	0.425255	25.8581	0.702048	42.5415	0.825614	49.3817
0.0845564	4.86733	0.0214536	1.11657	0.286909	16.6781	0.417169	24.1225	0.564217	33.5978	0.841981	47.8231	0.165583	9.50844	0.425946	24.5115	0.702427	40.2898	0.825916	46.7922
0.0890526	4.86522	0.0232232	1.15277	0.287711	15.8654	0.417807	22.9243	0.564805	31.865	0.842356	45.4398	0.167764	9.20453	0.426674	23.304	0.702826	38.2677	0.826234	44.4632
0.0935423	4.86297	0.0250272	1.18741	0.288551	15.1342	0.41848	21.8446	0.565425	30.3069	0.842749	43.2855	0.169671	8.96855	0.427438	22.2152	0.703246	36.4419	0.826569	42.3575
0.0980249	4.86058	0.0268627	1.22054	0.289429	14.473	0.419189	20.8668	0.566075	28.8986	0.843162	41.329	0.171278	8.78768	0.428238	21.2289	0.703686	34.7852	0.82692	40.4445
0.1025	4.85805	0.0287266	1.25222	0.290343	13.8724	0.419934	19.9773	0.566757	27.6197	0.843593	39.5442	0.172569	8.65299	0.429075	20.3313	0.704146	33.2755	0.827288	38.699
0.106967	4.85538	0.0306165	1.28251	0.291294	13.3247	0.420716	19.1651	0.567468	26.4533	0.844044	37.9096	0.173528	8.55831	0.429946	19.5112	0.704627	31.8939	0.827673	37.1001
0.111426	4.85255	0.0325298	1.31148	0.292281	12.8233	0.421534	18.4205	0.56821	25.3853	0.844513	36.4072	0.174147	8.49956	0.430853	18.7592	0.705128	30.6251	0.828075	35.6301
0.115876	4.84956	0.0344644	1.33917	0.293303	12.3628	0.422389	17.7358	0.568982	24.404	0.845001	35.0216	0.175043	8.4175	0.431795	18.0673	0.705649	29.4558	0.828494	34.2741
0.120316	4.84641	0.0364181	1.36565	0.29436	11.9385	0.423282	17.1042	0.569784	23.4994	0.845508	33.7398	0.176024	8.33139	0.432772	17.4287	0.70619	28.3748	0.828929	33.0195
0.124746	4.8431	0.0383893	1.39096	0.295452	11.5465	0.424212	16.5198	0.570616	22.6628	0.846034	32.5505	0.177373	8.21917	0.433783	16.8377	0.70675	27.3726	0.829382	31.8552
0.129165	4.83961	0.040376	1.41517	0.296577	11.1832	0.425181	15.9778	0.571477	21.8871	0.846579	31.4443	0.1791	8.08477	0.434828	16.2891	0.707331	26.441	0.829852	30.7721
0.133573	4.83593	0.0423769	1.43834	0.297736	10.8459	0.426187	15.4738	0.572368	21.166	0.847142	30.4128	0.181219	7.93259	0.435907	15.7788	0.707932	25.5728	0.830339	29.7619
0.137968	4.83207	0.0443904	1.46049	0.298928	10.5319	0.427232	15.0042	0.573289	20.4939	0.847724	29.4487	0.183746	7.76716	0.437019	15.303	0.708552	24.7618	0.830843	28.8176
0.14235	4.82801	0.0464153	1.48169	0.300152	10.2389	0.428315	14.5657	0.574238	19.8662	0.848325	28.5457	0.186698	7.59291	0.438165	14.8584	0.709192	24.0027	0.831364	27.933
0.146719	4.82375	0.0484504	1.50199	0.301409	9.96509	0.429438	14.1554	0.575216	19.2786	0.848944	27.6981	0.189702	7.43344	0.439343	14.442	0.709852	23.2906	0.831902	27.1027
0.151073	4.81927	0.0502314	1.51897	0.302699	9.70866	0.4306	13.7707	0.576224	18.7276	0.849582	26.9012	0.192757	7.28709	0.440554	14.0515	0.710531	22.6213	0.832458	26.3218
0.155411	4.81457	0.0517547	1.53295	0.30402	9.46811	0.431802	13.4096	0.577259	18.2099	0.850238	26.1505	0.195858	7.15242	0.441797	13.6845	0.71123	21.9913	0.833032	25.5862
0.159733	4.80964	0.0530174	1.54417	0.305198	9.27038	0.433043	13.07	0.578323	17.7226	0.850913	25.4422	0.199004	7.02818	0.443072	13.339	0.711948	21.3971	0.833622	24.892
0.164037	4.80446	0.0540178	1.55284	0.306221	9.10993	0.434324	12.7501	0.579415	17.2631	0.851606	24.7728	0.202192	6.9133	0.444379	13.0134	0.712685	20.8358	0.834231	24.2359
0.168323	4.79903	0.0547544	1.5591	0.30708	8.98255	0.435646	12.4485	0.580536	16.8293	0.852317	24.1393	0.20542	6.80682	0.445717	12.7059	0.713441	20.3048	0.834857	23.6149
0.172589	4.79333	0.0552263	1.56306	0.307768	8.88505	0.437008	12.1636	0.581684	16.4192	0.853047	23.5388	0.208686	6.70793	0.447085	12.4151	0.714217	19.8018	0.835501	23.0263
0.176834	4.78735	0.0559052	1.56869	0.308278	8.81511	0.438411	11.8942	0.582859	16.0307	0.853795	22.9689	0.211986	6.6159	0.448484	12.1399	0.715012	19.3247	0.836162	22.4676
0.181057	4.78109	0.0566438	1.57471	0.308607	8.77111	0.439855	11.6391	0.584062	15.6625	0.85456	22.4274	0.215321	6.53008	0.449913	11.879	0.715825	18.8714	0.836841	21.9367
0.185257	4.77452	0.0576496	1.58276	0.309083	8.70886	0.441339	11.3974	0.585292	15.3129	0.855344	21.9122	0.218687	6.44992	0.451372	11.6314	0.716657	18.4404	0.837539	21.4316
0.189432	4.76763	0.0589234	1.5927	0.309604	8.64251	0.442864	11.1681	0.586549	14.9806	0.856146	21.4214	0.222083	6.37491	0.452861	11.3961	0.717508	18.0301	0.838254	20.9504
0.19358	4.7604	0.0604663	1.60439	0.310319	8.55441	0.444431	10.9503	0.587832	14.6644	0.856966	20.9535	0.225508	6.30461	0.454378	11.1724	0.718378	17.639	0.838987	20.4915
0.1977	4.75283	0.0622796	1.61766	0.311235	8.44639	0.446038	10.7433	0.589142	14.3633	0.857804	20.5068	0.228959	6.2386	0.455924	10.9593	0.719266	17.2658	0.839738	20.0536
0.20179	4.74489	0.0643644	1.63231	0.312358	8.32059	0.447687	10.5463	0.590479	14.0761	0.858659	20.08	0.232436	6.17654	0.457499	10.7563	0.720173	16.9094	0.840508	19.6351
0.20585	4.73656	0.0664527	1.64637	0.313699	8.17941	0.449377	10.3588	0.591841	13.802	0.859533	19.6718	0.235937	6.11809	0.459101	10.5626	0.721098	16.5687	0.841296	19.2348
0.209875	4.72784	0.0685444	1.65987	0.315269	8.02538	0.451108	10.1801	0.59323	13.5402	0.860424	19.2811	0.239461	6.06298	0.460731	10.3776	0.722041	16.2426	0.842102	18.8517
0.213866	4.7187	0.0706387	1.67285	0.316872	7.87933	0.452881	10.0096	0.594644	13.2899	0.861332	18.9067	0.243006	6.01094	0.462389	10.2009	0.723003	15.9304	0.842927	18.4846
0.21782	4.70913	0.0727357	1.68532	0.31851	7.74073	0.454694	9.84691	0.596083	13.0503	0.862258	18.5477	0.246571	5.96173	0.464073	10.0319	0.723982	15.6311	0.84377	18.1326
0.221734	4.6991	0.0748346	1.69731	0.320184	7.6091	0.456548	9.69152	0.597548	12.8209	0.863202	18.2032	0.250155	5.91515	0.465784	9.87006	0.72498	15.3439	0.844632	17.7948
0.225607	4.68859	0.0769354	1.70885	0.321893	7.48401	0.458443	9.54301	0.599038	12.6009	0.864163	17.8723	0.253757	5.87098	0.467521	9.71507	0.725995	15.0683	0.845512	17.4705
0.229436	4.6776	0.0790378	1.71995	0.323639	7.36507	0.460128	9.4189	0.600552	12.39	0.865141	17.5543	0.257376	5.82906	0.469285	9.56649	0.727029	14.8035	0.846411	17.1587
0.233219	4.66611	0.0811415	1.73064	0.325424	7.25193	0.461589	9.31679	0.602091	12.1874	0.866136	17.2484	0.261011	5.78922	0.470842	9.44197	0.72808	14.5489	0.847329	16.8589
0.236954	4.65408	0.0832462	1.74094	0.327248	7.14424	0.462813	9.23483	0.603655	11.9929	0.867149	16.954	0.264661	5.75132	0.472185	9.33927	0.729148	14.3039	0.848266	16.5704
0.240639	4.64152	0.0853518	1.75086	0.329113	7.04173	0.463792	9.17154	0.605242	11.8059	0.868179	16.6705	0.268325	5.71522	0.473306	9.25666	0.730235	14.0681	0.849222	16.2925
0.244271	4.6284	0.0874581	1.76042	0.33102	6.9441	0.464518	9.12585	0.606854	11.6261	0.869226	16.3972	0.272001	5.6808	0.474199	9.19276	0.731338	13.8409	0.850197	16.0248
0.247849	4.61471	0.089565	1.76964	0.332971	6.85113	0.464985	9.09697	0.608489	11.453	0.870289	16.1337	0.27569	5.64794	0.474859	9.14656	0.732459	13.622	0.851191	15.7666
0.251368	4.60045	0.0916724	1.77854	0.334968	6.76256	0.46566	9.05594	0.610148	11.2863	0.87137	15.8795	0.27939	5.61654	0.475283	9.11733	0.733598	13.4108	0.852204	15.5176
0.254829	4.58559	0.0937799	1.78713	0.337011	6.67821	0.466399	9.012	0.61183	11.1257	0.872467	15.634	0.283101	5.5865	0.475895	9.07578	0.734753	13.2069	0.853236	15.2772
0.258228	4.57014	0.0958877	1.79541	0.339104	6.59787	0.467412	8.95328	0.613535	10.9708	0.873581	15.3969	0.286821	5.55774	0.476563	9.03121	0.735926	13.0101	0.854288	15.0451
0.261564	4.55408	0.0979956	1.80342	0.341247	6.52135	0.468707	8.88072	0.615263	10.8214	0.874712	15.1678	0.29055	5.53016	0.477477	8.97159	0.737115	12.82	0.855359	14.8207
0.264835	4.53743	0.100103	1.81116	0.343443	6.4485	0.470293	8.79542	0.617014	10.6772	0.875859	14.9462	0.294288	5.5037	0.478641	8.89778	0.738322	12.6362	0.856449	14.6039
0.26804	4.52019	0.102211	1.81864	0.345694	6.37917	0.47218	8.69864	0.618788	10.538	0.877023	14.7318	0.298033	5.47828	0.480061	8.8108	0.739545	12.4585	0.857559	14.3941
0.271177	4.50235	0.104319	1.82587	0.348001	6.31319	0.474382	8.59175	0.620583	10.4035	0.878203	14.5244	0.301784	5.45383	0.481743	8.71186	0.740785	12.2866	0.858689	14.1912
0.274246	4.48394	0.106426	1.83286	0.350366	6.25045	0.476624	8.48909	0.622401	10.2735	0.879399	14.3234	0.305542	5.43031	0.483695	8.60222	0.742042	12.1201	0.859838	13.9947
0.277246	4.46496	0.108533	1.83964	0.35279	6.1908	0.478903	8.39045	0.624241	10.1478	0.880612	14.1288	0.309305	5.40764	0.48567	8.49657	0.743315	11.9589	0.861007	13.8044
0.280176	4.44545	0.11064	1.84619	0.355275	6.13412	0.48122	8.29564	0.626102	10.0263	0.88184	13.9401	0.313073	5.38579	0.487669	8.3947	0.744605	11.8027	0.862196	13.62
0.283036	4.42541	0.112746	1.85254	0.357823	6.0803	0.483575	8.20446	0.627985	9.90857	0.883085	13.7572	0.316844	5.36469	0.48969	8.29643	0.745911	11.6514	0.863405	13.4412
0.285827	4.40488	0.114853	1.85869	0.360434	6.02921	0.485967	8.11673	0.62989	9.79463	0.884346	13.5797	0.32062	5.3443	0.491733	8.20158	0.747234	11.5046	0.864633	13.2679
0.288203	4.38661	0.116958	1.86465	0.363109	5.98075	0.488395	8.0323	0.631566	9.69826	0.885622	13.4075	0.324397	5.32458	0.493798	8.11001	0.748573	11.3622	0.865882	13.0998
0.290187	4.37077	0.119063	1.87043	0.365849	5.93481	0.49086	7.951	0.633008	9.61818	0.886914	13.2403	0.328178	5.30549	0.495886	8.02154	0.749928	11.2241	0.86715	12.9366
0.2918	4.3575	0.121168	1.87603	0.368654	5.89128	0.49336	7.87269	0.634209	9.55335	0.888222	13.0779	0.331959	5.28699	0.497995	7.93605	0.751299	11.09	0.868439	12.7783
0.293058	4.34691	0.123272	1.88147	0.371525	5.85005	0.495896	7.79723	0.635165	9.50296	0.889546	12.9202	0.335742	5.26905	0.500125	7.85339	0.752687	10.9597	0.869748	12.6244
0.293973	4.33906	0.125376	1.88675	0.37446	5.81102	0.498466	7.72448	0.63587	9.46639	0.890885	12.7669	0.339525	5.25163	0.502276	7.77345	0.75409	10.8332	0.871076	12.475
0.294554	4.33401	0.127479	1.89187	0.37746	5.77409	0.501071	7.65433	0.636323	9.4432	0.89224	12.6178	0.343307	5.2347	0.504449	7.6961	0.755509	10.7102	0.872425	12.3298
0.295383	4.32673	0.129582	1.89685	0.380524	5.73915	0.503709	7.58666	0.636976	9.41014	0.89361	12.4728	0.347089	5.21823	0.506642	7.62123	0.756945	10.5907	0.873795	12.1887
0.296277	4.31877	0.131684	1.90168	0.383649	5.70611	0.506381	7.52135	0.637688	9.37457	0.894995	12.3318	0.350869	5.2022	0.508855	7.54873	0.758396	10.4744	0.875184	12.0514
0.297479	4.30788	0.133785	1.90638	0.386836	5.67487	0.509085	7.45831	0.638661	9.32683	0.896396	12.1946	0.354648	5.18657	0.511089	7.4785	0.759863	10.3614	0.876594	11.918
0.298979	4.29401	0.135886	1.91095	0.390082	5.64533	0.511822	7.39743	0.639898	9.26744	0.897811	12.0609	0.358423	5.17133	0.513343	7.41046	0.761345	10.2514	0.878025	11.7881
0.300761	4.27709	0.137987	1.91539	0.393386	5.6174	0.51459	7.33861	0.641405	9.19706	0.899242	11.9308	0.362196	5.15644	0.515617	7.34451	0.762843	10.1443	0.879475	11.6617
0.302809	4.25706	0.140087	1.91972	0.396745	5.59098	0.517389	7.28178	0.643186	9.11647	0.900687	11.8041	0.365965	5.1419	0.517911	7.28056	0.764357	10.04	0.880946	11.5386
0.305106	4.23389	0.142186	1.92392	0.400158	5.56599	0.520219	7.22685	0.645249	9.02651	0.902147	11.6806	0.36973	5.12767	0.520225	7.21854	0.765689	9.95138	0.882438	11.4188
0.307346	4.21054	0.144285	1.92801	0.403621	5.54234	0.52308	7.17373	0.647331	8.93913	0.903622	11.5603	0.373489	5.11373	0.522558	7.15837	0.766834	9.87741	0.88395	11.3021
0.309532	4.18705	0.146383	1.932	0.407133	5.51995	0.525969	7.12236	0.649434	8.85425	0.905112	11.4429	0.377244	5.10008	0.524911	7.09998	0.767787	9.81731	0.885483	11.1884
0.311667	4.16346	0.148481	1.93588	0.410692	5.49873	0.528888	7.07265	0.651556	8.77175	0.906616	11.3285	0.380992	5.08668	0.527283	7.0433	0.768545	9.77047	0.887036	11.0777
0.313754	4.1398	0.150578	1.93966	0.414294	5.47862	0.531835	7.02454	0.653697	8.69156	0.908135	11.2169	0.384734	5.07353	0.529674	6.98827	0.769105	9.73639	0.888609	10.9697
0.315793	4.11611	0.152675	1.94335	0.417937	5.45954	0.53481	6.97797	0.655858	8.61359	0.909668	11.108	0.388469	5.0606	0.532084	6.93483	0.769464	9.71475	0.890203	10.8644
0.317789	4.09243	0.154771	1.94694	0.42162	5.44141	0.537813	6.93287	0.658037	8.53774	0.911216	11.0017	0.392196	5.04789	0.534513	6.88291	0.769981	9.68385	0.891818	10.7617
0.319743	4.06877	0.156867	1.95045	0.425338	5.42418	0.540843	6.88918	0.660236	8.46396	0.912777	10.898	0.395915	5.03537	0.536961	6.83246	0.770546	9.65057	0.893453	10.6616
0.321657	4.04517	0.158962	1.95386	0.429091	5.40779	0.543899	6.84685	0.662454	8.39215	0.914353	10.7967	0.399625	5.02303	0.539429	6.78344	0.771317	9.60578	0.895109	10.5639
0.323534	4.02166	0.161057	1.9572	0.432876	5.39217	0.546981	6.80583	0.66469	8.32225	0.915943	10.6978	0.403325	5.01087	0.541915	6.73578	0.772297	9.54992	0.896786	10.4686
0.325376	3.99825	0.163151	1.96045	0.43669	5.37728	0.550089	6.76606	0.666945	8.2542	0.917547	10.6012	0.407016	4.99886	0.544419	6.68945	0.77349	9.48351	0.898482	10.3755
0.327186	3.97498	0.165245	1.96363	0.440531	5.36305	0.553221	6.72749	0.669219	8.18793	0.919164	10.5067	0.410696	4.98699	0.546943	6.64439	0.7749	9.40716	0.9002	10.2847
0.328964	3.95185	0.167338	1.96673	0.444398	5.34945	0.556378	6.69008	0.67151	8.12337	0.920796	10.4145	0.414365	4.97525	0.549486	6.60057	0.776533	9.32155	0.901713	10.2073
0.330714	3.92889	0.169431	1.96975	0.448288	5.33643	0.559559	6.65379	0.673821	8.06046	0.922441	10.3243	0.418022	4.96364	0.552047	6.55794	0.778181	9.23801	0.903016	10.1426
0.332436	3.90612	0.171523	1.97271	0.4522	5.32394	0.562763	6.61857	0.676149	7.99916	0.923886	10.2473	0.421668	4.95214	0.554627	6.51647	0.779845	9.15648	0.904101	10.0899
0.334133	3.88354	0.173615	1.9756	0.456131	5.31195	0.565991	6.58438	0.678496	7.93941	0.925125	10.1829	0.4253	4.94073	0.557226	6.47611	0.781523	9.0769	0.904965	10.0488
0.335806	3.86118	0.175707	1.97843	0.460079	5.30043	0.569241	6.55118	0.68086	7.88116	0.926156	10.1304	0.428919	4.92942	0.559844	6.43683	0.783217	8.99919	0.905603	10.0189
0.337457	3.83903	0.177798	1.98119	0.464044	5.28933	0.572513	6.51894	0.683243	7.82435	0.926974	10.0895	0.432524	4.91819	0.56248	6.3986	0.784926	8.9233	0.906013	9.99988
0.339087	3.81712	0.179889	1.98389	0.468023	5.27863	0.575807	6.48762	0.685643	7.76895	0.927578	10.0596	0.436115	4.90703	0.565136	6.36139	0.78665	8.84917	0.906604	9.9727
0.340698	3.79545	0.181979	1.98653	0.472016	5.2683	0.579122	6.45718	0.688061	7.7149	0.927966	10.0406	0.43969	4.89594	0.56781	6.32516	0.788389	8.77675	0.907249	9.9434
0.342292	3.77403	0.184069	1.98911	0.476019	5.2583	0.582458	6.42761	0.690497	7.66217	0.928524	10.0135	0.44325	4.8849	0.570503	6.28988	0.790144	8.70598	0.90813	9.90394
0.343868	3.75286	0.186158	1.99164	0.480033	5.24863	0.585814	6.39885	0.69295	7.61071	0.929132	9.98421	0.446794	4.87391	0.573216	6.25553	0.791913	8.63681	0.909252	9.85466
0.345429	3.73195	0.188247	1.99411	0.484056	5.23924	0.58919	6.3709	0.695421	7.56048	0.929962	9.94477	0.450321	4.86296	0.575947	6.22207	0.793698	8.5692	0.910618	9.79599
0.346976	3.7113	0.190336	1.99653	0.488087	5.23012	0.592586	6.34371	0.69791	7.51145	0.931016	9.89548	0.45383	4.85205	0.578698	6.18949	0.795497	8.5031	0.912236	9.72842
0.348509	3.69092	0.192424	1.9989	0.492124	5.22126	0.596001	6.31726	0.700415	7.46358	0.932297	9.83674	0.457323	4.84116	0.581467	6.15775	0.797312	8.43846	0.914111	9.65251
0.35003	3.6708	0.194512	2.00122	0.496167	5.21262	0.599435	6.29152	0.702939	7.41684	0.93381	9.76901	0.460796	4.83029	0.584256	6.12683	0.799142	8.37523	0.916006	9.57829
0.351539	3.65096	0.1966	2.00349	0.500213	5.20419	0.602887	6.26647	0.70548	7.37118	0.935557	9.69281	0.464251	4.81944	0.587065	6.09672	0.800986	8.31339	0.917922	9.50571
0.353038	3.63139	0.198687	2.00572	0.504263	5.19596	0.606357	6.24209	0.708038	7.32659	0.937318	9.61821	0.467687	4.80859	0.589892	6.06737	0.802846	8.25289	0.919858	9.43473
0.354527	3.61209	0.200774	2.0079	0.508316	5.18791	0.609844	6.21835	0.710613	7.28302	0.939091	9.54515	0.471102	4.79775	0.592739	6.03879	0.804721	8.19368	0.921814	9.3653
0.356007	3.59306	0.20286	2.01004	0.512369	5.18003	0.613349	6.19523	0.713206	7.24046	0.940878	9.47359	0.474498	4.78691	0.595606	6.01094	0.80661	8.13574	0.92379	9.29737
0.357479	3.57431	0.204947	2.01214	0.516423	5.1723	0.61687	6.17271	0.715816	7.19887	0.942676	9.40349	0.477873	4.77607	0.598492	5.9838	0.808515	8.07903	0.925787	9.23091
0.358943	3.55582	0.207033	2.01419	0.520477	5.1647	0.620408	6.15077	0.718444	7.15822	0.944488	9.33481	0.481226	4.76521	0.601398	5.95736	0.810434	8.02351	0.927803	9.16587
0.360401	3.53761	0.209118	2.01621	0.52453	5.15724	0.623963	6.12939	0.721089	7.11849	0.946312	9.26749	0.484558	4.75434	0.604323	5.93159	0.812369	7.96916	0.92984	9.10221
0.361852	3.51966	0.211204	2.01819	0.52858	5.14989	0.627532	6.10855	0.723751	7.07966	0.948149	9.20152	0.487868	4.74345	0.607268	5.90648	0.814318	7.91593	0.931896	9.03989
0.363297	3.50198	0.213289	2.02012	0.532628	5.14264	0.631118	6.08823	0.726431	7.04169	0.949997	9.13685	0.491155	4.73254	0.610232	5.88201	0.816283	7.86381	0.933973	8.97888
0.364737	3.48457	0.215373	2.02203	0.536673	5.13549	0.634718	6.06842	0.729127	7.00457	0.951859	9.07345	0.49442	4.72161	0.613216	5.85816	0.818262	7.81275	0.936069	8.91914
0.366173	3.46742	0.217458	2.02389	0.540713	5.12843	0.638333	6.0491	0.731842	6.96828	0.953732	9.01127	0.497661	4.71065	0.616219	5.83492	0.820256	7.76274	0.938185	8.86065
0.367604	3.45053	0.219542	2.02573	0.544748	5.12145	0.641963	6.03025	0.734573	6.93279	0.955618	8.9503	0.500879	4.69966	0.619242	5.81227	0.822265	7.71373	0.940321	8.80335
0.369031	3.4339	0.221626	2.02752	0.548778	5.11454	0.645606	6.01186	0.737323	6.89808	0.957515	8.89049	0.504073	4.68864	0.622285	5.79019	0.824289	7.66572	0.942476	8.74723
0.370455	3.41752	0.22371	2.02929	0.552802	5.10769	0.649263	5.99391	0.740089	6.86413	0.959425	8.83182	0.507242	4.67759	0.625347	5.76867	0.826328	7.61867	0.94465	8.69225
0.371876	3.40139	0.225793	2.03102	0.556819	5.1009	0.652933	5.9764	0.742874	6.83093	0.961346	8.77426	0.510388	4.6665	0.628428	5.74769	0.828382	7.57255	0.946845	8.63838
0.373294	3.38551	0.227876	2.03273	0.560829	5.09415	0.656617	5.95929	0.745676	6.79845	0.96328	8.71777	0.513509	4.65538	0.631528	5.72725	0.83045	7.52735	0.949058	8.5856
0.37471	3.36988	0.229959	2.0344	0.564832	5.08745	0.660313	5.94259	0.748495	6.76667	0.965225	8.66233	0.516605	4.64422	0.634648	5.70731	0.832534	7.48304	0.951291	8.53387
0.376124	3.35449	0.232042	2.03604	0.568825	5.08079	0.664022	5.92627	0.751333	6.73559	0.967182	8.60792	0.519676	4.63302	0.637786	5.68788	0.834632	7.4396	0.953543	8.48317
0.377537	3.33934	0.234124	2.03765	0.57281	5.07415	0.667742	5.91033	0.754188	6.70518	0.96915	8.5545	0.522722	4.62179	0.640944	5.66894	0.836745	7.397	0.955814	8.43347
0.378948	3.32443	0.236206	2.03924	0.576786	5.06754	0.671474	5.89475	0.757061	6.67543	0.97113	8.50206	0.525742	4.61052	0.64412	5.65046	0.838872	7.35523	0.958104	8.38475
0.380359	3.30975	0.238288	2.0408	0.580751	5.06096	0.675218	5.87953	0.759952	6.64632	0.973121	8.45056	0.528738	4.5992	0.647314	5.63245	0.841015	7.31426	0.960413	8.33698
0.381768	3.2953	0.24037	2.04233	0.584707	5.05439	0.678972	5.86464	0.762861	6.61784	0.975124	8.39999	0.531707	4.58785	0.650527	5.61488	0.843172	7.27408	0.962741	8.29014
0.383177	3.28107	0.242452	2.04384	0.588651	5.04783	0.682737	5.85008	0.765789	6.58997	0.977138	8.35032	0.534652	4.57647	0.653757	5.59775	0.845344	7.23467	0.965088	8.24421
0.384586	3.26707	0.244533	2.04532	0.592584	5.04128	0.686513	5.83584	0.768734	6.56271	0.979164	8.30154	0.53757	4.56505	0.657006	5.58104	0.84753	7.19601	0.967453	8.19916
0.385994	3.25328	0.246614	2.04677	0.596506	5.03473	0.690299	5.82191	0.771698	6.53602	0.9812	8.25361	0.540464	4.55359	0.660271	5.56474	0.849732	7.15807	0.969837	8.15497
0.387403	3.23972	0.248695	2.04821	0.600415	5.02819	0.694094	5.80828	0.774681	6.50992	0.983248	8.20652	0.543331	4.54209	0.663554	5.54884	0.851948	7.12085	0.972239	8.11162
0.388812	3.22636	0.250776	2.04962	0.604312	5.02164	0.697898	5.79494	0.777682	6.48437	0.985307	8.16024	0.546174	4.53057	0.666854	5.53332	0.854178	7.08432	0.97466	8.06909
0.390221	3.21322	0.252856	2.051	0.608195	5.01509	0.701712	5.78187	0.780703	6.45937	0.987377	8.11477	0.54899	4.51901	0.67017	5.51818	0.856423	7.04848	0.977099	8.02736
0.391631	3.20028	0.254936	2.05237	0.612066	5.00853	0.705534	5.76908	0.783742	6.43491	0.989457	8.07008	0.551782	4.50742	0.673502	5.5034	0.858683	7.0133	0.979556	7.98641
0.393042	3.18754	0.257016	2.05371	0.615923	5.00195	0.709365	5.75655	0.7868	6.41098	0.991549	8.02615	0.554549	4.4958	0.676851	5.48897	0.860957	6.97877	0.98203	7.94623
0.394454	3.175	0.259096	2.05503	0.619766	4.99536	0.713203	5.74426	0.789877	6.38756	0.993651	7.98296	0.55729	4.48416	0.680214	5.47488	0.863246	6.94487	0.984523	7.90679
0.395868	3.16266	0.261176	2.05633	0.623594	4.98876	0.717049	5.73223	0.792973	6.36464	0.995765	7.9405	0.560007	4.47249	0.683593	5.46112	0.865549	6.91159	0.987034	7.86808
0.397282	3.15051	0.263256	2.05761	0.627408	4.98213	0.720902	5.72042	0.796089	6.34223	0.997888	7.89875	0.5627	4.4608	0.686986	5.44768	0.867866	6.87892	0.989562	7.83008
0.398698	3.13855	0.265335	2.05887	0.631207	4.97549	0.724762	5.70885	0.799225	6.32029	1.00002	7.8577	0.565367	4.44909	0.690393	5.43455	0.870198	6.84684	0.992108	7.79277
0.400115	3.12677	0.267414	2.06011	0.63499	4.96882	0.728629	5.69749	0.80238	6.29884			0.568011	4.43736	0.693814	5.42171	0.872544	6.81534	0.994671	7.75615
0.401535	3.11518	0.269494	2.06133	0.638758	4.96212	0.732502	5.68635	0.805555	6.27785			0.570631	4.42561	0.697249	5.40917	0.874905	6.7844	0.997251	7.72018
0.402955	3.10377	0.271572	2.06253	0.64251	4.95541	0.736381	5.67541	0.80875	6.25731			0.573227	4.41385	0.700696	5.3969	0.877279	6.75402	0.999849	7.68486
0.404378	3.09253	0.273651	2.06372	0.646246	4.94866	0.740265	5.66467	0.811966	6.23723			0.5758	4.40208	0.704156	5.38491	0.879668	6.72418	1.00246	7.65017
0.405803	3.08147	0.27573	2.06488	0.649965	4.94188	0.744154	5.65412	0.815201	6.21758			0.578349	4.3903	0.707627	5.37317	0.882072	6.69487		
0.407229	3.07058	0.277808	2.06603	0.653668	4.93507	0.748047	5.64375	0.818457	6.19837			0.580876	4.37851	0.71111	5.36169	0.884489	6.66608		
0.408658	3.05986	0.279887	2.06717	0.657353	4.92824	0.751946	5.63356	0.821734	6.17958			0.58338	4.36672	0.714604	5.35045	0.88692	6.63779		
0.410089	3.0493	0.281965	2.06828	0.661022	4.92136	0.755848	5.62354	0.825031	6.16121			0.585862	4.35493	0.718109	5.33944	0.889366	6.61001		
0.411523	3.03891	0.284043	2.06938	0.664674	4.91446	0.759753	5.61368	0.828349	6.14325			0.588322	4.34314	0.721623	5.32865	0.891825	6.5827		
0.412958	3.02867	0.28612	2.07047	0.668308	4.90752	0.763662	5.60399	0.831688	6.12568			0.59076	4.33135	0.725147	5.31809	0.894299	6.55587		
0.414396	3.01859	0.288198	2.07154	0.671924	4.90055	0.767574	5.59444	0.835048	6.10851			0.593177	4.31956	0.72868	5.30773	0.896786	6.52951		
0.415837	3.00866	0.290276	2.07259	0.675522	4.89354	0.771488	5.58505	0.83843	6.09173			0.595574	4.30778	0.732222	5.29758	0.899287	6.5036		
0.41728	2.99889	0.292353	2.07363	0.679102	4.8865	0.775405	5.57579	0.841833	6.07533			0.597949	4.29602	0.735771	5.28762	0.901802	6.47814		
0.418726	2.98926	0.294431	2.07465	0.682664	4.87941	0.779323	5.56667	0.845257	6.0593			0.600305	4.28426	0.739329	5.27784	0.90433	6.45311		
0.420174	2.97978	0.296508	2.07566	0.686208	4.8723	0.783242	5.55768	0.848702	6.04363			0.60264	4.27252	0.742893	5.26825	0.906873	6.42852		
0.421625	2.97045	0.298585	2.07666	0.689734	4.86515	0.787163	5.54882	0.85217	6.02833			0.604956	4.2608	0.746464	5.25882	0.909429	6.40434		
0.423079	2.96125	0.300662	2.07764	0.69324	4.85796	0.791085	5.54008	0.855659	6.01338			0.607253	4.24909	0.75004	5.24956	0.911998	6.38057		
0.424535	2.95219	0.302739	2.07861	0.696729	4.85073	0.795006	5.53145	0.859169	5.99877			0.609531	4.23741	0.753623	5.24047	0.914581	6.3572		
0.425994	2.94327	0.304815	2.07956	0.700198	4.84347	0.798928	5.52293	0.862702	5.9845			0.611791	4.22574	0.757211	5.23152	0.917178	6.33423		
0.427456	2.93448	0.306892	2.08051	0.703649	4.83617	0.80285	5.51452	0.866256	5.97057			0.614032	4.21411	0.760803	5.22272	0.919788	6.31164		
0.428921	2.92583	0.308968	2.08144	0.707081	4.82883	0.80677	5.50622	0.869832	5.95697			0.616256	4.20249	0.764399	5.21406	0.922411	6.28943		
0.430389	2.9173	0.311045	2.08235	0.710493	4.82146	0.81069	5.49801	0.873431	5.94368			0.618462	4.19091	0.767999	5.20553	0.925048	6.26759		
0.43186	2.9089	0.313121	2.08326	0.713887	4.81405	0.814609	5.4899	0.87705	5.93072			0.620651	4.17936	0.771603	5.19714	0.927697	6.24612		
0.433334	2.90062	0.315197	2.08415	0.717262	4.80661	0.818527	5.48188	0.880692	5.91806			0.622823	4.16784	0.775209	5.18886	0.93036	6.225		
0.43481	2.89247	0.317273	2.08504	0.720618	4.79914	0.822442	5.47395	0.884356	5.9057			0.624979	4.15635	0.778817	5.18071	0.933037	6.20423		
0.43629	2.88443	0.319349	2.08591	0.723954	4.79163	0.826355	5.4661	0.888041	5.89364			0.627119	4.1449	0.782427	5.17266	0.935726	6.1838		
0.437773	2.87652	0.321425	2.08677	0.727272	4.78408	0.830267	5.45833	0.891748	5.88188			0.629243	4.13348	0.786039	5.16473	0.938428	6.16371		
0.439259	2.86872	0.3235	2.08761	0.73057	4.77651	0.834175	5.45064	0.895477	5.87039			0.631351	4.12211	0.789652	5.1569	0.941144	6.14394		
0.440747	2.86103	0.325576	2.08845	0.73385	4.7689	0.838081	5.44302	0.899227	5.85919			0.633445	4.11077	0.793265	5.14916	0.943872	6.12451		
0.442239	2.85346	0.327651	2.08928	0.73711	4.76126	0.841984	5.43548	0.902999	5.84826			0.635524	4.09947	0.796879	5.14153	0.946613	6.10538		
0.443734	2.84599	0.329727	2.0901	0.740352	4.75359	0.845883	5.42801	0.906792	5.8376			0.637588	4.08822	0.800492	5.13397	0.949367	6.08657		
0.445232	2.83864	0.331802	2.0909	0.743574	4.74589	0.849779	5.4206	0.910606	5.8272			0.639638	4.07701	0.804104	5.12651	0.952134	6.06806		
0.446733	2.83139	0.333877	2.0917	0.746777	4.73816	0.853672	5.41326	0.91444	5.81706			0.641674	4.06584	0.807715	5.11913	0.954913	6.04985		
0.448237	2.82424	0.335952	2.09248	0.749962	4.7304	0.857561	5.40598	0.918296	5.80717			0.643697	4.05472	0.811325	5.11182	0.957705	6.03194		
0.449744	2.8172	0.338027	2.09326	0.753128	4.72261	0.861446	5.39876	0.922172	5.79753			0.645706	4.04365	0.814933	5.10459	0.96051	6.01431		
0.451254	2.81026	0.340102	2.09403	0.756275	4.7148	0.865326	5.3916	0.926069	5.78812			0.647703	4.03262	0.818538	5.09742	0.963327	5.99696		
0.452768	2.80342	0.342177	2.09479	0.759403	4.70697	0.869203	5.38449	0.929986	5.77895			0.649687	4.02164	0.822141	5.09032	0.966157	5.97989		
0.454284	2.79668	0.344252	2.09554	0.762513	4.6991	0.873075	5.37745	0.933922	5.77			0.651658	4.01072	0.825741	5.08329	0.968999	5.9631		
0.455804	2.79003	0.346327	2.09628	0.765604	4.69122	0.876943	5.37045	0.937878	5.76128			0.653618	3.99984	0.829337	5.07631	0.971854	5.94657		
0.457326	2.78347	0.348401	2.09701	0.768677	4.68331	0.880806	5.3635	0.941854	5.75278			0.655565	3.98902	0.83293	5.06939	0.974721	5.93031		
0.458852	2.77701	0.350476	2.09773	0.771732	4.67538	0.884664	5.35661	0.945848	5.74448			0.657502	3.97824	0.836518	5.06252	0.9776	5.9143		
0.460381	2.77064	0.35255	2.09844	0.774768	4.66743	0.888518	5.34976	0.949861	5.7364			0.659426	3.96752	0.840102	5.05571	0.980491	5.89854		
0.461913	2.76436	0.354624	2.09915	0.777786	4.65946	0.892367	5.34296	0.953893	5.72851			0.66134	3.95686	0.843681	5.04894	0.983395	5.88304		
0.463448	2.75817	0.356698	2.09985	0.780786	4.65147	0.896211	5.33621	0.957942	5.72082			0.663243	3.94625	0.847255	5.04221	0.986311	5.86777		
0.464986	2.75206	0.358773	2.10054	0.783769	4.64347	0.90005	5.32951	0.962009	5.71332			0.665136	3.93569	0.850823	5.03553	0.989238	5.85275		
0.466527	2.74604	0.360847	2.10122	0.786734	4.63544	0.903884	5.32284	0.966094	5.70601			0.667018	3.92519	0.854386	5.02888	0.992178	5.83796		
0.468071	2.7401	0.362921	2.10189	0.789681	4.62741	0.907713	5.31622	0.970195	5.69887			0.66889	3.91474	0.857942	5.02227	0.99513	5.82341		
0.469618	2.73425	0.364995	2.10256	0.79261	4.61935	0.911537	5.30965	0.974314	5.69191			0.670753	3.90435	0.861492	5.0157	0.998094	5.80908		
0.471169	2.72847	0.367068	2.10321	0.795523	4.61129	0.915355	5.30311	0.978448	5.68512			0.672606	3.89402	0.865035	5.00915	1.00107	5.79497		
0.472722	2.72278	0.369142	2.10386	0.798418	4.60321	0.919169	5.29661	0.982598	5.6785			0.67445	3.88375	0.868571	5.00264				
0.474278	2.71716	0.371216	2.10451	0.801296	4.59512	0.922977	5.29016	0.986764	5.67203			0.676284	3.87353	0.8721	4.99615				
0.475838	2.71162	0.373289	2.10514	0.804157	4.58702	0.926781	5.28374	0.990945	5.66572			0.67811	3.86337	0.875621	4.98969				
0.4774	2.70616	0.375363	2.10577	0.807001	4.57891	0.930578	5.27736	0.995141	5.65956			0.679927	3.85327	0.879134	4.98325				
0.478966	2.70077	0.377436	2.1064	0.809829	4.57079	0.934371	5.27102	0.999351	5.65355			0.681736	3.84323	0.882639	4.97684				
0.480534	2.69545	0.37951	2.10701	0.812641	4.56267	0.938158	5.26471	1.00357	5.64767			0.683537	3.83324	0.886136	4.97044				
0.482106	2.69021	0.381583	2.10762	0.815436	4.55453	0.94194	5.25844					0.685329	3.82332	0.889623	4.96406				
0.48368	2.68503	0.383656	2.10822	0.818214	4.5464	0.945717	5.25221					0.687114	3.81346	0.893102	4.9577				
0.485257	2.67993	0.38573	2.10882	0.820977	4.53825	0.949488	5.24601					0.688891	3.80365	0.896572	4.95135				
0.486838	2.67489	0.387803	2.10941	0.823724	4.53011	0.953254	5.23984					0.690661	3.7939	0.900032	4.94502				
0.488421	2.66992	0.389876	2.10999	0.826455	4.52196	0.957014	5.23371					0.692423	3.78422	0.903483	4.9387				
0.490007	2.66502	0.391949	2.11057	0.829171	4.51381	0.960769	5.2276					0.694179	3.77459	0.906924	4.93238				
0.491596	2.66018	0.394022	2.11114	0.831871	4.50565	0.964518	5.22153					0.695927	3.76503	0.910355	4.92608				
0.493188	2.65541	0.396095	2.1117	0.834556	4.4975	0.968262	5.2155					0.697669	3.75552	0.913775	4.91979				
0.494783	2.6507	0.398167	2.11226	0.837226	4.48935	0.972001	5.20949					0.699405	3.74608	0.917185	4.9135				
0.496381	2.64605	0.40024	2.11282	0.839881	4.4812	0.975733	5.20351					0.701134	3.73669	0.920585	4.90722				
0.497981	2.64147	0.402313	2.11336	0.842522	4.47305	0.97946	5.19756					0.702857	3.72736	0.923973	4.90094				
0.499585	2.63694	0.404385	2.1139	0.845147	4.4649	0.983182	5.19164					0.704574	3.7181	0.927351	4.89467				
0.501191	2.63247	0.406458	2.11444	0.847759	4.45676	0.986897	5.18575					0.706285	3.70889	0.930718	4.8884				
0.5028	2.62806	0.40853	2.11497	0.850356	4.44862	0.990607	5.17988					0.70799	3.69975	0.934073	4.88213				
0.504412	2.62371	0.410603	2.1155	0.852938	4.44049	0.994311	5.17404					0.70969	3.69066	0.937417	4.87586				
0.506026	2.61941	0.412675	2.11602	0.855507	4.43237	0.998009	5.16823					0.711385	3.68164	0.940749	4.8696				
0.507644	2.61517	0.414747	2.11653	0.858062	4.42425	1.0017	5.16244					0.713074	3.67267	0.94407	4.86333				
0.509264	2.61099	0.41682	2.11704	0.860603	4.41613							0.714759	3.66376	0.947379	4.85707				
0.510887	2.60686	0.418892	2.11754	0.863131	4.40803							0.716438	3.65492	0.950676	4.8508				
0.512512	2.60278	0.420964	2.11804	0.865645	4.39993							0.718112	3.64613	0.953961	4.84453				
0.514141	2.59875	0.423036	2.11854	0.868146	4.39185							0.719782	3.6374	0.957233	4.83826				
0.515772	2.59477	0.425108	2.11903	0.870634	4.38377							0.721448	3.62873	0.960494	4.83198				
0.517405	2.59085	0.42718	2.11951	0.873109	4.37571							0.723109	3.62012	0.963742	4.82571				
0.519042	2.58697	0.429252	2.11999	0.875571	4.36765							0.724766	3.61157	0.966978	4.81943				
0.520681	2.58315	0.431324	2.12047	0.878021	4.35961							0.726418	3.60308	0.970202	4.81314				
0.522322	2.57937	0.433396	2.12094	0.880458	4.35158							0.728067	3.59464	0.973413	4.80685				
0.523966	2.57564	0.435468	2.1214	0.882882	4.34356							0.729711	3.58627	0.976611	4.80056				
0.525613	2.57195	0.437539	2.12187	0.885295	4.33556							0.731352	3.57795	0.979797	4.79427				
0.527262	2.56831	0.439611	2.12232	0.887695	4.32757							0.73299	3.56969	0.982971	4.78797				
0.528914	2.56472	0.441683	2.12278	0.890083	4.31959							0.734623	3.56148	0.986131	4.78166				
0.530568	2.56117	0.443754	2.12323	0.89246	4.31163							0.736254	3.55334	0.98928	4.77535				
0.532225	2.55767	0.445826	2.12367	0.894825	4.30368							0.73788	3.54525	0.992415	4.76904				
0.533885	2.5542	0.447897	2.12411	0.897178	4.29575							0.739504	3.53721	0.995538	4.76272				
0.535547	2.55079	0.449969	2.12455	0.89952	4.28784							0.741125	3.52924	0.998648	4.7564				
0.537211	2.54741	0.45204	2.12498	0.901851	4.27994							0.742742	3.52132	1.00174	4.75007				
0.538878	2.54407	0.454111	2.12541	0.90417	4.27206							0.744357	3.51345						
0.540547	2.54078	0.456182	2.12583	0.906479	4.26419							0.745969	3.50565						
0.542219	2.53752	0.458254	2.12625	0.908776	4.25634							0.747578	3.49789						
0.543893	2.53431	0.460325	2.12667	0.911063	4.24852							0.749185	3.49019						
0.545569	2.53113	0.462396	2.12708	0.913339	4.24071							0.750789	3.48255						
0.547248	2.52799	0.464467	2.12749	0.915605	4.23291							0.75239	3.47496						
0.548929	2.52489	0.466538	2.12789	0.91786	4.22514							0.753989	3.46743						
0.550613	2.52183	0.468609	2.1283	0.920105	4.21739							0.755586	3.45995						
0.552299	2.5188	0.47068	2.12869	0.92234	4.20966							0.757181	3.45252						
0.553987	2.51581	0.472751	2.12909	0.924565	4.20194							0.758774	3.44514						
0.555677	2.51285	0.474822	2.12948	0.92678	4.19425							0.760364	3.43782						
0.55737	2.50993	0.476893	2.12987	0.928986	4.18658							0.761953	3.43055						
0.559065	2.50705	0.478963	2.13025	0.931181	4.17893							0.76354	3.42334						
0.560762	2.5042	0.481034	2.13063	0.933367	4.1713							0.765125	3.41617						
0.562462	2.50138	0.483105	2.13101	0.935544	4.16369							0.766708	3.40906						
0.564164	2.49859	0.485175	2.13138	0.937711	4.1561							0.768289	3.402						
0.565868	2.49584	0.487246	2.13176	0.939869	4.14853							0.769869	3.39499						
0.567574	2.49312	0.489317	2.13212	0.942018	4.14099							0.771448	3.38803						
0.569282	2.49043	0.491387	2.13249	0.944159	4.13347							0.773025	3.38112						
0.570992	2.48778	0.493458	2.13285	0.94629	4.12597							0.7746	3.37426						
0.572705	2.48515	0.495528	2.13321	0.948412	4.11849							0.776175	3.36745						
0.574419	2.48255	0.497598	2.13356	0.950526	4.11104							0.777748	3.36069						
0.576136	2.47999	0.499669	2.13392	0.952631	4.10361							0.77932	3.35398						
0.577855	2.47745	0.501739	2.13427	0.954728	4.0962							0.78089	3.34732						
0.579576	2.47494	0.503809	2.13461	0.956817	4.08882							0.78246	3.34071						
0.581299	2.47246	0.50588	2.13496	0.958897	4.08146							0.784029	3.33414						
0.583024	2.47001	0.50795	2.1353	0.960969	4.07412							0.785596	3.32762						
0.584751	2.46759	0.51002	2.13563	0.963034	4.06681							0.787163	3.32115						
0.58648	2.46519	0.51209	2.13597	0.96509	4.05952							0.788729	3.31473						
0.588211	2.46282	0.51416	2.1363	0.967138	4.05226							0.790294	3.30835						
0.589944	2.46048	0.51623	2.13663	0.969179	4.04502							0.791858	3.30202						
0.591679	2.45816	0.5183	2.13696	0.971212	4.0378							0.793422	3.29574						
0.593416	2.45587	0.52037	2.13728	0.973238	4.03061							0.794985	3.2895						
0.595155	2.45361	0.52244	2.1376	0.975256	4.02344							0.796547	3.28331						
0.596896	2.45137	0.52451	2.13792	0.977267	4.0163							0.798109	3.27716						
0.598638	2.44916	0.52658	2.13824	0.979271	4.00918							0.79967	3.27106						
0.600383	2.44697	0.52865	2.13855	0.981267	4.00209							0.801231	3.265						
0.60213	2.4448	0.53072	2.13887	0.983257	3.99503							0.802791	3.25898						
0.603878	2.44266	0.532789	2.13918	0.985239	3.98798							0.804351	3.25301						
0.605628	2.44054	0.534859	2.13948	0.987215	3.98097							0.805911	3.24709						
0.60738	2.43845	0.536929	2.13979	0.989184	3.97398							0.80747	3.2412						
0.609134	2.43638	0.538998	2.14009	0.991146	3.96701							0.809029	3.23536						
0.61089	2.43433	0.541068	2.14039	0.993102	3.96007							0.810588	3.22956						
0.612647	2.4323	0.543138	2.14068	0.995051	3.95316							0.812147	3.2238						
0.614407	2.4303	0.545207	2.14098	0.996994	3.94627							0.813705	3.21809						
0.616168	2.42831	0.547277	2.14127	0.99893	3.93941							0.815264	3.21241						
0.617931	2.42635	0.549346	2.14156	1.00086	3.93257							0.816822	3.20678						
0.619695	2.42441	0.551415	2.14185									0.818381	3.20119						
0.621462	2.42249	0.553485	2.14214									0.819939	3.19564						
0.62323	2.42059	0.555554	2.14242									0.821497	3.19013						
0.624999	2.41871	0.557624	2.1427									0.823056	3.18466						
0.626771	2.41685	0.559693	2.14298									0.824614	3.17923						
0.628544	2.41501	0.561762	2.14326									0.826173	3.17384						
0.630319	2.4132	0.563831	2.14353									0.827731	3.16848						
0.632095	2.4114	0.5659	2.14381									0.82929	3.16317						
0.633874	2.40961	0.56797	2.14408									0.830849	3.15789						
0.635653	2.40785	0.570039	2.14435									0.832409	3.15266						
0.637435	2.40611	0.572108	2.14461									0.833968	3.14746						
0.639218	2.40438	0.574177	2.14488									0.835528	3.1423						
0.641002	2.40267	0.576246	2.14514									0.837088	3.13717						
0.642789	2.40099	0.578315	2.1454									0.838649	3.13208						
0.644576	2.39931	0.580384	2.14566									0.84021	3.12703						
0.646366	2.39766	0.582453	2.14592									0.841771	3.12202						
0.648156	2.39602	0.584522	2.14617									0.843333	3.11704						
0.649949	2.3944	0.586591	2.14643									0.844895	3.11209						
0.651743	2.3928	0.58866	2.14668									0.846457	3.10719						
0.653538	2.39121	0.590728	2.14693									0.848021	3.10231						
0.655335	2.38964	0.592797	2.14718									0.849584	3.09748						
0.657134	2.38808	0.594866	2.14742									0.851148	3.09267						
0.658934	2.38654	0.596935	2.14767									0.852713	3.0879						
0.660735	2.38502	0.599003	2.14791									0.854278	3.08317						
0.662538	2.38351	0.601072	2.14815									0.855844	3.07847						
0.664342	2.38202	0.603141	2.14839									0.85741	3.0738						
0.666148	2.38054	0.605209	2.14863									0.858977	3.06917						
0.667955	2.37908	0.607278	2.14887									0.860545	3.06457						
0.669764	2.37763	0.609346	2.1491									0.862113	3.06						
0.671574	2.3762	0.611415	2.14933									0.863682	3.05546						
0.673386	2.37478	0.613483	2.14956									0.865251	3.05096						
0.675198	2.37337	0.615552	2.14979									0.866822	3.04649						
0.677013	2.37198	0.61762	2.15002									0.868393	3.04205						
0.678828	2.3706	0.619689	2.15025									0.869964	3.03764						
0.680645	2.36924	0.621757	2.15047									0.871537	3.03326						
0.682463	2.36789	0.623825	2.15069									0.87311	3.02892						
0.684283	2.36655	0.625894	2.15092									0.874684	3.0246						
0.686104	2.36523	0.627962	2.15114									0.876259	3.02032						
0.687926	2.36392	0.63003	2.15136									0.877834	3.01606						
0.68975	2.36262	0.632098	2.15157									0.879411	3.01184						
0.691575	2.36134	0.634166	2.15179									0.880988	3.00764						
0.693401	2.36006	0.636235	2.152									0.882566	3.00348						
0.695228	2.3588	0.638303	2.15222									0.884145	2.99934						
0.697057	2.35755	0.640371	2.15243									0.885725	2.99523						
0.698887	2.35632	0.642439	2.15264									0.887305	2.99115						
0.700718	2.3551	0.644507	2.15285									0.888887	2.9871						
0.702551	2.35388	0.646575	2.15305									0.890469	2.98308						
0.704385	2.35268	0.648643	2.15326									0.892052	2.97908						
0.70622	2.35149	0.650711	2.15346									0.893637	2.97512						
0.708056	2.35032	0.652779	2.15367									0.895222	2.97118						
0.709893	2.34915	0.654847	2.15387									0.896808	2.96727						
0.711732	2.348	0.656915	2.15407									0.898395	2.96338						
0.713571	2.34685	0.658983	2.15427									0.899983	2.95953						
0.715412	2.34572	0.66105	2.15447									0.901572	2.9557						
0.717254	2.3446	0.663118	2.15466									0.903161	2.95189						
0.719098	2.34348	0.665186	2.15486									0.904752	2.94811						
0.720942	2.34238	0.667254	2.15505									0.906344	2.94436						
0.722788	2.34129	0.669321	2.15524									0.907937	2.94064						
0.724634	2.34021	0.671389	2.15544									0.909531	2.93693						
0.726482	2.33914	0.673457	2.15563									0.911125	2.93326						
0.728331	2.33808	0.675524	2.15581									0.912721	2.92961						
0.730181	2.33703	0.677592	2.156									0.914318	2.92598						
0.732033	2.33599	0.67966	2.15619									0.915916	2.92238						
0.733885	2.33496	0.681727	2.15637									0.917515	2.91881						
0.735738	2.33394	0.683795	2.15656									0.919115	2.91526						
0.737593	2.33292	0.685862	2.15674									0.920716	2.91173						
0.739448	2.33192	0.68793	2.15692									0.922318	2.90823						
0.741305	2.33093	0.689997	2.15711									0.923921	2.90475						
0.743163	2.32994	0.692064	2.15728									0.925525	2.90129						
0.745021	2.32897	0.694132	2.15746									0.92713	2.89786						
0.746881	2.328	0.696199	2.15764									0.928736	2.89445						
0.748742	2.32704	0.698267	2.15782									0.930343	2.89107						
0.750604	2.32609	0.700334	2.15799									0.931952	2.88771						
0.752467	2.32515	0.702401	2.15817									0.933561	2.88437						
0.754331	2.32422	0.704468	2.15834									0.935172	2.88105						
0.756195	2.3233	0.706536	2.15851									0.936783	2.87775						
0.758061	2.32238	0.708603	2.15868									0.938396	2.87448						
0.759928	2.32148	0.71067	2.15885									0.94001	2.87123						
0.761796	2.32058	0.712737	2.15902									0.941625	2.868						
0.763665	2.31969	0.714804	2.15919									0.943241	2.86479						
0.765535	2.3188	0.716872	2.15936									0.944858	2.86161						
0.767406	2.31793	0.718939	2.15952									0.946476	2.85844						
0.769277	2.31706	0.721006	2.15969									0.948095	2.8553						
0.77115	2.3162	0.723073	2.15985									0.949716	2.85217						
0.773024	2.31535	0.72514	2.16001									0.951337	2.84907						
0.774898	2.31451	0.727207	2.16018									0.95296	2.84599						
0.776774	2.31367	0.729274	2.16034									0.954584	2.84293						
0.778651	2.31284	0.731341	2.1605									0.956208	2.83989						
0.780528	2.31202	0.733408	2.16066									0.957834	2.83687						
0.782406	2.3112	0.735474	2.16081									0.959462	2.83387						
0.784285	2.3104	0.737541	2.16097									0.96109	2.83089						
0.786166	2.3096	0.739608	2.16113									0.962719	2.82793						
0.788047	2.3088	0.741675	2.16128									0.96435	2.82498						
0.789929	2.30802	0.743742	2.16144									0.965981	2.82206						
0.791811	2.30724	0.745808	2.16159									0.967614	2.81916						
0.793695	2.30646	0.747875	2.16174									0.969248	2.81627						
0.79558	2.3057	0.749942	2.1619									0.970883	2.81341						
0.797465	2.30494	0.752009	2.16205									0.972519	2.81056						
0.799351	2.30419	0.754075	2.1622									0.974156	2.80773						
0.801238	2.30344	0.756142	2.16235									0.975795	2.80492						
0.803126	2.3027	0.758208	2.16249									0.977435	2.80213						
0.805015	2.30196	0.760275	2.16264									0.979075	2.79936						
0.806905	2.30124	0.762342	2.16279									0.980717	2.7966						
0.808795	2.30052	0.764408	2.16293									0.98236	2.79386						
0.810687	2.2998	0.766475	2.16308									0.984004	2.79114						
0.812579	2.29909	0.768541	2.16322									0.985649	2.78844						
0.814472	2.29839	0.770608	2.16337									0.987296	2.78576						
0.816366	2.29769	0.772674	2.16351									0.988943	2.78309						
0.81826	2.297	0.774741	2.16365									0.990592	2.78044						
0.820155	2.29632	0.776807	2.16379									0.992242	2.77781						
0.822052	2.29564	0.778873	2.16393									0.993893	2.77519						
0.823949	2.29496	0.78094	2.16407									0.995545	2.77259						
0.825846	2.29429	0.783006	2.16421									0.997198	2.77001						
0.827745	2.29363	0.785072	2.16435									0.998853	2.76744						
0.829644	2.29298	0.787139	2.16448									1.00051	2.76489						
0.831544	2.29232	0.789205	2.16462																
0.833445	2.29168	0.791271	2.16475																
0.835346	2.29104	0.793337	2.16489																
0.837249	2.2904	0.795403	2.16502																
0.839152	2.28977	0.79747	2.16515																
0.841056	2.28915	0.799536	2.16529																
0.84296	2.28853	0.801602	2.16542																
0.844865	2.28791	0.803668	2.16555																
0.846771	2.2873	0.805734	2.16568																
0.848678	2.2867	0.8078	2.16581																
0.850586	2.2861	0.809866	2.16594																
0.852494	2.2855	0.811932	2.16607																
0.854403	2.28491	0.813998	2.16619																
0.856312	2.28433	0.816064	2.16632																
0.858222	2.28375	0.81813	2.16645																
0.860133	2.28317	0.820196	2.16657																
0.862045	2.2826	0.822262	2.1667																
0.863957	2.28204	0.824328	2.16682																
0.86587	2.28148	0.826393	2.16694																
0.867784	2.28092	0.828459	2.16707																
0.869698	2.28037	0.830525	2.16719																
0.871613	2.27982	0.832591	2.16731																
0.873529	2.27927	0.834656	2.16743																
0.875445	2.27873	0.836722	2.16755																
0.877362	2.2782	0.838788	2.16767																
0.87928	2.27767	0.840854	2.16779																
0.881198	2.27714	0.842919	2.16791																
0.883117	2.27662	0.844985	2.16802																
0.885037	2.2761	0.84705	2.16814																
0.886957	2.27559	0.849116	2.16826																
0.888878	2.27508	0.851182	2.16837																
0.890799	2.27457	0.853247	2.16849																
0.892721	2.27407	0.855313	2.1686																
0.894644	2.27357	0.857378	2.16872																
0.896568	2.27308	0.859444	2.16883																
0.898491	2.27259	0.861509	2.16894																
0.900416	2.2721	0.863574	2.16905																
0.902341	2.27162	0.86564	2.16917																
0.904267	2.27114	0.867705	2.16928																
0.906193	2.27066	0.869771	2.16939																
0.90812	2.27019	0.871836	2.1695																
0.910048	2.26972	0.873901	2.16961																
0.911976	2.26926	0.875967	2.16971																
0.913904	2.2688	0.878032	2.16982																
0.915834	2.26834	0.880097	2.16993																
0.917764	2.26789	0.882162	2.17004																
0.919694	2.26744	0.884227	2.17014																
0.921625	2.26699	0.886293	2.17025																
0.923556	2.26655	0.888358	2.17036																
0.925488	2.26611	0.890423	2.17046																
0.927421	2.26567	0.892488	2.17056																
0.929354	2.26524	0.894553	2.17067																
0.931288	2.26481	0.896618	2.17077																
0.933222	2.26438	0.898683	2.17087																
0.935157	2.26396	0.900748	2.17098																
0.937093	2.26354	0.902813	2.17108																
0.939028	2.26312	0.904878	2.17118																
0.940965	2.26271	0.906943	2.17128																
0.942902	2.2623	0.909008	2.17138																
0.944839	2.26189	0.911073	2.17148																
0.946777	2.26148	0.913138	2.17158																
0.948716	2.26108	0.915203	2.17168																
0.950655	2.26068	0.917268	2.17178																
0.952594	2.26029	0.919332	2.17187																
0.954534	2.25989	0.921397	2.17197																
0.956475	2.25951	0.923462	2.17207																
0.958416	2.25912	0.925527	2.17216																
0.960358	2.25873	0.927591	2.17226																
0.9623	2.25835	0.929656	2.17236																
0.964242	2.25798	0.931721	2.17245																
0.966185	2.2576	0.933785	2.17255																
0.968129	2.25723	0.93585	2.17264																
0.970073	2.25686	0.937915	2.17273																
0.972017	2.25649	0.939979	2.17283																
0.973962	2.25613	0.942044	2.17292																
0.975908	2.25576	0.944108	2.17301																
0.977854	2.2554	0.946173	2.1731																
0.9798	2.25505	0.948237	2.17319																
0.981747	2.25469	0.950302	2.17328																
0.983695	2.25434	0.952366	2.17337																
0.985642	2.25399	0.954431	2.17346																
0.987591	2.25365	0.956495	2.17355																
0.989539	2.2533	0.95856	2.17364																
0.991489	2.25296	0.960624	2.17373																
0.993438	2.25262	0.962688	2.17382																
0.995388	2.25229	0.964753	2.17391																
0.997339	2.25195	0.966817	2.174																
0.99929	2.25162	0.968881	2.17408																
1.00124	2.25129	0.970946	2.17417																
		0.97301	2.17426																
		0.975074	2.17434																
		0.977138	2.17443																
		0.979202	2.17451																
		0.981267	2.1746																
		0.983331	2.17468																
		0.985395	2.17476																
		0.987459	2.17485																
		0.989523	2.17493																
		0.991587	2.17501																
		0.993651	2.1751																
		0.995715	2.17518																
		0.997779	2.17526																
		0.999843	2.17534																
		1.00191	2.17542																
