Sym0		Asym0		Sym1		Sym2		Sym3		Sym4		Asym1		Asym2		Asym3	
460  Points		493  Points		194  Points		162  Points		149  Points		107  Points		308  Points		174  Points		141  Points	
Freq (MHz)	Vph (m/ms)	Freq (MHz)	Vph (m/ms)	Freq (MHz)	Vph (m/ms)	Freq (MHz)	Vph (m/ms)	Freq (MHz)	Vph (m/ms)	Freq (MHz)	Vph (m/ms)	Freq (MHz)	Vph (m/ms)	Freq (MHz)	Vph (m/ms)	Freq (MHz)	Vph (m/ms)
0.0008196	6.29055	0.00054629	0.222581	0.279548	337.404	0.502116	635.049	0.559031	877.581	0.838526	50651.6	0.139783	324.539	0.419286	556.718	0.69878	1191.72
0.00668024	6.29033	0.00103372	0.305289	0.279685	158.892	0.50215	291.546	0.559104	356.411	0.838544	884.307	0.140038	102.787	0.41938	248.915	0.698827	460.342
0.0125404	6.29008	0.00166828	0.386378	0.27992	103.986	0.50221	189.223	0.559239	223.659	0.838598	446.076	0.140555	61.2682	0.419545	160.344	0.698916	285.3
0.0183995	6.28962	0.0024434	0.46546	0.280254	77.3411	0.502294	140.08	0.559435	163.001	0.838688	298.292	0.141332	43.8132	0.419781	118.307	0.699046	206.73
0.0242571	6.289	0.00335172	0.54225	0.280686	61.6173	0.502405	111.214	0.559693	128.258	0.838814	224.082	0.142363	34.2425	0.420088	93.7714	0.699219	162.113
0.0301128	6.28821	0.0043849	0.616478	0.281214	51.251	0.502541	92.2238	0.560011	105.752	0.838976	179.459	0.143639	28.2244	0.420467	77.6971	0.699433	133.356
0.0359659	6.28725	0.00553419	0.687945	0.281839	43.9091	0.502704	78.7833	0.560391	89.991	0.839173	149.673	0.145153	24.1083	0.420916	66.3559	0.699688	113.282
0.0418161	6.2861	0.00679068	0.756519	0.28256	38.4415	0.502893	68.7713	0.560831	78.3406	0.839406	128.381	0.146895	21.1281	0.421436	57.9293	0.699985	98.4754
0.0476628	6.28478	0.00814543	0.822115	0.283375	34.2154	0.503109	61.0256	0.561331	69.3809	0.839675	112.405	0.148854	18.8798	0.422026	51.4246	0.700324	87.1058
0.0535055	6.28328	0.00958958	0.884681	0.284284	30.8542	0.503354	54.8559	0.561891	62.2783	0.839979	99.9759	0.151019	17.1302	0.422686	46.2538	0.700704	78.1023
0.0593438	6.2816	0.0111147	0.944218	0.285285	28.1194	0.503626	49.8263	0.562511	56.5112	0.840319	90.0325	0.153381	15.7351	0.423415	42.0468	0.701126	70.7971
0.0651769	6.27973	0.0127126	1.00076	0.286377	25.8529	0.503927	45.6484	0.56319	51.7368	0.840694	81.8975	0.155926	14.6007	0.424214	38.5586	0.701588	64.752
0.0710044	6.27767	0.0143758	1.05436	0.287559	23.9456	0.504258	42.1232	0.563927	47.7202	0.841104	75.1194	0.158646	13.6633	0.425081	35.6209	0.702092	59.6677
0.0768258	6.27543	0.0160973	1.1051	0.28883	22.3197	0.504619	39.1095	0.564722	44.2952	0.841551	69.3857	0.161528	12.8782	0.426016	33.1139	0.702637	55.3327
0.0826404	6.27298	0.0178704	1.15308	0.290187	20.9185	0.50501	36.5039	0.565575	41.3409	0.842032	64.4727	0.164563	12.213	0.427019	30.9504	0.703223	51.5934
0.0884475	6.27033	0.0196894	1.1984	0.291629	19.6994	0.505434	34.2293	0.566484	38.7673	0.842549	60.2166	0.167741	11.6437	0.428089	29.0652	0.70385	48.3354
0.0942467	6.26748	0.0215489	1.24119	0.293155	18.63	0.50589	32.2268	0.56745	36.5058	0.843101	56.4942	0.170619	11.2116	0.429225	27.4086	0.704517	45.4718
0.100037	6.26442	0.0234439	1.28157	0.294762	17.685	0.506379	30.4507	0.568472	34.5034	0.843688	53.2115	0.173149	10.8829	0.430427	25.9419	0.705225	42.9356
0.105818	6.26114	0.0253702	1.31966	0.29645	16.8447	0.506903	28.865	0.569549	32.7186	0.84431	50.2952	0.17529	10.635	0.431695	24.635	0.705973	40.674
0.111589	6.25763	0.0273237	1.35557	0.298216	16.093	0.507462	27.4409	0.570681	31.1181	0.844966	47.6877	0.177015	10.4526	0.433027	23.4635	0.706762	38.645
0.117349	6.2539	0.0293011	1.38945	0.300058	15.4173	0.508057	26.1554	0.571867	29.6751	0.845658	45.3425	0.178299	10.3256	0.434422	22.4079	0.707591	36.8148
0.123098	6.24993	0.0312992	1.4214	0.301974	14.8069	0.508689	24.9893	0.573106	28.3679	0.846385	43.2223	0.179129	10.2472	0.435881	21.4522	0.708459	35.1558
0.128834	6.24572	0.0333153	1.45154	0.303963	14.2533	0.509359	23.9271	0.574398	27.1785	0.847146	41.2963	0.180331	10.1384	0.437403	20.5832	0.709367	33.6454
0.134557	6.24125	0.035347	1.47998	0.306023	13.7492	0.510068	22.9557	0.575742	26.0918	0.847941	39.5393	0.18165	10.0251	0.438986	19.7901	0.710315	32.2645
0.140265	6.23652	0.0371284	1.50347	0.308152	13.2886	0.510817	22.0642	0.577138	25.0955	0.848771	37.9301	0.183465	9.87851	0.440629	19.0635	0.711302	30.9976
0.145959	6.23151	0.0386542	1.52258	0.310348	12.8664	0.511607	21.2435	0.578585	24.1788	0.849636	36.4511	0.185794	9.70483	0.442333	18.3957	0.712329	29.8311
0.151636	6.22623	0.0399202	1.53778	0.312609	12.4781	0.51244	20.4855	0.580082	23.3329	0.850534	35.0871	0.188657	9.51057	0.444096	17.7801	0.713394	28.7538
0.157296	6.22065	0.0409239	1.54943	0.314934	12.1202	0.513316	19.7837	0.581629	22.5501	0.851466	33.8255	0.192079	9.30233	0.445918	17.211	0.714498	27.756
0.162937	6.21476	0.0416632	1.55779	0.317321	11.7893	0.514236	19.1321	0.583224	21.8236	0.852433	32.6552	0.196085	9.08633	0.447797	16.6836	0.71564	26.8293
0.168559	6.20856	0.0421369	1.56306	0.319767	11.4827	0.515202	18.5259	0.584869	21.1479	0.853433	31.5669	0.200169	8.89172	0.449733	16.1936	0.716821	25.9666
0.17416	6.20203	0.0428186	1.57052	0.321947	11.2335	0.516214	17.9606	0.586561	20.5178	0.854467	30.5522	0.204328	8.71572	0.451724	15.7373	0.71804	25.1615
0.179739	6.19515	0.0435606	1.57846	0.323839	11.0331	0.517274	17.4323	0.5883	19.9292	0.855534	29.6042	0.208555	8.556	0.453771	15.3116	0.719297	24.4087
0.185294	6.18791	0.044571	1.58902	0.325427	10.8751	0.518383	16.9379	0.590087	19.3781	0.856634	28.7164	0.212846	8.41059	0.455872	14.9137	0.720591	23.7032
0.190824	6.1803	0.0458511	1.60197	0.326698	10.7549	0.519542	16.4742	0.591919	18.8612	0.857768	27.8836	0.217198	8.2778	0.458026	14.5409	0.721923	23.0409
0.196328	6.17229	0.0474023	1.61706	0.32764	10.6691	0.520751	16.0388	0.593797	18.3755	0.858935	27.1007	0.221606	8.15619	0.460232	14.1912	0.723292	22.4179
0.201803	6.16387	0.0492255	1.63401	0.328247	10.6152	0.522013	15.6291	0.59572	17.9184	0.860134	26.3636	0.226067	8.04451	0.46249	13.8626	0.724698	21.8311
0.207247	6.15502	0.051322	1.65249	0.329124	10.5393	0.523329	15.2433	0.597687	17.4875	0.861367	25.6683	0.230577	7.9417	0.464798	13.5533	0.72614	21.2773
0.21266	6.14571	0.0534221	1.67001	0.330084	10.4586	0.524699	14.8794	0.599699	17.0807	0.862632	25.0116	0.235133	7.84682	0.467156	13.2617	0.727618	20.7541
0.218039	6.13594	0.0555254	1.68664	0.3314	10.3518	0.526124	14.5358	0.601754	16.6962	0.863929	24.3903	0.239732	7.75905	0.469563	12.9866	0.729133	20.2589
0.223381	6.12567	0.0576311	1.70242	0.333083	10.2217	0.527607	14.2109	0.603851	16.3322	0.865258	23.8018	0.244372	7.67768	0.472018	12.7266	0.730683	19.7897
0.228685	6.11489	0.0597389	1.71742	0.335143	10.071	0.529147	13.9035	0.605991	15.9872	0.86662	23.2435	0.249049	7.60209	0.47452	12.4805	0.732269	19.3445
0.233949	6.10357	0.0618482	1.73167	0.337596	9.90308	0.530746	13.6123	0.608173	15.6598	0.868013	22.7133	0.253761	7.53173	0.477068	12.2474	0.73389	18.9216
0.239169	6.09169	0.0639588	1.74524	0.340458	9.72133	0.532404	13.3362	0.610395	15.3488	0.869438	22.2092	0.258505	7.4661	0.479661	12.0263	0.735546	18.5194
0.244343	6.07921	0.0660702	1.75816	0.343369	9.55038	0.534124	13.0741	0.612659	15.0531	0.870895	21.7292	0.263281	7.40476	0.482299	11.8164	0.737237	18.1365
0.249469	6.06612	0.0681823	1.77047	0.346328	9.38937	0.535905	12.8252	0.614963	14.7715	0.872383	21.2718	0.268085	7.34734	0.48498	11.6169	0.738962	17.7716
0.254543	6.0524	0.0702948	1.7822	0.349336	9.23758	0.537749	12.5887	0.617307	14.5033	0.873901	20.8355	0.272915	7.29349	0.487352	11.451	0.740721	17.4235
0.259563	6.03801	0.0724074	1.7934	0.352391	9.09431	0.539657	12.3637	0.61969	14.2474	0.875451	20.4189	0.27777	7.2429	0.489399	11.3151	0.742514	17.0912
0.264527	6.02293	0.0745201	1.8041	0.355494	8.95898	0.541629	12.1495	0.622112	14.0031	0.877032	20.0207	0.282648	7.19529	0.491108	11.2064	0.74434	16.7735
0.26943	6.00713	0.0766326	1.81432	0.358645	8.83103	0.543667	11.9456	0.624572	13.7697	0.878643	19.6398	0.287548	7.15042	0.492471	11.1226	0.746199	16.4696
0.27427	5.9906	0.0787449	1.82409	0.361843	8.70997	0.54577	11.7512	0.62707	13.5465	0.880284	19.2751	0.292467	7.10806	0.493479	11.0622	0.748092	16.1787
0.279043	5.9733	0.0808568	1.83344	0.36509	8.59535	0.547657	11.5892	0.629606	13.333	0.881956	18.9256	0.297404	7.068	0.494127	11.0241	0.750016	15.8999
0.283747	5.95522	0.0829684	1.8424	0.368386	8.48678	0.549306	11.4563	0.632178	13.1284	0.883658	18.5904	0.302358	7.03007	0.495062	10.9701	0.751974	15.6326
0.288378	5.93635	0.0850794	1.85098	0.37173	8.38388	0.550698	11.3499	0.634787	12.9324	0.885389	18.2687	0.307327	6.9941	0.496084	10.9122	0.753963	15.3762
0.292934	5.91666	0.0871899	1.85921	0.375125	8.28633	0.551816	11.2679	0.637433	12.7444	0.88715	17.9598	0.31231	6.95993	0.497481	10.8351	0.755983	15.1299
0.297412	5.89614	0.0892998	1.86711	0.378571	8.19381	0.552649	11.2087	0.640114	12.5639	0.88894	17.6629	0.317306	6.92743	0.499261	10.74	0.758035	14.8933
0.301808	5.87478	0.0914092	1.87469	0.382069	8.10606	0.553186	11.1713	0.64283	12.3906	0.890759	17.3773	0.322313	6.89647	0.501432	10.6285	0.760118	14.6657
0.306121	5.85259	0.0935178	1.88198	0.38562	8.02282	0.553965	11.1183	0.645581	12.2242	0.892607	17.1025	0.327331	6.86694	0.504007	10.5023	0.762232	14.4468
0.310347	5.82955	0.0956258	1.88898	0.389226	7.94385	0.55482	11.0616	0.648367	12.0641	0.894484	16.8379	0.332358	6.83873	0.506996	10.3634	0.764376	14.236
0.314486	5.80569	0.0977331	1.89572	0.392887	7.86894	0.555997	10.986	0.651187	11.9101	0.896389	16.583	0.337392	6.81174	0.510022	10.2304	0.76655	14.033
0.318535	5.781	0.0998397	1.9022	0.396605	7.79789	0.557508	10.8926	0.653672	11.7806	0.898323	16.3371	0.342434	6.78589	0.513083	10.103	0.768754	13.8374
0.322492	5.75551	0.101946	1.90845	0.400381	7.73051	0.55937	10.7832	0.65581	11.6735	0.900284	16.1	0.347482	6.76109	0.51618	9.98089	0.770987	13.6487
0.326358	5.72923	0.104051	1.91447	0.404215	7.66663	0.561603	10.6594	0.657592	11.5872	0.902274	15.8711	0.352535	6.73727	0.519311	9.86373	0.77325	13.4666
0.33013	5.70219	0.106156	1.92027	0.408109	7.60607	0.56423	10.5232	0.65901	11.5203	0.904291	15.6501	0.357592	6.71436	0.522476	9.75128	0.775541	13.2909
0.33381	5.67442	0.108259	1.92588	0.412063	7.54869	0.566926	10.3929	0.660057	11.4719	0.906335	15.4366	0.362652	6.6923	0.525674	9.64328	0.777861	13.1211
0.337396	5.64597	0.110363	1.93128	0.416078	7.49432	0.56969	10.2682	0.66073	11.4412	0.908407	15.2302	0.367715	6.67102	0.528904	9.53949	0.780209	12.9571
0.34089	5.61686	0.112465	1.9365	0.420153	7.44283	0.572524	10.1488	0.6617	11.3976	0.910506	15.0306	0.372778	6.65047	0.532166	9.43969	0.782585	12.7985
0.344292	5.58715	0.114567	1.94155	0.42429	7.39408	0.575425	10.0345	0.662758	11.3508	0.912631	14.8375	0.377842	6.63059	0.535459	9.34368	0.784988	12.6451
0.347604	5.55687	0.116669	1.94643	0.428487	7.34792	0.578395	9.92505	0.664203	11.288	0.914783	14.6506	0.382905	6.61135	0.538782	9.25127	0.787419	12.4967
0.350827	5.52609	0.118769	1.95115	0.432745	7.30422	0.581432	9.82017	0.666042	11.2103	0.916961	14.4695	0.387967	6.59269	0.542135	9.16227	0.789877	12.3531
0.353962	5.49484	0.12087	1.95571	0.437061	7.26287	0.584536	9.71965	0.668283	11.1184	0.919165	14.2942	0.393026	6.57458	0.545518	9.07652	0.792361	12.214
0.357013	5.46318	0.122969	1.96014	0.441436	7.22372	0.587707	9.62329	0.670933	11.0138	0.921395	14.1242	0.398082	6.55696	0.548929	8.99385	0.794548	12.0963
0.359981	5.43116	0.125068	1.96442	0.445867	7.18666	0.590944	9.53088	0.674004	10.8975	0.923651	13.9594	0.403135	6.53982	0.552369	8.91413	0.796428	11.9985
0.362868	5.39883	0.127167	1.96857	0.450353	7.15157	0.594245	9.44224	0.677105	10.7852	0.925932	13.7996	0.408182	6.52311	0.555836	8.83722	0.797993	11.9193
0.365678	5.36625	0.129264	1.9726	0.454892	7.11833	0.597611	9.35719	0.680238	10.6766	0.928239	13.6445	0.413224	6.5068	0.559331	8.76297	0.799237	11.8577
0.368412	5.33345	0.131362	1.9765	0.459482	7.08684	0.601039	9.27557	0.683402	10.5717	0.93057	13.494	0.418259	6.49087	0.562852	8.69128	0.800156	11.813
0.371074	5.30049	0.133459	1.98029	0.464122	7.05699	0.60453	9.1972	0.686595	10.4702	0.932926	13.3478	0.423288	6.47527	0.5664	8.62202	0.800746	11.7847
0.373666	5.26742	0.135555	1.98397	0.468808	7.02867	0.608082	9.12194	0.689819	10.372	0.935307	13.2058	0.428308	6.45999	0.569974	8.55508	0.801596	11.7443
0.376191	5.23427	0.137651	1.98754	0.473538	7.00178	0.611694	9.04964	0.693073	10.2769	0.937712	13.0679	0.433319	6.44501	0.573573	8.49037	0.802523	11.7008
0.378652	5.20108	0.139746	1.99101	0.47831	6.97624	0.615365	8.98017	0.696356	10.1849	0.940141	12.9338	0.43832	6.43028	0.577197	8.42779	0.80379	11.6425
0.381052	5.16791	0.141841	1.99439	0.483121	6.95194	0.619094	8.91339	0.699668	10.0958	0.942594	12.8034	0.443311	6.41581	0.580846	8.36725	0.805399	11.5699
0.383095	5.13903	0.143936	1.99767	0.48797	6.92882	0.622879	8.84918	0.70301	10.0095	0.94507	12.6766	0.44829	6.40155	0.58452	8.30865	0.807359	11.4839
0.384802	5.11445	0.14603	2.00086	0.492853	6.90678	0.626719	8.78743	0.706381	9.92577	0.94757	12.5533	0.453257	6.3875	0.588218	8.25193	0.809674	11.3853
0.386192	5.09417	0.148124	2.00396	0.497768	6.88575	0.630613	8.72801	0.70978	9.84466	0.949768	12.4485	0.458211	6.37363	0.591939	8.197	0.812355	11.2753
0.387276	5.07816	0.150217	2.00699	0.502712	6.86566	0.63456	8.67082	0.713209	9.76601	0.951655	12.3611	0.463151	6.35992	0.595684	8.14379	0.815059	11.1684
0.388066	5.06641	0.15231	2.00993	0.507684	6.84645	0.638558	8.61576	0.716665	9.68972	0.953225	12.2901	0.468077	6.34637	0.599453	8.09223	0.817788	11.0645
0.388568	5.0589	0.154403	2.0128	0.512681	6.82805	0.642605	8.56273	0.720151	9.61571	0.954472	12.2348	0.472987	6.33294	0.603244	8.04227	0.82054	10.9636
0.389285	5.04811	0.156495	2.01559	0.517701	6.81039	0.646701	8.51163	0.723664	9.5439	0.955393	12.1946	0.477881	6.31963	0.607059	7.99383	0.823315	10.8654
0.390058	5.03641	0.158587	2.01832	0.522742	6.79344	0.650843	8.46239	0.727206	9.47419	0.955984	12.1691	0.482757	6.30641	0.610896	7.94686	0.826114	10.7699
0.3911	5.02052	0.160678	2.02097	0.527801	6.77713	0.655031	8.4149	0.730776	9.40652	0.956835	12.1326	0.487615	6.29328	0.614755	7.9013	0.828935	10.677
0.392401	5.00049	0.16277	2.02356	0.532878	6.76143	0.659264	8.3691	0.734374	9.34081	0.957763	12.0934	0.492455	6.28022	0.618637	7.8571	0.831779	10.5866
0.393952	4.97637	0.164861	2.02609	0.537969	6.74628	0.663538	8.3249	0.738	9.277	0.95903	12.0406	0.497275	6.26722	0.622541	7.81422	0.834645	10.4986
0.39574	4.94821	0.166951	2.02855	0.543074	6.73164	0.667854	8.28223	0.741654	9.21501	0.960639	11.9747	0.502074	6.25427	0.626467	7.7726	0.837534	10.4129
0.397753	4.9161	0.169041	2.03096	0.54819	6.71748	0.672209	8.24103	0.745336	9.15478	0.962597	11.8965	0.506852	6.24135	0.630415	7.7322	0.840444	10.3294
0.399725	4.88423	0.171132	2.03331	0.553317	6.70377	0.676603	8.20122	0.749046	9.09625	0.964909	11.8066	0.511607	6.22845	0.634385	7.69298	0.843376	10.2481
0.401659	4.85262	0.173221	2.03561	0.558452	6.69046	0.681033	8.16273	0.752785	9.03938	0.967582	11.7059	0.51634	6.21557	0.638376	7.6549	0.84633	10.1688
0.403557	4.82128	0.175311	2.03785	0.563594	6.67753	0.685499	8.12552	0.756551	8.9841	0.970276	11.6076	0.521049	6.20268	0.642389	7.61791	0.849304	10.0916
0.405421	4.79023	0.1774	2.04004	0.568742	6.66495	0.689998	8.08951	0.760346	8.93036	0.972992	11.5118	0.525733	6.18979	0.646424	7.58198	0.8523	10.0163
0.407252	4.75947	0.179489	2.04218	0.573895	6.6527	0.69453	8.05465	0.764169	8.87811	0.97573	11.4183	0.530391	6.17688	0.65048	7.54708	0.855316	9.9429
0.409052	4.72902	0.181578	2.04428	0.579051	6.64074	0.699092	8.0209	0.768021	8.82731	0.978488	11.3271	0.535023	6.16394	0.654557	7.51318	0.858353	9.87129
0.410824	4.69888	0.183666	2.04633	0.584209	6.62907	0.703684	7.98819	0.771902	8.77791	0.981267	11.2381	0.539628	6.15097	0.658656	7.48023	0.86141	9.80142
0.412567	4.66907	0.185755	2.04833	0.589368	6.61764	0.708304	7.95648	0.775812	8.72988	0.984066	11.1511	0.544205	6.13796	0.662777	7.44821	0.864487	9.73325
0.414284	4.63958	0.187843	2.05029	0.594527	6.60646	0.71295	7.92573	0.77975	8.68317	0.986886	11.0663	0.548753	6.12489	0.666918	7.41709	0.867584	9.66672
0.415977	4.61043	0.189931	2.05221	0.599685	6.59549	0.717621	7.89587	0.783719	8.63774	0.989726	10.9834	0.553272	6.11178	0.671081	7.38685	0.870701	9.60177
0.417646	4.58162	0.192018	2.05409	0.604841	6.58473	0.722316	7.86689	0.787716	8.59356	0.992586	10.9024	0.557761	6.09859	0.675264	7.35744	0.873837	9.53836
0.419293	4.55315	0.194106	2.05593	0.609995	6.57415	0.727033	7.83872	0.791744	8.55059	0.995465	10.8232	0.562219	6.08534	0.679469	7.32886	0.876993	9.47643
0.420919	4.52503	0.196193	2.05773	0.615145	6.56375	0.731771	7.81133	0.795802	8.50879	0.998364	10.7459	0.566645	6.07202	0.683694	7.30106	0.880167	9.41594
0.422526	4.49725	0.19828	2.0595	0.62029	6.5535	0.736528	7.78469	0.799891	8.46815	1.00128	10.6703	0.571039	6.05862	0.687941	7.27404	0.883361	9.35684
0.424113	4.46983	0.200367	2.06123	0.62543	6.5434	0.741303	7.75876	0.80401	8.42863			0.5754	6.04513	0.692208	7.24776	0.886573	9.2991
0.425684	4.44275	0.202454	2.06292	0.630564	6.53343	0.746094	7.73349	0.808161	8.39019			0.579728	6.03156	0.696496	7.2222	0.889804	9.24266
0.427237	4.41602	0.20454	2.06458	0.635692	6.52358	0.750901	7.70887	0.812343	8.35282			0.584021	6.01789	0.700804	7.19734	0.893054	9.1875
0.428775	4.38965	0.206627	2.06621	0.640812	6.51384	0.755721	7.68485	0.816558	8.31648			0.58828	6.00414	0.705133	7.17316	0.896322	9.13357
0.430299	4.36362	0.208713	2.0678	0.645924	6.50421	0.760554	7.6614	0.820805	8.28115			0.592504	5.99028	0.709481	7.14963	0.899608	9.08084
0.431808	4.33794	0.210799	2.06937	0.651028	6.49467	0.765397	7.6385	0.825085	8.24682			0.596692	5.97633	0.71385	7.12674	0.902911	9.02928
0.433305	4.31261	0.212885	2.07091	0.656122	6.48521	0.77025	7.61612	0.829398	8.21344			0.600844	5.96228	0.718238	7.10447	0.906233	8.97884
0.434789	4.28762	0.214971	2.07241	0.661207	6.47583	0.775112	7.59423	0.833745	8.181			0.60496	5.94812	0.722646	7.0828	0.909572	8.92949
0.436262	4.26298	0.217056	2.07389	0.666281	6.46652	0.779981	7.5728	0.838126	8.14949			0.609038	5.93387	0.727073	7.0617	0.912929	8.88121
0.437724	4.23868	0.219142	2.07534	0.671344	6.45727	0.784855	7.55181	0.842541	8.11887			0.61308	5.91951	0.731519	7.04117	0.916304	8.83397
0.439175	4.21471	0.221227	2.07677	0.676396	6.44807	0.789734	7.53124	0.846992	8.08914			0.617084	5.90505	0.735984	7.02118	0.919695	8.78773
0.440618	4.19108	0.223312	2.07817	0.681435	6.43893	0.794616	7.51107	0.851478	8.06026			0.62105	5.89049	0.740467	7.00171	0.923104	8.74247
0.442051	4.16777	0.225397	2.07954	0.686463	6.42982	0.799501	7.49127	0.856	8.03222			0.624979	5.87582	0.744968	6.98275	0.926529	8.69817
0.443476	4.1448	0.227482	2.08089	0.691477	6.42076	0.804387	7.47182	0.860558	8.00501			0.628869	5.86106	0.749487	6.96429	0.929972	8.65478
0.444893	4.12215	0.229567	2.08221	0.696478	6.41173	0.809272	7.4527	0.865152	7.9786			0.632721	5.84619	0.754022	6.9463	0.933431	8.6123
0.446304	4.09983	0.231652	2.08351	0.701465	6.40272	0.814157	7.43391	0.869783	7.95297			0.636534	5.83123	0.758575	6.92877	0.936907	8.5707
0.447707	4.07782	0.233736	2.08479	0.706438	6.39374	0.819041	7.41541	0.874451	7.92812			0.640309	5.81617	0.763144	6.91168	0.940399	8.52994
0.449104	4.05612	0.235821	2.08605	0.711396	6.38477	0.823921	7.3972	0.879157	7.90401			0.644046	5.80102	0.767729	6.89502	0.943908	8.49002
0.450496	4.03474	0.237905	2.08729	0.716339	6.37582	0.828799	7.37926	0.883899	7.88063			0.647744	5.78577	0.772329	6.87878	0.947433	8.4509
0.451882	4.01366	0.239989	2.0885	0.721266	6.36688	0.833672	7.36158	0.888679	7.85797			0.651403	5.77044	0.776944	6.86293	0.950974	8.41258
0.453263	3.99289	0.242073	2.08969	0.726177	6.35794	0.83854	7.34415	0.893496	7.83601			0.655025	5.75502	0.781574	6.84747	0.954531	8.37502
0.454639	3.97241	0.244158	2.09087	0.731072	6.34901	0.843404	7.32696	0.89835	7.81473			0.658608	5.73952	0.786217	6.83239	0.958105	8.33821
0.456012	3.95223	0.246241	2.09202	0.73595	6.34007	0.848261	7.30999	0.903242	7.79412			0.662153	5.72393	0.790874	6.81766	0.961693	8.30212
0.45738	3.93233	0.248325	2.09316	0.740812	6.33113	0.853112	7.29324	0.908171	7.77415			0.665659	5.70827	0.795544	6.80327	0.965298	8.26675
0.458745	3.91273	0.250409	2.09427	0.745655	6.32219	0.857957	7.2767	0.913137	7.7548			0.669128	5.69254	0.800226	6.78921	0.968918	8.23207
0.460107	3.89341	0.252493	2.09537	0.750481	6.31323	0.862795	7.26036	0.918139	7.73607			0.67256	5.67674	0.804919	6.77548	0.972554	8.19807
0.461466	3.87436	0.254576	2.09645	0.755288	6.30426	0.867626	7.24422	0.923177	7.71794			0.675954	5.66087	0.809624	6.76205	0.976205	8.16472
0.462823	3.85559	0.25666	2.09752	0.760078	6.29528	0.872451	7.22827	0.928251	7.70038			0.679311	5.64494	0.814339	6.74891	0.979872	8.13202
0.464177	3.83709	0.258743	2.09857	0.764848	6.28628	0.877268	7.21251	0.93336	7.68338			0.682631	5.62895	0.819065	6.73606	0.983554	8.09995
0.465529	3.81886	0.260826	2.0996	0.769599	6.27726	0.882078	7.19693	0.938504	7.66692			0.685915	5.6129	0.823799	6.72348	0.987251	8.06848
0.46688	3.80088	0.26291	2.10061	0.77433	6.26822	0.886882	7.18153	0.943682	7.65099			0.689163	5.59681	0.828543	6.71116	0.990962	8.03762
0.468229	3.78317	0.264993	2.10161	0.779042	6.25915	0.891679	7.1663	0.948894	7.63556			0.692374	5.58066	0.833294	6.69909	0.994689	8.00733
0.469576	3.76571	0.267076	2.1026	0.783733	6.25006	0.896469	7.15125	0.954138	7.62063			0.695551	5.56448	0.838053	6.68727	0.998431	7.97762
0.470923	3.7485	0.269159	2.10356	0.788404	6.24094	0.901253	7.13638	0.959414	7.60617			0.698691	5.54825	0.842819	6.67567	1.00219	7.94846
0.472269	3.73154	0.271242	2.10452	0.793054	6.23179	0.906032	7.12168	0.964722	7.59217			0.701798	5.53199	0.847592	6.66429		
0.473614	3.71482	0.273324	2.10546	0.797683	6.22261	0.910804	7.10714	0.97006	7.57861			0.70487	5.5157	0.85237	6.65312		
0.474958	3.69834	0.275407	2.10639	0.802291	6.21339	0.915572	7.09278	0.975427	7.56547			0.707907	5.49937	0.857154	6.64215		
0.476303	3.6821	0.27749	2.1073	0.806878	6.20415	0.920334	7.07858	0.980824	7.55275			0.710912	5.48303	0.861942	6.63138		
0.477647	3.66608	0.279573	2.1082	0.811442	6.19486	0.925092	7.06455	0.986248	7.54043			0.713883	5.46666	0.866734	6.62079		
0.478991	3.6503	0.281655	2.10908	0.815985	6.18555	0.929846	7.05069	0.9917	7.52848			0.716821	5.45027	0.871529	6.61038		
0.480335	3.63473	0.283738	2.10996	0.820505	6.17619	0.934596	7.03699	0.997178	7.5169			0.719727	5.43387	0.876328	6.60013		
0.48168	3.61939	0.28582	2.11082	0.825003	6.1668	0.939343	7.02346	1.00268	7.50567			0.722601	5.41747	0.881129	6.59005		
0.483025	3.60427	0.287902	2.11167	0.829478	6.15737	0.944086	7.0101					0.725444	5.40105	0.885931	6.58011		
0.484371	3.58936	0.289985	2.1125	0.833931	6.1479	0.948828	6.9969					0.728255	5.38463	0.890735	6.57032		
0.485718	3.57466	0.292067	2.11333	0.83836	6.13839	0.953567	6.98386					0.731036	5.36821	0.895539	6.56068		
0.487065	3.56016	0.294149	2.11414	0.842766	6.12884	0.958304	6.97099					0.733787	5.3518	0.900344	6.55116		
0.488414	3.54587	0.296231	2.11494	0.847148	6.11925	0.96304	6.95828					0.736509	5.33539	0.905148	6.54177		
0.489764	3.53178	0.298313	2.11573	0.851507	6.10962	0.967774	6.94573					0.739201	5.31899	0.909951	6.53249		
0.491114	3.51788	0.300395	2.11652	0.855842	6.09994	0.972508	6.93334					0.741864	5.30261	0.914753	6.52333		
0.492467	3.50418	0.302477	2.11729	0.860153	6.09023	0.977241	6.92111					0.744499	5.28624	0.919553	6.51428		
0.49382	3.49067	0.304559	2.11804	0.86444	6.08047	0.981974	6.90904					0.747106	5.26989	0.92435	6.50533		
0.495175	3.47735	0.306641	2.11879	0.868703	6.07067	0.986707	6.89713					0.749686	5.25356	0.929145	6.49647		
0.496532	3.46421	0.308723	2.11953	0.872941	6.06083	0.99144	6.88537					0.752238	5.23725	0.933936	6.48771		
0.49789	3.45125	0.310804	2.12026	0.877156	6.05095	0.996173	6.87377					0.754765	5.22097	0.938723	6.47903		
0.49925	3.43847	0.312886	2.12098	0.881345	6.04102	1.00091	6.86232					0.757265	5.20473	0.943506	6.47043		
0.500612	3.42587	0.314968	2.12169	0.885511	6.03106							0.759739	5.18851	0.948284	6.46191		
0.501976	3.41344	0.317049	2.1224	0.889651	6.02105							0.762189	5.17233	0.953056	6.45346		
0.503341	3.40118	0.319131	2.12309	0.893767	6.01101							0.764614	5.15618	0.957823	6.44508		
0.504709	3.38908	0.321212	2.12377	0.897859	6.00092							0.767014	5.14007	0.962584	6.43676		
0.506079	3.37715	0.323294	2.12445	0.901925	5.99079							0.769391	5.12401	0.967338	6.42849		
0.507451	3.36538	0.325375	2.12511	0.905967	5.98063							0.771744	5.10798	0.972085	6.42029		
0.508825	3.35377	0.327456	2.12577	0.909984	5.97042							0.774074	5.09201	0.976824	6.41214		
0.510201	3.34232	0.329538	2.12642	0.913976	5.96018							0.776382	5.07608	0.981556	6.40403		
0.51158	3.33102	0.331619	2.12706	0.917944	5.94991							0.778667	5.0602	0.986279	6.39597		
0.51296	3.31987	0.3337	2.1277	0.921886	5.93959							0.780931	5.04437	0.990994	6.38795		
0.514344	3.30887	0.335781	2.12832	0.925804	5.92924							0.783174	5.02859	0.9957	6.37996		
0.515729	3.29802	0.337862	2.12894	0.929697	5.91886							0.785396	5.01287	1.0004	6.37202		
0.517118	3.28731	0.339943	2.12955	0.933565	5.90844							0.787597	4.9972				
0.518508	3.27674	0.342025	2.13016	0.937409	5.89798							0.789779	4.98159				
0.519901	3.26631	0.344105	2.13075	0.941228	5.8875							0.79194	4.96604				
0.521297	3.25602	0.346186	2.13134	0.945022	5.87698							0.794083	4.95056				
0.522695	3.24587	0.348267	2.13193	0.948792	5.86644							0.796206	4.93513				
0.524096	3.23585	0.350348	2.1325	0.952538	5.85586							0.798311	4.91977				
0.5255	3.22596	0.352429	2.13307	0.956258	5.84526							0.800398	4.90447				
0.526906	3.21619	0.35451	2.13363	0.959955	5.83462							0.802468	4.88923				
0.528315	3.20656	0.356591	2.13419	0.963627	5.82396							0.80452	4.87407				
0.529726	3.19705	0.358672	2.13474	0.967276	5.81328							0.806555	4.85897				
0.531141	3.18766	0.360752	2.13528	0.9709	5.80257							0.808573	4.84394				
0.532558	3.17839	0.362833	2.13582	0.9745	5.79183							0.810575	4.82898				
0.533977	3.16924	0.364914	2.13635	0.978076	5.78108							0.812562	4.8141				
0.5354	3.16021	0.366994	2.13688	0.981629	5.7703							0.814532	4.79928				
0.536825	3.15129	0.369075	2.1374	0.985157	5.7595							0.816488	4.78454				
0.538253	3.14249	0.371155	2.13791	0.988663	5.74868							0.818428	4.76987				
0.539684	3.13379	0.373236	2.13842	0.992144	5.73784							0.820354	4.75527				
0.541118	3.12521	0.375317	2.13892	0.995603	5.72698							0.822266	4.74075				
0.542555	3.11674	0.377397	2.13942	0.999038	5.7161							0.824164	4.7263				
0.543994	3.10837	0.379477	2.13991	1.00245	5.70521							0.826048	4.71193				
0.545436	3.10011	0.381558	2.14039									0.82792	4.69764				
0.546881	3.09195	0.383638	2.14088									0.829778	4.68342				
0.54833	3.08389	0.385719	2.14135									0.831623	4.66929				
0.54978	3.07593	0.387799	2.14182									0.833456	4.65523				
0.551234	3.06807	0.389879	2.14229									0.835277	4.64124				
0.552691	3.06031	0.39196	2.14275									0.837086	4.62734				
0.55415	3.05264	0.39404	2.14321									0.838883	4.61351				
0.555612	3.04507	0.39612	2.14366									0.84067	4.59977				
0.557077	3.03759	0.3982	2.1441									0.842445	4.5861				
0.558545	3.0302	0.40028	2.14455									0.844209	4.57252				
0.560016	3.0229	0.402361	2.14498									0.845964	4.55901				
0.56149	3.01569	0.404441	2.14542									0.847707	4.54559				
0.562967	3.00856	0.406521	2.14585									0.849441	4.53224				
0.564446	3.00152	0.408601	2.14627									0.851165	4.51898				
0.565929	2.99457	0.410681	2.14669									0.85288	4.50579				
0.567414	2.9877	0.412761	2.14711									0.854585	4.49269				
0.568902	2.98091	0.414841	2.14752									0.856282	4.47966				
0.570393	2.9742	0.416921	2.14793									0.857969	4.46672				
0.571887	2.96758	0.419001	2.14833									0.859648	4.45386				
0.573383	2.96103	0.421081	2.14873									0.861319	4.44108				
0.574883	2.95455	0.423161	2.14913									0.862981	4.42837				
0.576385	2.94816	0.425241	2.14952									0.864636	4.41575				
0.57789	2.94184	0.427321	2.14991									0.866283	4.40321				
0.579398	2.93559	0.4294	2.15029									0.867922	4.39075				
0.580908	2.92942	0.43148	2.15067									0.869554	4.37837				
0.582422	2.92331	0.43356	2.15105									0.871179	4.36607				
0.583938	2.91728	0.43564	2.15142									0.872797	4.35385				
0.585457	2.91132	0.43772	2.15179									0.874408	4.3417				
0.586979	2.90543	0.439799	2.15216									0.876012	4.32964				
0.588504	2.8996	0.441879	2.15252									0.87761	4.31766				
0.590031	2.89384	0.443959	2.15288									0.879202	4.30575				
0.591561	2.88815	0.446039	2.15324									0.880788	4.29393				
0.593094	2.88252	0.448118	2.15359									0.882367	4.28218				
0.59463	2.87696	0.450198	2.15394									0.883942	4.27051				
0.596168	2.87146	0.452277	2.15429									0.88551	4.25891				
0.597709	2.86602	0.454357	2.15463									0.887073	4.2474				
0.599253	2.86064	0.456437	2.15497									0.888631	4.23596				
0.600799	2.85532	0.458516	2.15531									0.890184	4.2246				
0.602348	2.85006	0.460596	2.15565									0.891731	4.21332				
0.6039	2.84486	0.462675	2.15598									0.893274	4.20211				
0.605454	2.83972	0.464755	2.15631									0.894812	4.19097				
0.607011	2.83464	0.466834	2.15663									0.896346	4.17992				
0.608571	2.82961	0.468914	2.15695									0.897875	4.16893				
0.610133	2.82464	0.470993	2.15727									0.8994	4.15803				
0.611698	2.81972	0.473073	2.15759									0.90092	4.14719				
0.613266	2.81486	0.475152	2.15791									0.902437	4.13643				
0.614836	2.81005	0.477232	2.15822									0.903949	4.12575				
0.616408	2.80529	0.479311	2.15853									0.905458	4.11514				
0.617983	2.80058	0.481391	2.15883									0.906963	4.1046				
0.619561	2.79593	0.48347	2.15914									0.908465	4.09413				
0.621141	2.79132	0.485549	2.15944									0.909963	4.08373				
0.622724	2.78677	0.487629	2.15974									0.911458	4.07341				
0.62431	2.78226	0.489708	2.16003									0.91295	4.06316				
0.625897	2.7778	0.491787	2.16033									0.914438	4.05298				
0.627488	2.77339	0.493867	2.16062									0.915923	4.04286				
0.62908	2.76903	0.495946	2.16091									0.917406	4.03282				
0.630676	2.76471	0.498025	2.16119									0.918885	4.02285				
0.632273	2.76044	0.500105	2.16148									0.920362	4.01295				
0.633874	2.75622	0.502184	2.16176									0.921837	4.00311				
0.635476	2.75204	0.504263	2.16204									0.923308	3.99335				
0.637081	2.7479	0.506342	2.16231									0.924777	3.98365				
0.638689	2.74381	0.508421	2.16259									0.926244	3.97402				
0.640298	2.73976	0.510501	2.16286									0.927709	3.96445				
0.64191	2.73575	0.51258	2.16313									0.929171	3.95496				
0.643525	2.73178	0.514659	2.1634									0.930631	3.94553				
0.645142	2.72786	0.516738	2.16367									0.93209	3.93616				
0.646761	2.72397	0.518817	2.16393									0.933546	3.92686				
0.648382	2.72013	0.520897	2.16419									0.935	3.91762				
0.650006	2.71632	0.522976	2.16445									0.936453	3.90845				
0.651632	2.71256	0.525055	2.16471									0.937903	3.89934				
0.653261	2.70883	0.527134	2.16496									0.939352	3.8903				
0.654892	2.70514	0.529213	2.16522									0.9408	3.88132				
0.656525	2.70149	0.531292	2.16547									0.942246	3.8724				
0.65816	2.69788	0.533371	2.16572									0.94369	3.86354				
0.659797	2.6943	0.53545	2.16597									0.945134	3.85475				
0.661437	2.69076	0.537529	2.16621									0.946575	3.84601				
0.663079	2.68725	0.539608	2.16646									0.948016	3.83734				
0.664723	2.68378	0.541687	2.1667									0.949455	3.82873				
0.666369	2.68034	0.543766	2.16694									0.950894	3.82017				
0.668018	2.67694	0.545845	2.16718									0.952331	3.81168				
0.669668	2.67357	0.547924	2.16741									0.953767	3.80324				
0.671321	2.67024	0.550003	2.16765									0.955202	3.79487				
0.672976	2.66694	0.552082	2.16788									0.956636	3.78655				
0.674633	2.66367	0.554161	2.16811									0.958069	3.77829				
0.676292	2.66044	0.55624	2.16834									0.959502	3.77009				
0.677953	2.65723	0.558319	2.16857									0.960934	3.76194				
0.679616	2.65406	0.560398	2.1688									0.962365	3.75385				
0.681282	2.65092	0.562477	2.16902									0.963795	3.74582				
0.682949	2.64781	0.564555	2.16925									0.965225	3.73784				
0.684619	2.64473	0.566634	2.16947									0.966654	3.72992				
0.68629	2.64167	0.568713	2.16969									0.968083	3.72205				
0.687964	2.63865	0.570792	2.1699									0.969511	3.71424				
0.68964	2.63566	0.572871	2.17012									0.970939	3.70648				
0.691317	2.6327	0.57495	2.17034									0.972367	3.69877				
0.692997	2.62976	0.577028	2.17055									0.973794	3.69112				
0.694678	2.62686	0.579107	2.17076									0.97522	3.68352				
0.696362	2.62398	0.581186	2.17097									0.976647	3.67597				
0.698047	2.62113	0.583265	2.17118									0.978073	3.66847				
0.699735	2.6183	0.585344	2.17139									0.979499	3.66103				
0.701424	2.61551	0.587422	2.17159									0.980925	3.65363				
0.703115	2.61274	0.589501	2.1718									0.982351	3.64629				
0.704809	2.60999	0.59158	2.172									0.983777	3.639				
0.706504	2.60727	0.593659	2.1722									0.985203	3.63176				
0.708201	2.60458	0.595737	2.1724									0.986629	3.62456				
0.7099	2.60191	0.597816	2.1726									0.988054	3.61742				
0.7116	2.59927	0.599895	2.1728									0.98948	3.61033				
0.713303	2.59665	0.601974	2.17299									0.990906	3.60328				
0.715007	2.59406	0.604052	2.17319									0.992332	3.59628				
0.716713	2.59149	0.606131	2.17338									0.993758	3.58933				
0.718422	2.58894	0.60821	2.17357									0.995185	3.58243				
0.720131	2.58642	0.610288	2.17377									0.996611	3.57557				
0.721843	2.58392	0.612367	2.17396									0.998038	3.56876				
0.723557	2.58145	0.614446	2.17414									0.999465	3.562				
0.725272	2.57899	0.616524	2.17433									1.00089	3.55528				
0.726989	2.57656	0.618603	2.17452														
0.728707	2.57416	0.620681	2.1747														
0.730428	2.57177	0.62276	2.17488														
0.73215	2.5694	0.624839	2.17507														
0.733874	2.56706	0.626917	2.17525														
0.7356	2.56474	0.628996	2.17543														
0.737327	2.56244	0.631074	2.1756														
0.739056	2.56016	0.633153	2.17578														
0.740787	2.5579	0.635232	2.17596														
0.742519	2.55566	0.63731	2.17613														
0.744253	2.55344	0.639389	2.17631														
0.745989	2.55124	0.641467	2.17648														
0.747726	2.54906	0.643546	2.17665														
0.749465	2.54689	0.645624	2.17682														
0.751206	2.54475	0.647703	2.17699														
0.752948	2.54263	0.649781	2.17716														
0.754692	2.54052	0.65186	2.17733														
0.756437	2.53844	0.653938	2.17749														
0.758184	2.53637	0.656017	2.17766														
0.759933	2.53432	0.658095	2.17782														
0.761683	2.53229	0.660174	2.17798														
0.763435	2.53028	0.662252	2.17815														
0.765188	2.52828	0.664331	2.17831														
0.766943	2.5263	0.666409	2.17847														
0.768699	2.52434	0.668487	2.17863														
0.770457	2.52239	0.670566	2.17878														
0.772216	2.52046	0.672644	2.17894														
0.773977	2.51855	0.674723	2.1791														
0.775739	2.51666	0.676801	2.17925														
0.777503	2.51478	0.678879	2.17941														
0.779268	2.51291	0.680958	2.17956														
0.781035	2.51107	0.683036	2.17971														
0.782803	2.50924	0.685115	2.17986														
0.784572	2.50742	0.687193	2.18001														
0.786343	2.50562	0.689271	2.18016														
0.788116	2.50383	0.69135	2.18031														
0.789889	2.50206	0.693428	2.18046														
0.791665	2.50031	0.695506	2.1806														
0.793441	2.49857	0.697585	2.18075														
0.795219	2.49684	0.699663	2.1809														
0.796999	2.49513	0.701741	2.18104														
0.798779	2.49343	0.70382	2.18118														
0.800561	2.49174	0.705898	2.18133														
0.802345	2.49007	0.707976	2.18147														
0.80413	2.48842	0.710054	2.18161														
0.805916	2.48678	0.712133	2.18175														
0.807703	2.48515	0.714211	2.18189														
0.809492	2.48353	0.716289	2.18203														
0.811282	2.48193	0.718368	2.18216														
0.813074	2.48034	0.720446	2.1823														
0.814867	2.47876	0.722524	2.18244														
0.816661	2.4772	0.724602	2.18257														
0.818456	2.47565	0.72668	2.18271														
0.820253	2.47411	0.728759	2.18284														
0.82205	2.47259	0.730837	2.18297														
0.823849	2.47107	0.732915	2.1831														
0.82565	2.46957	0.734993	2.18324														
0.827451	2.46808	0.737072	2.18337														
0.829254	2.4666	0.73915	2.1835														
0.831058	2.46514	0.741228	2.18362														
0.832864	2.46369	0.743306	2.18375														
0.83467	2.46224	0.745384	2.18388														
0.836478	2.46081	0.747462	2.18401														
0.838287	2.45939	0.749541	2.18413														
0.840097	2.45798	0.751619	2.18426														
0.841908	2.45659	0.753697	2.18438														
0.843721	2.4552	0.755775	2.18451														
0.845534	2.45383	0.757853	2.18463														
0.847349	2.45246	0.759931	2.18475														
0.849165	2.45111	0.762009	2.18488														
0.850982	2.44977	0.764088	2.185														
0.852801	2.44843	0.766166	2.18512														
0.85462	2.44711	0.768244	2.18524														
0.85644	2.4458	0.770322	2.18536														
0.858262	2.4445	0.7724	2.18548														
0.860085	2.4432	0.774478	2.1856														
0.861909	2.44192	0.776556	2.18571														
0.863734	2.44065	0.778634	2.18583														
0.86556	2.43939	0.780712	2.18595														
0.867387	2.43814	0.78279	2.18606														
0.869215	2.43689	0.784868	2.18618														
0.871045	2.43566	0.786946	2.18629														
0.872875	2.43444	0.789025	2.18641														
0.874706	2.43322	0.791103	2.18652														
0.876539	2.43202	0.793181	2.18663														
0.878373	2.43082	0.795259	2.18674														
0.880207	2.42963	0.797337	2.18686														
0.882043	2.42845	0.799415	2.18697														
0.88388	2.42728	0.801493	2.18708														
0.885717	2.42612	0.803571	2.18719														
0.887556	2.42497	0.805649	2.1873														
0.889396	2.42383	0.807727	2.1874														
0.891237	2.42269	0.809805	2.18751														
0.893078	2.42157	0.811883	2.18762														
0.894921	2.42045	0.813961	2.18773														
0.896765	2.41934	0.816039	2.18783														
0.89861	2.41824	0.818117	2.18794														
0.900455	2.41714	0.820194	2.18804														
0.902302	2.41606	0.822272	2.18815														
0.90415	2.41498	0.82435	2.18825														
0.905999	2.41391	0.826428	2.18836														
0.907848	2.41285	0.828506	2.18846														
0.909699	2.4118	0.830584	2.18856														
0.91155	2.41075	0.832662	2.18866														
0.913403	2.40971	0.83474	2.18877														
0.915256	2.40868	0.836818	2.18887														
0.91711	2.40766	0.838896	2.18897														
0.918966	2.40664	0.840974	2.18907														
0.920822	2.40563	0.843052	2.18917														
0.922679	2.40463	0.84513	2.18927														
0.924537	2.40364	0.847207	2.18937														
0.926396	2.40265	0.849285	2.18946														
0.928255	2.40167	0.851363	2.18956														
0.930116	2.4007	0.853441	2.18966														
0.931978	2.39973	0.855519	2.18975														
0.93384	2.39877	0.857597	2.18985														
0.935703	2.39782	0.859675	2.18995														
0.937568	2.39687	0.861753	2.19004														
0.939433	2.39594	0.86383	2.19014														
0.941299	2.395	0.865908	2.19023														
0.943165	2.39408	0.867986	2.19033														
0.945033	2.39316	0.870064	2.19042														
0.946901	2.39225	0.872142	2.19051														
0.948771	2.39134	0.87422	2.1906														
0.950641	2.39044	0.876297	2.1907														
0.952512	2.38955	0.878375	2.19079														
0.954384	2.38866	0.880453	2.19088														
0.956257	2.38778	0.882531	2.19097														
0.95813	2.3869	0.884609	2.19106														
0.960004	2.38603	0.886686	2.19115														
0.961879	2.38517	0.888764	2.19124														
0.963755	2.38431	0.890842	2.19133														
0.965632	2.38346	0.89292	2.19142														
0.96751	2.38262	0.894998	2.19151														
0.969388	2.38178	0.897075	2.19159														
0.971267	2.38095	0.899153	2.19168														
0.973147	2.38012	0.901231	2.19177														
0.975028	2.3793	0.903309	2.19185														
0.976909	2.37848	0.905386	2.19194														
0.978791	2.37767	0.907464	2.19203														
0.980674	2.37686	0.909542	2.19211														
0.982558	2.37606	0.911619	2.1922														
0.984442	2.37527	0.913697	2.19228														
0.986328	2.37448	0.915775	2.19237														
0.988214	2.3737	0.917853	2.19245														
0.9901	2.37292	0.91993	2.19253														
0.991988	2.37215	0.922008	2.19262														
0.993876	2.37138	0.924086	2.1927														
0.995765	2.37061	0.926163	2.19278														
0.997655	2.36986	0.928241	2.19286														
0.999545	2.3691	0.930319	2.19294														
1.00144	2.36836	0.932397	2.19303														
		0.934474	2.19311														
		0.936552	2.19319														
		0.93863	2.19327														
		0.940707	2.19335														
		0.942785	2.19343														
		0.944863	2.19351														
		0.94694	2.19358														
		0.949018	2.19366														
		0.951096	2.19374														
		0.953173	2.19382														
		0.955251	2.1939														
		0.957328	2.19397														
		0.959406	2.19405														
		0.961484	2.19413														
		0.963561	2.1942														
		0.965639	2.19428														
		0.967717	2.19435														
		0.969794	2.19443														
		0.971872	2.1945														
		0.973949	2.19458														
		0.976027	2.19465														
		0.978104	2.19472														
		0.980182	2.1948														
		0.98226	2.19487														
		0.984337	2.19494														
		0.986415	2.19502														
		0.988492	2.19509														
		0.99057	2.19516														
		0.992647	2.19523														
		0.994725	2.1953														
		0.996802	2.19537														
		0.99888	2.19544														
		1.00096	2.19551														
