Sym0		Asym0		Sym1		Sym2		Sym3		Sym4		Asym1		Asym2		Asym3	
457  Points		493  Points		180  Points		148  Points		132  Points		97  Points		302  Points		160  Points		129  Points	
Freq (MHz)	Vph (m/ms)	Freq (MHz)	Vph (m/ms)	Freq (MHz)	Vph (m/ms)	Freq (MHz)	Vph (m/ms)	Freq (MHz)	Vph (m/ms)	Freq (MHz)	Vph (m/ms)	Freq (MHz)	Vph (m/ms)	Freq (MHz)	Vph (m/ms)	Freq (MHz)	Vph (m/ms)
0.00522285	6.94051	0.000273769	0.165762	0.279509	45369	0.515514	1675.98	0.559048	670.15	0.83853	1950.85	0.139854	189.468	0.419292	543.913	0.698773	2933.99
0.0116887	6.94018	0.000666293	0.257926	0.27957	298.095	0.51554	415.998	0.559155	316.639	0.838572	615.908	0.140263	83.9979	0.419408	246.337	0.698811	597.346
0.0181532	6.93955	0.00122481	0.348456	0.279753	149.636	0.515596	237.495	0.55934	207.347	0.838657	365.712	0.140984	54.1928	0.41961	159.289	0.698901	332.564
0.0246154	6.93861	0.00194213	0.436761	0.280056	99.9757	0.515684	166.206	0.559601	154.19	0.838786	260.096	0.142012	40.1934	0.419899	117.752	0.699041	230.459
0.0310748	6.93742	0.00280986	0.522438	0.280481	75.1366	0.515803	127.852	0.559939	122.767	0.838958	201.837	0.143338	32.1032	0.420274	93.4429	0.699232	176.354
0.0375303	6.93593	0.00381831	0.605116	0.281025	60.2458	0.515955	103.896	0.560352	102.018	0.839174	164.922	0.144952	26.8597	0.420736	77.4928	0.699475	142.848
0.0439812	6.93416	0.00495702	0.684506	0.281687	50.3343	0.516139	87.5144	0.560842	87.2989	0.839433	139.441	0.14684	23.2037	0.421283	66.2286	0.699767	120.063
0.0504268	6.9321	0.00621508	0.7604	0.282468	43.27	0.516356	75.6072	0.561405	76.3186	0.839736	120.796	0.148991	20.5222	0.421916	57.8542	0.700111	103.566
0.0568661	6.92976	0.00758169	0.832682	0.283365	37.986	0.516607	66.5632	0.562044	67.816	0.840081	106.564	0.15139	18.4809	0.422634	51.3876	0.700505	91.0725
0.0632983	6.9271	0.00904607	0.901288	0.284377	33.8891	0.516893	59.4619	0.562756	61.0399	0.840471	95.3446	0.154023	16.8822	0.423437	46.2462	0.70095	81.2844
0.0697225	6.92415	0.0105981	0.966226	0.285503	30.6231	0.517215	53.7392	0.56354	55.5149	0.840903	86.2749	0.156876	15.6017	0.424323	42.0629	0.701445	73.4104
0.0761378	6.92089	0.0122279	1.02753	0.28674	27.9616	0.517574	49.0302	0.564397	50.9252	0.841378	78.792	0.159935	14.5571	0.425293	38.5945	0.70199	66.9403
0.0825433	6.91732	0.0139264	1.0853	0.288088	25.7532	0.51797	45.0882	0.565325	47.0534	0.841896	72.5137	0.163186	13.6919	0.426345	35.6738	0.702585	61.5304
0.0889379	6.91341	0.0156855	1.13964	0.289543	23.8933	0.518406	41.7409	0.566323	43.7442	0.842457	67.1716	0.166616	12.9661	0.42748	33.1819	0.703231	56.9408
0.0953208	6.90918	0.0174976	1.19069	0.291105	22.307	0.518882	38.8637	0.567391	40.8844	0.843061	62.5715	0.170213	12.3505	0.428695	31.032	0.703926	52.9989
0.101691	6.90461	0.0193557	1.23861	0.292769	20.9396	0.519399	36.3648	0.568528	38.389	0.843708	58.5695	0.173964	11.8234	0.429991	29.1592	0.70467	49.5772
0.108047	6.89969	0.0212539	1.28355	0.294536	19.7499	0.51996	34.1748	0.569732	36.1934	0.844397	55.0564	0.17735	11.4232	0.431367	27.5141	0.705465	46.5798
0.114387	6.89441	0.0231867	1.32568	0.296401	18.7063	0.520564	32.2402	0.571003	34.2471	0.845129	51.9483	0.180318	11.1187	0.432821	26.0583	0.706308	43.9329
0.120712	6.88876	0.0251492	1.36517	0.298363	17.7844	0.521214	30.5194	0.57234	32.5106	0.845903	49.1794	0.182826	10.889	0.434353	24.7616	0.7072	41.5788
0.127019	6.88272	0.0271374	1.40217	0.300419	16.9648	0.52191	28.9792	0.573741	30.9521	0.846719	46.6974	0.184841	10.7201	0.435961	23.5998	0.708142	39.472
0.133307	6.87629	0.0291473	1.43686	0.302567	16.2321	0.522655	27.5931	0.575207	29.5461	0.847577	44.4602	0.18634	10.6025	0.437646	22.5535	0.709131	37.5757
0.139574	6.86945	0.0311759	1.46937	0.304805	15.5737	0.523449	26.3395	0.576736	28.2717	0.848477	42.4336	0.187308	10.5299	0.439405	21.6067	0.710169	35.8603
0.14582	6.86219	0.0329566	1.49605	0.307129	14.9794	0.524295	25.2006	0.578328	27.1114	0.849419	40.5894	0.188708	10.4292	0.441237	20.7464	0.711255	34.3014
0.152043	6.85448	0.0344829	1.51765	0.309537	14.4406	0.525193	24.1617	0.579981	26.0511	0.850402	38.9043	0.190244	10.3242	0.443143	19.9615	0.712389	32.8788
0.15824	6.84631	0.03575	1.53476	0.312028	13.9505	0.526145	23.2106	0.581695	25.0786	0.851427	37.3588	0.192355	10.1885	0.445119	19.2429	0.713571	31.5755
0.164411	6.83767	0.0367548	1.54783	0.314598	13.5029	0.527152	22.337	0.583468	24.1836	0.852493	35.9365	0.195059	10.0278	0.447166	18.583	0.714799	30.3775
0.170553	6.82852	0.0374951	1.55718	0.317245	13.093	0.528217	21.532	0.585301	23.3576	0.8536	34.6233	0.198378	9.84799	0.449283	17.9749	0.716075	29.2727
0.176665	6.81886	0.0379695	1.56306	0.319968	12.7164	0.52934	20.7883	0.587191	22.593	0.854748	33.4074	0.202337	9.65534	0.451467	17.4132	0.717397	28.2507
0.182744	6.80866	0.0386523	1.57137	0.322764	12.3695	0.530523	20.0993	0.589139	21.8835	0.855936	32.2784	0.20696	9.45558	0.453718	16.893	0.718766	27.3029
0.188789	6.7979	0.0393955	1.58021	0.325631	12.0491	0.531767	19.4596	0.591144	21.2234	0.857165	31.2276	0.211664	9.27565	0.456035	16.41	0.72018	26.4215
0.194797	6.78654	0.0404079	1.59192	0.328567	11.7526	0.533074	18.8643	0.593205	20.6081	0.858435	30.2472	0.216443	9.11299	0.458416	15.9606	0.721641	25.6001
0.200765	6.77457	0.0416906	1.60623	0.331181	11.5118	0.534446	18.3091	0.595321	20.0332	0.859744	29.3304	0.22129	8.96541	0.460861	15.5416	0.723146	24.8327
0.206691	6.76195	0.043245	1.62285	0.333448	11.3183	0.535884	17.7905	0.597491	19.495	0.861093	28.4715	0.226202	8.83107	0.463368	15.1501	0.724697	24.1144
0.212573	6.74867	0.0450722	1.6414	0.335351	11.1659	0.537389	17.3052	0.599716	18.9903	0.862482	27.6651	0.231174	8.7084	0.465936	14.7837	0.726292	23.4408
0.218407	6.73468	0.0471733	1.66154	0.336873	11.0501	0.538962	16.8504	0.601993	18.5161	0.86391	26.9068	0.236201	8.59605	0.468563	14.4402	0.727932	22.8079
0.22419	6.71996	0.049278	1.68053	0.338001	10.9674	0.540606	16.4233	0.604323	18.0699	0.865377	26.1925	0.241278	8.49288	0.47125	14.1176	0.729615	22.2122
0.22992	6.70447	0.0513857	1.69844	0.338727	10.9156	0.542321	16.022	0.606705	17.6495	0.866883	25.5184	0.246403	8.39786	0.473993	13.8142	0.731342	21.6507
0.235593	6.68819	0.0534957	1.71536	0.339777	10.8424	0.54411	15.6442	0.609137	17.2526	0.868428	24.8815	0.251572	8.31014	0.476793	13.5285	0.733112	21.1205
0.241206	6.67108	0.0556075	1.73135	0.340926	10.7648	0.545972	15.2882	0.611621	16.8776	0.870011	24.2788	0.256781	8.22895	0.479647	13.259	0.734925	20.6193
0.246755	6.65311	0.0577205	1.74648	0.342502	10.6622	0.54791	14.9524	0.614154	16.5227	0.871633	23.7076	0.262027	8.15363	0.482556	13.0044	0.736781	20.1448
0.252236	6.63425	0.0598343	1.7608	0.344515	10.5371	0.549924	14.6352	0.616737	16.1865	0.873292	23.1657	0.267308	8.0836	0.485517	12.7638	0.738678	19.695
0.257646	6.61446	0.0619488	1.77437	0.346981	10.3925	0.552016	14.3354	0.619368	15.8675	0.874989	22.6509	0.27262	8.01833	0.48853	12.5359	0.740617	19.268
0.262982	6.59372	0.0640636	1.78725	0.349916	10.2317	0.554187	14.0518	0.622048	15.5647	0.876723	22.1613	0.277962	7.95738	0.491593	12.32	0.742598	18.8623
0.268239	6.57199	0.0661784	1.79948	0.353342	10.0578	0.556438	13.7833	0.624775	15.2768	0.878495	21.6951	0.28333	7.90033	0.494706	12.1151	0.744619	18.4764
0.273413	6.54927	0.068293	1.81109	0.356828	9.89465	0.558769	13.5288	0.62755	15.0028	0.880303	21.2508	0.288722	7.84684	0.497867	11.9205	0.74668	18.1089
0.278501	6.52551	0.0704074	1.82214	0.360375	9.74132	0.561181	13.2875	0.630371	14.7419	0.882149	20.827	0.294137	7.79657	0.50066	11.7588	0.748782	17.7586
0.283499	6.50071	0.0725214	1.83266	0.363982	9.59714	0.563676	13.0585	0.633239	14.4932	0.88403	20.4222	0.299571	7.74925	0.503068	11.6264	0.750923	17.4244
0.288404	6.47485	0.0746348	1.84269	0.367651	9.46144	0.566253	12.841	0.636152	14.2559	0.885947	20.0352	0.305024	7.70461	0.505079	11.5205	0.753104	17.1052
0.293213	6.44793	0.0767477	1.85224	0.371381	9.33364	0.568913	12.6344	0.63911	14.0292	0.887901	19.6651	0.310493	7.66242	0.506681	11.4389	0.755323	16.8001
0.297921	6.41995	0.0788599	1.86137	0.375174	9.21323	0.571656	12.438	0.642113	13.8127	0.889889	19.3106	0.315976	7.62248	0.507865	11.3802	0.757581	16.5082
0.302528	6.3909	0.0809713	1.87008	0.37903	9.09972	0.574483	12.2511	0.64516	13.6055	0.891913	18.971	0.321472	7.58459	0.508626	11.3431	0.759876	16.2287
0.30703	6.36081	0.0830821	1.87841	0.38295	8.99268	0.577394	12.0733	0.648251	13.4073	0.893972	18.6453	0.326979	7.54859	0.509725	11.2905	0.762209	15.961
0.311425	6.3297	0.085192	1.88638	0.386935	8.89173	0.579999	11.9253	0.651386	13.2174	0.896066	18.3327	0.332495	7.51431	0.510923	11.2343	0.76458	15.7042
0.315713	6.29758	0.0873012	1.89401	0.390986	8.79649	0.582269	11.804	0.654564	13.0355	0.898194	18.0325	0.33802	7.48163	0.512563	11.1593	0.766987	15.4578
0.319891	6.2645	0.0894097	1.90132	0.395105	8.70664	0.584181	11.7069	0.657784	12.861	0.900356	17.744	0.343551	7.4504	0.51465	11.0668	0.76943	15.2213
0.323959	6.2305	0.0915172	1.90833	0.399291	8.62187	0.585715	11.6322	0.661047	12.6935	0.902552	17.4666	0.349086	7.42052	0.517196	10.9585	0.771909	14.9939
0.327918	6.19562	0.093624	1.91505	0.403545	8.54189	0.586855	11.5783	0.664353	12.5328	0.904781	17.1996	0.354626	7.39187	0.520211	10.836	0.774424	14.7754
0.331768	6.15992	0.0957301	1.92151	0.407869	8.46643	0.587591	11.5443	0.6677	12.3784	0.907044	16.9425	0.360167	7.36436	0.523709	10.7012	0.776974	14.5651
0.335509	6.12345	0.0978353	1.92772	0.412261	8.39525	0.588655	11.4961	0.671088	12.23	0.909339	16.6949	0.36571	7.3379	0.527247	10.5722	0.779558	14.3627
0.339143	6.08628	0.0999399	1.93369	0.416723	8.32811	0.589823	11.4445	0.674075	12.1053	0.911667	16.4561	0.371252	7.3124	0.530824	10.4487	0.782177	14.1678
0.342671	6.04847	0.102044	1.93943	0.421254	8.26477	0.591427	11.3758	0.676646	12.0023	0.914028	16.2259	0.376792	7.28779	0.534439	10.3304	0.784829	13.9799
0.346096	6.01009	0.104147	1.94496	0.425853	8.20502	0.593484	11.291	0.678789	11.9193	0.91642	16.0036	0.38233	7.264	0.538091	10.217	0.787515	13.7987
0.349421	5.97121	0.106249	1.95029	0.43052	8.14865	0.596011	11.1918	0.680494	11.855	0.918844	15.7891	0.387864	7.24096	0.541779	10.1082	0.790234	13.624
0.352647	5.93189	0.108351	1.95542	0.435252	8.09547	0.599033	11.0796	0.681755	11.8085	0.9213	15.5818	0.393392	7.2186	0.545503	10.0038	0.792985	13.4553
0.355777	5.8922	0.110452	1.96037	0.440049	8.04527	0.602575	10.9563	0.682564	11.7791	0.923787	15.3815	0.398913	7.19688	0.549262	9.90351	0.795769	13.2924
0.358815	5.85221	0.112552	1.96516	0.444909	7.99788	0.606195	10.8385	0.683731	11.7372	0.926304	15.1878	0.404428	7.17575	0.553055	9.80715	0.798585	13.135
0.361764	5.81199	0.114652	1.96977	0.449829	7.95312	0.609893	10.7259	0.685004	11.6923	0.928852	15.0004	0.409933	7.15514	0.556882	9.71451	0.801432	12.9828
0.364627	5.77159	0.116751	1.97423	0.454807	7.91082	0.613667	10.6183	0.686744	11.6321	0.931431	14.8191	0.415428	7.13503	0.560742	9.62541	0.80431	12.8357
0.367407	5.73108	0.118849	1.97855	0.45984	7.87082	0.617515	10.5154	0.688959	11.5576	0.934039	14.6435	0.420912	7.11536	0.564634	9.53965	0.807218	12.6934
0.370108	5.69051	0.120947	1.98272	0.464926	7.83296	0.621435	10.4169	0.691658	11.4697	0.936677	14.4735	0.426384	7.09609	0.568558	9.45708	0.810157	12.5557
0.372733	5.64994	0.123044	1.98676	0.470062	7.79709	0.625427	10.3226	0.694852	11.3696	0.939344	14.3087	0.431842	7.07719	0.572514	9.37755	0.812742	12.4392
0.375285	5.60941	0.125141	1.99067	0.475245	7.76309	0.629488	10.2323	0.698556	11.2586	0.94204	14.149	0.437285	7.05863	0.5765	9.3009	0.814964	12.3425
0.377769	5.56897	0.127238	1.99445	0.480471	7.73081	0.633617	10.1457	0.7023	11.1515	0.944766	13.9941	0.442713	7.04036	0.580516	9.227	0.816813	12.2642
0.380186	5.52866	0.129333	1.99813	0.485739	7.70013	0.637811	10.0628	0.706085	11.0481	0.947519	13.8438	0.448124	7.02236	0.584563	9.15573	0.818283	12.2033
0.382539	5.48853	0.131429	2.00169	0.491044	7.67094	0.642069	9.98318	0.709911	10.9484	0.950301	13.698	0.453517	7.0046	0.588638	9.08697	0.819369	12.1592
0.384833	5.44861	0.133524	2.00514	0.496385	7.64312	0.646388	9.90682	0.713778	10.8521	0.953111	13.5564	0.458891	6.98706	0.592743	9.02059	0.820065	12.1312
0.38707	5.40893	0.135618	2.00849	0.501757	7.61657	0.650766	9.8335	0.717686	10.7591	0.955948	13.4189	0.464244	6.9697	0.596877	8.95651	0.821069	12.0913
0.389252	5.36952	0.137712	2.01174	0.507159	7.59121	0.655201	9.76307	0.721635	10.6693	0.958812	13.2854	0.469576	6.9525	0.601039	8.89461	0.822164	12.0484
0.391383	5.3304	0.139806	2.0149	0.512587	7.56693	0.659691	9.69537	0.725626	10.5825	0.961704	13.1556	0.474886	6.93544	0.605229	8.8348	0.823658	11.9908
0.393465	5.29161	0.141899	2.01797	0.518039	7.54366	0.664233	9.63026	0.729658	10.4987	0.964622	13.0295	0.480171	6.91849	0.609447	8.777	0.825558	11.9191
0.395242	5.25809	0.143992	2.02096	0.523513	7.52133	0.668825	9.5676	0.733734	10.4176	0.967567	12.9068	0.485432	6.90164	0.613692	8.72112	0.827869	11.8342
0.396729	5.22973	0.146084	2.02386	0.529005	7.49985	0.673465	9.50726	0.737851	10.3393	0.970155	12.8027	0.490667	6.88487	0.617965	8.66709	0.8306	11.737
0.397942	5.20643	0.148176	2.02669	0.534515	7.47916	0.67815	9.44911	0.742012	10.2636	0.972376	12.7159	0.495875	6.86815	0.622265	8.61483	0.83376	11.6286
0.398889	5.18811	0.150268	2.02944	0.540039	7.45921	0.682877	9.39304	0.746217	10.1905	0.974223	12.6454	0.501054	6.85148	0.626592	8.56426	0.836947	11.5233
0.39958	5.1747	0.15236	2.03211	0.545575	7.43994	0.687644	9.33894	0.750466	10.1197	0.975691	12.5905	0.506204	6.83482	0.630946	8.51533	0.840161	11.421
0.400019	5.16614	0.154451	2.03472	0.551122	7.4213	0.69245	9.28669	0.754759	10.0514	0.976774	12.5506	0.511324	6.81818	0.635326	8.46796	0.843401	11.3217
0.400647	5.15387	0.156542	2.03726	0.556678	7.40323	0.69729	9.23619	0.759098	9.98525	0.977469	12.5252	0.516412	6.80153	0.639732	8.42211	0.846667	11.2251
0.401326	5.14059	0.158632	2.03973	0.562241	7.38569	0.702162	9.18735	0.763484	9.92134	0.97847	12.4891	0.521468	6.78486	0.644165	8.37771	0.849959	11.1313
0.40224	5.12261	0.160722	2.04214	0.567808	7.36865	0.707064	9.14007	0.767916	9.85956	0.979561	12.4501	0.52649	6.76816	0.648624	8.33471	0.853277	11.04
0.403384	5.10001	0.162812	2.0445	0.57338	7.35206	0.711994	9.09426	0.772395	9.79984	0.981051	12.3977	0.531478	6.75141	0.653109	8.29306	0.85662	10.9513
0.40475	5.07289	0.164902	2.04679	0.578954	7.33589	0.716949	9.04985	0.776923	9.74213	0.982943	12.3324	0.53643	6.73461	0.65762	8.2527	0.859988	10.8649
0.406329	5.04138	0.166991	2.04903	0.584529	7.32011	0.721926	9.00675	0.781499	9.68635	0.985243	12.2549	0.541345	6.71774	0.662157	8.2136	0.86338	10.7809
0.40811	5.00562	0.169081	2.05121	0.590103	7.30469	0.726922	8.96488	0.786125	9.63245	0.987959	12.1658	0.546222	6.70079	0.666719	8.1757	0.866797	10.6991
0.409861	4.97029	0.17117	2.05335	0.595675	7.28959	0.731936	8.92418	0.790802	9.58039	0.991098	12.066	0.551062	6.68377	0.671306	8.13896	0.870238	10.6194
0.411583	4.93541	0.173258	2.05543	0.601244	7.2748	0.736966	8.88457	0.79553	9.53009	0.994261	11.9688	0.555862	6.66665	0.675919	8.10335	0.873703	10.5418
0.413278	4.90098	0.175347	2.05747	0.60681	7.26029	0.742007	8.84599	0.80031	9.48153	0.997449	11.874	0.560621	6.64943	0.680556	8.06883	0.877191	10.4663
0.414947	4.867	0.177435	2.05946	0.61237	7.24604	0.74706	8.80839	0.805142	9.43463	1.00066	11.7815	0.56534	6.63211	0.685219	8.03534	0.880703	10.3926
0.416592	4.83347	0.179523	2.0614	0.617923	7.23203	0.75212	8.7717	0.810027	9.38937			0.570017	6.61468	0.689906	8.00287	0.884237	10.3209
0.418214	4.8004	0.181611	2.0633	0.62347	7.21824	0.757187	8.73587	0.814965	9.34568			0.574652	6.59713	0.694617	7.97137	0.887795	10.2509
0.419814	4.76778	0.183699	2.06516	0.629008	7.20464	0.762259	8.70085	0.819958	9.30354			0.579243	6.57947	0.699353	7.94081	0.891375	10.1827
0.421393	4.73561	0.185786	2.06698	0.634538	7.19123	0.767333	8.6666	0.825005	9.26288			0.583791	6.56169	0.704112	7.91116	0.894977	10.1162
0.422954	4.70389	0.187874	2.06876	0.640057	7.178	0.772408	8.63307	0.830106	9.22367			0.588295	6.54378	0.708894	7.88238	0.898601	10.0513
0.424496	4.67263	0.189961	2.0705	0.645566	7.16491	0.777482	8.60023	0.835262	9.18586			0.592754	6.52575	0.7137	7.85444	0.902247	9.988
0.426021	4.64181	0.192048	2.0722	0.651064	7.15197	0.782554	8.56803	0.840473	9.14941			0.597167	6.50759	0.718528	7.82732	0.905914	9.92622
0.427531	4.61144	0.194135	2.07387	0.656549	7.13916	0.787624	8.53646	0.845737	9.11429			0.601536	6.48931	0.723379	7.80098	0.909603	9.86592
0.429025	4.58152	0.196221	2.0755	0.662021	7.12646	0.792689	8.50546	0.851057	9.08044			0.605858	6.4709	0.728251	7.7754	0.913313	9.80706
0.430504	4.55203	0.198308	2.0771	0.667479	7.11387	0.797749	8.47503	0.856429	9.04782			0.610134	6.45236	0.733145	7.75055	0.917044	9.74958
0.431971	4.52298	0.200394	2.07867	0.672923	7.10137	0.802803	8.44514	0.861856	9.0164			0.614364	6.4337	0.738059	7.7264	0.920796	9.69345
0.433425	4.49436	0.20248	2.08021	0.678352	7.08897	0.807851	8.41576	0.867334	8.98612			0.618547	6.41491	0.742994	7.70293	0.924568	9.63862
0.434867	4.46616	0.204566	2.08171	0.683765	7.07663	0.812893	8.38688	0.872865	8.95696			0.622683	6.39601	0.747948	7.68011	0.92836	9.58506
0.436298	4.43839	0.206652	2.08319	0.689162	7.06437	0.817928	8.35848	0.878446	8.92887			0.626773	6.37699	0.752921	7.65792	0.932173	9.53272
0.437719	4.41104	0.208738	2.08463	0.694542	7.05217	0.822955	8.33054	0.884078	8.90181			0.630815	6.35785	0.757913	7.63632	0.936005	9.48157
0.43913	4.38409	0.210824	2.08605	0.699904	7.04002	0.827976	8.30306	0.889758	8.87574			0.634811	6.33861	0.762923	7.61531	0.939857	9.43158
0.440532	4.35756	0.212909	2.08745	0.705249	7.02791	0.83299	8.27601	0.895486	8.85062			0.638761	6.31925	0.767949	7.59485	0.943729	9.38271
0.441926	4.33143	0.214995	2.08881	0.710574	7.01584	0.837998	8.2494	0.90126	8.82642			0.642663	6.2998	0.772992	7.57493	0.94762	9.33492
0.443312	4.30569	0.21708	2.09015	0.715881	7.00381	0.842999	8.22321	0.90708	8.80309			0.64652	6.28024	0.778051	7.55552	0.95153	9.28819
0.444691	4.28035	0.219165	2.09147	0.721168	6.9918	0.847994	8.19744	0.912944	8.7806			0.65033	6.26059	0.783125	7.53661	0.955459	9.24249
0.446062	4.25539	0.22125	2.09276	0.726434	6.97981	0.852984	8.17208	0.91885	8.75892			0.654094	6.24085	0.788213	7.51816	0.959407	9.19778
0.447428	4.23082	0.223335	2.09402	0.73168	6.96783	0.85797	8.14712	0.924798	8.73801			0.657812	6.22103	0.793315	7.50017	0.963373	9.15404
0.448788	4.20661	0.22542	2.09527	0.736904	6.95587	0.862951	8.12255	0.930785	8.71783			0.661485	6.20112	0.798429	7.48261	0.967358	9.11125
0.450142	4.18278	0.227505	2.09649	0.742107	6.94391	0.867928	8.09838	0.936811	8.69836			0.665113	6.18115	0.803555	7.46547	0.971361	9.06937
0.451492	4.15931	0.229589	2.09769	0.747287	6.93195	0.872902	8.0746	0.942873	8.67957			0.668697	6.1611	0.808693	7.44872	0.975383	9.02837
0.452837	4.1362	0.231674	2.09887	0.752444	6.91998	0.877874	8.0512	0.948971	8.66142			0.672236	6.14099	0.81384	7.43235	0.979422	8.98825
0.454178	4.11344	0.233758	2.10003	0.757579	6.90801	0.882844	8.02818	0.955104	8.64389			0.675731	6.12083	0.818998	7.41635	0.983479	8.94896
0.455515	4.09103	0.235843	2.10116	0.762689	6.89603	0.887812	8.00554	0.961269	8.62694			0.679183	6.10061	0.824164	7.40069	0.987554	8.9105
0.456848	4.06896	0.237927	2.10228	0.767776	6.88403	0.89278	7.98326	0.967466	8.61055			0.682592	6.08034	0.829338	7.38537	0.991646	8.87284
0.458179	4.04723	0.240011	2.10338	0.772838	6.87201	0.897748	7.96136	0.973693	8.59471			0.685958	6.06003	0.834519	7.37036	0.995756	8.83595
0.459507	4.02582	0.242095	2.10446	0.777876	6.85997	0.902717	7.93982	0.979948	8.57937			0.689282	6.03969	0.839707	7.35565	0.999883	8.79981
0.460832	4.00475	0.244179	2.10553	0.782888	6.8479	0.907686	7.91864	0.986232	8.56452			0.692565	6.01931	0.8449	7.34122	1.00403	8.76442
0.462155	3.98399	0.246263	2.10657	0.787874	6.83581	0.912657	7.89781	0.992542	8.55014			0.695807	5.99891	0.850099	7.32708		
0.463477	3.96354	0.248347	2.1076	0.792834	6.82369	0.91763	7.87733	0.998877	8.5362			0.699008	5.97849	0.855301	7.31319		
0.464796	3.94341	0.250431	2.10861	0.797768	6.81153	0.922605	7.8572	1.00524	8.52268			0.70217	5.95805	0.860507	7.29955		
0.466115	3.92358	0.252514	2.10961	0.802675	6.79934	0.927584	7.83741					0.705292	5.93761	0.865715	7.28615		
0.467432	3.90405	0.254598	2.11059	0.807556	6.78712	0.932565	7.81796					0.708375	5.91715	0.870925	7.27296		
0.468748	3.88481	0.256681	2.11155	0.812408	6.77485	0.937551	7.79884					0.711421	5.8967	0.876137	7.26		
0.470063	3.86586	0.258765	2.1125	0.817234	6.76255	0.94254	7.78004					0.714428	5.87625	0.881348	7.24723		
0.471378	3.8472	0.260848	2.11343	0.822031	6.7502	0.947533	7.76157					0.717399	5.85581	0.88656	7.23466		
0.472693	3.82881	0.262932	2.11435	0.8268	6.73782	0.952531	7.74341					0.720333	5.83538	0.89177	7.22226		
0.474007	3.8107	0.265015	2.11525	0.831541	6.72539	0.957534	7.72556					0.723231	5.81497	0.896978	7.21004		
0.475321	3.79286	0.267098	2.11614	0.836253	6.71291	0.962541	7.70802					0.726094	5.79458	0.902184	7.19798		
0.476636	3.77528	0.269181	2.11702	0.840936	6.70039	0.967554	7.69078					0.728922	5.77421	0.907388	7.18608		
0.477951	3.75796	0.271264	2.11789	0.84559	6.68783	0.972571	7.67384					0.731716	5.75388	0.912587	7.17432		
0.479267	3.7409	0.273347	2.11874	0.850215	6.67521	0.977594	7.65718					0.734476	5.73358	0.917782	7.16269		
0.480583	3.72409	0.27543	2.11958	0.85481	6.66256	0.982622	7.6408					0.737204	5.71332	0.922971	7.1512		
0.4819	3.70753	0.277513	2.1204	0.859376	6.64985	0.987656	7.6247					0.739899	5.69309	0.928156	7.13982		
0.483218	3.69121	0.279596	2.12121	0.863912	6.6371	0.992695	7.60887					0.742562	5.67292	0.933334	7.12856		
0.484536	3.67513	0.281679	2.12202	0.868418	6.62431	0.997739	7.59331					0.745194	5.65279	0.938505	7.11741		
0.485856	3.65928	0.283762	2.12281	0.872894	6.61146	1.00279	7.57801					0.747795	5.63271	0.943668	7.10636		
0.487178	3.64367	0.285844	2.12359	0.87734	6.59858							0.750366	5.61269	0.948824	7.0954		
0.488501	3.62828	0.287927	2.12435	0.881756	6.58564							0.752908	5.59272	0.95397	7.08453		
0.489825	3.61311	0.290009	2.12511	0.886142	6.57266							0.75542	5.57282	0.959108	7.07374		
0.491151	3.59816	0.292092	2.12586	0.890498	6.55964							0.757904	5.55298	0.964236	7.06303		
0.492478	3.58343	0.294174	2.12659	0.894824	6.54657							0.760361	5.5332	0.969354	7.05238		
0.493807	3.5689	0.296257	2.12732	0.899119	6.53346							0.76279	5.5135	0.974461	7.04181		
0.495138	3.55459	0.298339	2.12804	0.903384	6.52031							0.765192	5.49386	0.979557	7.03129		
0.496471	3.54048	0.300422	2.12874	0.907619	6.50712							0.767568	5.4743	0.984641	7.02083		
0.497806	3.52657	0.302504	2.12944	0.911823	6.49389							0.769918	5.45482	0.989713	7.01042		
0.499143	3.51285	0.304586	2.13013	0.915998	6.48061							0.772243	5.43541	0.994772	7.00006		
0.500483	3.49933	0.306668	2.1308	0.920142	6.4673							0.774543	5.41608	0.999818	6.98974		
0.501824	3.486	0.30875	2.13147	0.924256	6.45396							0.776819	5.39684	1.00485	6.97946		
0.503168	3.47286	0.310832	2.13213	0.92834	6.44057							0.779072	5.37768				
0.504513	3.4599	0.312915	2.13278	0.932395	6.42716							0.781301	5.3586				
0.505862	3.44712	0.314997	2.13343	0.936419	6.41371							0.783507	5.33962				
0.507212	3.43452	0.317079	2.13406	0.940414	6.40022							0.785692	5.32072				
0.508566	3.42209	0.319161	2.13469	0.944378	6.38671							0.787854	5.30191				
0.509921	3.40984	0.321242	2.13531	0.948314	6.37317							0.789996	5.2832				
0.51128	3.39775	0.323324	2.13592	0.95222	6.3596							0.792117	5.26458				
0.51264	3.38583	0.325406	2.13652	0.956096	6.346							0.794217	5.24605				
0.514004	3.37407	0.327488	2.13712	0.959944	6.33238							0.796298	5.22763				
0.51537	3.36247	0.32957	2.1377	0.963762	6.31873							0.798359	5.20929				
0.516739	3.35104	0.331651	2.13828	0.967552	6.30506							0.800401	5.19106				
0.51811	3.33975	0.333733	2.13886	0.971312	6.29137							0.802424	5.17293				
0.519484	3.32862	0.335815	2.13942	0.975045	6.27766							0.80443	5.15489				
0.520861	3.31764	0.337896	2.13998	0.978748	6.26393							0.806418	5.13696				
0.522241	3.3068	0.339978	2.14054	0.982424	6.25019							0.808388	5.11913				
0.523624	3.29611	0.34206	2.14108	0.986071	6.23642							0.810342	5.10141				
0.525009	3.28556	0.344141	2.14162	0.98969	6.22265							0.812279	5.08378				
0.526398	3.27516	0.346223	2.14215	0.993282	6.20886							0.8142	5.06626				
0.527789	3.26489	0.348304	2.14268	0.996846	6.19506							0.816105	5.04885				
0.529183	3.25475	0.350386	2.1432	1.00038	6.18125							0.817995	5.03154				
0.53058	3.24475	0.352467	2.14372									0.81987	5.01433				
0.531981	3.23488	0.354548	2.14423									0.82173	4.99724				
0.533384	3.22514	0.35663	2.14473									0.823576	4.98024				
0.534789	3.21553	0.358711	2.14522									0.825408	4.96336				
0.536198	3.20604	0.360792	2.14572									0.827227	4.94658				
0.53761	3.19667	0.362874	2.1462									0.829032	4.92991				
0.539025	3.18743	0.364955	2.14668									0.830824	4.91334				
0.540443	3.1783	0.367036	2.14716									0.832604	4.89689				
0.541864	3.16929	0.369117	2.14763									0.834371	4.88054				
0.543288	3.1604	0.371199	2.14809									0.836126	4.8643				
0.544715	3.15162	0.37328	2.14855									0.83787	4.84816				
0.546145	3.14295	0.375361	2.149									0.839602	4.83214				
0.547578	3.13439	0.377442	2.14945									0.841324	4.81622				
0.549014	3.12594	0.379523	2.1499									0.843034	4.80041				
0.550453	3.11759	0.381604	2.15034									0.844734	4.7847				
0.551895	3.10935	0.383685	2.15077									0.846424	4.7691				
0.55334	3.10122	0.385766	2.1512									0.848103	4.75361				
0.554788	3.09318	0.387847	2.15163									0.849773	4.73823				
0.556239	3.08524	0.389928	2.15205									0.851433	4.72295				
0.557693	3.07741	0.392009	2.15247									0.853085	4.70778				
0.55915	3.06967	0.39409	2.15288									0.854727	4.69271				
0.56061	3.06202	0.396171	2.15329									0.85636	4.67775				
0.562074	3.05447	0.398252	2.15369									0.857985	4.6629				
0.56354	3.04701	0.400333	2.15409									0.859601	4.64815				
0.565009	3.03964	0.402414	2.15449									0.86121	4.6335				
0.566481	3.03236	0.404494	2.15488									0.862811	4.61896				
0.567956	3.02517	0.406575	2.15526									0.864404	4.60452				
0.569434	3.01806	0.408656	2.15565									0.865989	4.59019				
0.570915	3.01104	0.410737	2.15603									0.867568	4.57595				
0.5724	3.00411	0.412817	2.1564									0.869139	4.56183				
0.573887	2.99726	0.414898	2.15678									0.870704	4.5478				
0.575377	2.99049	0.416979	2.15715									0.872261	4.53387				
0.57687	2.9838	0.41906	2.15751									0.873813	4.52005				
0.578365	2.97719	0.42114	2.15787									0.875358	4.50632				
0.579864	2.97066	0.423221	2.15823									0.876897	4.4927				
0.581366	2.9642	0.425301	2.15858									0.878431	4.47917				
0.58287	2.95782	0.427382	2.15893									0.879958	4.46574				
0.584378	2.95152	0.429463	2.15928									0.88148	4.45241				
0.585888	2.94529	0.431543	2.15963									0.882996	4.43918				
0.587402	2.93913	0.433624	2.15997									0.884508	4.42605				
0.588918	2.93304	0.435704	2.16031									0.886014	4.41301				
0.590437	2.92702	0.437785	2.16064									0.887515	4.40007				
0.591958	2.92108	0.439865	2.16097									0.889012	4.38722				
0.593483	2.9152	0.441946	2.1613									0.890503	4.37447				
0.595011	2.90939	0.444026	2.16163									0.891991	4.36182				
0.596541	2.90364	0.446107	2.16195									0.893474	4.34925				
0.598074	2.89796	0.448187	2.16227									0.894952	4.33678				
0.59961	2.89234	0.450268	2.16258									0.896427	4.3244				
0.601149	2.88679	0.452348	2.1629									0.897898	4.31212				
0.60269	2.8813	0.454429	2.16321									0.899364	4.29992				
0.604234	2.87588	0.456509	2.16351									0.900828	4.28782				
0.605781	2.87051	0.458589	2.16382									0.902287	4.2758				
0.607331	2.8652	0.46067	2.16412									0.903743	4.26388				
0.608883	2.85996	0.46275	2.16442									0.905196	4.25204				
0.610438	2.85477	0.464831	2.16472									0.906645	4.24029				
0.611996	2.84964	0.466911	2.16501									0.908092	4.22863				
0.613556	2.84456	0.468991	2.1653									0.909535	4.21705				
0.615119	2.83954	0.471072	2.16559									0.910976	4.20557				
0.616685	2.83458	0.473152	2.16588									0.912413	4.19416				
0.618253	2.82967	0.475232	2.16616									0.913848	4.18284				
0.619824	2.82481	0.477312	2.16645									0.91528	4.17161				
0.621398	2.82001	0.479393	2.16673									0.91671	4.16046				
0.622974	2.81526	0.481473	2.167									0.918137	4.14939				
0.624553	2.81056	0.483553	2.16728									0.919563	4.13841				
0.626134	2.80591	0.485633	2.16755									0.920985	4.1275				
0.627718	2.80132	0.487713	2.16782									0.922406	4.11668				
0.629305	2.79677	0.489794	2.16809									0.923825	4.10594				
0.630894	2.79227	0.491874	2.16835									0.925241	4.09528				
0.632485	2.78782	0.493954	2.16862									0.926656	4.08469				
0.634079	2.78341	0.496034	2.16888									0.928069	4.07419				
0.635676	2.77905	0.498114	2.16913									0.92948	4.06376				
0.637275	2.77474	0.500194	2.16939									0.930889	4.05341				
0.638876	2.77048	0.502275	2.16965									0.932297	4.04314				
0.64048	2.76625	0.504355	2.1699									0.933704	4.03295				
0.642086	2.76208	0.506435	2.17015									0.935108	4.02282				
0.643695	2.75794	0.508515	2.1704									0.936512	4.01278				
0.645306	2.75385	0.510595	2.17064									0.937914	4.00281				
0.64692	2.74981	0.512675	2.17089									0.939315	3.99291				
0.648536	2.7458	0.514755	2.17113									0.940715	3.98309				
0.650154	2.74184	0.516835	2.17137									0.942114	3.97333				
0.651775	2.73791	0.518915	2.17161									0.943511	3.96365				
0.653398	2.73403	0.520995	2.17185									0.944908	3.95404				
0.655023	2.73019	0.523075	2.17208									0.946304	3.94451				
0.656651	2.72639	0.525155	2.17231									0.947699	3.93504				
0.658281	2.72262	0.527235	2.17254									0.949093	3.92564				
0.659913	2.7189	0.529315	2.17277									0.950486	3.91631				
0.661548	2.71521	0.531395	2.173									0.951879	3.90705				
0.663185	2.71156	0.533475	2.17323									0.95327	3.89786				
0.664824	2.70794	0.535555	2.17345									0.954662	3.88873				
0.666465	2.70436	0.537635	2.17367									0.956053	3.87967				
0.668108	2.70082	0.539715	2.17389									0.957443	3.87068				
0.669754	2.69732	0.541795	2.17411									0.958833	3.86175				
0.671402	2.69385	0.543875	2.17433									0.960222	3.85289				
0.673052	2.69041	0.545955	2.17454									0.961611	3.84409				
0.674704	2.68701	0.548035	2.17476									0.963	3.83536				
0.676359	2.68364	0.550115	2.17497									0.964388	3.82669				
0.678016	2.6803	0.552194	2.17518									0.965777	3.81808				
0.679674	2.677	0.554274	2.17539									0.967165	3.80954				
0.681335	2.67373	0.556354	2.1756									0.968552	3.80106				
0.682998	2.67049	0.558434	2.1758									0.96994	3.79264				
0.684663	2.66729	0.560514	2.17601									0.971328	3.78428				
0.68633	2.66411	0.562594	2.17621									0.972716	3.77598				
0.687999	2.66097	0.564674	2.17641									0.974103	3.76774				
0.689671	2.65785	0.566753	2.17661									0.975491	3.75955				
0.691344	2.65477	0.568833	2.17681									0.976879	3.75143				
0.693019	2.65172	0.570913	2.17701									0.978267	3.74337				
0.694697	2.64869	0.572993	2.1772									0.979655	3.73536				
0.696376	2.6457	0.575073	2.1774									0.981043	3.72742				
0.698057	2.64273	0.577152	2.17759									0.982431	3.71952				
0.699741	2.63979	0.579232	2.17778									0.98382	3.71169				
0.701426	2.63688	0.581312	2.17797									0.985209	3.70391				
0.703113	2.634	0.583392	2.17816									0.986598	3.69619				
0.704803	2.63114	0.585471	2.17835									0.987988	3.68852				
0.706494	2.62831	0.587551	2.17853									0.989378	3.6809				
0.708187	2.62551	0.589631	2.17872									0.990768	3.67334				
0.709882	2.62274	0.591711	2.1789									0.992159	3.66584				
0.711579	2.61999	0.59379	2.17908									0.99355	3.65838				
0.713278	2.61726	0.59587	2.17927									0.994942	3.65098				
0.714978	2.61457	0.59795	2.17945									0.996334	3.64363				
0.716681	2.61189	0.600029	2.17962									0.997727	3.63634				
0.718385	2.60925	0.602109	2.1798									0.99912	3.62909				
0.720092	2.60662	0.604189	2.17998									1.00051	3.6219				
0.7218	2.60402	0.606268	2.18015														
0.72351	2.60145	0.608348	2.18032														
0.725221	2.5989	0.610428	2.1805														
0.726935	2.59637	0.612507	2.18067														
0.72865	2.59386	0.614587	2.18084														
0.730367	2.59138	0.616667	2.18101														
0.732086	2.58892	0.618746	2.18118														
0.733807	2.58648	0.620826	2.18134														
0.735529	2.58407	0.622906	2.18151														
0.737253	2.58167	0.624985	2.18167														
0.738979	2.5793	0.627065	2.18184														
0.740706	2.57695	0.629144	2.182														
0.742436	2.57462	0.631224	2.18216														
0.744166	2.57231	0.633303	2.18232														
0.745899	2.57003	0.635383	2.18248														
0.747633	2.56776	0.637463	2.18264														
0.749369	2.56551	0.639542	2.18279														
0.751107	2.56328	0.641622	2.18295														
0.752846	2.56108	0.643701	2.1831														
0.754587	2.55889	0.645781	2.18326														
0.756329	2.55672	0.64786	2.18341														
0.758073	2.55457	0.64994	2.18356														
0.759819	2.55244	0.652019	2.18371														
0.761566	2.55032	0.654099	2.18386														
0.763315	2.54823	0.656178	2.18401														
0.765065	2.54615	0.658258	2.18416														
0.766817	2.5441	0.660337	2.18431														
0.768571	2.54206	0.662417	2.18446														
0.770326	2.54003	0.664496	2.1846														
0.772082	2.53803	0.666576	2.18475														
0.77384	2.53604	0.668655	2.18489														
0.7756	2.53407	0.670735	2.18503														
0.777361	2.53212	0.672814	2.18517														
0.779124	2.53018	0.674894	2.18531														
0.780888	2.52826	0.676973	2.18545														
0.782653	2.52635	0.679053	2.18559														
0.78442	2.52446	0.681132	2.18573														
0.786189	2.52259	0.683212	2.18587														
0.787959	2.52074	0.685291	2.18601														
0.78973	2.51889	0.68737	2.18614														
0.791503	2.51707	0.68945	2.18628														
0.793277	2.51526	0.691529	2.18641														
0.795053	2.51346	0.693609	2.18655														
0.79683	2.51168	0.695688	2.18668														
0.798608	2.50992	0.697767	2.18681														
0.800388	2.50817	0.699847	2.18694														
0.802169	2.50643	0.701926	2.18707														
0.803952	2.50471	0.704006	2.1872														
0.805736	2.503	0.706085	2.18733														
0.807521	2.50131	0.708164	2.18746														
0.809308	2.49963	0.710244	2.18759														
0.811096	2.49796	0.712323	2.18771														
0.812885	2.49631	0.714402	2.18784														
0.814675	2.49467	0.716482	2.18796														
0.816467	2.49305	0.718561	2.18809														
0.818261	2.49143	0.72064	2.18821														
0.820055	2.48983	0.72272	2.18833														
0.821851	2.48825	0.724799	2.18846														
0.823648	2.48667	0.726878	2.18858														
0.825446	2.48511	0.728958	2.1887														
0.827246	2.48356	0.731037	2.18882														
0.829047	2.48203	0.733116	2.18894														
0.830849	2.4805	0.735196	2.18906														
0.832652	2.47899	0.737275	2.18917														
0.834457	2.47749	0.739354	2.18929														
0.836263	2.47601	0.741434	2.18941														
0.83807	2.47453	0.743513	2.18952														
0.839878	2.47307	0.745592	2.18964														
0.841687	2.47161	0.747671	2.18975														
0.843498	2.47017	0.749751	2.18987														
0.84531	2.46874	0.75183	2.18998														
0.847123	2.46732	0.753909	2.1901														
0.848937	2.46592	0.755988	2.19021														
0.850752	2.46452	0.758068	2.19032														
0.852569	2.46313	0.760147	2.19043														
0.854387	2.46176	0.762226	2.19054														
0.856206	2.46039	0.764305	2.19065														
0.858026	2.45904	0.766385	2.19076														
0.859847	2.4577	0.768464	2.19087														
0.861669	2.45636	0.770543	2.19098														
0.863492	2.45504	0.772622	2.19108														
0.865317	2.45373	0.774701	2.19119														
0.867142	2.45243	0.776781	2.1913														
0.868969	2.45113	0.77886	2.1914														
0.870797	2.44985	0.780939	2.19151														
0.872626	2.44858	0.783018	2.19161														
0.874456	2.44732	0.785097	2.19172														
0.876287	2.44606	0.787177	2.19182														
0.878119	2.44482	0.789256	2.19192														
0.879952	2.44358	0.791335	2.19203														
0.881786	2.44236	0.793414	2.19213														
0.883621	2.44114	0.795493	2.19223														
0.885458	2.43993	0.797572	2.19233														
0.887295	2.43874	0.799652	2.19243														
0.889133	2.43755	0.801731	2.19253														
0.890973	2.43637	0.80381	2.19263														
0.892813	2.43519	0.805889	2.19273														
0.894654	2.43403	0.807968	2.19283														
0.896497	2.43288	0.810047	2.19292														
0.89834	2.43173	0.812127	2.19302														
0.900185	2.43059	0.814206	2.19312														
0.90203	2.42946	0.816285	2.19321														
0.903877	2.42834	0.818364	2.19331														
0.905724	2.42723	0.820443	2.1934														
0.907572	2.42613	0.822522	2.1935														
0.909422	2.42503	0.824601	2.19359														
0.911272	2.42394	0.82668	2.19369														
0.913123	2.42286	0.828759	2.19378														
0.914975	2.42179	0.830838	2.19387														
0.916828	2.42073	0.832918	2.19397														
0.918683	2.41967	0.834997	2.19406														
0.920538	2.41862	0.837076	2.19415														
0.922393	2.41758	0.839155	2.19424														
0.92425	2.41654	0.841234	2.19433														
0.926108	2.41552	0.843313	2.19442														
0.927967	2.4145	0.845392	2.19451														
0.929826	2.41348	0.847471	2.1946														
0.931687	2.41248	0.84955	2.19469														
0.933548	2.41148	0.851629	2.19478														
0.93541	2.41049	0.853708	2.19486														
0.937274	2.40951	0.855787	2.19495														
0.939138	2.40853	0.857866	2.19504														
0.941003	2.40756	0.859945	2.19513														
0.942868	2.4066	0.862024	2.19521														
0.944735	2.40564	0.864103	2.1953														
0.946602	2.40469	0.866182	2.19538														
0.948471	2.40375	0.868261	2.19547														
0.95034	2.40281	0.870341	2.19555														
0.95221	2.40188	0.87242	2.19564														
0.954081	2.40096	0.874499	2.19572														
0.955953	2.40004	0.876578	2.1958														
0.957825	2.39913	0.878657	2.19589														
0.959699	2.39823	0.880736	2.19597														
0.961573	2.39733	0.882815	2.19605														
0.963448	2.39644	0.884893	2.19613														
0.965324	2.39555	0.886973	2.19621														
0.967201	2.39467	0.889051	2.1963														
0.969078	2.3938	0.89113	2.19638														
0.970956	2.39293	0.893209	2.19646														
0.972835	2.39207	0.895288	2.19654														
0.974715	2.39121	0.897367	2.19662														
0.976596	2.39036	0.899446	2.19669														
0.978477	2.38952	0.901525	2.19677														
0.98036	2.38868	0.903604	2.19685														
0.982242	2.38785	0.905683	2.19693														
0.984126	2.38702	0.907762	2.19701														
0.986011	2.3862	0.909841	2.19708														
0.987896	2.38538	0.91192	2.19716														
0.989782	2.38457	0.913999	2.19724														
0.991669	2.38377	0.916078	2.19731														
0.993556	2.38297	0.918157	2.19739														
0.995445	2.38217	0.920236	2.19747														
0.997334	2.38139	0.922315	2.19754														
0.999223	2.3806	0.924394	2.19762														
1.00111	2.37982	0.926473	2.19769														
		0.928551	2.19776														
		0.93063	2.19784														
		0.932709	2.19791														
		0.934788	2.19798														
		0.936867	2.19806														
		0.938946	2.19813														
		0.941025	2.1982														
		0.943104	2.19827														
		0.945183	2.19835														
		0.947262	2.19842														
		0.94934	2.19849														
		0.951419	2.19856														
		0.953498	2.19863														
		0.955577	2.1987														
		0.957656	2.19877														
		0.959735	2.19884														
		0.961814	2.19891														
		0.963892	2.19898														
		0.965971	2.19904														
		0.96805	2.19911														
		0.970129	2.19918														
		0.972208	2.19925														
		0.974287	2.19932														
		0.976366	2.19938														
		0.978444	2.19945														
		0.980523	2.19952														
		0.982602	2.19958														
		0.984681	2.19965														
		0.98676	2.19971														
		0.988839	2.19978														
		0.990917	2.19984														
		0.992996	2.19991														
		0.995075	2.19997														
		0.997154	2.20004														
		0.999233	2.2001														
		1.00131	2.20016														
