Sym0		Asym0		Sym1		Sym2		Sym3		Sym4		Asym1		Asym2		Asym3	
457  Points		492  Points		178  Points		145  Points		129  Points		96  Points		301  Points		157  Points		127  Points	
Freq (MHz)	Vph (m/ms)	Freq (MHz)	Vph (m/ms)	Freq (MHz)	Vph (m/ms)	Freq (MHz)	Vph (m/ms)	Freq (MHz)	Vph (m/ms)	Freq (MHz)	Vph (m/ms)	Freq (MHz)	Vph (m/ms)	Freq (MHz)	Vph (m/ms)	Freq (MHz)	Vph (m/ms)
0.00481765	7.06338	0.000466115	0.217912	0.279509	6922.37	0.518332	819.53	0.559049	673.148	0.838528	2791.54	0.139877	173.621	0.419292	560.764	0.698772	4814.56
0.011398	7.06303	0.000954437	0.31082	0.279577	287.609	0.518369	331.402	0.559161	317.31	0.838565	680.611	0.140323	80.7687	0.419409	249.736	0.698807	648.946
0.0179769	7.06235	0.00160768	0.40168	0.279771	146.957	0.518439	207.719	0.559353	207.638	0.838647	387.586	0.141091	52.8621	0.419616	160.704	0.698894	347.963
0.0245534	7.06138	0.00241772	0.490003	0.280091	98.7813	0.518541	151.286	0.559626	154.355	0.838774	270.969	0.142175	39.485	0.419913	118.526	0.699034	237.749
0.0311268	7.06009	0.00337485	0.575344	0.280535	74.4687	0.518676	118.983	0.559978	122.876	0.838946	208.322	0.143565	31.6751	0.420299	93.9322	0.699227	180.589
0.0376961	7.05849	0.0044685	0.657376	0.281104	59.8239	0.518844	98.0626	0.56041	102.097	0.839163	169.225	0.14525	26.5826	0.420775	77.8321	0.699472	145.614
0.0442605	7.05659	0.00568769	0.735873	0.281795	50.0476	0.519047	83.4126	0.56092	87.3616	0.839425	142.504	0.147218	23.0179	0.421339	66.4795	0.69977	122.011
0.0508191	7.05436	0.00702106	0.810665	0.282609	43.0659	0.519284	72.5831	0.561508	76.3711	0.839732	123.087	0.149454	20.3963	0.421992	58.0491	0.700121	105.013
0.057371	7.05182	0.00845737	0.881659	0.283543	37.8364	0.519557	64.2536	0.562173	67.8621	0.840084	108.343	0.151945	18.397	0.422733	51.5448	0.700524	92.19
0.0639151	7.04895	0.009986	0.948855	0.284597	33.7775	0.519867	57.6494	0.562915	61.0818	0.840481	96.7667	0.154674	16.829	0.423562	46.3772	0.700979	82.1743
0.0704506	7.04576	0.0115965	1.01227	0.285768	30.5395	0.520215	52.2859	0.563733	55.5541	0.840922	87.4382	0.157627	15.5718	0.424477	42.175	0.701487	74.1366
0.0769764	7.04222	0.0132795	1.07199	0.287054	27.8991	0.520601	47.8445	0.564625	50.9629	0.841408	79.7617	0.160789	14.5454	0.425478	38.6926	0.702046	67.5448
0.0834916	7.03834	0.015026	1.12813	0.288454	25.7073	0.521029	44.1071	0.565591	47.0901	0.841938	73.3349	0.164147	13.6949	0.426565	35.7615	0.702658	62.0422
0.0899951	7.03411	0.0168281	1.18083	0.289966	23.8607	0.521497	40.9194	0.56663	43.7805	0.842513	67.8766	0.167686	12.9811	0.427737	33.2617	0.703321	57.3804
0.0964856	7.02951	0.0186785	1.23025	0.291586	22.2855	0.522009	38.1691	0.567741	40.9206	0.843132	63.1838	0.171394	12.3756	0.428992	31.1057	0.704036	53.3811
0.102962	7.02455	0.0205708	1.27655	0.293314	20.9274	0.522564	35.7727	0.568923	38.4254	0.843795	59.1066	0.175259	11.857	0.43033	29.2282	0.704802	49.9132
0.109424	7.0192	0.0224992	1.3199	0.295146	19.7455	0.523166	33.6666	0.570175	36.2301	0.844502	55.532	0.178745	11.4632	0.431751	27.5794	0.705619	46.878
0.115868	7.01346	0.0244587	1.36049	0.29708	18.7087	0.523814	31.8017	0.571496	34.2843	0.845254	52.3727	0.181799	11.1635	0.433253	26.1207	0.706487	44.1998
0.122296	7.00731	0.0264447	1.39848	0.299113	17.7928	0.524512	30.1392	0.572885	32.5484	0.846049	49.5609	0.184378	10.9375	0.434834	24.8218	0.707406	41.8196
0.128704	7.00075	0.0284532	1.43405	0.301244	16.9786	0.525259	28.6484	0.574341	30.9907	0.846887	47.0425	0.18645	10.7713	0.436495	23.6584	0.708376	39.6908
0.135091	6.99375	0.0304811	1.46735	0.303468	16.2506	0.526058	27.3045	0.575863	29.5854	0.847769	44.7743	0.187991	10.6555	0.438234	22.6108	0.709395	37.7759
0.141456	6.9863	0.0322616	1.49464	0.305784	15.5965	0.52691	26.0871	0.57745	28.3118	0.848695	42.721	0.188986	10.5841	0.44005	21.6631	0.710465	36.0446
0.147798	6.97838	0.0337878	1.51672	0.30819	15.0061	0.527817	24.9798	0.579101	27.1524	0.849664	40.8538	0.190425	10.4849	0.441942	20.8022	0.711584	34.4719
0.154114	6.96999	0.0350551	1.53419	0.310682	14.4709	0.52878	23.9685	0.580816	26.093	0.850675	39.1487	0.192003	10.3816	0.443909	20.0169	0.712753	33.0374
0.160402	6.96109	0.0360601	1.54752	0.313258	13.9841	0.5298	23.0417	0.582593	25.1213	0.85173	37.5856	0.194171	10.2481	0.445949	19.2981	0.713971	31.7239
0.166662	6.95166	0.0368005	1.55707	0.315915	13.5396	0.530881	22.1895	0.584432	24.2273	0.852827	36.1478	0.196947	10.0898	0.448061	18.6381	0.715238	30.5168
0.172891	6.94169	0.0372751	1.56306	0.318653	13.1325	0.532022	21.4037	0.586331	23.4022	0.853967	34.821	0.200354	9.91289	0.450244	18.0301	0.716553	29.404
0.179086	6.93115	0.0379581	1.57153	0.321467	12.7586	0.533225	20.6771	0.58829	22.6385	0.855148	33.593	0.204416	9.72326	0.452498	17.4686	0.717917	28.3751
0.185246	6.92002	0.0387015	1.58053	0.324356	12.4142	0.534493	20.0035	0.590308	21.9299	0.856372	32.4533	0.209158	9.52663	0.45482	16.9486	0.719328	27.4212
0.191368	6.90827	0.0397142	1.59246	0.327318	12.0962	0.535826	19.3777	0.592385	21.2708	0.857638	31.3928	0.213981	9.34953	0.457209	16.466	0.720787	26.5344
0.197449	6.89588	0.0409973	1.60703	0.330351	11.8019	0.537226	18.7951	0.594519	20.6564	0.858945	30.4038	0.218878	9.18941	0.459665	16.017	0.722293	25.708
0.203487	6.8828	0.0425522	1.62392	0.333051	11.563	0.538695	18.2516	0.59671	20.0824	0.860293	29.4793	0.223844	9.04412	0.462185	15.5984	0.723846	24.9364
0.20948	6.86903	0.0443801	1.64278	0.335393	11.3711	0.540235	17.7436	0.598957	19.5452	0.861683	28.6134	0.228874	8.91187	0.46477	15.2075	0.725445	24.2143
0.215424	6.85452	0.0464819	1.66322	0.337358	11.22	0.541846	17.2681	0.60126	19.0414	0.863114	27.8008	0.233962	8.79109	0.467416	14.8416	0.72709	23.5372
0.221316	6.83924	0.0485874	1.68247	0.338929	11.1051	0.54353	16.8223	0.603617	18.5682	0.864585	27.0369	0.239106	8.68046	0.470124	14.4986	0.728781	22.9013
0.227152	6.82316	0.0506958	1.70061	0.340095	11.0231	0.545288	16.4037	0.606028	18.1229	0.866097	26.3174	0.2443	8.57885	0.472891	14.1767	0.730518	22.3028
0.232931	6.80624	0.0528065	1.71773	0.340845	10.9717	0.547123	16.0101	0.608492	17.7034	0.867648	25.6387	0.24954	8.48525	0.475717	13.8739	0.732299	21.7389
0.238647	6.78846	0.0549188	1.73389	0.341929	10.8992	0.549034	15.6397	0.611009	17.3075	0.86924	24.9975	0.254824	8.39883	0.478601	13.5887	0.734125	21.2065
0.244297	6.76978	0.0570324	1.74917	0.343116	10.8222	0.551024	15.2906	0.613579	16.9334	0.870872	24.3909	0.260147	8.31881	0.481541	13.3198	0.735995	20.7034
0.249879	6.75016	0.0591468	1.76362	0.344743	10.7205	0.553094	14.9612	0.616199	16.5794	0.872542	23.8162	0.265506	8.24457	0.484535	13.0659	0.737908	20.2271
0.255386	6.72958	0.0612617	1.77731	0.346822	10.5966	0.555245	14.6502	0.618871	16.2441	0.874252	23.2711	0.270899	8.1755	0.487584	12.8259	0.739865	19.7757
0.260817	6.70799	0.0633768	1.79028	0.349369	10.4534	0.557477	14.3561	0.621593	15.926	0.876001	22.7533	0.276323	8.11112	0.490684	12.5987	0.741865	19.3473
0.266167	6.68538	0.0654919	1.80259	0.352401	10.294	0.559793	14.078	0.624365	15.6241	0.877788	22.2611	0.281775	8.05097	0.493837	12.3834	0.743908	18.9404
0.271432	6.66172	0.0676068	1.81427	0.35594	10.1219	0.562192	13.8146	0.627186	15.3371	0.879614	21.7924	0.287252	7.99464	0.497039	12.1792	0.745992	18.5533
0.276607	6.63699	0.0697214	1.82538	0.359542	9.96045	0.564675	13.5651	0.630056	15.0641	0.881477	21.3459	0.292753	7.9418	0.500291	11.9852	0.748118	18.1848
0.281691	6.61116	0.0718355	1.83594	0.363207	9.80881	0.567243	13.3285	0.632974	14.8041	0.883379	20.9199	0.298274	7.89212	0.503164	11.8241	0.750285	17.8336
0.286678	6.58423	0.0739491	1.84601	0.366936	9.6663	0.569897	13.104	0.63594	14.5562	0.885318	20.5132	0.303815	7.84531	0.505641	11.6921	0.752493	17.4986
0.291565	6.5562	0.076062	1.85559	0.370729	9.53225	0.572637	12.8908	0.638953	14.3198	0.887294	20.1246	0.309372	7.80113	0.507709	11.5866	0.754741	17.1787
0.29635	6.52705	0.0781742	1.86474	0.374587	9.40611	0.575464	12.6883	0.642013	14.0941	0.889306	19.7528	0.314944	7.75935	0.509356	11.5054	0.757029	16.8729
0.30103	6.4968	0.0802857	1.87347	0.37851	9.28734	0.578376	12.4958	0.64512	13.8785	0.891356	19.3969	0.32053	7.71976	0.510574	11.4468	0.759357	16.5805
0.305601	6.46545	0.0823964	1.88181	0.382499	9.17547	0.581375	12.3128	0.648273	13.6722	0.893441	19.056	0.326127	7.68217	0.511356	11.4099	0.761723	16.3006
0.310063	6.43305	0.0845063	1.88978	0.386556	9.07007	0.58446	12.1386	0.651471	13.4749	0.895563	18.729	0.331733	7.64642	0.512485	11.3575	0.764128	16.0324
0.314414	6.3996	0.0866154	1.89741	0.390681	8.97075	0.587218	11.9936	0.654715	13.286	0.89772	18.4153	0.337347	7.61235	0.513717	11.3015	0.766572	15.7753
0.318652	6.36516	0.0887236	1.90472	0.394875	8.87714	0.589621	11.8748	0.658004	13.1049	0.899912	18.1141	0.342968	7.57983	0.515402	11.2268	0.769052	15.5286
0.322777	6.32976	0.0908311	1.91173	0.399139	8.78891	0.591643	11.7798	0.661337	12.9314	0.90214	17.8247	0.348594	7.54873	0.517548	11.1347	0.771571	15.2917
0.326789	6.29346	0.0929377	1.91845	0.403473	8.70575	0.593264	11.7066	0.664715	12.7649	0.904402	17.5464	0.354224	7.51893	0.520165	11.0268	0.774126	15.0642
0.330689	6.2563	0.0950436	1.9249	0.407879	8.62736	0.594469	11.6539	0.668137	12.6051	0.906699	17.2786	0.359855	7.49033	0.523263	10.9048	0.776717	14.8455
0.334478	6.21837	0.0971487	1.93109	0.412355	8.55348	0.595246	11.6206	0.671604	12.4516	0.90903	17.0208	0.365487	7.46283	0.526858	10.7706	0.779344	14.6351
0.338156	6.17971	0.099253	1.93705	0.416902	8.48384	0.596371	11.5734	0.675114	12.3041	0.911394	16.7725	0.371118	7.43634	0.530492	10.6422	0.782007	14.4326
0.341726	6.1404	0.101357	1.94277	0.421519	8.4182	0.597603	11.5229	0.678208	12.1803	0.913792	16.5331	0.376747	7.41078	0.534166	10.5193	0.784705	14.2376
0.34519	6.10051	0.103459	1.94829	0.426206	8.35632	0.599296	11.4555	0.680872	12.078	0.916224	16.3023	0.382372	7.38607	0.537879	10.4016	0.787437	14.0496
0.34855	6.06011	0.105561	1.9536	0.430962	8.29798	0.601465	11.3726	0.683093	11.9956	0.918688	16.0796	0.387993	7.36215	0.54163	10.2887	0.790204	13.8684
0.351809	6.01927	0.107663	1.95871	0.435785	8.24296	0.604129	11.2754	0.684861	11.9319	0.921185	15.8646	0.393608	7.33894	0.545417	10.1805	0.793004	13.6937
0.354971	5.97807	0.109764	1.96365	0.440673	8.19107	0.607311	11.1656	0.686168	11.8857	0.923714	15.6569	0.399215	7.3164	0.54924	10.0766	0.795838	13.525
0.358038	5.93657	0.111864	1.96841	0.445624	8.1421	0.611037	11.0449	0.687007	11.8565	0.926274	15.4562	0.404814	7.29445	0.553099	9.97686	0.798705	13.3622
0.361013	5.89484	0.113963	1.97301	0.450636	8.09586	0.614842	10.9296	0.688217	11.815	0.928867	15.2622	0.410403	7.27306	0.556993	9.88104	0.801604	13.2048
0.363901	5.85295	0.116062	1.97745	0.455707	8.05218	0.618723	10.8194	0.689538	11.7704	0.931491	15.0746	0.415981	7.25217	0.560921	9.78893	0.804536	13.0528
0.366704	5.81096	0.11816	1.98174	0.460833	8.01088	0.62268	10.7141	0.691343	11.7108	0.934146	14.893	0.421547	7.23174	0.564883	9.70034	0.807499	12.9058
0.369426	5.76892	0.120258	1.98589	0.466013	7.9718	0.62671	10.6133	0.69364	11.6369	0.936831	14.7172	0.427099	7.21172	0.568877	9.6151	0.810494	12.7636
0.372071	5.72689	0.122355	1.9899	0.471241	7.93478	0.630812	10.5168	0.696441	11.5497	0.939547	14.5469	0.432637	7.19208	0.572904	9.53304	0.813519	12.626
0.374641	5.68493	0.124452	1.99379	0.476517	7.89968	0.634983	10.4244	0.699756	11.4505	0.942293	14.382	0.438159	7.17278	0.576963	9.45401	0.81618	12.5097
0.37714	5.64308	0.126548	1.99755	0.481836	7.86636	0.639221	10.3359	0.703602	11.3406	0.945068	14.2221	0.443663	7.15378	0.581053	9.37786	0.818467	12.413
0.379572	5.60138	0.128643	2.0012	0.487196	7.83469	0.643524	10.251	0.707492	11.2346	0.947873	14.0671	0.44915	7.13505	0.585174	9.30445	0.820371	12.3348
0.38194	5.55987	0.130739	2.00474	0.492593	7.80455	0.64789	10.1696	0.711426	11.1323	0.950708	13.9167	0.454616	7.11657	0.589325	9.23367	0.821884	12.2741
0.384246	5.5186	0.132833	2.00817	0.498025	7.77583	0.652316	10.0915	0.715405	11.0337	0.953571	13.7708	0.460062	7.09829	0.593506	9.16539	0.823001	12.23
0.386494	5.47758	0.134928	2.0115	0.503488	7.74841	0.656801	10.0165	0.719428	10.9386	0.956462	13.6292	0.465487	7.0802	0.597717	9.0995	0.823718	12.202
0.388687	5.43687	0.137021	2.01473	0.508979	7.7222	0.661341	9.94448	0.723496	10.8468	0.959382	13.4917	0.470888	7.06227	0.601958	9.03589	0.824751	12.1622
0.390827	5.39648	0.139115	2.01787	0.514497	7.6971	0.665933	9.87519	0.72761	10.7582	0.96233	13.3581	0.476264	7.04448	0.606228	8.97447	0.825877	12.1193
0.392917	5.35643	0.141208	2.02091	0.520037	7.67304	0.670576	9.80852	0.73177	10.6727	0.965305	13.2283	0.481615	7.02679	0.610526	8.91514	0.827415	12.0618
0.39496	5.31675	0.143301	2.02388	0.525599	7.64993	0.675267	9.74434	0.735976	10.5901	0.968308	13.1022	0.48694	7.0092	0.614853	8.85781	0.82937	11.9902
0.396703	5.28249	0.145393	2.02676	0.531178	7.6277	0.680002	9.68249	0.74023	10.5104	0.971337	12.9795	0.492236	6.99167	0.619208	8.8024	0.831749	11.9055
0.398164	5.25352	0.147485	2.02956	0.536773	7.60629	0.68478	9.62286	0.744531	10.4335	0.973999	12.8754	0.497504	6.9742	0.623591	8.74884	0.834559	11.8085
0.399355	5.22973	0.149576	2.03229	0.542382	7.58562	0.689597	9.56532	0.748881	10.3592	0.976284	12.7886	0.502741	6.95675	0.628002	8.69704	0.83781	11.7002
0.400285	5.21104	0.151668	2.03494	0.548002	7.56564	0.69445	9.50974	0.75328	10.2874	0.978185	12.7182	0.507947	6.93932	0.632441	8.64694	0.841088	11.5952
0.400964	5.19736	0.153759	2.03753	0.553632	7.5463	0.699338	9.45602	0.757728	10.2182	0.979695	12.6633	0.51312	6.9219	0.636907	8.59847	0.844394	11.4931
0.401396	5.18864	0.155849	2.04004	0.55927	7.52755	0.704256	9.40405	0.762228	10.1513	0.980809	12.6234	0.51826	6.90445	0.6414	8.55157	0.847727	11.394
0.402013	5.17613	0.15794	2.0425	0.564914	7.50934	0.709203	9.35374	0.766778	10.0868	0.981523	12.5981	0.523365	6.88698	0.645921	8.50617	0.851086	11.2977
0.402679	5.16259	0.16003	2.04489	0.570562	7.49163	0.714175	9.30497	0.771381	10.0244	0.982553	12.5619	0.528434	6.86946	0.650468	8.46223	0.854472	11.204
0.403578	5.14427	0.16212	2.04722	0.576212	7.47439	0.719169	9.25767	0.776037	9.96431	0.983675	12.523	0.533467	6.85189	0.655042	8.41969	0.857884	11.113
0.404703	5.12125	0.164209	2.04949	0.581864	7.45757	0.724184	9.21174	0.780747	9.90627	0.985207	12.4707	0.538461	6.83426	0.659643	8.37849	0.861322	11.0245
0.406046	5.09364	0.166299	2.05171	0.587516	7.44115	0.729217	9.16711	0.785511	9.85028	0.987153	12.4054	0.543416	6.81655	0.664271	8.33859	0.864785	10.9384
0.407599	5.06157	0.168388	2.05388	0.593166	7.42509	0.734264	9.1237	0.790331	9.79626	0.989519	12.3279	0.548332	6.79875	0.668925	8.29993	0.868273	10.8546
0.409353	5.0252	0.170477	2.05599	0.598813	7.40937	0.739323	9.08143	0.795206	9.74417	0.992312	12.2389	0.553207	6.78086	0.673604	8.26248	0.871786	10.773
0.411076	4.98929	0.172565	2.05806	0.604456	7.39396	0.744393	9.04025	0.800139	9.69393	0.99554	12.1392	0.55804	6.76287	0.67831	8.22619	0.875324	10.6936
0.412772	4.95386	0.174654	2.06007	0.610094	7.37883	0.749471	9.00008	0.805128	9.6455	0.998793	12.0421	0.562831	6.74478	0.683041	8.19102	0.878885	10.6163
0.414442	4.9189	0.176742	2.06204	0.615726	7.36396	0.754554	8.96087	0.810175	9.59883	1.00207	11.9474	0.567579	6.72657	0.687798	8.15693	0.882471	10.541
0.416087	4.88441	0.17883	2.06397	0.62135	7.34933	0.759642	8.92256	0.81528	9.55385			0.572283	6.70824	0.69258	8.12387	0.88608	10.4676
0.417709	4.8504	0.180918	2.06585	0.626966	7.33493	0.764731	8.8851	0.820443	9.51051			0.576942	6.68979	0.697387	8.09182	0.889713	10.3961
0.419309	4.81687	0.183005	2.06769	0.632573	7.32073	0.769821	8.84845	0.825664	9.46878			0.581556	6.67122	0.702218	8.06074	0.893369	10.3264
0.420888	4.7838	0.185093	2.06949	0.63817	7.30671	0.774909	8.81257	0.830944	9.42858			0.586124	6.65252	0.707073	8.03059	0.897048	10.2584
0.422448	4.75122	0.18718	2.07125	0.643755	7.29287	0.779996	8.77741	0.836281	9.38988			0.590645	6.63369	0.711952	8.00133	0.900749	10.1922
0.423989	4.7191	0.189267	2.07297	0.649329	7.27918	0.785079	8.74294	0.841677	9.35262			0.59512	6.61473	0.716855	7.97294	0.904473	10.1275
0.425512	4.68745	0.191354	2.07466	0.654891	7.26564	0.790157	8.70914	0.847129	9.31675			0.599547	6.59564	0.72178	7.94539	0.908219	10.0645
0.42702	4.65626	0.193441	2.07631	0.660438	7.25223	0.795231	8.67597	0.852638	9.28223			0.603927	6.57642	0.726728	7.91864	0.911987	10.003
0.428512	4.62554	0.195527	2.07793	0.665972	7.23893	0.800299	8.6434	0.858203	9.249			0.60826	6.55707	0.731698	7.89267	0.915776	9.94291
0.429989	4.59527	0.197614	2.07951	0.67149	7.22574	0.805361	8.61142	0.863824	9.21702			0.612544	6.53759	0.736688	7.86743	0.919587	9.8843
0.431453	4.56546	0.1997	2.08106	0.676994	7.21264	0.810417	8.58001	0.869498	9.18624			0.61678	6.51798	0.7417	7.84292	0.92342	9.82708
0.432904	4.5361	0.201786	2.08258	0.68248	7.19963	0.815467	8.54914	0.875225	9.15662			0.620967	6.49826	0.746732	7.81909	0.927273	9.7712
0.434344	4.50718	0.203872	2.08407	0.68795	7.1867	0.820511	8.51881	0.881004	9.1281			0.625106	6.47841	0.751783	7.79593	0.931147	9.71663
0.435772	4.47869	0.205958	2.08553	0.693402	7.17384	0.825549	8.489	0.886833	9.10065			0.629197	6.45844	0.756853	7.7734	0.935041	9.66332
0.437189	4.45065	0.208044	2.08696	0.698837	7.16103	0.83058	8.45969	0.892712	9.07422			0.633239	6.43836	0.761942	7.75149	0.938956	9.61124
0.438597	4.42303	0.21013	2.08837	0.704252	7.14827	0.835607	8.43088	0.898638	9.04876			0.637233	6.41817	0.767048	7.73016	0.942891	9.56034
0.439996	4.39583	0.212215	2.08974	0.709648	7.13556	0.840629	8.40256	0.904611	9.02424			0.641179	6.39788	0.77217	7.7094	0.946846	9.5106
0.441386	4.36905	0.214301	2.09109	0.715023	7.12289	0.845646	8.37472	0.910629	9.00061			0.645077	6.37748	0.777308	7.68917	0.950821	9.46197
0.442768	4.34268	0.216386	2.09242	0.720379	7.11024	0.850659	8.34735	0.916689	8.97784			0.648928	6.35699	0.782462	7.66947	0.954816	9.41444
0.444143	4.31672	0.218471	2.09372	0.725713	7.09762	0.855669	8.32044	0.922792	8.95589			0.65273	6.33641	0.78763	7.65026	0.95883	9.36795
0.445511	4.29116	0.220556	2.09499	0.731026	7.08502	0.860676	8.29399	0.928935	8.93472			0.656486	6.31575	0.792811	7.63152	0.962863	9.3225
0.446873	4.26599	0.222641	2.09625	0.736316	7.07243	0.865682	8.26799	0.935117	8.91429			0.660195	6.29501	0.798005	7.61324	0.966915	9.27803
0.448228	4.24121	0.224726	2.09748	0.741583	7.05985	0.870686	8.24244	0.941336	8.89458			0.663857	6.27419	0.803212	7.5954	0.970986	9.23454
0.449578	4.21681	0.22681	2.09868	0.746828	7.04727	0.875689	8.21732	0.947591	8.87554			0.667474	6.25331	0.808429	7.57797	0.975075	9.19198
0.450924	4.19279	0.228895	2.09987	0.752049	7.03469	0.880692	8.19264	0.95388	8.85716			0.671045	6.23236	0.813656	7.56094	0.979183	9.15034
0.452264	4.16914	0.23098	2.10104	0.757245	7.0221	0.885695	8.16839	0.960202	8.83939			0.67457	6.21136	0.818893	7.54429	0.983309	9.10959
0.453601	4.14585	0.233064	2.10218	0.762417	7.0095	0.890699	8.14456	0.966556	8.82221			0.678051	6.1903	0.824139	7.528	0.987454	9.0697
0.454934	4.12292	0.235149	2.10331	0.767564	6.99688	0.895705	8.12114	0.972939	8.8056			0.681488	6.1692	0.829393	7.51206	0.991616	9.03065
0.456263	4.10034	0.237233	2.10441	0.772686	6.98425	0.900713	8.09814	0.979352	8.78952			0.684881	6.14806	0.834653	7.49644	0.995796	8.99242
0.457589	4.07811	0.239317	2.1055	0.777781	6.9716	0.905724	8.07554	0.985792	8.77395			0.688231	6.12689	0.83992	7.48114	0.999994	8.95498
0.458912	4.05623	0.241401	2.10657	0.78285	6.95892	0.910737	8.05335	0.992258	8.75887			0.691538	6.10569	0.845192	7.46614	1.00421	8.91832
0.460233	4.03467	0.243485	2.10762	0.787893	6.94621	0.915754	8.03154	0.998749	8.74426			0.694803	6.08447	0.850468	7.45142		
0.461551	4.01345	0.245569	2.10865	0.792908	6.93347	0.920776	8.01013	1.00526	8.73008			0.698027	6.06323	0.855748	7.43697		
0.462868	3.99255	0.247653	2.10966	0.797895	6.92071	0.925801	7.98909					0.701209	6.04198	0.861031	7.42278		
0.464183	3.97198	0.249737	2.11066	0.802855	6.9079	0.930831	7.96843					0.704352	6.02072	0.866316	7.40884		
0.465496	3.95171	0.25182	2.11165	0.807787	6.89506	0.935866	7.94814					0.707454	5.99946	0.871603	7.39513		
0.466808	3.93175	0.253904	2.11261	0.81269	6.88218	0.940906	7.92821					0.710518	5.9782	0.87689	7.38163		
0.46812	3.9121	0.255988	2.11357	0.817565	6.86926	0.945952	7.90864					0.713542	5.95695	0.882177	7.36835		
0.46943	3.89274	0.258071	2.1145	0.82241	6.8563	0.951003	7.88942					0.716529	5.93572	0.887463	7.35526		
0.47074	3.87368	0.260154	2.11542	0.827226	6.8433	0.95606	7.87054					0.719479	5.9145	0.892747	7.34236		
0.47205	3.8549	0.262238	2.11633	0.832013	6.83025	0.961124	7.852					0.722391	5.89331	0.898029	7.32964		
0.473359	3.8364	0.264321	2.11722	0.836769	6.81716	0.966193	7.83378					0.725268	5.87215	0.903308	7.31708		
0.474669	3.81818	0.266404	2.1181	0.841496	6.80402	0.971268	7.81589					0.728109	5.85101	0.908583	7.30468		
0.475979	3.80024	0.268488	2.11897	0.846192	6.79083	0.97635	7.79832					0.730915	5.82991	0.913853	7.29243		
0.477289	3.78256	0.270571	2.11982	0.850858	6.7776	0.981438	7.78105					0.733687	5.80885	0.919119	7.28032		
0.4786	3.76515	0.272654	2.12066	0.855493	6.76432	0.986532	7.76408					0.736425	5.78783	0.924378	7.26834		
0.479911	3.74799	0.274737	2.12149	0.860098	6.751	0.991632	7.74742					0.73913	5.76687	0.929631	7.25649		
0.481223	3.73109	0.27682	2.12231	0.864672	6.73763	0.996738	7.73103					0.741802	5.74595	0.934878	7.24475		
0.482536	3.71444	0.278903	2.12311	0.869214	6.72421	1.00185	7.71493					0.744442	5.72508	0.940116	7.23312		
0.48385	3.69803	0.280985	2.1239	0.873726	6.71074							0.747052	5.70428	0.945346	7.22159		
0.485165	3.68187	0.283068	2.12468	0.878207	6.69723							0.74963	5.68353	0.950567	7.21016		
0.486482	3.66594	0.285151	2.12545	0.882656	6.68367							0.752178	5.66285	0.955779	7.19881		
0.487799	3.65024	0.287234	2.12621	0.887074	6.67007							0.754697	5.64223	0.96098	7.18755		
0.489119	3.63477	0.289316	2.12696	0.891461	6.65642							0.757187	5.62169	0.966171	7.17637		
0.49044	3.61953	0.291399	2.12769	0.895816	6.64273							0.759648	5.60122	0.971351	7.16526		
0.491762	3.6045	0.293481	2.12842	0.900141	6.629							0.762081	5.58082	0.976519	7.15421		
0.493087	3.5897	0.295564	2.12914	0.904433	6.61522							0.764488	5.5605	0.981675	7.14323		
0.494413	3.5751	0.297646	2.12984	0.908695	6.60141							0.766867	5.54027	0.986818	7.1323		
0.495741	3.56072	0.299729	2.13054	0.912925	6.58755							0.76922	5.52011	0.991948	7.12142		
0.497071	3.54654	0.301811	2.13123	0.917125	6.57366							0.771548	5.50004	0.997064	7.11059		
0.498404	3.53256	0.303893	2.1319	0.921293	6.55973							0.77385	5.48006	1.00217	7.0998		
0.499738	3.51878	0.305975	2.13257	0.92543	6.54576							0.776128	5.46016				
0.501075	3.5052	0.308058	2.13323	0.929536	6.53176							0.778382	5.44036				
0.502414	3.49181	0.31014	2.13388	0.933611	6.51772							0.780612	5.42065				
0.503755	3.4786	0.312222	2.13453	0.937655	6.50365							0.782819	5.40103				
0.505098	3.46558	0.314304	2.13516	0.941669	6.48955							0.785004	5.38151				
0.506445	3.45275	0.316386	2.13579	0.945652	6.47543							0.787167	5.36209				
0.507793	3.44009	0.318468	2.13641	0.949604	6.46127							0.789308	5.34277				
0.509144	3.42761	0.32055	2.13702	0.953527	6.44709							0.791428	5.32354				
0.510498	3.4153	0.322632	2.13762	0.957419	6.43288							0.793527	5.30442				
0.511854	3.40316	0.324714	2.13821	0.961281	6.41865							0.795606	5.2854				
0.513213	3.39119	0.326796	2.1388	0.965113	6.40439							0.797666	5.26649				
0.514574	3.37938	0.328878	2.13938	0.968916	6.39012							0.799706	5.24768				
0.515939	3.36773	0.33096	2.13995	0.972688	6.37582							0.801728	5.22897				
0.517306	3.35625	0.333041	2.14052	0.976432	6.36151							0.803731	5.21038				
0.518675	3.34491	0.335123	2.14108	0.980146	6.34718							0.805716	5.19189				
0.520048	3.33373	0.337205	2.14163	0.983832	6.33284							0.807684	5.17351				
0.521423	3.32271	0.339287	2.14217	0.987488	6.31848							0.809634	5.15524				
0.522802	3.31183	0.341368	2.14271	0.991116	6.30411							0.811568	5.13707				
0.524183	3.30109	0.34345	2.14324	0.994715	6.28973							0.813486	5.11902				
0.525567	3.2905	0.345531	2.14377	0.998286	6.27535							0.815388	5.10108				
0.526954	3.28005	0.347613	2.14429	1.00183	6.26095							0.817274	5.08325				
0.528344	3.26974	0.349695	2.1448									0.819145	5.06554				
0.529737	3.25957	0.351776	2.14531									0.821001	5.04793				
0.531132	3.24953	0.353858	2.14581									0.822842	5.03044				
0.532531	3.23962	0.355939	2.14631									0.82467	5.01306				
0.533933	3.22984	0.35802	2.1468									0.826484	4.99579				
0.535338	3.22019	0.360102	2.14728									0.828284	4.97863				
0.536745	3.21066	0.362183	2.14776									0.830072	4.96159				
0.538156	3.20126	0.364265	2.14823									0.831847	4.94466				
0.53957	3.19198	0.366346	2.1487									0.833609	4.92785				
0.540987	3.18282	0.368427	2.14917									0.835359	4.91114				
0.542407	3.17377	0.370508	2.14962									0.837097	4.89455				
0.54383	3.16485	0.37259	2.15008									0.838824	4.87808				
0.545255	3.15603	0.374671	2.15052									0.84054	4.86171				
0.546684	3.14733	0.376752	2.15097									0.842245	4.84546				
0.548116	3.13874	0.378833	2.15141									0.843939	4.82932				
0.549552	3.13026	0.380915	2.15184									0.845623	4.8133				
0.55099	3.12188	0.382996	2.15227									0.847297	4.79738				
0.552431	3.11361	0.385077	2.15269									0.848961	4.78158				
0.553875	3.10544	0.387158	2.15311									0.850615	4.76589				
0.555322	3.09738	0.389239	2.15353									0.85226	4.75031				
0.556773	3.08941	0.39132	2.15394									0.853896	4.73484				
0.558226	3.08154	0.393401	2.15434									0.855523	4.71948				
0.559682	3.07377	0.395482	2.15475									0.857142	4.70423				
0.561142	3.0661	0.397563	2.15514									0.858752	4.68909				
0.562604	3.05852	0.399644	2.15554									0.860355	4.67406				
0.56407	3.05103	0.401725	2.15593									0.861949	4.65914				
0.565538	3.04364	0.403806	2.15631									0.863535	4.64433				
0.56701	3.03633	0.405887	2.1567									0.865114	4.62962				
0.568484	3.02912	0.407968	2.15707									0.866686	4.61502				
0.569962	3.02199	0.410049	2.15745									0.868251	4.60053				
0.571442	3.01494	0.412129	2.15782									0.869809	4.58614				
0.572926	3.00798	0.41421	2.15819									0.87136	4.57186				
0.574412	3.00111	0.416291	2.15855									0.872905	4.55769				
0.575902	2.99431	0.418372	2.15891									0.874444	4.54362				
0.577394	2.9876	0.420453	2.15926									0.875976	4.52965				
0.578889	2.98097	0.422533	2.15962									0.877503	4.51579				
0.580388	2.97441	0.424614	2.15997									0.879024	4.50203				
0.581889	2.96793	0.426695	2.16031									0.880539	4.48837				
0.583393	2.96153	0.428776	2.16065									0.882048	4.47482				
0.5849	2.95521	0.430856	2.16099									0.883553	4.46136				
0.58641	2.94895	0.432937	2.16133									0.885052	4.44801				
0.587923	2.94277	0.435018	2.16166									0.886547	4.43475				
0.589438	2.93666	0.437098	2.16199									0.888036	4.4216				
0.590957	2.93063	0.439179	2.16232									0.889521	4.40854				
0.592478	2.92466	0.44126	2.16264									0.891002	4.39558				
0.594003	2.91876	0.44334	2.16296									0.892478	4.38272				
0.59553	2.91293	0.445421	2.16328									0.89395	4.36995				
0.59706	2.90716	0.447502	2.16359									0.895417	4.35728				
0.598592	2.90146	0.449582	2.16391									0.896881	4.34471				
0.600128	2.89583	0.451663	2.16422									0.898341	4.33223				
0.601666	2.89026	0.453743	2.16452									0.899798	4.31984				
0.603207	2.88475	0.455824	2.16482									0.90125	4.30755				
0.604751	2.8793	0.457904	2.16513									0.902699	4.29535				
0.606298	2.87392	0.459985	2.16542									0.904145	4.28324				
0.607847	2.86859	0.462065	2.16572									0.905588	4.27122				
0.609399	2.86333	0.464146	2.16601									0.907027	4.25929				
0.610954	2.85812	0.466226	2.1663									0.908464	4.24745				
0.612511	2.85297	0.468307	2.16659									0.909897	4.23571				
0.614072	2.84788	0.470387	2.16687									0.911328	4.22405				
0.615634	2.84284	0.472467	2.16716									0.912756	4.21247				
0.6172	2.83786	0.474548	2.16744									0.914182	4.20099				
0.618768	2.83294	0.476628	2.16771									0.915605	4.18959				
0.620339	2.82807	0.478709	2.16799									0.917025	4.17828				
0.621912	2.82325	0.480789	2.16826									0.918443	4.16705				
0.623488	2.81848	0.482869	2.16853									0.919859	4.15591				
0.625067	2.81377	0.48495	2.1688									0.921273	4.14485				
0.626648	2.8091	0.48703	2.16906									0.922685	4.13387				
0.628232	2.80449	0.48911	2.16933									0.924095	4.12298				
0.629818	2.79992	0.491191	2.16959									0.925503	4.11216				
0.631407	2.79541	0.493271	2.16985									0.926909	4.10143				
0.632998	2.79094	0.495351	2.17011									0.928313	4.09078				
0.634592	2.78652	0.497432	2.17036									0.929716	4.08021				
0.636188	2.78215	0.499512	2.17061									0.931117	4.06972				
0.637787	2.77782	0.501592	2.17086									0.932517	4.05931				
0.639388	2.77354	0.503672	2.17111									0.933915	4.04897				
0.640992	2.76931	0.505753	2.17136									0.935312	4.03871				
0.642598	2.76512	0.507833	2.1716									0.936707	4.02853				
0.644207	2.76097	0.509913	2.17185									0.938101	4.01843				
0.645818	2.75687	0.511993	2.17209									0.939495	4.0084				
0.647431	2.7528	0.514073	2.17233									0.940887	3.99844				
0.649047	2.74879	0.516154	2.17256									0.942278	3.98856				
0.650665	2.74481	0.518234	2.1728									0.943668	3.97875				
0.652286	2.74087	0.520314	2.17303									0.945057	3.96902				
0.653909	2.73698	0.522394	2.17326									0.946445	3.95936				
0.655534	2.73312	0.524474	2.17349									0.947833	3.94977				
0.657161	2.7293	0.526554	2.17372									0.949219	3.94025				
0.658791	2.72553	0.528635	2.17394									0.950606	3.9308				
0.660424	2.72179	0.530715	2.17417									0.951991	3.92142				
0.662058	2.71809	0.532795	2.17439									0.953376	3.91211				
0.663695	2.71442	0.534875	2.17461									0.95476	3.90287				
0.665334	2.7108	0.536955	2.17483									0.956144	3.8937				
0.666975	2.70721	0.539035	2.17505									0.957527	3.88459				
0.668618	2.70365	0.541115	2.17526									0.95891	3.87555				
0.670264	2.70014	0.543195	2.17547									0.960293	3.86658				
0.671912	2.69665	0.545275	2.17569									0.961675	3.85768				
0.673562	2.6932	0.547355	2.1759									0.963057	3.84884				
0.675214	2.68979	0.549435	2.17611									0.964439	3.84006				
0.676868	2.68641	0.551515	2.17631									0.965821	3.83135				
0.678525	2.68306	0.553595	2.17652									0.967202	3.8227				
0.680184	2.67975	0.555675	2.17672									0.968584	3.81412				
0.681844	2.67647	0.557755	2.17693									0.969965	3.80559				
0.683507	2.67322	0.559835	2.17713									0.971347	3.79713				
0.685172	2.67	0.561915	2.17733									0.972728	3.78873				
0.686839	2.66682	0.563995	2.17753									0.97411	3.7804				
0.688509	2.66366	0.566075	2.17772									0.975491	3.77212				
0.69018	2.66054	0.568155	2.17792									0.976873	3.7639				
0.691853	2.65744	0.570235	2.17811									0.978255	3.75574				
0.693528	2.65438	0.572315	2.17831									0.979637	3.74764				
0.695206	2.65134	0.574395	2.1785									0.981019	3.7396				
0.696885	2.64834	0.576475	2.17869									0.982402	3.73162				
0.698566	2.64536	0.578555	2.17887									0.983785	3.7237				
0.70025	2.64241	0.580635	2.17906									0.985168	3.71583				
0.701935	2.63949	0.582715	2.17925									0.986552	3.70802				
0.703622	2.6366	0.584795	2.17943									0.987936	3.70026				
0.705312	2.63374	0.586874	2.17962									0.98932	3.69256				
0.707003	2.6309	0.588954	2.1798									0.990705	3.68491				
0.708696	2.62809	0.591034	2.17998									0.99209	3.67732				
0.710391	2.6253	0.593114	2.18016									0.993476	3.66979				
0.712088	2.62254	0.595194	2.18034									0.994862	3.6623				
0.713787	2.61981	0.597274	2.18051									0.996249	3.65487				
0.715487	2.6171	0.599354	2.18069									0.997636	3.64749				
0.71719	2.61442	0.601433	2.18086									0.999024	3.64017				
0.718894	2.61176	0.603513	2.18104									1.00041	3.63289				
0.7206	2.60913	0.605593	2.18121														
0.722309	2.60652	0.607673	2.18138														
0.724018	2.60394	0.609753	2.18155														
0.72573	2.60138	0.611833	2.18172														
0.727444	2.59884	0.613912	2.18188														
0.729159	2.59633	0.615992	2.18205														
0.730876	2.59383	0.618072	2.18222														
0.732595	2.59137	0.620152	2.18238														
0.734316	2.58892	0.622231	2.18254														
0.736038	2.5865	0.624311	2.1827														
0.737762	2.58409	0.626391	2.18287														
0.739488	2.58171	0.628471	2.18302														
0.741215	2.57936	0.630551	2.18318														
0.742945	2.57702	0.63263	2.18334														
0.744676	2.5747	0.63471	2.1835														
0.746408	2.5724	0.63679	2.18365														
0.748142	2.57013	0.638869	2.18381														
0.749878	2.56787	0.640949	2.18396														
0.751616	2.56564	0.643029	2.18411														
0.753355	2.56342	0.645109	2.18427														
0.755096	2.56123	0.647188	2.18442														
0.756839	2.55905	0.649268	2.18457														
0.758583	2.55689	0.651348	2.18471														
0.760328	2.55475	0.653427	2.18486														
0.762076	2.55263	0.655507	2.18501														
0.763824	2.55053	0.657587	2.18516														
0.765575	2.54845	0.659666	2.1853														
0.767327	2.54638	0.661746	2.18544														
0.76908	2.54433	0.663826	2.18559														
0.770836	2.5423	0.665905	2.18573														
0.772592	2.54029	0.667985	2.18587														
0.77435	2.5383	0.670064	2.18601														
0.77611	2.53632	0.672144	2.18615														
0.777871	2.53436	0.674224	2.18629														
0.779634	2.53241	0.676303	2.18643														
0.781398	2.53049	0.678383	2.18656														
0.783163	2.52857	0.680463	2.1867														
0.78493	2.52668	0.682542	2.18684														
0.786699	2.5248	0.684622	2.18697														
0.788469	2.52294	0.686701	2.1871														
0.79024	2.52109	0.688781	2.18724														
0.792013	2.51926	0.69086	2.18737														
0.793788	2.51744	0.69294	2.1875														
0.795563	2.51564	0.69502	2.18763														
0.79734	2.51385	0.697099	2.18776														
0.799119	2.51208	0.699179	2.18789														
0.800899	2.51032	0.701258	2.18802														
0.80268	2.50858	0.703338	2.18815														
0.804463	2.50685	0.705417	2.18827														
0.806247	2.50514	0.707497	2.1884														
0.808032	2.50344	0.709576	2.18852														
0.809819	2.50175	0.711656	2.18865														
0.811607	2.50008	0.713735	2.18877														
0.813396	2.49842	0.715815	2.1889														
0.815187	2.49678	0.717894	2.18902														
0.816979	2.49514	0.719974	2.18914														
0.818772	2.49352	0.722053	2.18926														
0.820566	2.49192	0.724133	2.18938														
0.822362	2.49033	0.726212	2.1895														
0.824159	2.48875	0.728292	2.18962														
0.825958	2.48718	0.730371	2.18974														
0.827758	2.48563	0.732451	2.18986														
0.829559	2.48408	0.73453	2.18997														
0.831361	2.48256	0.73661	2.19009														
0.833164	2.48104	0.738689	2.1902														
0.834969	2.47953	0.740769	2.19032														
0.836775	2.47804	0.742848	2.19043														
0.838582	2.47656	0.744928	2.19055														
0.84039	2.47509	0.747007	2.19066														
0.8422	2.47363	0.749087	2.19077														
0.844011	2.47218	0.751166	2.19088														
0.845822	2.47075	0.753245	2.19099														
0.847636	2.46932	0.755325	2.1911														
0.84945	2.46791	0.757404	2.19121														
0.851265	2.46651	0.759484	2.19132														
0.853082	2.46512	0.761563	2.19143														
0.8549	2.46374	0.763642	2.19154														
0.856719	2.46237	0.765722	2.19165														
0.858539	2.46101	0.767801	2.19176														
0.86036	2.45966	0.769881	2.19186														
0.862182	2.45832	0.77196	2.19197														
0.864006	2.45699	0.774039	2.19207														
0.86583	2.45568	0.776119	2.19218														
0.867656	2.45437	0.778198	2.19228														
0.869483	2.45307	0.780278	2.19238														
0.871311	2.45178	0.782357	2.19249														
0.873139	2.4505	0.784436	2.19259														
0.87497	2.44924	0.786516	2.19269														
0.876801	2.44798	0.788595	2.19279														
0.878633	2.44673	0.790674	2.19289														
0.880466	2.44549	0.792754	2.19299														
0.8823	2.44426	0.794833	2.19309														
0.884136	2.44304	0.796912	2.19319														
0.885972	2.44183	0.798992	2.19329														
0.887809	2.44062	0.801071	2.19339														
0.889648	2.43943	0.80315	2.19349														
0.891487	2.43824	0.80523	2.19358														
0.893328	2.43707	0.807309	2.19368														
0.895169	2.4359	0.809388	2.19378														
0.897012	2.43474	0.811468	2.19387														
0.898856	2.43359	0.813547	2.19397														
0.9007	2.43245	0.815626	2.19406														
0.902546	2.43131	0.817705	2.19416														
0.904392	2.43019	0.819785	2.19425														
0.90624	2.42907	0.821864	2.19434														
0.908088	2.42796	0.823943	2.19444														
0.909937	2.42686	0.826023	2.19453														
0.911788	2.42577	0.828102	2.19462														
0.913639	2.42469	0.830181	2.19471														
0.915491	2.42361	0.83226	2.1948														
0.917345	2.42254	0.83434	2.19489														
0.919199	2.42148	0.836419	2.19498														
0.921054	2.42042	0.838498	2.19507														
0.92291	2.41938	0.840577	2.19516														
0.924767	2.41834	0.842657	2.19525														
0.926625	2.41731	0.844736	2.19534														
0.928483	2.41628	0.846815	2.19543														
0.930343	2.41527	0.848894	2.19551														
0.932204	2.41426	0.850974	2.1956														
0.934065	2.41326	0.853053	2.19569														
0.935928	2.41226	0.855132	2.19577														
0.937791	2.41127	0.857211	2.19586														
0.939655	2.41029	0.859291	2.19594														
0.94152	2.40932	0.86137	2.19603														
0.943386	2.40835	0.863449	2.19611														
0.945253	2.40739	0.865528	2.1962														
0.94712	2.40644	0.867607	2.19628														
0.948989	2.40549	0.869687	2.19636														
0.950858	2.40455	0.871766	2.19645														
0.952728	2.40362	0.873845	2.19653														
0.954599	2.40269	0.875924	2.19661														
0.956471	2.40177	0.878003	2.19669														
0.958344	2.40085	0.880083	2.19677														
0.960217	2.39995	0.882162	2.19685														
0.962092	2.39904	0.884241	2.19694														
0.963967	2.39815	0.88632	2.19702														
0.965843	2.39726	0.888399	2.19709														
0.96772	2.39638	0.890478	2.19717														
0.969597	2.3955	0.892558	2.19725														
0.971476	2.39463	0.894637	2.19733														
0.973355	2.39376	0.896716	2.19741														
0.975235	2.3929	0.898795	2.19749														
0.977116	2.39205	0.900874	2.19757														
0.978997	2.3912	0.902953	2.19764														
0.980879	2.39036	0.905032	2.19772														
0.982763	2.38952	0.907112	2.1978														
0.984646	2.38869	0.909191	2.19787														
0.986531	2.38787	0.91127	2.19795														
0.988416	2.38705	0.913349	2.19802														
0.990303	2.38623	0.915428	2.1981														
0.992189	2.38542	0.917507	2.19817														
0.994077	2.38462	0.919586	2.19825														
0.995965	2.38382	0.921665	2.19832														
0.997855	2.38303	0.923745	2.19839														
0.999745	2.38224	0.925824	2.19847														
1.00164	2.38146	0.927903	2.19854														
		0.929982	2.19861														
		0.932061	2.19869														
		0.93414	2.19876														
		0.936219	2.19883														
		0.938298	2.1989														
		0.940377	2.19897														
		0.942456	2.19904														
		0.944535	2.19911														
		0.946614	2.19918														
		0.948694	2.19925														
		0.950773	2.19932														
		0.952852	2.19939														
		0.954931	2.19946														
		0.95701	2.19953														
		0.959089	2.1996														
		0.961168	2.19966														
		0.963247	2.19973														
		0.965326	2.1998														
		0.967405	2.19987														
		0.969484	2.19993														
		0.971563	2.2														
		0.973642	2.20007														
		0.975721	2.20013														
		0.9778	2.2002														
		0.979879	2.20026														
		0.981958	2.20033														
		0.984037	2.20039														
		0.986116	2.20046														
		0.988195	2.20052														
		0.990274	2.20059														
		0.992353	2.20065														
		0.994432	2.20071														
		0.996511	2.20078														
		0.99859	2.20084														
		1.00067	2.2009														
