Sym0		Asym0		Sym1		Sym2		Sym3		Asym1		Asym2		Asym3	
452  Points		490  Points		148  Points		119  Points		102  Points		280  Points		130  Points		104  Points	
Freq (MHz)	Vph (m/ms)	Freq (MHz)	Vph (m/ms)	Freq (MHz)	Vph (m/ms)	Freq (MHz)	Vph (m/ms)	Freq (MHz)	Vph (m/ms)	Freq (MHz)	Vph (m/ms)	Freq (MHz)	Vph (m/ms)	Freq (MHz)	Vph (m/ms)
0.000520278	8.64676	0.000649405	0.283997	0.279511	1902.48	0.549238	650.872	0.559019	3721.4	0.139788	398.871	0.419306	562.471	0.698774	2931.48
0.00857583	8.64617	0.00127392	0.395829	0.279639	259.258	0.549244	309.338	0.559132	516.8	0.140207	109.353	0.419484	250.114	0.698835	597.262
0.0166293	8.64509	0.00209142	0.503949	0.279961	139.263	0.549259	202.885	0.559413	277.816	0.141099	63.7347	0.419797	160.912	0.698976	332.567
0.024679	8.64337	0.00308783	0.607632	0.280476	95.3351	0.549293	150.949	0.559855	190.084	0.142453	45.2873	0.420246	118.695	0.699197	230.496
0.032723	8.64099	0.00424706	0.706261	0.281183	72.5879	0.549355	120.192	0.560451	144.558	0.144254	35.3803	0.420831	94.0981	0.699499	176.412
0.0407593	8.63793	0.00555259	0.799493	0.282081	58.7009	0.549455	99.8587	0.56119	116.703	0.146482	29.2441	0.42155	78.0077	0.699881	142.925
0.048786	8.63417	0.00698748	0.887092	0.283166	49.3571	0.549601	85.4211	0.562063	97.9137	0.149113	25.1006	0.422402	66.6708	0.700343	120.158
0.0568011	8.62972	0.00853547	0.969001	0.284437	42.652	0.549801	74.6433	0.563062	84.3907	0.152124	22.1358	0.423388	58.259	0.700885	103.678
0.0648027	8.62457	0.0101812	1.04528	0.28589	37.6147	0.550062	66.2933	0.56418	74.1973	0.155489	19.9243	0.424505	51.7751	0.701507	91.2004
0.0727886	8.6187	0.0119108	1.11609	0.287521	33.6984	0.55039	59.6364	0.565411	66.2425	0.159183	18.222	0.425753	46.6286	0.702207	81.4283
0.0807565	8.61208	0.0137114	1.18165	0.289327	30.5718	0.55079	54.2073	0.56675	59.8648	0.163179	16.8792	0.427131	42.4481	0.702987	73.5703
0.0887044	8.60472	0.0155719	1.24225	0.291304	28.022	0.551264	49.697	0.568194	54.64	0.167453	15.7988	0.428635	38.9877	0.703846	67.1159
0.09663	8.59659	0.0174826	1.29818	0.293448	25.9063	0.551818	45.8923	0.569738	50.2833	0.171983	14.9151	0.430266	36.0786	0.704783	61.7217
0.104531	8.58766	0.0194347	1.34976	0.295753	24.1255	0.552453	42.6411	0.571381	46.5968	0.176746	14.1822	0.432022	33.6007	0.705798	57.1477
0.112404	8.57793	0.0214213	1.39731	0.298216	22.6081	0.553173	39.8322	0.57312	43.4381	0.181722	13.5673	0.4339	31.4666	0.70689	53.2213
0.120248	8.56735	0.0234359	1.44114	0.300831	21.3018	0.55398	37.3824	0.574954	40.7028	0.186893	13.0458	0.435898	29.6109	0.70806	49.815
0.128059	8.5559	0.0252104	1.47654	0.303594	20.1669	0.554876	35.2281	0.57688	38.3122	0.192241	12.5997	0.438016	27.9836	0.709306	46.8328
0.135834	8.54356	0.0267346	1.50481	0.3065	19.1733	0.555865	33.3199	0.578898	36.206	0.19775	12.2149	0.44025	26.5462	0.710629	44.2011
0.14357	8.53028	0.0280018	1.52695	0.309543	18.2973	0.556946	31.6189	0.581007	34.337	0.202672	11.921	0.4426	25.2683	0.712027	41.8621
0.151265	8.51604	0.0290076	1.5437	0.312719	17.5202	0.558124	30.0939	0.583205	32.6681	0.206948	11.6964	0.445061	24.1256	0.713501	39.7702
0.158915	8.5008	0.0297491	1.55561	0.316024	16.827	0.559399	28.7199	0.585492	31.1695	0.210537	11.5264	0.447633	23.0984	0.715049	37.8889
0.166515	8.48451	0.0302244	1.56306	0.319453	16.2056	0.560774	27.4762	0.587866	29.817	0.213406	11.401	0.450313	22.1708	0.716672	36.1883
0.174063	8.46712	0.0309088	1.57354	0.323001	15.6461	0.562251	26.3459	0.590328	28.5908	0.215533	11.3135	0.453098	21.3295	0.718367	34.6441
0.181553	8.44861	0.0316538	1.58463	0.326665	15.1403	0.563832	25.3148	0.592877	27.4745	0.216902	11.2595	0.455987	20.5636	0.720136	33.236
0.188983	8.4289	0.032669	1.59922	0.330441	14.6813	0.565518	24.371	0.595511	26.4543	0.218879	11.1844	0.458977	19.8639	0.721977	31.9472
0.196347	8.40796	0.0339556	1.6169	0.334324	14.2634	0.567311	23.5046	0.598231	25.519	0.221041	11.1061	0.462066	19.2224	0.723889	30.7635
0.203641	8.38573	0.0355151	1.6372	0.338313	13.8818	0.569214	22.7069	0.601035	24.6586	0.224001	11.0046	0.465251	18.6327	0.725872	29.6729
0.210859	8.36215	0.0373486	1.65961	0.342404	13.5323	0.571228	21.9707	0.603924	23.8649	0.227778	10.8841	0.46853	18.0891	0.727926	28.6651
0.217997	8.33716	0.0394569	1.68359	0.346594	13.2115	0.573355	21.2895	0.606896	23.1307	0.232389	10.749	0.471901	17.5866	0.730048	27.7313
0.225048	8.31071	0.0415685	1.70588	0.350883	12.9162	0.575597	20.6581	0.609952	22.45	0.237858	10.6037	0.475361	17.1211	0.73224	26.8638
0.232008	8.28274	0.0436826	1.72662	0.355267	12.644	0.577954	20.0715	0.61309	21.8173	0.244205	10.4525	0.478907	16.6888	0.734499	26.056
0.23887	8.25319	0.0457982	1.74594	0.359746	12.3925	0.580429	19.5257	0.616312	21.2281	0.250621	10.3157	0.482539	16.2866	0.736826	25.3023
0.245628	8.22201	0.0479149	1.76398	0.363726	12.1887	0.583022	19.0169	0.619615	20.6783	0.2571	10.1916	0.486253	15.9116	0.739218	24.5975
0.252275	8.18914	0.050032	1.78084	0.367175	12.0253	0.585735	18.5419	0.623	20.1643	0.263634	10.0784	0.490047	15.5613	0.741677	23.9372
0.258807	8.15454	0.0521493	1.79662	0.370066	11.897	0.588569	18.0978	0.626467	19.683	0.27022	9.97485	0.493918	15.2335	0.744201	23.3175
0.265216	8.11816	0.0542662	1.81141	0.372377	11.7996	0.591523	17.6821	0.630016	19.2315	0.27685	9.87982	0.497866	14.9264	0.746788	22.7349
0.271497	8.07998	0.0563827	1.82529	0.37409	11.7302	0.5946	17.2925	0.633646	18.8074	0.283521	9.79228	0.501887	14.638	0.749439	22.1863
0.277643	8.03997	0.0584986	1.83834	0.375192	11.6868	0.597797	16.9268	0.637357	18.4085	0.290227	9.71139	0.505979	14.367	0.752152	21.6689
0.28365	7.99812	0.0606137	1.85062	0.376786	11.6255	0.601117	16.5833	0.641149	18.0328	0.296964	9.6364	0.510141	14.1118	0.754927	21.1804
0.289512	7.95444	0.0627278	1.8622	0.378529	11.5606	0.604557	16.2603	0.645023	17.6785	0.303728	9.56667	0.514371	13.8713	0.757762	20.7183
0.295224	7.90893	0.064841	1.87313	0.38092	11.4751	0.608118	15.9562	0.648979	17.344	0.310515	9.50162	0.518665	13.6443	0.760658	20.2809
0.300784	7.86164	0.0669532	1.88345	0.383975	11.371	0.611797	15.6697	0.653016	17.0279	0.317322	9.44076	0.523024	13.4298	0.763613	19.8662
0.306187	7.8126	0.0690643	1.89322	0.387716	11.2512	0.615594	15.3995	0.657135	16.7289	0.324146	9.38365	0.527445	13.2269	0.766626	19.4726
0.311431	7.76189	0.0711745	1.90247	0.392171	11.1185	0.619506	15.1444	0.661338	16.4458	0.330982	9.3299	0.531926	13.0347	0.769696	19.0986
0.316515	7.70958	0.0732836	1.91125	0.397372	10.9761	0.623532	14.9033	0.665623	16.1776	0.337827	9.27918	0.536465	12.8525	0.772823	18.7429
0.321438	7.65576	0.0753916	1.91958	0.402668	10.8433	0.627668	14.6754	0.669992	15.9232	0.34468	9.23117	0.541061	12.6796	0.776006	18.4042
0.326201	7.60053	0.0774987	1.92751	0.408057	10.7195	0.631911	14.4596	0.674445	15.6818	0.351537	9.1856	0.545112	12.536	0.779244	18.0815
0.330804	7.54401	0.0796047	1.93505	0.413541	10.604	0.636259	14.2552	0.678984	15.4526	0.358395	9.14223	0.548597	12.4185	0.782537	17.7736
0.335249	7.48633	0.0817098	1.94223	0.419118	10.4962	0.640708	14.0613	0.68361	15.2348	0.365251	9.10084	0.551501	12.3246	0.785882	17.4797
0.33954	7.42761	0.083814	1.94908	0.424786	10.3956	0.645252	13.8773	0.688322	15.0278	0.372104	9.06123	0.553812	12.2523	0.78928	17.1989
0.343679	7.36798	0.0859172	1.95562	0.430544	10.3017	0.64989	13.7025	0.693124	14.8309	0.37895	9.02322	0.555518	12.2002	0.79273	16.9303
0.34767	7.30758	0.0880197	1.96187	0.43639	10.2138	0.654615	13.5362	0.698014	14.6437	0.385788	8.98666	0.556614	12.1674	0.79623	16.6733
0.351518	7.24654	0.0901213	1.96785	0.442321	10.1317	0.659422	13.3779	0.702996	14.4654	0.392614	8.95139	0.558194	12.1208	0.799781	16.4272
0.355226	7.185	0.0922221	1.97357	0.448333	10.0548	0.664309	13.227	0.708071	14.2958	0.399426	8.91729	0.559917	12.071	0.803381	16.1913
0.358801	7.12307	0.0943221	1.97905	0.454424	9.98284	0.669268	13.083	0.713238	14.1342	0.406222	8.88422	0.562271	12.0046	0.80703	15.965
0.362247	7.06087	0.0964215	1.98431	0.460588	9.91532	0.674295	12.9455	0.718501	13.9804	0.413	8.85209	0.565264	11.9229	0.810726	15.7479
0.365569	6.99853	0.0985201	1.98936	0.466822	9.85191	0.678728	12.8306	0.72386	13.8339	0.419758	8.82079	0.568909	11.8271	0.814469	15.5394
0.368773	6.93615	0.100618	1.9942	0.473121	9.79231	0.682541	12.7361	0.729316	13.6943	0.426493	8.79021	0.573218	11.7189	0.818258	15.339
0.371864	6.87384	0.102715	1.99886	0.479481	9.73619	0.685718	12.6602	0.734871	13.5614	0.433203	8.76029	0.578207	11.5999	0.822093	15.1463
0.374848	6.81167	0.104812	2.00334	0.485896	9.68327	0.688243	12.6015	0.740525	13.4347	0.439886	8.73094	0.583241	11.4862	0.825973	14.961
0.377729	6.74975	0.106908	2.00765	0.492363	9.63328	0.690108	12.5591	0.746279	13.3141	0.44654	8.70208	0.588322	11.3775	0.829896	14.7826
0.380512	6.68814	0.109004	2.01181	0.498877	9.58598	0.691304	12.5323	0.752134	13.1991	0.453162	8.67365	0.593446	11.2735	0.833863	14.6108
0.383203	6.62692	0.111099	2.01581	0.505432	9.54113	0.693029	12.4943	0.75809	13.0896	0.459751	8.64558	0.598614	11.1739	0.837872	14.4452
0.385807	6.56614	0.113194	2.01968	0.512026	9.49854	0.694908	12.4534	0.763363	12.9984	0.466304	8.61782	0.603824	11.0785	0.841923	14.2856
0.388327	6.50588	0.115288	2.0234	0.518652	9.458	0.697474	12.3989	0.767918	12.9237	0.472819	8.59031	0.609077	10.987	0.846015	14.1316
0.390769	6.44616	0.117382	2.02701	0.525308	9.41934	0.700732	12.3313	0.771727	12.8639	0.479294	8.563	0.614371	10.8994	0.850148	13.983
0.393136	6.38705	0.119475	2.03048	0.53199	9.38241	0.704691	12.2518	0.774765	12.8179	0.485727	8.53585	0.619706	10.8152	0.854321	13.8396
0.395433	6.32857	0.121568	2.03385	0.538693	9.34704	0.709361	12.1613	0.777014	12.7847	0.492116	8.50881	0.625081	10.7345	0.858532	13.701
0.397663	6.27076	0.12366	2.0371	0.545415	9.31312	0.714749	12.061	0.77846	12.7638	0.498459	8.48185	0.630497	10.657	0.862782	13.5671
0.39983	6.21365	0.125752	2.04025	0.552152	9.2805	0.720167	11.9643	0.780548	12.7341	0.504754	8.45492	0.635952	10.5825	0.86707	13.4377
0.401939	6.15726	0.127844	2.0433	0.5589	9.24909	0.725609	11.871	0.782829	12.7023	0.510998	8.42799	0.641445	10.511	0.870837	13.3283
0.403991	6.10161	0.129935	2.04626	0.565658	9.21878	0.731075	11.7808	0.785952	12.66	0.517191	8.40103	0.646978	10.4422	0.87407	13.2376
0.40599	6.04672	0.132027	2.04912	0.572422	9.18948	0.73656	11.6937	0.789935	12.608	0.52333	8.37401	0.652548	10.3761	0.876759	13.1642
0.40794	5.9926	0.134117	2.0519	0.579189	9.16109	0.742063	11.6093	0.7948	12.547	0.529413	8.34692	0.658156	10.3125	0.878895	13.1072
0.409842	5.93926	0.136208	2.0546	0.585957	9.13355	0.747582	11.5276	0.800574	12.4782	0.535439	8.31971	0.663802	10.2513	0.88047	13.0659
0.4117	5.88671	0.138298	2.05722	0.592724	9.10678	0.753115	11.4485	0.807288	12.4028	0.541406	8.29238	0.669484	10.1924	0.881481	13.0397
0.413517	5.83495	0.140388	2.05976	0.599488	9.08071	0.758662	11.3717	0.814094	12.3308	0.547312	8.2649	0.675202	10.1357	0.882938	13.0023
0.415294	5.78399	0.142478	2.06223	0.606247	9.05529	0.764221	11.2973	0.82099	12.2622	0.553156	8.23726	0.680957	10.0811	0.884525	12.9622
0.417035	5.73382	0.144567	2.06463	0.612998	9.03046	0.769792	11.225	0.827973	12.1968	0.558937	8.20944	0.686747	10.0285	0.88669	12.9083
0.41874	5.68446	0.146656	2.06696	0.61974	9.00617	0.775373	11.1549	0.835041	12.1344	0.564653	8.18143	0.692571	9.97777	0.889441	12.8414
0.420413	5.63588	0.148745	2.06923	0.626471	8.98237	0.780966	11.0867	0.842191	12.0748	0.570303	8.15323	0.69843	9.9289	0.892785	12.7621
0.422055	5.5881	0.150834	2.07144	0.63319	8.95902	0.786569	11.0205	0.84942	12.0179	0.575885	8.12482	0.704322	9.88178	0.896731	12.6715
0.423462	5.54709	0.152922	2.07359	0.639894	8.93608	0.792182	10.9561	0.856726	11.9636	0.5814	8.0962	0.710246	9.83633	0.90129	12.5704
0.424645	5.51261	0.155011	2.07568	0.646583	8.91351	0.797806	10.8936	0.864106	11.9116	0.586846	8.06736	0.716203	9.79247	0.905883	12.4724
0.425612	5.48442	0.157099	2.07772	0.653254	8.89128	0.803441	10.8327	0.871556	11.862	0.592221	8.03831	0.722191	9.75013	0.910508	12.3773
0.42637	5.46233	0.159187	2.07971	0.659907	8.86936	0.809087	10.7735	0.879075	11.8145	0.597527	8.00904	0.728209	9.70925	0.915164	12.285
0.426923	5.44621	0.161274	2.08165	0.66654	8.84772	0.814743	10.7158	0.886659	11.7691	0.602762	7.97956	0.734256	9.66976	0.919852	12.1954
0.427276	5.43594	0.163362	2.08353	0.673152	8.82632	0.820411	10.6598	0.894306	11.7256	0.607925	7.94986	0.740332	9.63159	0.924571	12.1084
0.427781	5.42125	0.165449	2.08538	0.679741	8.80516	0.826091	10.6052	0.902013	11.6839	0.613017	7.91995	0.746434	9.59469	0.92932	12.0239
0.428327	5.40537	0.167537	2.08718	0.686307	8.78419	0.831783	10.552	0.909776	11.6439	0.618037	7.88983	0.752563	9.55899	0.9341	11.9418
0.429065	5.38394	0.169624	2.08893	0.692848	8.76341	0.837487	10.5003	0.917594	11.6056	0.622985	7.85952	0.758717	9.52443	0.938908	11.8619
0.42999	5.35708	0.171711	2.09064	0.699363	8.74278	0.843204	10.4499	0.925465	11.5688	0.627862	7.82902	0.764894	9.49097	0.943746	11.7844
0.431099	5.32498	0.173797	2.09232	0.70585	8.72229	0.848934	10.4008	0.933384	11.5335	0.632666	7.79833	0.771094	9.45855	0.948612	11.7089
0.432386	5.28784	0.175884	2.09395	0.71231	8.70193	0.854677	10.353	0.941351	11.4995	0.6374	7.76747	0.777315	9.42712	0.953506	11.6355
0.433844	5.24591	0.177971	2.09555	0.71874	8.68167	0.860433	10.3064	0.949362	11.4669	0.642062	7.73644	0.783555	9.39663	0.958428	11.5641
0.435285	5.20469	0.180057	2.09711	0.72514	8.6615	0.866204	10.261	0.957415	11.4355	0.646653	7.70526	0.789814	9.36704	0.963377	11.4946
0.436709	5.16419	0.182143	2.09863	0.731509	8.6414	0.871988	10.2168	0.965508	11.4052	0.651174	7.67394	0.796091	9.33829	0.968354	11.4269
0.438117	5.12438	0.184229	2.10012	0.737845	8.62137	0.877787	10.1737	0.973638	11.376	0.655625	7.64248	0.802383	9.31034	0.973356	11.3611
0.439511	5.08527	0.186315	2.10158	0.744149	8.60138	0.8836	10.1316	0.981803	11.3479	0.660007	7.6109	0.808689	9.28316	0.978385	11.2969
0.440891	5.04683	0.188401	2.10301	0.750418	8.58142	0.889429	10.0907	0.990001	11.3208	0.66432	7.57921	0.815008	9.25669	0.98344	11.2344
0.442258	5.00905	0.190487	2.10441	0.756652	8.5615	0.895271	10.0507	0.998229	11.2945	0.668566	7.54742	0.821339	9.23092	0.98852	11.1735
0.443613	4.97193	0.192573	2.10577	0.76285	8.54158	0.901129	10.0118	1.00648	11.2691	0.672744	7.51555	0.82768	9.20579	0.993625	11.1142
0.444956	4.93546	0.194658	2.10711	0.769011	8.52167	0.907002	9.97377			0.676856	7.48359	0.83403	9.18127	0.998755	11.0563
0.44629	4.89961	0.196744	2.10842	0.775135	8.50175	0.91289	9.93671			0.680903	7.45158	0.840387	9.15732	1.00391	10.9999
0.447614	4.86439	0.198829	2.10971	0.78122	8.48182	0.918794	9.90056			0.684885	7.4195	0.846749	9.13393		
0.448928	4.82977	0.200914	2.11096	0.787267	8.46187	0.924712	9.86529			0.688804	7.38739	0.853117	9.11105		
0.450235	4.79576	0.203	2.1122	0.793273	8.4419	0.930645	9.83088			0.692659	7.35525	0.859488	9.08865		
0.451533	4.76233	0.205085	2.1134	0.799239	8.42188	0.936594	9.79729			0.696453	7.32308	0.86586	9.06671		
0.452825	4.72948	0.20717	2.11459	0.805164	8.40183	0.942557	9.76451			0.700186	7.29091	0.872233	9.0452		
0.45411	4.69719	0.209255	2.11575	0.811048	8.38174	0.948536	9.7325			0.703859	7.25873	0.878606	9.02409		
0.455389	4.66545	0.21134	2.11689	0.816889	8.36159	0.954528	9.70125			0.707473	7.22657	0.884976	9.00336		
0.456662	4.63426	0.213424	2.118	0.822687	8.34139	0.960536	9.67073			0.71103	7.19443	0.891343	8.98299		
0.45793	4.60361	0.215509	2.1191	0.828442	8.32113	0.966557	9.64092			0.714529	7.16232	0.897706	8.96295		
0.459194	4.57347	0.217594	2.12017	0.834153	8.30081	0.972592	9.61179			0.717973	7.13024	0.904062	8.94323		
0.460453	4.54385	0.219678	2.12123	0.839819	8.28043	0.978641	9.58333			0.721362	7.09822	0.910412	8.9238		
0.461709	4.51473	0.221763	2.12226	0.845442	8.25999	0.984704	9.55552			0.724696	7.06625	0.916754	8.90464		
0.462961	4.48611	0.223847	2.12328	0.851019	8.23947	0.990779	9.52832			0.727979	7.03435	0.923087	8.88574		
0.46421	4.45796	0.225932	2.12428	0.85655	8.21889	0.996866	9.50173			0.731209	7.00252	0.929409	8.86707		
0.465456	4.43029	0.228016	2.12526	0.862037	8.19824	1.00297	9.47572			0.734388	6.97077	0.935721	8.84863		
0.4667	4.40309	0.2301	2.12622	0.867477	8.17753					0.737518	6.93912	0.942019	8.83039		
0.467942	4.37634	0.232184	2.12716	0.872872	8.15674					0.740599	6.90755	0.948304	8.81235		
0.469182	4.35003	0.234269	2.12809	0.87822	8.13588					0.743633	6.87609	0.954575	8.79448		
0.470421	4.32416	0.236353	2.12901	0.883522	8.11496					0.746619	6.84474	0.96083	8.77677		
0.471659	4.29872	0.238437	2.1299	0.888777	8.09396					0.74956	6.8135	0.967069	8.75921		
0.472895	4.2737	0.240521	2.13079	0.893986	8.0729					0.752456	6.78239	0.973291	8.74179		
0.474131	4.24909	0.242604	2.13165	0.899149	8.05178					0.755308	6.7514	0.979494	8.7245		
0.475366	4.22488	0.244688	2.1325	0.904265	8.03059					0.758117	6.72054	0.985679	8.70733		
0.476601	4.20107	0.246772	2.13334	0.909334	8.00934					0.760885	6.68982	0.991843	8.69026		
0.477836	4.17765	0.248856	2.13417	0.914357	7.98803					0.763611	6.65924	0.997987	8.67328		
0.479071	4.15461	0.25094	2.13498	0.919333	7.96666					0.766297	6.62881	1.00411	8.6564		
0.480306	4.13193	0.253023	2.13578	0.924263	7.94523					0.768945	6.59852				
0.481542	4.10963	0.255107	2.13656	0.929147	7.92376					0.771554	6.5684				
0.482779	4.08768	0.25719	2.13733	0.933985	7.90223					0.774125	6.53843				
0.484016	4.06608	0.259274	2.13809	0.938777	7.88065					0.776661	6.50862				
0.485254	4.04482	0.261357	2.13884	0.943523	7.85902					0.77916	6.47898				
0.486494	4.0239	0.263441	2.13958	0.948224	7.83736					0.781625	6.44951				
0.487735	4.00331	0.265524	2.1403	0.952879	7.81565					0.784056	6.42021				
0.488977	3.98305	0.267608	2.14102	0.95749	7.7939					0.786453	6.39109				
0.49022	3.9631	0.269691	2.14172	0.962055	7.77212					0.788819	6.36214				
0.491465	3.94347	0.271774	2.14241	0.966576	7.75031					0.791153	6.33337				
0.492712	3.92413	0.273857	2.14309	0.971053	7.72847					0.793456	6.30479				
0.493961	3.9051	0.275941	2.14377	0.975486	7.7066					0.795729	6.27639				
0.495212	3.88636	0.278024	2.14443	0.979875	7.68471					0.797973	6.24817				
0.496464	3.86791	0.280107	2.14508	0.98422	7.6628					0.800189	6.22014				
0.497719	3.84975	0.28219	2.14572	0.988522	7.64087					0.802377	6.1923				
0.498976	3.83185	0.284273	2.14636	0.992782	7.61893					0.804537	6.16465				
0.500236	3.81424	0.286356	2.14698	0.996999	7.59697					0.806672	6.13719				
0.501497	3.79688	0.288439	2.1476	1.00117	7.57501					0.808781	6.10992				
0.502762	3.77979	0.290522	2.1482							0.810864	6.08285				
0.504028	3.76296	0.292605	2.1488							0.812923	6.05597				
0.505297	3.74637	0.294688	2.14939							0.814959	6.02929				
0.506569	3.73004	0.296771	2.14997							0.816971	6.0028				
0.507844	3.71394	0.298854	2.15055							0.818961	5.97651				
0.509121	3.69809	0.300937	2.15111							0.820929	5.95041				
0.510401	3.68246	0.303019	2.15167							0.822876	5.92451				
0.511684	3.66707	0.305102	2.15222							0.824802	5.89881				
0.51297	3.6519	0.307185	2.15277							0.826708	5.8733				
0.514258	3.63695	0.309268	2.1533							0.828594	5.84799				
0.51555	3.62222	0.31135	2.15383							0.830461	5.82288				
0.516845	3.6077	0.313433	2.15435							0.832309	5.79796				
0.518143	3.59339	0.315516	2.15487							0.834139	5.77324				
0.519443	3.57928	0.317598	2.15538							0.835952	5.74872				
0.520747	3.56538	0.319681	2.15588							0.837747	5.72439				
0.522054	3.55167	0.321763	2.15638							0.839526	5.70025				
0.523365	3.53816	0.323846	2.15686							0.841289	5.67631				
0.524678	3.52483	0.325929	2.15735							0.843035	5.65256				
0.525995	3.5117	0.328011	2.15782							0.844767	5.62901				
0.527314	3.49875	0.330094	2.1583							0.846484	5.60565				
0.528637	3.48597	0.332176	2.15876							0.848186	5.58248				
0.529964	3.47338	0.334258	2.15922							0.849874	5.55949				
0.531293	3.46096	0.336341	2.15967							0.851549	5.5367				
0.532626	3.44871	0.338423	2.16012							0.85321	5.5141				
0.533962	3.43663	0.340506	2.16057							0.854858	5.49169				
0.535302	3.42472	0.342588	2.161							0.856494	5.46946				
0.536645	3.41296	0.34467	2.16144							0.858117	5.44742				
0.537991	3.40137	0.346753	2.16186							0.859729	5.42556				
0.53934	3.38994	0.348835	2.16229							0.861329	5.40388				
0.540693	3.37865	0.350917	2.1627							0.862919	5.38239				
0.54205	3.36752	0.353	2.16311							0.864497	5.36108				
0.543409	3.35654	0.355082	2.16352							0.866065	5.33995				
0.544772	3.34571	0.357164	2.16393							0.867622	5.319				
0.546138	3.33501	0.359246	2.16432							0.86917	5.29823				
0.547508	3.32446	0.361328	2.16472							0.870708	5.27763				
0.548881	3.31405	0.363411	2.16511							0.872237	5.2572				
0.550258	3.30378	0.365493	2.16549							0.873757	5.23696				
0.551638	3.29364	0.367575	2.16587							0.875268	5.21688				
0.553021	3.28363	0.369657	2.16625							0.87677	5.19698				
0.554407	3.27375	0.371739	2.16662							0.878264	5.17724				
0.555797	3.264	0.373821	2.16699							0.87975	5.15767				
0.55719	3.25438	0.375903	2.16735							0.881229	5.13828				
0.558587	3.24488	0.377986	2.16771							0.8827	5.11904				
0.559987	3.2355	0.380068	2.16807							0.884163	5.09997				
0.56139	3.22624	0.38215	2.16842							0.88562	5.08107				
0.562797	3.2171	0.384232	2.16877							0.887069	5.06233				
0.564207	3.20807	0.386314	2.16911							0.888512	5.04374				
0.565621	3.19916	0.388396	2.16945							0.889949	5.02532				
0.567037	3.19036	0.390478	2.16979							0.89138	5.00706				
0.568457	3.18167	0.39256	2.17013							0.892804	4.98895				
0.569881	3.17309	0.394642	2.17046							0.894223	4.97099				
0.571307	3.16462	0.396724	2.17078							0.895636	4.9532				
0.572737	3.15625	0.398806	2.17111							0.897043	4.93555				
0.57417	3.14799	0.400888	2.17143							0.898445	4.91805				
0.575607	3.13982	0.402969	2.17174							0.899843	4.90071				
0.577046	3.13176	0.405051	2.17206							0.901235	4.88351				
0.578489	3.1238	0.407133	2.17237							0.902622	4.86646				
0.579936	3.11593	0.409215	2.17268							0.904005	4.84955				
0.581385	3.10816	0.411297	2.17298							0.905384	4.83279				
0.582838	3.10048	0.413379	2.17328							0.906758	4.81618				
0.584293	3.09289	0.415461	2.17358							0.908128	4.7997				
0.585752	3.0854	0.417543	2.17388							0.909494	4.78337				
0.587215	3.078	0.419624	2.17417							0.910856	4.76717				
0.58868	3.07068	0.421706	2.17446							0.912215	4.75112				
0.590149	3.06345	0.423788	2.17474							0.91357	4.7352				
0.59162	3.05631	0.42587	2.17503							0.914921	4.71941				
0.593095	3.04926	0.427952	2.17531							0.91627	4.70376				
0.594573	3.04228	0.430033	2.17559							0.917615	4.68824				
0.596054	3.03539	0.432115	2.17586							0.918957	4.67285				
0.597538	3.02858	0.434197	2.17614							0.920296	4.6576				
0.599026	3.02185	0.436279	2.17641							0.921632	4.64247				
0.600516	3.01519	0.438361	2.17668							0.922965	4.62747				
0.602009	3.00862	0.440442	2.17694							0.924296	4.61259				
0.603506	3.00212	0.442524	2.1772							0.925625	4.59784				
0.605005	2.99569	0.444606	2.17747							0.926951	4.58322				
0.606507	2.98934	0.446687	2.17772							0.928274	4.56872				
0.608013	2.98306	0.448769	2.17798							0.929596	4.55434				
0.609521	2.97685	0.450851	2.17823							0.930915	4.54008				
0.611032	2.97072	0.452932	2.17848							0.932233	4.52594				
0.612547	2.96465	0.455014	2.17873							0.933549	4.51192				
0.614064	2.95865	0.457096	2.17898							0.934862	4.49801				
0.615584	2.95272	0.459177	2.17922							0.936174	4.48422				
0.617107	2.94686	0.461259	2.17947							0.937485	4.47055				
0.618633	2.94106	0.463341	2.17971							0.938794	4.45699				
0.620162	2.93532	0.465422	2.17994							0.940101	4.44354				
0.621694	2.92966	0.467504	2.18018							0.941407	4.43021				
0.623228	2.92405	0.469586	2.18041							0.942712	4.41698				
0.624766	2.9185	0.471667	2.18065							0.944015	4.40386				
0.626306	2.91302	0.473749	2.18088							0.945318	4.39085				
0.627849	2.9076	0.47583	2.1811							0.946619	4.37795				
0.629395	2.90223	0.477912	2.18133							0.947919	4.36516				
0.630943	2.89693	0.479994	2.18155							0.949219	4.35247				
0.632495	2.89168	0.482075	2.18177							0.950517	4.33988				
0.634049	2.88649	0.484157	2.18199							0.951815	4.32739				
0.635605	2.88136	0.486238	2.18221							0.953111	4.31501				
0.637165	2.87628	0.48832	2.18243							0.954408	4.30273				
0.638727	2.87125	0.490401	2.18264							0.955703	4.29055				
0.640292	2.86628	0.492483	2.18286							0.956998	4.27847				
0.64186	2.86137	0.494564	2.18307							0.958293	4.26648				
0.64343	2.8565	0.496646	2.18328							0.959587	4.2546				
0.645003	2.85169	0.498727	2.18348							0.96088	4.24281				
0.646578	2.84693	0.500809	2.18369							0.962173	4.23111				
0.648156	2.84222	0.50289	2.18389							0.963466	4.21951				
0.649737	2.83756	0.504972	2.1841							0.964759	4.208				
0.65132	2.83294	0.507053	2.1843							0.966052	4.19658				
0.652906	2.82838	0.509135	2.18449							0.967344	4.18526				
0.654494	2.82386	0.511216	2.18469							0.968636	4.17402				
0.656085	2.81939	0.513298	2.18489							0.969929	4.16288				
0.657679	2.81497	0.515379	2.18508							0.971221	4.15182				
0.659274	2.81059	0.517461	2.18528							0.972513	4.14085				
0.660873	2.80626	0.519542	2.18547							0.973806	4.12997				
0.662474	2.80197	0.521624	2.18566							0.975098	4.11918				
0.664077	2.79773	0.523705	2.18584							0.976391	4.10847				
0.665683	2.79353	0.525786	2.18603							0.977684	4.09784				
0.667291	2.78937	0.527868	2.18622							0.978977	4.0873				
0.668902	2.78526	0.529949	2.1864							0.98027	4.07684				
0.670515	2.78118	0.532031	2.18658							0.981564	4.06647				
0.67213	2.77715	0.534112	2.18676							0.982858	4.05617				
0.673748	2.77316	0.536193	2.18694							0.984152	4.04596				
0.675368	2.76921	0.538275	2.18712							0.985447	4.03582				
0.676991	2.7653	0.540356	2.1873							0.986742	4.02577				
0.678615	2.76143	0.542438	2.18747							0.988038	4.01579				
0.680243	2.75759	0.544519	2.18765							0.989334	4.00589				
0.681872	2.7538	0.5466	2.18782							0.990631	3.99606				
0.683504	2.75004	0.548682	2.18799							0.991929	3.98632				
0.685138	2.74632	0.550763	2.18816							0.993227	3.97664				
0.686774	2.74264	0.552844	2.18833							0.994526	3.96704				
0.688413	2.73899	0.554926	2.1885							0.995825	3.95752				
0.690053	2.73538	0.557007	2.18866							0.997125	3.94807				
0.691697	2.7318	0.559088	2.18883							0.998426	3.93869				
0.693342	2.72826	0.56117	2.18899							0.999727	3.92938				
0.694989	2.72475	0.563251	2.18915							1.00103	3.92014				
0.696639	2.72128	0.565332	2.18932												
0.69829	2.71784	0.567414	2.18948												
0.699944	2.71443	0.569495	2.18964												
0.7016	2.71106	0.571576	2.18979												
0.703258	2.70772	0.573658	2.18995												
0.704919	2.70441	0.575739	2.19011												
0.706581	2.70113	0.57782	2.19026												
0.708246	2.69789	0.579902	2.19041												
0.709912	2.69467	0.581983	2.19057												
0.711581	2.69149	0.584064	2.19072												
0.713251	2.68833	0.586145	2.19087												
0.714924	2.68521	0.588227	2.19102												
0.716599	2.68211	0.590308	2.19117												
0.718276	2.67904	0.592389	2.19131												
0.719954	2.67601	0.594471	2.19146												
0.721635	2.673	0.596552	2.1916												
0.723318	2.67002	0.598633	2.19175												
0.725002	2.66706	0.600714	2.19189												
0.726689	2.66413	0.602796	2.19203												
0.728377	2.66124	0.604877	2.19217												
0.730068	2.65836	0.606958	2.19231												
0.73176	2.65552	0.609039	2.19245												
0.733455	2.6527	0.61112	2.19259												
0.735151	2.6499	0.613202	2.19273												
0.736849	2.64713	0.615283	2.19287												
0.738549	2.64439	0.617364	2.193												
0.74025	2.64167	0.619445	2.19314												
0.741954	2.63897	0.621527	2.19327												
0.74366	2.6363	0.623608	2.1934												
0.745367	2.63366	0.625689	2.19353												
0.747076	2.63103	0.62777	2.19366												
0.748787	2.62843	0.629851	2.19379												
0.750499	2.62586	0.631932	2.19392												
0.752214	2.62331	0.634014	2.19405												
0.75393	2.62078	0.636095	2.19418												
0.755648	2.61827	0.638176	2.19431												
0.757368	2.61578	0.640257	2.19443												
0.759089	2.61332	0.642338	2.19456												
0.760812	2.61088	0.64442	2.19468												
0.762537	2.60845	0.646501	2.19481												
0.764264	2.60606	0.648582	2.19493												
0.765992	2.60368	0.650663	2.19505												
0.767722	2.60132	0.652744	2.19517												
0.769454	2.59898	0.654825	2.19529												
0.771187	2.59666	0.656906	2.19541												
0.772922	2.59437	0.658988	2.19553												
0.774658	2.59209	0.661069	2.19565												
0.776396	2.58983	0.66315	2.19577												
0.778136	2.58759	0.665231	2.19588												
0.779878	2.58537	0.667312	2.196												
0.781621	2.58317	0.669393	2.19611												
0.783365	2.58099	0.671474	2.19623												
0.785111	2.57883	0.673555	2.19634												
0.786859	2.57668	0.675637	2.19646												
0.788608	2.57456	0.677718	2.19657												
0.790359	2.57245	0.679799	2.19668												
0.792112	2.57036	0.68188	2.19679												
0.793866	2.56828	0.683961	2.1969												
0.795621	2.56623	0.686042	2.19701												
0.797378	2.56419	0.688123	2.19712												
0.799136	2.56217	0.690204	2.19723												
0.800896	2.56016	0.692285	2.19734												
0.802658	2.55817	0.694367	2.19744												
0.804421	2.5562	0.696448	2.19755												
0.806185	2.55425	0.698529	2.19766												
0.807951	2.55231	0.70061	2.19776												
0.809718	2.55038	0.702691	2.19787												
0.811487	2.54848	0.704772	2.19797												
0.813257	2.54658	0.706853	2.19807												
0.815028	2.54471	0.708934	2.19818												
0.816801	2.54285	0.711015	2.19828												
0.818576	2.541	0.713096	2.19838												
0.820352	2.53917	0.715177	2.19848												
0.822129	2.53735	0.717258	2.19858												
0.823907	2.53555	0.719339	2.19868												
0.825687	2.53376	0.72142	2.19878												
0.827468	2.53199	0.723501	2.19888												
0.829251	2.53023	0.725582	2.19898												
0.831035	2.52849	0.727664	2.19907												
0.83282	2.52675	0.729745	2.19917												
0.834607	2.52504	0.731826	2.19927												
0.836395	2.52333	0.733907	2.19936												
0.838184	2.52164	0.735988	2.19946												
0.839974	2.51997	0.738069	2.19955												
0.841766	2.5183	0.74015	2.19965												
0.843559	2.51665	0.742231	2.19974												
0.845354	2.51502	0.744312	2.19983												
0.84715	2.51339	0.746393	2.19993												
0.848947	2.51178	0.748474	2.20002												
0.850745	2.51018	0.750555	2.20011												
0.852544	2.50859	0.752636	2.2002												
0.854345	2.50702	0.754717	2.20029												
0.856147	2.50546	0.756798	2.20038												
0.85795	2.50391	0.758879	2.20047												
0.859754	2.50237	0.76096	2.20056												
0.86156	2.50084	0.763041	2.20065												
0.863367	2.49933	0.765122	2.20074												
0.865175	2.49783	0.767203	2.20083												
0.866984	2.49633	0.769284	2.20091												
0.868794	2.49485	0.771365	2.201												
0.870606	2.49338	0.773446	2.20109												
0.872419	2.49193	0.775527	2.20117												
0.874233	2.49048	0.777608	2.20126												
0.876048	2.48904	0.779689	2.20134												
0.877864	2.48762	0.78177	2.20143												
0.879681	2.48621	0.783851	2.20151												
0.8815	2.4848	0.785932	2.20159												
0.883319	2.48341	0.788013	2.20168												
0.88514	2.48203	0.790093	2.20176												
0.886962	2.48065	0.792174	2.20184												
0.888785	2.47929	0.794255	2.20192												
0.890609	2.47794	0.796336	2.20201												
0.892434	2.4766	0.798417	2.20209												
0.89426	2.47527	0.800498	2.20217												
0.896088	2.47394	0.802579	2.20225												
0.897916	2.47263	0.80466	2.20233												
0.899745	2.47133	0.806741	2.20241												
0.901576	2.47004	0.808822	2.20248												
0.903408	2.46875	0.810903	2.20256												
0.90524	2.46748	0.812984	2.20264												
0.907074	2.46621	0.815065	2.20272												
0.908909	2.46496	0.817146	2.2028												
0.910744	2.46371	0.819227	2.20287												
0.912581	2.46247	0.821308	2.20295												
0.914419	2.46125	0.823389	2.20303												
0.916258	2.46003	0.82547	2.2031												
0.918098	2.45881	0.82755	2.20318												
0.919939	2.45761	0.829631	2.20325												
0.92178	2.45642	0.831712	2.20333												
0.923623	2.45523	0.833793	2.2034												
0.925467	2.45406	0.835874	2.20347												
0.927312	2.45289	0.837955	2.20355												
0.929158	2.45173	0.840036	2.20362												
0.931004	2.45058	0.842117	2.20369												
0.932852	2.44943	0.844198	2.20377												
0.934701	2.4483	0.846279	2.20384												
0.93655	2.44717	0.84836	2.20391												
0.938401	2.44605	0.85044	2.20398												
0.940253	2.44494	0.852521	2.20405												
0.942105	2.44384	0.854602	2.20412												
0.943958	2.44274	0.856683	2.20419												
0.945813	2.44165	0.858764	2.20426												
0.947668	2.44057	0.860845	2.20433												
0.949524	2.4395	0.862926	2.2044												
0.951381	2.43843	0.865007	2.20447												
0.953239	2.43737	0.867088	2.20454												
0.955098	2.43632	0.869168	2.20461												
0.956958	2.43528	0.871249	2.20468												
0.958818	2.43424	0.87333	2.20474												
0.96068	2.43321	0.875411	2.20481												
0.962542	2.43219	0.877492	2.20488												
0.964406	2.43118	0.879573	2.20494												
0.96627	2.43017	0.881654	2.20501												
0.968135	2.42917	0.883735	2.20508												
0.970001	2.42817	0.885815	2.20514												
0.971868	2.42718	0.887896	2.20521												
0.973735	2.4262	0.889977	2.20527												
0.975604	2.42523	0.892058	2.20534												
0.977473	2.42426	0.894139	2.2054												
0.979343	2.4233	0.89622	2.20547												
0.981214	2.42234	0.898301	2.20553												
0.983086	2.4214	0.900381	2.20559												
0.984958	2.42045	0.902462	2.20566												
0.986832	2.41952	0.904543	2.20572												
0.988706	2.41859	0.906624	2.20578												
0.990581	2.41766	0.908705	2.20585												
0.992457	2.41675	0.910786	2.20591												
0.994334	2.41584	0.912866	2.20597												
0.996211	2.41493	0.914947	2.20603												
0.998089	2.41403	0.917028	2.20609												
0.999968	2.41314	0.919109	2.20615												
1.00185	2.41225	0.92119	2.20621												
		0.923271	2.20628												
		0.925351	2.20634												
		0.927432	2.2064												
		0.929513	2.20646												
		0.931594	2.20651												
		0.933675	2.20657												
		0.935756	2.20663												
		0.937836	2.20669												
		0.939917	2.20675												
		0.941998	2.20681												
		0.944079	2.20687												
		0.94616	2.20692												
		0.94824	2.20698												
		0.950321	2.20704												
		0.952402	2.20709												
		0.954483	2.20715												
		0.956564	2.20721												
		0.958644	2.20726												
		0.960725	2.20732												
		0.962806	2.20737												
		0.964887	2.20743												
		0.966968	2.20749												
		0.969048	2.20754												
		0.971129	2.20759												
		0.97321	2.20765												
		0.975291	2.2077												
		0.977372	2.20776												
		0.979452	2.20781												
		0.981533	2.20786												
		0.983614	2.20792												
		0.985695	2.20797												
		0.987776	2.20802												
		0.989856	2.20808												
		0.991937	2.20813												
		0.994018	2.20818												
		0.996099	2.20823												
		0.998179	2.20828												
		1.00026	2.20834												
