Sym0		Asym0		Sym1		Sym2		Sym3		Asym1		Asym2		Asym3	
449  Points		490  Points		138  Points		113  Points		98  Points		265  Points		123  Points		99  Points	
Freq (MHz)	Vph (m/ms)	Freq (MHz)	Vph (m/ms)	Freq (MHz)	Vph (m/ms)	Freq (MHz)	Vph (m/ms)	Freq (MHz)	Vph (m/ms)	Freq (MHz)	Vph (m/ms)	Freq (MHz)	Vph (m/ms)	Freq (MHz)	Vph (m/ms)
0.00222463	9.07877	0.000678982	0.297416	0.279554	466.851	0.549238	1043.11	0.559094	653.283	0.139914	192.932	0.419287	795.592	0.698772	8062.28
0.0106828	9.07835	0.00133204	0.414369	0.279803	182.818	0.549241	376.648	0.559351	312.921	0.140584	84.8481	0.419449	287.549	0.698825	686.221
0.0191385	9.07713	0.00218541	0.527071	0.28027	113.829	0.549253	229.82	0.559783	205.862	0.14177	54.7673	0.419764	175.604	0.698968	358.434
0.0275896	9.07517	0.0032232	0.634736	0.280952	82.7817	0.549282	165.366	0.56038	153.491	0.143455	40.7511	0.420229	126.495	0.699201	242.63
0.0360345	9.07254	0.00442746	0.736718	0.281849	65.1586	0.549338	129.155	0.561132	122.448	0.14562	32.7091	0.420846	98.9344	0.699524	183.436
0.0444707	9.06916	0.00577972	0.832644	0.282958	53.8221	0.549431	105.965	0.562029	101.922	0.14824	27.5351	0.421613	81.3064	0.699937	147.506
0.0528966	9.06508	0.00726161	0.922332	0.284275	45.9324	0.549571	89.8476	0.563063	87.3509	0.151287	23.9553	0.42253	69.0726	0.700439	123.385
0.0613098	9.06025	0.0088555	1.00576	0.285797	40.1362	0.549767	77.9988	0.564225	76.4772	0.154732	21.351	0.423594	60.0939	0.70103	106.08
0.0697083	9.05467	0.0105451	1.08305	0.28752	35.7063	0.550026	68.9248	0.565509	68.0567	0.158545	19.385	0.424806	53.23	0.70171	93.0622
0.0780897	9.04833	0.0123156	1.15442	0.289439	32.217	0.550355	61.7558	0.56691	61.3468	0.162699	17.8585	0.426163	47.8176	0.702479	82.9185
0.0864519	9.0412	0.0141539	1.22017	0.29155	29.4027	0.550757	55.9514	0.568424	55.877	0.167164	16.6462	0.427664	43.4442	0.703336	74.7942
0.0947923	9.03327	0.0160484	1.28064	0.293848	27.0891	0.551238	51.1581	0.570048	51.335	0.171913	15.6657	0.429306	39.8404	0.704282	68.1432
0.103109	9.02452	0.0179894	1.33618	0.296326	25.1568	0.551802	47.1348	0.571778	47.505	0.176922	14.8605	0.431089	36.8221	0.705314	62.5999
0.111398	9.01491	0.0199684	1.38718	0.29898	23.5217	0.552451	43.7115	0.573612	44.2334	0.182166	14.1905	0.43301	34.2597	0.706434	57.9105
0.119658	9.00442	0.0219783	1.43399	0.301804	22.1222	0.553189	40.7647	0.57555	41.4078	0.187625	13.6267	0.435067	32.0592	0.70764	53.8932
0.127885	8.99302	0.0237503	1.47165	0.304791	20.913	0.554017	38.2029	0.577588	38.944	0.193279	13.1477	0.437258	30.1507	0.708932	50.4144
0.136077	8.98068	0.0252732	1.50162	0.307936	19.8592	0.55494	35.9565	0.579726	36.7778	0.199109	12.737	0.43958	28.481	0.71031	47.3736
0.14423	8.96736	0.0265399	1.52502	0.311233	18.9342	0.555959	33.9717	0.581963	34.8593	0.205099	12.3822	0.442031	27.0094	0.711772	44.6939
0.15234	8.95302	0.0275455	1.54269	0.314676	18.1168	0.557077	32.2065	0.584297	33.1491	0.211234	12.0735	0.444609	25.7036	0.713319	42.3154
0.160405	8.93761	0.0282869	1.55523	0.318259	17.3903	0.558296	30.6272	0.586727	31.6158	0.216688	11.8359	0.44731	24.5381	0.714949	40.1908
0.168421	8.92109	0.0287623	1.56306	0.321978	16.7412	0.559618	29.2069	0.589253	30.234	0.221409	11.6533	0.450132	23.4922	0.716663	38.2821
0.176382	8.90341	0.0294466	1.57406	0.325826	16.1585	0.561046	27.9237	0.591873	28.983	0.22536	11.5144	0.453073	22.5493	0.718458	36.5586
0.184285	8.88451	0.0301918	1.58569	0.329799	15.6332	0.562582	26.7593	0.594588	27.8455	0.228512	11.4116	0.45613	21.6954	0.720336	34.995
0.192126	8.86434	0.0312072	1.60097	0.333891	15.1577	0.564229	25.6987	0.597395	26.8073	0.230845	11.3396	0.4593	20.9191	0.722293	33.5706
0.199899	8.84283	0.0324942	1.61945	0.3381	14.7259	0.565989	24.7295	0.600295	25.8564	0.232344	11.2951	0.46258	20.2108	0.724331	32.268
0.207598	8.81993	0.0340542	1.6406	0.34242	14.3325	0.567865	23.8409	0.603286	24.9826	0.234508	11.2332	0.465967	19.5625	0.726448	31.0726
0.215219	8.79555	0.0358883	1.66388	0.346848	13.9729	0.569859	23.024	0.606367	24.1774	0.236871	11.1683	0.469459	18.9672	0.728643	29.9721
0.222756	8.76965	0.0379971	1.68871	0.351381	13.6435	0.571973	22.2711	0.609539	23.4334	0.240103	11.0842	0.473053	18.4191	0.730916	28.9558
0.230202	8.74213	0.0401093	1.7117	0.356018	13.3409	0.57421	21.5755	0.6128	22.7441	0.244219	10.984	0.476746	17.913	0.733265	28.0149
0.237551	8.71293	0.0422237	1.73303	0.360755	13.0623	0.576573	20.9315	0.616149	22.104	0.249235	10.8712	0.480536	17.4447	0.73569	27.1414
0.244796	8.68198	0.0443396	1.75284	0.365591	12.8054	0.579062	20.3341	0.619586	21.5084	0.25517	10.7494	0.484419	17.0104	0.73819	26.3287
0.251931	8.64921	0.0464563	1.77128	0.370525	12.5681	0.581682	19.779	0.623111	20.9531	0.262043	10.622	0.488393	16.6066	0.740764	25.5707
0.258947	8.61455	0.0485732	1.78846	0.375557	12.3485	0.584433	19.2623	0.626722	20.4343	0.268974	10.5062	0.492455	16.2305	0.743411	24.8625
0.265838	8.57793	0.0506901	1.8045	0.380021	12.1704	0.587317	18.7806	0.630419	19.9489	0.275958	10.4005	0.496603	15.8796	0.74613	24.1994
0.272597	8.53931	0.0528066	1.8195	0.383885	12.0276	0.590335	18.331	0.634202	19.4938	0.282989	10.3037	0.500834	15.5516	0.74892	23.5774
0.279217	8.49863	0.0549224	1.83354	0.38712	11.9153	0.59349	17.9108	0.638069	19.0667	0.290062	10.2147	0.505146	15.2445	0.75178	22.993
0.28569	8.45587	0.0570375	1.84671	0.389705	11.8301	0.596782	17.5176	0.642022	18.6651	0.297171	10.1326	0.509536	14.9564	0.754709	22.4431
0.292011	8.41099	0.0591517	1.85908	0.39162	11.7693	0.600211	17.1493	0.646058	18.2871	0.304312	10.0566	0.514001	14.6859	0.757707	21.9248
0.298172	8.364	0.0612649	1.87072	0.392852	11.7313	0.603778	16.8039	0.650179	17.9309	0.311481	9.98606	0.51854	14.4314	0.760772	21.4356
0.304169	8.31491	0.0633771	1.88168	0.394633	11.6777	0.607484	16.4797	0.654383	17.5948	0.318674	9.92032	0.52315	14.1917	0.763903	20.9732
0.309997	8.26375	0.0654881	1.89202	0.39658	11.6209	0.611326	16.1751	0.658671	17.2772	0.325886	9.85889	0.52783	13.9657	0.767099	20.5357
0.315652	8.21058	0.0675981	1.90179	0.399248	11.546	0.615305	15.8887	0.663043	16.977	0.333114	9.80129	0.532576	13.7522	0.770359	20.1211
0.321131	8.15545	0.069707	1.91103	0.402656	11.4549	0.619419	15.6191	0.667498	16.6929	0.340354	9.74712	0.537387	13.5505	0.773683	19.7278
0.326432	8.09847	0.0718148	1.91978	0.406827	11.3501	0.623666	15.3652	0.672037	16.4237	0.347604	9.69603	0.54226	13.3595	0.77707	19.3544
0.331556	8.03974	0.0739216	1.92808	0.41179	11.2341	0.628044	15.1259	0.67666	16.1686	0.354859	9.64769	0.547195	13.1786	0.780517	18.9994
0.336501	7.97938	0.0760274	1.93596	0.417578	11.1096	0.63255	14.9001	0.681369	15.9265	0.362118	9.60181	0.552189	13.007	0.784025	18.6615
0.341269	7.91753	0.0781321	1.94344	0.423465	10.9937	0.637182	14.6868	0.686162	15.6967	0.369377	9.55815	0.557241	12.8441	0.787592	18.3397
0.345863	7.85433	0.0802359	1.95057	0.429449	10.8858	0.641934	14.4853	0.691042	15.4784	0.376632	9.51648	0.562348	12.6893	0.791218	18.0329
0.350286	7.78995	0.0823389	1.95736	0.435529	10.7852	0.646804	14.2947	0.696008	15.271	0.383883	9.47658	0.566844	12.5606	0.794901	17.7401
0.354541	7.72453	0.0844409	1.96383	0.441703	10.6914	0.651787	14.1142	0.701062	15.0737	0.391125	9.43828	0.570708	12.4552	0.798641	17.4605
0.358634	7.65824	0.0865421	1.97001	0.447969	10.6039	0.656878	13.9431	0.706205	14.8861	0.398356	9.40141	0.573924	12.3709	0.802436	17.1933
0.362568	7.59123	0.0886425	1.97592	0.454323	10.5223	0.662071	13.7808	0.711439	14.7076	0.405574	9.36582	0.576482	12.306	0.806285	16.9377
0.366351	7.52365	0.0907421	1.98157	0.460762	10.446	0.667361	13.6267	0.716764	14.5377	0.412776	9.33136	0.57837	12.2592	0.810189	16.6929
0.369987	7.45567	0.092841	1.98698	0.467281	10.3746	0.672743	13.4801	0.722183	14.3759	0.41996	9.29792	0.579581	12.2297	0.814144	16.4585
0.373482	7.38741	0.0949392	1.99216	0.473876	10.3078	0.67821	13.3406	0.727696	14.2219	0.427122	9.26538	0.581328	12.1878	0.818152	16.2338
0.376843	7.31901	0.0970367	1.99713	0.480541	10.2452	0.683756	13.2076	0.733306	14.0752	0.434261	9.23362	0.583232	12.143	0.822211	16.0182
0.380076	7.2506	0.0991336	2.0019	0.487273	10.1864	0.689375	13.0808	0.739014	13.9356	0.441375	9.20257	0.585832	12.0833	0.82632	15.8112
0.383187	7.1823	0.10123	2.00648	0.494066	10.1311	0.69506	12.9595	0.744821	13.8026	0.44846	9.17211	0.589136	12.0097	0.830477	15.6124
0.386182	7.1142	0.103326	2.01088	0.500914	10.0789	0.700064	12.8582	0.75073	13.676	0.455514	9.14219	0.593156	11.9234	0.834683	15.4214
0.389068	7.04641	0.105421	2.01512	0.507814	10.0297	0.704362	12.7747	0.756741	13.5554	0.462536	9.1127	0.597905	11.8259	0.838937	15.2377
0.391849	6.97901	0.107516	2.0192	0.514758	9.98319	0.707937	12.7077	0.762857	13.4406	0.469521	9.0836	0.603398	11.7186	0.843237	15.0609
0.394531	6.91208	0.10961	2.02313	0.521744	9.93907	0.710776	12.6558	0.769077	13.3314	0.476469	9.0548	0.608937	11.616	0.847582	14.8907
0.39712	6.8457	0.111704	2.02692	0.528766	9.89717	0.71287	12.6183	0.775404	13.2274	0.483377	9.02626	0.61452	11.5178	0.851973	14.7268
0.399621	6.77992	0.113797	2.03057	0.535819	9.85729	0.714214	12.5946	0.781836	13.1285	0.490242	8.99791	0.620147	11.4237	0.856407	14.5689
0.402038	6.7148	0.11589	2.0341	0.542899	9.81925	0.716148	12.5609	0.787529	13.0462	0.497062	8.9697	0.625817	11.3337	0.860885	14.4165
0.404378	6.65038	0.117982	2.03751	0.550003	9.78288	0.718255	12.5248	0.792445	12.9789	0.503835	8.94158	0.631529	11.2473	0.865406	14.2696
0.406643	6.58671	0.120074	2.0408	0.557126	9.74804	0.721129	12.4765	0.796555	12.925	0.510558	8.91351	0.637284	11.1646	0.869968	14.1278
0.408839	6.52383	0.122166	2.04399	0.564266	9.71458	0.724774	12.4166	0.799832	12.8836	0.517229	8.88545	0.643079	11.0852	0.874571	13.9909
0.410969	6.46175	0.124257	2.04707	0.571417	9.6824	0.729198	12.346	0.802258	12.8538	0.523846	8.85735	0.648916	11.009	0.879215	13.8586
0.413038	6.40051	0.126349	2.05005	0.578578	9.65136	0.734406	12.2656	0.803818	12.835	0.530406	8.82919	0.654793	10.9358	0.883898	13.7308
0.415048	6.34013	0.128439	2.05294	0.585745	9.62138	0.740405	12.1763	0.806069	12.8083	0.536908	8.80093	0.66071	10.8656	0.888621	13.6072
0.417004	6.28062	0.13053	2.05574	0.592915	9.59236	0.746423	12.09	0.808529	12.7798	0.543349	8.77253	0.666667	10.7981	0.893381	13.4876
0.418909	6.222	0.13262	2.05845	0.600086	9.56421	0.752456	12.0065	0.811895	12.7419	0.549728	8.74398	0.672663	10.7332	0.89756	13.3866
0.420765	6.16427	0.13471	2.06108	0.607255	9.53686	0.758503	11.9257	0.816188	12.6952	0.556042	8.71526	0.678697	10.6709	0.901145	13.3028
0.422576	6.10744	0.136799	2.06364	0.614421	9.51024	0.76456	11.8474	0.821429	12.6407	0.562289	8.68633	0.68477	10.6109	0.904124	13.235
0.424345	6.05151	0.138889	2.06612	0.62158	9.48427	0.770626	11.7715	0.827648	12.5792	0.568468	8.65718	0.69088	10.5532	0.90649	13.1823
0.426073	5.99648	0.140978	2.06853	0.62873	9.45891	0.776699	11.6977	0.834876	12.5119	0.574577	8.6278	0.697028	10.4978	0.908235	13.144
0.427764	5.94236	0.143067	2.07087	0.635871	9.43409	0.782777	11.6261	0.842199	12.4478	0.580615	8.59817	0.703212	10.4443	0.909354	13.1198
0.42942	5.88914	0.145155	2.07314	0.642999	9.40978	0.78886	11.5566	0.849615	12.3868	0.58658	8.56828	0.709433	10.3929	0.910965	13.0852
0.431042	5.83681	0.147244	2.07535	0.650113	9.38591	0.794948	11.4889	0.857119	12.3288	0.59247	8.53813	0.715689	10.3434	0.912722	13.0481
0.432633	5.78537	0.149332	2.07751	0.657211	9.36246	0.80104	11.4232	0.864711	12.2735	0.598285	8.5077	0.721979	10.2957	0.915118	12.9983
0.434196	5.73481	0.15142	2.0796	0.664292	9.33937	0.807137	11.3592	0.872385	12.2208	0.604024	8.47699	0.728303	10.2497	0.918159	12.9363
0.435731	5.68512	0.153508	2.08164	0.671354	9.31662	0.813238	11.2969	0.880139	12.1706	0.609685	8.446	0.734661	10.2053	0.921855	12.8629
0.43724	5.6363	0.155596	2.08362	0.678395	9.29417	0.819343	11.2363	0.887969	12.1227	0.615267	8.41473	0.741051	10.1626	0.926214	12.779
0.438725	5.58833	0.157684	2.08556	0.685415	9.27199	0.825455	11.1773	0.895873	12.077	0.620771	8.38318	0.747471	10.1213	0.931248	12.6854
0.440001	5.54721	0.159771	2.08744	0.692411	9.25005	0.831572	11.1199	0.903847	12.0333	0.626196	8.35136	0.753922	10.0815	0.936315	12.5946
0.441076	5.51266	0.161858	2.08928	0.699383	9.22832	0.837695	11.0639	0.911887	11.9916	0.631541	8.31927	0.760402	10.043	0.941414	12.5064
0.441957	5.48444	0.163945	2.09107	0.706328	9.20678	0.843826	11.0094	0.919992	11.9518	0.636806	8.28692	0.76691	10.0058	0.946545	12.4208
0.442648	5.46234	0.166032	2.09282	0.713247	9.18541	0.849964	10.9563	0.928156	11.9136	0.64199	8.25431	0.773444	9.96987	0.951707	12.3377
0.443153	5.44621	0.168119	2.09453	0.720136	9.16418	0.856111	10.9046	0.936379	11.8771	0.647095	8.22146	0.780004	9.93511	0.9569	12.257
0.443475	5.43594	0.170206	2.09619	0.726996	9.14307	0.862267	10.8542	0.944655	11.8422	0.65212	8.18837	0.786588	9.90146	0.962124	12.1786
0.443936	5.42125	0.172292	2.09782	0.733825	9.12206	0.868433	10.8051	0.952984	11.8087	0.657065	8.15505	0.793194	9.86888	0.967377	12.1024
0.444436	5.40539	0.174378	2.09941	0.740621	9.10114	0.874609	10.7572	0.961362	11.7765	0.66193	8.12153	0.799822	9.8373	0.97266	12.0283
0.445111	5.38397	0.176465	2.10096	0.747385	9.08029	0.880795	10.7106	0.969786	11.7457	0.666716	8.0878	0.806469	9.80668	0.977972	11.9562
0.44596	5.35715	0.178551	2.10247	0.754113	9.05949	0.886994	10.6651	0.978254	11.716	0.671424	8.05388	0.813134	9.77697	0.983312	11.8861
0.446979	5.32511	0.180637	2.10395	0.760807	9.03873	0.893204	10.6208	0.986763	11.6875	0.676055	8.01979	0.819817	9.74811	0.98868	11.8179
0.448163	5.28807	0.182723	2.1054	0.767463	9.01799	0.899426	10.5776	0.995311	11.6601	0.680607	7.98554	0.826514	9.72007	0.994076	11.7515
0.449508	5.24627	0.184809	2.10682	0.774082	8.99727	0.905662	10.5355	1.00389	11.6337	0.685084	7.95115	0.833225	9.69279	0.999499	11.6869
0.450841	5.20522	0.186894	2.1082	0.780662	8.97654	0.91191	10.4944			0.689485	7.91662	0.839949	9.66623	1.00495	11.624
0.45216	5.1649	0.18898	2.10956	0.787203	8.95581	0.918172	10.4544			0.693811	7.88197	0.846683	9.64037		
0.453469	5.1253	0.191066	2.11088	0.793703	8.93505	0.924448	10.4154			0.698063	7.84722	0.853426	9.61514		
0.454766	5.0864	0.193151	2.11218	0.800161	8.91425	0.930737	10.3773			0.702242	7.81238	0.860177	9.59053		
0.456054	5.0482	0.195236	2.11345	0.806578	8.89342	0.937041	10.3402			0.70635	7.77746	0.866933	9.56648		
0.457332	5.01067	0.197322	2.1147	0.81295	8.87254	0.943359	10.304			0.710386	7.74248	0.873694	9.54298		
0.458602	4.97381	0.199407	2.11592	0.819279	8.85161	0.949692	10.2686			0.714353	7.70745	0.880459	9.51999		
0.459864	4.93761	0.201492	2.11711	0.825563	8.83061	0.956039	10.2342			0.718251	7.67238	0.887225	9.49747		
0.461119	4.90204	0.203577	2.11828	0.831801	8.80954	0.9624	10.2005			0.722082	7.63729	0.893991	9.47539		
0.462367	4.8671	0.205662	2.11943	0.837993	8.7884	0.968776	10.1677			0.725846	7.60219	0.900756	9.45374		
0.463609	4.83278	0.207747	2.12056	0.844139	8.76719	0.975166	10.1356			0.729545	7.56709	0.907518	9.43247		
0.464845	4.79906	0.209831	2.12166	0.850236	8.74588	0.98157	10.1044			0.73318	7.532	0.914276	9.41158		
0.466076	4.76592	0.211916	2.12274	0.856286	8.7245	0.987989	10.0738			0.736752	7.49694	0.921029	9.39102		
0.467303	4.73337	0.214001	2.1238	0.862287	8.70302	0.994421	10.044			0.740262	7.46191	0.927775	9.37079		
0.468526	4.70139	0.216085	2.12484	0.868238	8.68146	1.00087	10.0148			0.743711	7.42694	0.934513	9.35085		
0.469744	4.66996	0.21817	2.12586	0.87414	8.6598					0.747102	7.39202	0.941242	9.33119		
0.47096	4.63907	0.220254	2.12686	0.879992	8.63804					0.750434	7.35716	0.947961	9.31178		
0.472172	4.60872	0.222339	2.12785	0.885794	8.61619					0.753709	7.32239	0.954667	9.29262		
0.473382	4.57888	0.224423	2.12881	0.891545	8.59425					0.756929	7.2877	0.961361	9.27367		
0.474589	4.54956	0.226507	2.12976	0.897245	8.57221					0.760094	7.25311	0.968041	9.25493		
0.475795	4.52074	0.228591	2.13069	0.902894	8.55007					0.763205	7.21862	0.974705	9.23637		
0.476998	4.49241	0.230676	2.13161	0.908492	8.52784					0.766264	7.18425	0.981353	9.21799		
0.478201	4.46456	0.23276	2.13251	0.914038	8.50551					0.769272	7.14999	0.987984	9.19976		
0.479402	4.43718	0.234844	2.13339	0.919532	8.48309					0.77223	7.11587	0.994597	9.18167		
0.480603	4.41026	0.236928	2.13426	0.924975	8.46058					0.77514	7.08188	1.00119	9.16372		
0.481803	4.38379	0.239012	2.13511	0.930366	8.43798					0.778002	7.04803				
0.483002	4.35776	0.241096	2.13595	0.935705	8.41529					0.780817	7.01433				
0.484202	4.33217	0.243179	2.13677	0.940992	8.39252					0.783586	6.98078				
0.485401	4.307	0.245263	2.13758	0.946228	8.36967					0.786312	6.9474				
0.486601	4.28224	0.247347	2.13838	0.951411	8.34673					0.788994	6.91418				
0.487801	4.25789	0.249431	2.13917	0.956544	8.32372					0.791633	6.88113				
0.489002	4.23394	0.251514	2.13994	0.961625	8.30064					0.794232	6.84825				
0.490204	4.21038	0.253598	2.1407	0.966655	8.27749					0.79679	6.81556				
0.491407	4.18721	0.255682	2.14144	0.971633	8.25426					0.79931	6.78305				
0.492611	4.1644	0.257765	2.14218	0.976561	8.23098					0.801791	6.75073				
0.493816	4.14197	0.259849	2.1429	0.981438	8.20763					0.804234	6.7186				
0.495022	4.11989	0.261932	2.14361	0.986265	8.18423					0.806642	6.68667				
0.49623	4.09817	0.264016	2.14431	0.991042	8.16077					0.809014	6.65494				
0.49744	4.07679	0.266099	2.145	0.995768	8.13727					0.811352	6.62341				
0.498652	4.05575	0.268183	2.14568	1.00045	8.11371					0.813657	6.59208				
0.499865	4.03504	0.270266	2.14635							0.815928	6.56096				
0.501081	4.01466	0.272349	2.14701							0.818168	6.53005				
0.502298	3.9946	0.274432	2.14766							0.820377	6.49935				
0.503518	3.97485	0.276516	2.1483							0.822556	6.46887				
0.50474	3.9554	0.278599	2.14893							0.824706	6.4386				
0.505965	3.93626	0.280682	2.14955							0.826828	6.40854				
0.507191	3.91741	0.282765	2.15016							0.828921	6.37871				
0.508421	3.89885	0.284848	2.15076							0.830988	6.34909				
0.509653	3.88057	0.286932	2.15136							0.833029	6.3197				
0.510888	3.86257	0.289015	2.15194							0.835044	6.29052				
0.512125	3.84484	0.291098	2.15252							0.837034	6.26157				
0.513365	3.82738	0.293181	2.15309							0.839	6.23284				
0.514608	3.81018	0.295264	2.15365							0.840943	6.20433				
0.515854	3.79324	0.297347	2.1542							0.842864	6.17604				
0.517103	3.77655	0.29943	2.15475							0.844762	6.14798				
0.518355	3.76011	0.301512	2.15529							0.846638	6.12014				
0.51961	3.74391	0.303595	2.15582							0.848494	6.09252				
0.520868	3.72795	0.305678	2.15634							0.85033	6.06512				
0.522129	3.71222	0.307761	2.15686							0.852146	6.03795				
0.523394	3.69672	0.309844	2.15737							0.853942	6.011				
0.524661	3.68145	0.311927	2.15787							0.855721	5.98427				
0.525932	3.6664	0.314009	2.15837							0.857481	5.95776				
0.527206	3.65156	0.316092	2.15886							0.859224	5.93147				
0.528483	3.63694	0.318175	2.15935							0.860949	5.9054				
0.529764	3.62253	0.320258	2.15982							0.862659	5.87955				
0.531048	3.60832	0.32234	2.1603							0.864352	5.85392				
0.532335	3.59431	0.324423	2.16076							0.86603	5.8285				
0.533626	3.5805	0.326506	2.16122							0.867692	5.80331				
0.53492	3.56689	0.328588	2.16168							0.86934	5.77832				
0.536218	3.55346	0.330671	2.16212							0.870974	5.75355				
0.537519	3.54022	0.332754	2.16257							0.872594	5.72899				
0.538823	3.52717	0.334836	2.163							0.874201	5.70464				
0.540131	3.5143	0.336919	2.16344							0.875794	5.68051				
0.541442	3.5016	0.339001	2.16386							0.877375	5.65658				
0.542757	3.48908	0.341084	2.16429							0.878944	5.63286				
0.544075	3.47673	0.343166	2.1647							0.880502	5.60935				
0.545397	3.46455	0.345249	2.16511							0.882047	5.58604				
0.546722	3.45254	0.347331	2.16552							0.883582	5.56293				
0.54805	3.44068	0.349414	2.16592							0.885105	5.54003				
0.549383	3.42899	0.351496	2.16632							0.886619	5.51732				
0.550718	3.41745	0.353579	2.16671							0.888122	5.49482				
0.552058	3.40607	0.355661	2.1671							0.889615	5.47251				
0.5534	3.39484	0.357743	2.16748							0.891099	5.4504				
0.554746	3.38376	0.359826	2.16786							0.892574	5.42849				
0.556096	3.37282	0.361908	2.16824							0.89404	5.40677				
0.557449	3.36203	0.36399	2.16861							0.895497	5.38524				
0.558806	3.35138	0.366073	2.16898							0.896946	5.3639				
0.560166	3.34087	0.368155	2.16934							0.898386	5.34274				
0.56153	3.3305	0.370237	2.1697							0.899819	5.32178				
0.562897	3.32026	0.37232	2.17005							0.901245	5.301				
0.564268	3.31015	0.374402	2.1704							0.902662	5.2804				
0.565642	3.30018	0.376484	2.17075							0.904073	5.25998				
0.56702	3.29033	0.378567	2.17109							0.905477	5.23975				
0.568401	3.28061	0.380649	2.17143							0.906875	5.21969				
0.569785	3.27101	0.382731	2.17177							0.908266	5.19982				
0.571173	3.26153	0.384813	2.1721							0.90965	5.18011				
0.572565	3.25218	0.386896	2.17243							0.911029	5.16058				
0.57396	3.24294	0.388978	2.17275							0.912402	5.14123				
0.575358	3.23381	0.39106	2.17307							0.913769	5.12204				
0.57676	3.22481	0.393142	2.17339							0.915131	5.10302				
0.578165	3.21591	0.395224	2.17371							0.916488	5.08418				
0.579573	3.20712	0.397306	2.17402							0.91784	5.06549				
0.580985	3.19845	0.399389	2.17432							0.919186	5.04697				
0.582401	3.18988	0.401471	2.17463							0.920529	5.02862				
0.583819	3.18141	0.403553	2.17493							0.921866	5.01042				
0.585241	3.17305	0.405635	2.17523							0.923199	4.99239				
0.586667	3.16479	0.407717	2.17553							0.924528	4.97451				
0.588096	3.15664	0.409799	2.17582							0.925853	4.9568				
0.589528	3.14858	0.411881	2.17611							0.927175	4.93923				
0.590963	3.14061	0.413963	2.1764							0.928492	4.92182				
0.592402	3.13275	0.416045	2.17668							0.929806	4.90456				
0.593844	3.12498	0.418127	2.17696							0.931116	4.88745				
0.595289	3.1173	0.420209	2.17724							0.932423	4.8705				
0.596737	3.10971	0.422292	2.17752							0.933727	4.85369				
0.598189	3.10221	0.424374	2.17779							0.935028	4.83702				
0.599644	3.09481	0.426456	2.17806							0.936326	4.8205				
0.601102	3.08749	0.428538	2.17833							0.937621	4.80412				
0.602563	3.08025	0.43062	2.17859							0.938913	4.78789				
0.604028	3.0731	0.432702	2.17886							0.940203	4.7718				
0.605495	3.06603	0.434783	2.17912							0.94149	4.75584				
0.606966	3.05905	0.436865	2.17938							0.942775	4.74002				
0.60844	3.05215	0.438947	2.17963							0.944058	4.72434				
0.609917	3.04532	0.441029	2.17988							0.945338	4.70879				
0.611398	3.03858	0.443111	2.18013							0.946617	4.69338				
0.612881	3.03191	0.445193	2.18038							0.947893	4.6781				
0.614367	3.02532	0.447275	2.18063							0.949168	4.66295				
0.615857	3.01881	0.449357	2.18087							0.950441	4.64793				
0.617349	3.01237	0.451439	2.18111							0.951712	4.63304				
0.618845	3.006	0.453521	2.18135							0.952982	4.61827				
0.620344	2.9997	0.455603	2.18159							0.95425	4.60363				
0.621845	2.99348	0.457685	2.18183							0.955517	4.58912				
0.62335	2.98732	0.459767	2.18206							0.956782	4.57472				
0.624857	2.98123	0.461848	2.18229							0.958046	4.56045				
0.626368	2.97522	0.46393	2.18252							0.959309	4.5463				
0.627881	2.96926	0.466012	2.18275							0.960571	4.53227				
0.629398	2.96338	0.468094	2.18297							0.961832	4.51836				
0.630917	2.95756	0.470176	2.18319							0.963092	4.50456				
0.63244	2.9518	0.472258	2.18341							0.964352	4.49088				
0.633965	2.94611	0.47434	2.18363							0.96561	4.47731				
0.635493	2.94048	0.476422	2.18385							0.966868	4.46386				
0.637023	2.93491	0.478503	2.18407							0.968125	4.45052				
0.638557	2.9294	0.480585	2.18428							0.969381	4.43729				
0.640094	2.92395	0.482667	2.18449							0.970637	4.42417				
0.641633	2.91856	0.484749	2.1847							0.971892	4.41116				
0.643175	2.91323	0.486831	2.18491							0.973147	4.39826				
0.64472	2.90796	0.488912	2.18511							0.974402	4.38546				
0.646268	2.90274	0.490994	2.18532							0.975656	4.37277				
0.647818	2.89758	0.493076	2.18552							0.97691	4.36018				
0.649371	2.89247	0.495158	2.18572							0.978164	4.3477				
0.650927	2.88742	0.497239	2.18592							0.979417	4.33532				
0.652485	2.88242	0.499321	2.18612							0.980671	4.32304				
0.654047	2.87747	0.501403	2.18631							0.981925	4.31086				
0.655611	2.87258	0.503485	2.18651							0.983178	4.29878				
0.657177	2.86773	0.505566	2.1867							0.984432	4.2868				
0.658746	2.86294	0.507648	2.18689							0.985685	4.27491				
0.660318	2.8582	0.50973	2.18708							0.986939	4.26312				
0.661892	2.85351	0.511812	2.18727							0.988193	4.25143				
0.66347	2.84886	0.513893	2.18746							0.989447	4.23983				
0.665049	2.84427	0.515975	2.18764							0.990702	4.22833				
0.666631	2.83972	0.518057	2.18783							0.991957	4.21691				
0.668216	2.83522	0.520138	2.18801							0.993212	4.20559				
0.669803	2.83076	0.52222	2.18819							0.994467	4.19436				
0.671393	2.82635	0.524302	2.18837							0.995723	4.18322				
0.672985	2.82198	0.526384	2.18855							0.996979	4.17217				
0.67458	2.81766	0.528465	2.18872							0.998236	4.1612				
0.676177	2.81339	0.530547	2.1889							0.999494	4.15032				
0.677777	2.80915	0.532629	2.18907							1.00075	4.13953				
0.679379	2.80496	0.53471	2.18925												
0.680983	2.80081	0.536792	2.18942												
0.68259	2.7967	0.538874	2.18959												
0.684199	2.79264	0.540955	2.18975												
0.685811	2.78861	0.543037	2.18992												
0.687425	2.78462	0.545119	2.19009												
0.689042	2.78068	0.5472	2.19025												
0.690661	2.77677	0.549282	2.19042												
0.692282	2.7729	0.551363	2.19058												
0.693905	2.76907	0.553445	2.19074												
0.695531	2.76528	0.555527	2.1909												
0.697159	2.76152	0.557608	2.19106												
0.698789	2.7578	0.55969	2.19121												
0.700422	2.75411	0.561772	2.19137												
0.702056	2.75047	0.563853	2.19153												
0.703693	2.74685	0.565935	2.19168												
0.705333	2.74328	0.568016	2.19183												
0.706974	2.73973	0.570098	2.19199												
0.708618	2.73622	0.57218	2.19214												
0.710263	2.73275	0.574261	2.19229												
0.711911	2.7293	0.576343	2.19243												
0.713562	2.72589	0.578424	2.19258												
0.715214	2.72251	0.580506	2.19273												
0.716868	2.71917	0.582587	2.19287												
0.718525	2.71585	0.584669	2.19302												
0.720183	2.71257	0.586751	2.19316												
0.721844	2.70932	0.588832	2.1933												
0.723507	2.70609	0.590914	2.19344												
0.725172	2.7029	0.592995	2.19358												
0.726838	2.69974	0.595077	2.19372												
0.728507	2.69661	0.597158	2.19386												
0.730178	2.6935	0.59924	2.194												
0.731851	2.69043	0.601321	2.19414												
0.733526	2.68738	0.603403	2.19427												
0.735203	2.68436	0.605484	2.19441												
0.736882	2.68137	0.607566	2.19454												
0.738562	2.6784	0.609647	2.19467												
0.740245	2.67547	0.611729	2.1948												
0.74193	2.67256	0.613811	2.19494												
0.743617	2.66967	0.615892	2.19507												
0.745305	2.66681	0.617973	2.19519												
0.746995	2.66398	0.620055	2.19532												
0.748688	2.66117	0.622137	2.19545												
0.750382	2.65839	0.624218	2.19558												
0.752078	2.65564	0.626299	2.1957												
0.753776	2.6529	0.628381	2.19583												
0.755476	2.6502	0.630462	2.19595												
0.757177	2.64751	0.632544	2.19608												
0.758881	2.64485	0.634625	2.1962												
0.760586	2.64221	0.636707	2.19632												
0.762293	2.6396	0.638788	2.19644												
0.764002	2.63701	0.64087	2.19656												
0.765712	2.63444	0.642951	2.19668												
0.767425	2.6319	0.645033	2.1968												
0.769139	2.62937	0.647114	2.19692												
0.770855	2.62687	0.649196	2.19703												
0.772572	2.62439	0.651277	2.19715												
0.774291	2.62194	0.653359	2.19727												
0.776012	2.6195	0.65544	2.19738												
0.777735	2.61708	0.657521	2.19749												
0.779459	2.61469	0.659603	2.19761												
0.781185	2.61231	0.661684	2.19772												
0.782913	2.60996	0.663766	2.19783												
0.784643	2.60763	0.665847	2.19794												
0.786374	2.60531	0.667929	2.19805												
0.788106	2.60302	0.67001	2.19816												
0.78984	2.60074	0.672091	2.19827												
0.791576	2.59849	0.674173	2.19838												
0.793314	2.59625	0.676254	2.19849												
0.795053	2.59403	0.678336	2.1986												
0.796794	2.59183	0.680417	2.1987												
0.798536	2.58965	0.682499	2.19881												
0.80028	2.58749	0.68458	2.19892												
0.802025	2.58534	0.686661	2.19902												
0.803772	2.58322	0.688743	2.19912												
0.805521	2.58111	0.690824	2.19923												
0.807271	2.57902	0.692906	2.19933												
0.809022	2.57694	0.694987	2.19943												
0.810775	2.57488	0.697068	2.19953												
0.81253	2.57284	0.69915	2.19964												
0.814286	2.57082	0.701231	2.19974												
0.816043	2.56881	0.703313	2.19984												
0.817802	2.56682	0.705394	2.19993												
0.819563	2.56485	0.707475	2.20003												
0.821325	2.56289	0.709557	2.20013												
0.823088	2.56094	0.711638	2.20023												
0.824853	2.55902	0.713719	2.20033												
0.826619	2.5571	0.715801	2.20042												
0.828387	2.55521	0.717882	2.20052												
0.830156	2.55333	0.719964	2.20061												
0.831926	2.55146	0.722045	2.20071												
0.833698	2.54961	0.724126	2.2008												
0.835471	2.54777	0.726208	2.2009												
0.837246	2.54595	0.728289	2.20099												
0.839022	2.54414	0.73037	2.20108												
0.840799	2.54235	0.732452	2.20117												
0.842578	2.54057	0.734533	2.20126												
0.844358	2.53881	0.736614	2.20136												
0.84614	2.53706	0.738696	2.20145												
0.847922	2.53532	0.740777	2.20154												
0.849706	2.5336	0.742858	2.20163												
0.851492	2.53189	0.74494	2.20171												
0.853279	2.53019	0.747021	2.2018												
0.855067	2.5285	0.749102	2.20189												
0.856856	2.52683	0.751184	2.20198												
0.858646	2.52518	0.753265	2.20207												
0.860438	2.52353	0.755346	2.20215												
0.862231	2.5219	0.757428	2.20224												
0.864026	2.52028	0.759509	2.20232												
0.865821	2.51867	0.76159	2.20241												
0.867618	2.51708	0.763672	2.20249												
0.869416	2.51549	0.765753	2.20258												
0.871216	2.51392	0.767834	2.20266												
0.873016	2.51237	0.769916	2.20274												
0.874818	2.51082	0.771997	2.20283												
0.876621	2.50928	0.774078	2.20291												
0.878425	2.50776	0.776159	2.20299												
0.88023	2.50625	0.778241	2.20307												
0.882037	2.50475	0.780322	2.20315												
0.883845	2.50326	0.782403	2.20323												
0.885654	2.50178	0.784485	2.20331												
0.887464	2.50031	0.786566	2.20339												
0.889275	2.49885	0.788647	2.20347												
0.891087	2.49741	0.790729	2.20355												
0.892901	2.49597	0.79281	2.20363												
0.894716	2.49455	0.794891	2.20371												
0.896531	2.49314	0.796972	2.20379												
0.898348	2.49173	0.799054	2.20386												
0.900166	2.49034	0.801135	2.20394												
0.901986	2.48896	0.803216	2.20402												
0.903806	2.48759	0.805298	2.20409												
0.905627	2.48622	0.807379	2.20417												
0.90745	2.48487	0.80946	2.20424												
0.909273	2.48353	0.811541	2.20432												
0.911098	2.48219	0.813623	2.20439												
0.912924	2.48087	0.815704	2.20447												
0.91475	2.47956	0.817785	2.20454												
0.916578	2.47825	0.819866	2.20462												
0.918407	2.47696	0.821948	2.20469												
0.920237	2.47567	0.824029	2.20476												
0.922068	2.4744	0.82611	2.20483												
0.9239	2.47313	0.828191	2.20491												
0.925733	2.47187	0.830273	2.20498												
0.927567	2.47062	0.832354	2.20505												
0.929402	2.46938	0.834435	2.20512												
0.931239	2.46815	0.836516	2.20519												
0.933076	2.46693	0.838598	2.20526												
0.934914	2.46572	0.840679	2.20533												
0.936753	2.46451	0.84276	2.2054												
0.938593	2.46331	0.844841	2.20547												
0.940434	2.46212	0.846923	2.20554												
0.942276	2.46094	0.849004	2.20561												
0.944119	2.45977	0.851085	2.20567												
0.945963	2.45861	0.853166	2.20574												
0.947808	2.45745	0.855248	2.20581												
0.949654	2.45631	0.857329	2.20588												
0.951501	2.45517	0.85941	2.20594												
0.953349	2.45403	0.861491	2.20601												
0.955198	2.45291	0.863572	2.20608												
0.957048	2.4518	0.865654	2.20614												
0.958898	2.45069	0.867735	2.20621												
0.96075	2.44959	0.869816	2.20627												
0.962603	2.44849	0.871897	2.20634												
0.964456	2.44741	0.873979	2.2064												
0.96631	2.44633	0.87606	2.20647												
0.968166	2.44526	0.878141	2.20653												
0.970022	2.44419	0.880222	2.20659												
0.971879	2.44314	0.882303	2.20666												
0.973737	2.44209	0.884385	2.20672												
0.975596	2.44105	0.886466	2.20678												
0.977455	2.44001	0.888547	2.20685												
0.979316	2.43898	0.890628	2.20691												
0.981177	2.43796	0.892709	2.20697												
0.98304	2.43695	0.894791	2.20703												
0.984903	2.43594	0.896872	2.20709												
0.986767	2.43494	0.898953	2.20715												
0.988632	2.43395	0.901034	2.20721												
0.990497	2.43296	0.903115	2.20727												
0.992364	2.43198	0.905197	2.20733												
0.994232	2.43101	0.907278	2.20739												
0.9961	2.43004	0.909359	2.20745												
0.997969	2.42908	0.91144	2.20751												
0.999839	2.42812	0.913521	2.20757												
1.00171	2.42717	0.915603	2.20763												
		0.917684	2.20769												
		0.919765	2.20775												
		0.921846	2.20781												
		0.923927	2.20786												
		0.926008	2.20792												
		0.92809	2.20798												
		0.930171	2.20804												
		0.932252	2.20809												
		0.934333	2.20815												
		0.936414	2.20821												
		0.938495	2.20826												
		0.940577	2.20832												
		0.942658	2.20837												
		0.944739	2.20843												
		0.94682	2.20848												
		0.948901	2.20854												
		0.950982	2.20859												
		0.953064	2.20865												
		0.955145	2.2087												
		0.957226	2.20875												
		0.959307	2.20881												
		0.961388	2.20886												
		0.963469	2.20891												
		0.965551	2.20897												
		0.967632	2.20902												
		0.969713	2.20907												
		0.971794	2.20912												
		0.973875	2.20918												
		0.975956	2.20923												
		0.978037	2.20928												
		0.980118	2.20933												
		0.9822	2.20938												
		0.984281	2.20943												
		0.986362	2.20948												
		0.988443	2.20953												
		0.990524	2.20958												
		0.992605	2.20963												
		0.994686	2.20968												
		0.996768	2.20973												
		0.998849	2.20978												
		1.00093	2.20983												
