Sym0		Asym0		Sym1		Sym2		Sym3		Sym4		Asym1		Asym2		Asym3		Asym4	
241  Points		497  Points		241  Points		212  Points		198  Points		136  Points		328  Points		222  Points		182  Points		102  Points	
Freq (MHz)	Vph (m/ms)	Freq (MHz)	Vph (m/ms)	Freq (MHz)	Vph (m/ms)	Freq (MHz)	Vph (m/ms)	Freq (MHz)	Vph (m/ms)	Freq (MHz)	Vph (m/ms)	Freq (MHz)	Vph (m/ms)	Freq (MHz)	Vph (m/ms)	Freq (MHz)	Vph (m/ms)	Freq (MHz)	Vph (m/ms)
0.279508	17641.5	0.000253786	0.133551	0.279512	895.521	0.479334	609.474	0.559017	4971.65	0.838528	1960.23	0.139794	217.389	0.419264	1704.59	0.698777	1106.13	0.958657	1585.79
0.279538	295.014	0.000561998	0.198447	0.279559	224.759	0.479355	278.992	0.55904	535.409	0.838548	616.822	0.139995	88.8992	0.419297	356.043	0.698806	446.971	0.958661	624.037
0.279623	148.796	0.000988541	0.262653	0.279662	128.55	0.479392	180.912	0.559099	282.969	0.83859	366.011	0.140362	56.0002	0.419372	198.815	0.698859	280.09	0.958669	388.452
0.279765	99.5275	0.00153042	0.325941	0.279822	90.0557	0.479444	133.865	0.559194	192.327	0.838653	260.22	0.140894	40.9797	0.419489	137.942	0.698937	203.961	0.95868	281.997
0.279963	74.8038	0.00218409	0.388139	0.280037	69.335	0.479513	106.246	0.559326	145.687	0.838737	201.884	0.141589	32.4013	0.419649	105.632	0.699039	160.385	0.958695	221.341
0.280216	59.9481	0.00294547	0.44909	0.280309	56.3934	0.479597	88.0811	0.559494	117.272	0.838843	164.924	0.142442	26.8681	0.419852	85.6065	0.699166	132.162	0.958714	182.161
0.280526	50.0402	0.00380983	0.508625	0.280636	47.547	0.479697	75.2273	0.559698	98.1477	0.838969	139.411	0.14345	23.0137	0.420096	71.982	0.699318	112.396	0.958737	154.767
0.280891	42.9648	0.00477233	0.56664	0.281019	41.1208	0.479814	65.653	0.559939	84.4005	0.839117	120.743	0.144607	20.1826	0.420383	62.115	0.699494	97.7821	0.958763	134.537
0.281311	37.6618	0.00582763	0.62302	0.281457	36.2436	0.479947	58.2457	0.560215	74.0438	0.839286	106.49	0.145909	18.021	0.420713	54.6414	0.699694	86.5391	0.958795	118.985
0.281787	33.5416	0.00697044	0.677693	0.281949	32.4177	0.480096	52.3452	0.560528	65.9623	0.839477	95.2541	0.14735	16.3208	0.421084	48.7861	0.699918	77.6222	0.958831	106.658
0.282316	30.2499	0.00819529	0.730598	0.282496	29.3378	0.480261	47.5345	0.560876	59.4817	0.839689	86.1686	0.148924	14.9522	0.421497	44.0762	0.700167	70.3779	0.958871	96.646
0.2829	27.5611	0.00949677	0.781695	0.283097	26.8065	0.480444	43.5377	0.56126	54.17	0.839921	78.6707	0.150625	13.8293	0.421952	40.2065	0.700441	64.3765	0.958917	88.3536
0.283538	25.3245	0.0108696	0.830969	0.283751	24.6902	0.480643	40.1647	0.56168	49.7379	0.840175	72.3783	0.152447	12.8937	0.422448	36.9716	0.700738	59.3239	0.958968	81.3728
0.284228	23.4359	0.0123086	0.87841	0.284459	22.8956	0.48086	37.2803	0.562134	45.9843	0.84045	67.0226	0.154385	12.1038	0.422986	34.2277	0.70106	55.012	0.959025	75.4154
0.284971	21.8209	0.0138087	0.924029	0.285219	21.3553	0.481094	34.7858	0.562624	42.7651	0.840747	62.4093	0.156433	11.4295	0.423565	31.8717	0.701407	51.2894	0.959088	70.2718
0.285766	20.4246	0.0153653	0.967849	0.28603	20.0195	0.481346	32.6073	0.563149	39.9741	0.841064	58.3943	0.158302	10.9184	0.424185	29.8273	0.701777	48.0434	0.959156	65.786
0.286613	19.2062	0.0169738	1.0099	0.286893	18.8507	0.481615	30.6887	0.563709	37.5317	0.841402	54.8685	0.159955	10.5297	0.424846	28.037	0.702171	45.1881	0.959232	61.8394
0.287511	18.1341	0.0186299	1.05021	0.287806	17.8198	0.481903	28.9862	0.564304	35.3768	0.841762	51.7479	0.161361	10.2366	0.425548	26.4566	0.70259	42.6574	0.959313	58.3405
0.288458	17.1841	0.0203295	1.08884	0.28877	16.9043	0.48221	27.4654	0.564933	33.4617	0.842142	48.9666	0.162498	10.0211	0.42629	25.0516	0.703033	40.399	0.959402	55.2173
0.289455	16.3367	0.0220691	1.12583	0.289782	16.0862	0.482535	26.0989	0.565596	31.7489	0.842543	46.4724	0.163348	9.87088	0.427073	23.7948	0.703499	38.3714	0.959498	52.4123
0.290501	15.5767	0.0238451	1.16124	0.290843	15.3512	0.482879	24.8646	0.566293	30.2082	0.842966	44.2231	0.163897	9.77825	0.427895	22.6641	0.70399	36.5412	0.959602	49.8794
0.291595	14.8914	0.0256542	1.19511	0.291952	14.6874	0.483242	23.7441	0.567024	28.8151	0.843409	42.1844	0.164695	9.64961	0.428757	21.6417	0.704504	34.8811	0.959713	47.5809
0.292736	14.2706	0.0274935	1.22752	0.293108	14.0854	0.483626	22.7228	0.567788	27.5495	0.843873	40.3283	0.165572	9.51552	0.429658	20.7131	0.705042	33.3684	0.959833	45.4858
0.293923	13.706	0.0293602	1.25851	0.29431	13.537	0.484029	21.788	0.568586	26.395	0.844358	38.6314	0.166783	9.34212	0.430598	19.8662	0.705604	31.9846	0.95996	43.5682
0.295156	13.1904	0.0312518	1.28815	0.295558	13.0358	0.484453	20.9293	0.569416	25.3377	0.844863	37.0742	0.168341	9.13651	0.431577	19.0907	0.70619	30.714	0.960097	41.8066
0.296434	12.718	0.033166	1.3165	0.29685	12.576	0.484898	20.1379	0.57028	24.3659	0.84539	35.6402	0.170265	8.90636	0.432595	18.3783	0.706799	29.5434	0.960241	40.1827
0.297756	12.2837	0.0351007	1.3436	0.298185	12.1529	0.485364	19.4064	0.571175	23.4699	0.845937	34.3154	0.172575	8.6594	0.43365	17.7217	0.707431	28.4614	0.960395	38.681
0.299121	11.8833	0.0370537	1.36952	0.299564	11.7624	0.485852	18.7282	0.572103	22.6412	0.846504	33.0879	0.175291	8.40289	0.434744	17.1147	0.708088	27.4586	0.960558	37.2883
0.300528	11.513	0.0390236	1.39431	0.300985	11.4011	0.486362	18.0979	0.573063	21.8727	0.847093	31.9474	0.178076	8.17141	0.435875	16.5522	0.708767	26.5265	0.960731	35.9932
0.301977	11.1699	0.0410085	1.41803	0.302447	11.066	0.486894	17.5106	0.574055	21.1582	0.847701	30.8851	0.180924	7.96173	0.437043	16.0294	0.70947	25.6581	0.960913	34.7858
0.303467	10.851	0.043007	1.44072	0.303753	10.7931	0.487449	16.9622	0.575077	20.4922	0.848331	29.8933	0.183833	7.77111	0.438248	15.5425	0.710196	24.8471	0.961105	33.6576
0.304996	10.5541	0.0450178	1.46243	0.304891	10.5735	0.488027	16.449	0.576131	19.87	0.84898	28.9652	0.186799	7.59726	0.43949	15.088	0.710945	24.0882	0.961306	32.6009
0.306564	10.277	0.0470395	1.48322	0.305848	10.4003	0.488629	15.9679	0.577216	19.2877	0.84965	28.095	0.189818	7.43822	0.440768	14.6628	0.711717	23.3764	0.961518	31.6094
0.30817	10.018	0.0490712	1.50312	0.306615	10.2684	0.489254	15.5159	0.578332	18.7415	0.850341	27.2775	0.192889	7.29233	0.442081	14.2644	0.712512	22.7076	0.96174	30.6771
0.309813	9.77531	0.0508489	1.51978	0.307185	10.1741	0.489905	15.0907	0.579477	18.2282	0.851052	26.508	0.196009	7.15813	0.44343	13.8904	0.713329	22.0781	0.961973	29.7989
0.311493	9.54763	0.0523693	1.5335	0.307552	10.1149	0.49058	14.6899	0.580653	17.7452	0.851782	25.7826	0.199174	7.03438	0.444814	13.5386	0.71417	21.4846	0.962216	28.9703
0.313208	9.33365	0.0536295	1.54451	0.308083	10.0314	0.491281	14.3116	0.581858	17.2897	0.852533	25.0976	0.202383	6.92002	0.446232	13.2072	0.715033	20.9241	0.96247	28.1873
0.314958	9.13223	0.0546279	1.55303	0.308665	9.94259	0.492008	13.954	0.583093	16.8596	0.853305	24.4496	0.205634	6.81408	0.447685	12.8947	0.715919	20.394	0.962735	27.4461
0.316741	8.94237	0.055363	1.55918	0.309464	9.82511	0.492761	13.6156	0.584357	16.4529	0.854096	23.836	0.208923	6.71575	0.449172	12.5994	0.716827	19.8919	0.963011	26.7437
0.318557	8.76315	0.0558339	1.56306	0.310487	9.68166	0.493541	13.2949	0.585649	16.0678	0.854907	23.254	0.21225	6.6243	0.450692	12.32	0.717757	19.4157	0.963298	26.0769
0.320406	8.59375	0.0565113	1.56858	0.311742	9.51544	0.494349	12.9906	0.58697	15.7027	0.855738	22.7013	0.215613	6.53909	0.452245	12.0554	0.718709	18.9635	0.963596	25.4433
0.322286	8.43343	0.0572484	1.5745	0.313239	9.32991	0.495184	12.7016	0.58832	15.356	0.856589	22.1758	0.219009	6.45956	0.453831	11.8045	0.719684	18.5336	0.963906	24.8404
0.324197	8.28153	0.058252	1.58241	0.314989	9.12872	0.496047	12.4268	0.589697	15.0266	0.857459	21.6755	0.222437	6.3852	0.455449	11.5663	0.720681	18.1244	0.964227	24.266
0.326138	8.13745	0.059523	1.59218	0.316773	8.93905	0.496939	12.1652	0.591103	14.7131	0.85835	21.1987	0.225895	6.31557	0.4571	11.3399	0.721699	17.7345	0.964559	23.7182
0.328109	8.00062	0.0610626	1.60367	0.31859	8.76001	0.49786	11.9159	0.592535	14.4145	0.859259	20.7439	0.229382	6.25026	0.458781	11.1245	0.72274	17.3626	0.964904	23.1953
0.330108	7.87056	0.0628718	1.61672	0.32044	8.59079	0.498811	11.6783	0.593995	14.1297	0.860189	20.3095	0.232897	6.18892	0.460272	10.9452	0.723802	17.0074	0.96526	22.6955
0.332135	7.74681	0.0649518	1.63112	0.322321	8.43063	0.499792	11.4515	0.595482	13.8579	0.861138	19.8943	0.236438	6.13122	0.461561	10.7981	0.724885	16.668	0.965628	22.2175
0.33419	7.62896	0.0670355	1.64496	0.324232	8.27887	0.500804	11.2348	0.596995	13.5983	0.862106	19.497	0.240005	6.07687	0.46264	10.6804	0.72599	16.3433	0.966008	21.7598
0.336273	7.51662	0.0691223	1.65826	0.326174	8.13492	0.501711	11.0538	0.598535	13.3501	0.863094	19.1165	0.243595	6.02563	0.463501	10.5896	0.727116	16.0323	0.9664	21.3212
0.338381	7.40945	0.071212	1.67104	0.328145	7.99822	0.502503	10.905	0.6001	13.1125	0.864101	18.7518	0.247207	5.97723	0.464139	10.5242	0.728263	15.7344	0.966804	20.9005
0.340516	7.30712	0.0733041	1.68333	0.330144	7.86828	0.503171	10.7855	0.601692	12.885	0.865127	18.402	0.250841	5.93148	0.464549	10.4829	0.729432	15.4487	0.967221	20.4966
0.342677	7.20935	0.0753984	1.69516	0.332172	7.74464	0.503708	10.6933	0.603309	12.6669	0.866172	18.0662	0.254496	5.88818	0.465141	10.4242	0.730621	15.1744	0.96765	20.1087
0.344864	7.11588	0.0774945	1.70654	0.334228	7.62689	0.504107	10.6267	0.604951	12.4577	0.867236	17.7436	0.258171	5.84716	0.465789	10.3614	0.731831	14.911	0.968091	19.7357
0.347076	7.02643	0.0795923	1.71749	0.33631	7.51465	0.504365	10.5846	0.606619	12.2568	0.868319	17.4335	0.261864	5.80824	0.466675	10.2777	0.733062	14.6578	0.968545	19.377
0.349313	6.94081	0.0816914	1.72805	0.338419	7.40756	0.504739	10.5249	0.608311	12.0639	0.869421	17.1351	0.265575	5.77128	0.467806	10.1744	0.734313	14.4143	0.969011	19.0315
0.351575	6.85878	0.0837917	1.73822	0.340555	7.30532	0.505149	10.4608	0.610027	11.8785	0.870542	16.8478	0.269303	5.73615	0.469189	10.0531	0.735585	14.18	0.96949	18.6988
0.353862	6.78017	0.0858929	1.74802	0.342716	7.20763	0.505714	10.3753	0.611768	11.7001	0.871681	16.571	0.273047	5.70273	0.470831	9.91579	0.736876	13.9542	0.969982	18.378
0.356175	6.70479	0.087995	1.75748	0.344903	7.11423	0.506439	10.2696	0.613533	11.5284	0.872839	16.3043	0.276806	5.6709	0.472741	9.76444	0.738188	13.7367	0.970487	18.0686
0.358513	6.63247	0.0900977	1.7666	0.347116	7.02486	0.507333	10.1453	0.615321	11.3631	0.874015	16.047	0.28058	5.64056	0.47468	9.61937	0.73952	13.527	0.971004	17.77
0.360876	6.56307	0.0922009	1.77541	0.349353	6.9393	0.508406	10.0044	0.616899	11.224	0.87521	15.7987	0.284369	5.6116	0.476646	9.48022	0.740872	13.3246	0.971534	17.4816
0.363266	6.49645	0.0943046	1.78391	0.351616	6.85734	0.509669	9.84864	0.618258	11.1088	0.876423	15.5589	0.28817	5.58395	0.47864	9.34667	0.742244	13.1293	0.972078	17.203
0.365681	6.43247	0.0964084	1.79212	0.353904	6.77878	0.510966	9.69908	0.619392	11.0159	0.877655	15.3272	0.291984	5.55753	0.48066	9.2184	0.743635	12.9406	0.972634	16.9337
0.368124	6.37102	0.0985126	1.80006	0.356217	6.70346	0.512298	9.55538	0.620294	10.9439	0.878904	15.1033	0.29581	5.53224	0.482707	9.09514	0.745045	12.7583	0.973204	16.6731
0.370594	6.31199	0.100617	1.80773	0.358555	6.6312	0.513666	9.41723	0.620961	10.8917	0.880172	14.8867	0.299647	5.50803	0.48478	8.97661	0.746475	12.5821	0.973787	16.421
0.373092	6.25527	0.102721	1.81515	0.360919	6.56185	0.515069	9.28437	0.621389	10.8586	0.881457	14.6772	0.303495	5.48483	0.486878	8.86257	0.747924	12.4116	0.974383	16.1769
0.375618	6.20078	0.104825	1.82233	0.363309	6.49527	0.516508	9.15654	0.622007	10.8116	0.882761	14.4744	0.307354	5.46258	0.489002	8.75279	0.749392	12.2466	0.974993	15.9404
0.378175	6.14842	0.106929	1.82928	0.365725	6.43135	0.517984	9.03349	0.622681	10.7611	0.884082	14.2779	0.311222	5.44123	0.491151	8.64704	0.750879	12.0869	0.975616	15.7113
0.380762	6.09811	0.109033	1.83601	0.368168	6.36994	0.519496	8.91501	0.623603	10.6934	0.885421	14.0875	0.315099	5.42072	0.493324	8.54513	0.752385	11.9321	0.976252	15.4892
0.383381	6.04978	0.111137	1.84253	0.370638	6.31095	0.521045	8.80088	0.624776	10.6094	0.886778	13.903	0.318985	5.401	0.495521	8.44688	0.753909	11.7822	0.976902	15.2737
0.386033	6.00335	0.11324	1.84885	0.373137	6.25427	0.522632	8.69091	0.626206	10.5101	0.888152	13.7241	0.322879	5.38203	0.497742	8.35209	0.755451	11.6369	0.977566	15.0646
0.388718	5.95878	0.115344	1.85497	0.375664	6.19982	0.524256	8.58491	0.627899	10.3969	0.889543	13.5505	0.32678	5.36376	0.499987	8.2606	0.756811	11.5138	0.978244	14.8617
0.391438	5.91598	0.117447	1.8609	0.378221	6.14749	0.525918	8.48271	0.629863	10.2709	0.890952	13.3821	0.330689	5.34617	0.502254	8.17227	0.75798	11.4115	0.978935	14.6646
0.394194	5.87492	0.119549	1.86666	0.380809	6.09722	0.527618	8.38414	0.631848	10.1491	0.892378	13.2185	0.334605	5.3292	0.504544	8.08694	0.758955	11.3285	0.979641	14.4732
0.396988	5.83552	0.121652	1.87225	0.383428	6.04892	0.529357	8.28904	0.633854	10.0312	0.893822	13.0596	0.338527	5.31283	0.506857	8.00447	0.759731	11.264	0.98036	14.2872
0.39982	5.79775	0.123753	1.87768	0.386081	6.00254	0.531133	8.19727	0.635882	9.91707	0.895282	12.9053	0.342455	5.29702	0.509191	7.92473	0.760304	11.2172	0.981093	14.1063
0.402692	5.76156	0.125855	1.88294	0.388766	5.95799	0.532949	8.10869	0.63793	9.80653	0.896759	12.7553	0.346388	5.28174	0.511547	7.84761	0.760671	11.1874	0.98184	13.9304
0.405605	5.72689	0.127956	1.88806	0.391487	5.91523	0.534802	8.02316	0.64	9.69942	0.898253	12.6094	0.350327	5.26697	0.513925	7.77298	0.761202	11.1451	0.982602	13.7594
0.408559	5.6937	0.130057	1.89303	0.394244	5.87419	0.536695	7.94057	0.64209	9.59561	0.899764	12.4676	0.35427	5.25268	0.516323	7.70074	0.761781	11.0995	0.983378	13.5929
0.411556	5.66195	0.132157	1.89787	0.397039	5.83483	0.538626	7.86078	0.6442	9.49494	0.901291	12.3296	0.358217	5.23884	0.518742	7.63078	0.762571	11.0382	0.984168	13.4308
0.414597	5.6316	0.134257	1.90257	0.399872	5.79709	0.540596	7.7837	0.646331	9.3973	0.902835	12.1953	0.362169	5.22542	0.521182	7.56301	0.763577	10.962	0.984972	13.273
0.417681	5.60259	0.136356	1.90714	0.402744	5.76092	0.542605	7.7092	0.648481	9.30255	0.904395	12.0645	0.366124	5.21242	0.523641	7.49734	0.764803	10.8715	0.985791	13.1194
0.420811	5.5749	0.138455	1.91159	0.405658	5.72628	0.544653	7.6372	0.650651	9.21058	0.905972	11.9372	0.370082	5.19979	0.52612	7.43367	0.766252	10.7679	0.986625	12.9696
0.423986	5.54847	0.140554	1.91591	0.408613	5.69312	0.546739	7.56759	0.652841	9.12127	0.907359	11.8289	0.374042	5.18754	0.528618	7.37193	0.767932	10.652	0.987473	12.8237
0.427205	5.52327	0.142652	1.92013	0.411611	5.66139	0.548864	7.50027	0.65505	9.03453	0.908552	11.7385	0.378006	5.17562	0.531136	7.31203	0.769629	10.5393	0.988336	12.6815
0.430471	5.49924	0.14475	1.92423	0.414652	5.63106	0.551027	7.43517	0.657278	8.95025	0.909544	11.6651	0.381971	5.16404	0.533672	7.2539	0.771344	10.4297	0.989213	12.5428
0.433781	5.47635	0.146847	1.92823	0.417737	5.60208	0.553229	7.3722	0.659525	8.86834	0.910333	11.6078	0.385938	5.15277	0.536227	7.19748	0.773075	10.3231	0.990106	12.4076
0.437136	5.45455	0.148944	1.93213	0.420868	5.57441	0.555468	7.31127	0.661791	8.7887	0.910916	11.5662	0.389907	5.14179	0.5388	7.1427	0.774823	10.2193	0.991013	12.2756
0.440536	5.4338	0.151041	1.93593	0.424043	5.54801	0.557745	7.2523	0.664075	8.71125	0.91129	11.5397	0.393876	5.1311	0.541391	7.08948	0.776587	10.1182	0.991936	12.1468
0.443979	5.41405	0.153137	1.93963	0.427264	5.52282	0.56006	7.19524	0.666378	8.63591	0.911829	11.502	0.397846	5.12067	0.544	7.03778	0.778368	10.0198	0.992752	12.0372
0.447465	5.39526	0.155232	1.94324	0.43053	5.49882	0.562413	7.13999	0.668699	8.5626	0.912417	11.4613	0.401817	5.11049	0.546626	6.98753	0.780165	9.92392	0.993456	11.9455
0.450993	5.37739	0.157327	1.94676	0.433841	5.47595	0.564802	7.0865	0.671038	8.49124	0.91322	11.4065	0.405788	5.10055	0.54927	6.93868	0.781979	9.83048	0.994046	11.8709
0.454561	5.36039	0.159422	1.9502	0.437197	5.45416	0.567228	7.03471	0.673394	8.42178	0.91424	11.3382	0.409758	5.09084	0.55193	6.89118	0.783808	9.73941	0.994516	11.8126
0.458169	5.34422	0.161517	1.95356	0.440597	5.43343	0.56969	6.98454	0.675768	8.35412	0.915482	11.257	0.413728	5.08134	0.554607	6.84498	0.785654	9.65062	0.994863	11.7702
0.461816	5.32884	0.163611	1.95683	0.444041	5.4137	0.572188	6.93594	0.67816	8.28823	0.91695	11.1636	0.417697	5.07205	0.5573	6.80003	0.787515	9.56402	0.995087	11.7433
0.465499	5.3142	0.165704	1.96003	0.447528	5.39493	0.574722	6.88885	0.680569	8.22402	0.91865	11.0589	0.421665	5.06295	0.56001	6.75628	0.789392	9.47955	0.99541	11.7048
0.469217	5.30027	0.167798	1.96316	0.451057	5.37707	0.577291	6.84322	0.682995	8.16145	0.920364	10.9566	0.425631	5.05403	0.562735	6.7137	0.791284	9.39714	0.995763	11.6633
0.472969	5.28702	0.16989	1.96621	0.454626	5.36009	0.579895	6.799	0.685438	8.10046	0.922095	10.8568	0.429595	5.04528	0.565477	6.67224	0.793192	9.31671	0.996246	11.6075
0.476753	5.27439	0.171983	1.96919	0.458235	5.34394	0.582533	6.75612	0.687898	8.04099	0.92384	10.7593	0.433557	5.0367	0.568234	6.63186	0.795114	9.2382	0.996862	11.5377
0.480568	5.26235	0.174075	1.97211	0.461882	5.32857	0.585204	6.71456	0.690374	7.98299	0.925601	10.6641	0.437516	5.02828	0.571006	6.59253	0.797052	9.16154	0.997615	11.4547
0.484413	5.25088	0.176167	1.97496	0.465565	5.31395	0.58791	6.67425	0.692867	7.92642	0.927376	10.5711	0.441473	5.01999	0.573794	6.55421	0.799005	9.08667	0.998509	11.359
0.488285	5.23993	0.178258	1.97775	0.469284	5.30003	0.590647	6.63515	0.695375	7.87123	0.929167	10.4802	0.445426	5.01185	0.576596	6.51687	0.800973	9.01355	0.99955	11.2516
0.492183	5.22948	0.180349	1.98048	0.473037	5.28678	0.593418	6.59722	0.6979	7.81737	0.930973	10.3914	0.449376	5.00384	0.579414	6.48047	0.802956	8.9421	1.00061	11.1466
0.496106	5.21949	0.18244	1.98315	0.476822	5.27416	0.59622	6.56042	0.700442	7.76479	0.932793	10.3045	0.453322	4.99595	0.582246	6.44499	0.804952	8.87228		
0.500052	5.20994	0.184531	1.98576	0.480637	5.26214	0.599053	6.52471	0.702998	7.71347	0.934628	10.2196	0.457264	4.98817	0.585092	6.41038	0.806964	8.80404		
0.50402	5.2008	0.186621	1.98832	0.484482	5.25068	0.601918	6.49005	0.705571	7.66336	0.936477	10.1366	0.461201	4.9805	0.587953	6.37663	0.80899	8.73733		
0.508009	5.19204	0.188711	1.99082	0.488355	5.23974	0.604812	6.4564	0.708159	7.61441	0.938341	10.0553	0.465134	4.97294	0.590828	6.34371	0.811029	8.6721		
0.512017	5.18364	0.1908	1.99328	0.492253	5.22929	0.607737	6.42372	0.710762	7.5666	0.94022	9.97586	0.469061	4.96547	0.593717	6.3116	0.813083	8.6083		
0.516043	5.17558	0.19289	1.99568	0.496177	5.21932	0.61069	6.39199	0.713381	7.51989	0.942113	9.8981	0.472983	4.95808	0.59662	6.28025	0.815151	8.54589		
0.520086	5.16784	0.194978	1.99803	0.500124	5.20977	0.613672	6.36117	0.716014	7.47425	0.944019	9.82199	0.476899	4.95078	0.599537	6.24966	0.817232	8.48484		
0.524144	5.16039	0.197067	2.00033	0.504092	5.20064	0.616682	6.33123	0.718663	7.42963	0.94594	9.74749	0.480809	4.94356	0.602467	6.2198	0.819328	8.42509		
0.528217	5.15322	0.199156	2.00259	0.508081	5.19189	0.61972	6.30214	0.721326	7.38603	0.947875	9.67454	0.484713	4.9364	0.605411	6.19065	0.821436	8.36662		
0.532303	5.14631	0.201244	2.00481	0.512089	5.1835	0.622785	6.27386	0.724004	7.34339	0.949824	9.60311	0.488609	4.92931	0.608369	6.16219	0.823559	8.30938		
0.536401	5.13963	0.203331	2.00698	0.516116	5.17544	0.625876	6.24638	0.726697	7.3017	0.951787	9.53315	0.492499	4.92229	0.611339	6.13439	0.825694	8.25334		
0.540511	5.13319	0.205419	2.00911	0.520159	5.1677	0.628994	6.21965	0.729404	7.26093	0.953763	9.46462	0.496381	4.91531	0.614324	6.10723	0.827843	8.19847		
0.544632	5.12696	0.207506	2.0112	0.524217	5.16026	0.632137	6.19367	0.732125	7.22104	0.955753	9.39749	0.500255	4.90839	0.617321	6.08071	0.830004	8.14473		
0.548762	5.12092	0.209593	2.01325	0.52829	5.15309	0.635304	6.1684	0.73486	7.18203	0.957756	9.3317	0.50412	4.90151	0.620332	6.0548	0.832179	8.09208		
0.552901	5.11507	0.21168	2.01526	0.532377	5.14618	0.638496	6.14381	0.73761	7.14385	0.959773	9.26722	0.507978	4.89467	0.623355	6.02948	0.834367	8.04051		
0.557048	5.1094	0.213767	2.01723	0.536475	5.13952	0.641712	6.11989	0.740373	7.10649	0.961803	9.20402	0.511826	4.88787	0.626392	6.00473	0.836567	7.98998		
0.561202	5.10388	0.215853	2.01916	0.540585	5.13308	0.644952	6.09662	0.743151	7.06992	0.963846	9.14206	0.515665	4.8811	0.629441	5.98055	0.83878	7.94045		
0.565362	5.09852	0.21794	2.02106	0.544706	5.12685	0.648214	6.07396	0.745942	7.03412	0.965902	9.08131	0.519494	4.87436	0.632504	5.95692	0.841005	7.89191		
0.569528	5.0933	0.220025	2.02293	0.548836	5.12082	0.651499	6.0519	0.748746	6.99908	0.967971	9.02174	0.523313	4.86764	0.635579	5.93381	0.843243	7.84433		
0.5737	5.0882	0.222111	2.02476	0.552975	5.11497	0.654805	6.03043	0.751564	6.96476	0.970053	8.96331	0.527122	4.86094	0.638667	5.91123	0.845493	7.79768		
0.577876	5.08324	0.224197	2.02656	0.557122	5.1093	0.658134	6.00951	0.754396	6.93116	0.972148	8.906	0.53092	4.85426	0.641768	5.88914	0.847756	7.75193		
0.582055	5.07838	0.226282	2.02833	0.561276	5.10378	0.661483	5.98914	0.757241	6.89825	0.974256	8.84977	0.534706	4.84759	0.644882	5.86755	0.85003	7.70707		
0.586238	5.07363	0.228367	2.03007	0.565437	5.09842	0.664852	5.96929	0.760099	6.86601	0.976376	8.7946	0.538482	4.84093	0.648008	5.84644	0.852317	7.66307		
0.590424	5.06898	0.230452	2.03177	0.569603	5.0932	0.668242	5.94996	0.76297	6.83442	0.978509	8.74046	0.542245	4.83427	0.651148	5.82579	0.854615	7.6199		
0.594612	5.06443	0.232537	2.03345	0.573775	5.08811	0.671651	5.93111	0.765854	6.80348	0.980654	8.68732	0.545996	4.82761	0.6543	5.8056	0.856925	7.57755		
0.598801	5.05996	0.234621	2.03509	0.577951	5.08315	0.675079	5.91274	0.768751	6.77316	0.982812	8.63516	0.549735	4.82095	0.657465	5.78585	0.859247	7.536		
0.602991	5.05557	0.236705	2.03671	0.582131	5.07829	0.678527	5.89483	0.771661	6.74344	0.984981	8.58396	0.55346	4.81429	0.660642	5.76653	0.861581	7.49522		
0.607183	5.05125	0.23879	2.03831	0.586313	5.07355	0.681992	5.87736	0.774584	6.71431	0.987163	8.53368	0.557172	4.80761	0.663833	5.74764	0.863927	7.4552		
0.611374	5.047	0.240874	2.03987	0.590499	5.0689	0.685476	5.86033	0.77752	6.68577	0.989357	8.48432	0.560871	4.80093	0.667036	5.72915	0.866283	7.41591		
0.615565	5.04281	0.242957	2.04141	0.594687	5.06435	0.688977	5.84371	0.780468	6.65778	0.991563	8.43583	0.564555	4.79423	0.670252	5.71107	0.868652	7.37735		
0.619756	5.03868	0.245041	2.04293	0.598876	5.05988	0.692495	5.8275	0.783429	6.63034	0.993781	8.38821	0.568225	4.78752	0.67348	5.69339	0.871031	7.33948		
0.623945	5.03461	0.247124	2.04442	0.603067	5.05549	0.69603	5.81168	0.786402	6.60343	0.99601	8.34143	0.57188	4.78079	0.676722	5.67608	0.873422	7.3023		
0.628133	5.03058	0.249208	2.04588	0.607258	5.05117	0.699581	5.79624	0.789387	6.57704	0.998252	8.29547	0.57552	4.77403	0.679976	5.65915	0.875824	7.26579		
0.632319	5.0266	0.251291	2.04732	0.61145	5.04692	0.703149	5.78117	0.792385	6.55117	1.0005	8.25032	0.579144	4.76725	0.683244	5.64259	0.878237	7.22992		
0.636503	5.02266	0.253374	2.04874	0.615641	5.04274	0.706732	5.76646	0.795395	6.52579			0.582753	4.76045	0.686524	5.62639	0.880662	7.1947		
0.640684	5.01875	0.255457	2.05014	0.619831	5.03861	0.71033	5.7521	0.798418	6.50089			0.586345	4.75361	0.689816	5.61054	0.883097	7.16009		
0.644862	5.01488	0.257539	2.05152	0.624021	5.03453	0.713944	5.73807	0.801453	6.47647			0.589921	4.74675	0.693122	5.59503	0.885543	7.12609		
0.649037	5.01104	0.259622	2.05287	0.628209	5.03051	0.717572	5.72436	0.804499	6.45251			0.59348	4.73985	0.696441	5.57985	0.888	7.09269		
0.653208	5.00723	0.261704	2.0542	0.632395	5.02653	0.721215	5.71097	0.807558	6.429			0.597021	4.73292	0.699773	5.565	0.890468	7.05986		
0.657376	5.00344	0.263787	2.05551	0.636578	5.02259	0.724871	5.69789	0.810629	6.40594			0.600545	4.72595	0.703117	5.55047	0.892947	7.0276		
0.661538	4.99967	0.265869	2.05681	0.640759	5.01868	0.728542	5.68511	0.813712	6.3833			0.604052	4.71894	0.706475	5.53626	0.895436	6.9959		
0.665697	4.99591	0.267951	2.05808	0.644938	5.01481	0.732225	5.67261	0.816807	6.36109			0.60754	4.71189	0.709845	5.52235	0.897936	6.96473		
0.66985	4.99218	0.270033	2.05933	0.649112	5.01097	0.735923	5.6604	0.819914	6.33928			0.611009	4.70481	0.713228	5.50874	0.900447	6.9341		
0.673998	4.98845	0.272114	2.06057	0.653284	5.00716	0.739632	5.64845	0.823032	6.31789			0.61446	4.69768	0.716624	5.49543	0.902968	6.90398		
0.678141	4.98474	0.274196	2.06178	0.657451	5.00337	0.743355	5.63677	0.826163	6.29688			0.617893	4.69051	0.720033	5.4824	0.905499	6.87436		
0.682277	4.98103	0.276277	2.06298	0.661613	4.9996	0.74709	5.62535	0.829305	6.27626			0.621305	4.68329	0.723455	5.46965	0.908042	6.84524		
0.686408	4.97733	0.278359	2.06416	0.665772	4.99585	0.750837	5.61418	0.832459	6.25602			0.624699	4.67603	0.726889	5.45717	0.910594	6.81661		
0.690532	4.97364	0.28044	2.06533	0.669925	4.99211	0.754595	5.60325	0.835625	6.23615			0.628073	4.66873	0.730336	5.44497	0.913157	6.78845		
0.694649	4.96994	0.282521	2.06647	0.674073	4.98839	0.758365	5.59255	0.838803	6.21664			0.631427	4.66137	0.733796	5.43302	0.91573	6.76075		
0.69876	4.96625	0.284602	2.06761	0.678215	4.98467	0.762147	5.58208	0.841992	6.19748			0.63476	4.65397	0.737268	5.42133	0.918314	6.73351		
0.702864	4.96255	0.286683	2.06872	0.682352	4.98097	0.765939	5.57184	0.845194	6.17867			0.638074	4.64653	0.740753	5.40989	0.920908	6.70671		
0.70696	4.95885	0.288764	2.06982	0.686482	4.97727	0.769743	5.56181	0.848407	6.1602			0.641367	4.63903	0.744251	5.3987	0.923512	6.68035		
0.711048	4.95514	0.290845	2.0709	0.690606	4.97357	0.773556	5.55199	0.851631	6.14207			0.644639	4.63149	0.74776	5.38775	0.926126	6.65441		
0.715128	4.95143	0.292925	2.07197	0.694724	4.96988	0.777381	5.54238	0.854867	6.12425			0.647891	4.6239	0.751282	5.37703	0.928751	6.62889		
0.7192	4.94771	0.295006	2.07303	0.698834	4.96618	0.781215	5.53296	0.858115	6.10676			0.651122	4.61626	0.754817	5.36654	0.931385	6.60378		
0.723264	4.94398	0.297086	2.07407	0.702937	4.96249	0.785059	5.52374	0.861375	6.08958			0.654331	4.60858	0.758363	5.35627	0.93403	6.57907		
0.727319	4.94023	0.299166	2.07509	0.707033	4.95878	0.788913	5.5147	0.864646	6.07271			0.65752	4.60084	0.761921	5.34622	0.936685	6.55476		
0.731366	4.93648	0.301247	2.07611	0.711121	4.95508	0.792776	5.50585	0.86793	6.05614			0.660687	4.59306	0.765491	5.33638	0.93935	6.53082		
0.735403	4.93271	0.303327	2.0771	0.715202	4.95136	0.796648	5.49717	0.871224	6.03987			0.663834	4.58524	0.769072	5.32675	0.942025	6.50727		
0.739431	4.92892	0.305407	2.07809	0.719274	4.94764	0.80053	5.48867	0.874531	6.02388			0.666958	4.57736	0.772665	5.31732	0.94471	6.48409		
0.743449	4.92512	0.307487	2.07906	0.723337	4.94391	0.80442	5.48033	0.877849	6.00818			0.670062	4.56944	0.776269	5.30809	0.947405	6.46127		
0.747458	4.9213	0.309566	2.08002	0.727392	4.94017	0.808318	5.47216	0.881179	5.99276			0.673144	4.56148	0.779884	5.29905	0.95011	6.4388		
0.751457	4.91746	0.311646	2.08097	0.731438	4.93641	0.812226	5.46414	0.884521	5.97761			0.676204	4.55347	0.78351	5.2902	0.952825	6.41669		
0.755445	4.91361	0.313726	2.0819	0.735475	4.93264	0.816141	5.45628	0.887875	5.96273			0.679243	4.54542	0.787147	5.28153	0.95555	6.39491		
0.759423	4.90973	0.315805	2.08282	0.739503	4.92885	0.820064	5.44857	0.89124	5.94811			0.682261	4.53732	0.790795	5.27304	0.958285	6.37348		
0.763391	4.90583	0.317885	2.08373	0.743521	4.92505	0.823995	5.44101	0.894617	5.93375			0.685257	4.52918	0.794453	5.26473	0.96103	6.35237		
0.767348	4.90191	0.319964	2.08463	0.74753	4.92123	0.827933	5.43359	0.898007	5.91965			0.688232	4.52101	0.79812	5.25658	0.963784	6.33158		
0.771294	4.89797	0.322044	2.08552	0.751528	4.9174	0.831879	5.4263	0.901408	5.9058			0.691186	4.51279	0.801798	5.24859	0.966549	6.31112		
0.77523	4.894	0.324123	2.0864	0.755517	4.91354	0.835832	5.41915	0.90482	5.89219			0.694118	4.50453	0.805486	5.24077	0.969324	6.29096		
0.779154	4.89001	0.326202	2.08726	0.759495	4.90966	0.839791	5.41213	0.908245	5.87883			0.697029	4.49624	0.809182	5.2331	0.972108	6.27111		
0.782564	4.88652	0.328281	2.08812	0.763462	4.90576	0.843758	5.40524	0.911682	5.8657			0.699919	4.48791	0.812888	5.22558	0.974902	6.25157		
0.785464	4.88352	0.33036	2.08896	0.767419	4.90184	0.847731	5.39847	0.915131	5.8528			0.702788	4.47954	0.816603	5.21821	0.977707	6.23231		
0.787857	4.88103	0.332439	2.0898	0.771365	4.8979	0.85171	5.39182	0.918592	5.84014			0.705636	4.47114	0.820327	5.21097	0.980521	6.21335		
0.789746	4.87906	0.334518	2.09062	0.7753	4.89393	0.855696	5.38529	0.922064	5.8277			0.708463	4.46271	0.824059	5.20388	0.983345	6.19467		
0.791134	4.8776	0.336597	2.09143	0.779224	4.88994	0.859687	5.37887	0.925549	5.81548			0.711269	4.45425	0.827799	5.19692	0.986178	6.17627		
0.792021	4.87667	0.338675	2.09224	0.783136	4.88593	0.863684	5.37256	0.929047	5.80348			0.714055	4.44575	0.831547	5.1901	0.989022	6.15815		
0.793295	4.87532	0.340754	2.09303	0.787037	4.88188	0.867687	5.36635	0.932556	5.79169			0.71682	4.43723	0.835302	5.18339	0.991875	6.14029		
0.794679	4.87386	0.342832	2.09382	0.790926	4.87782	0.871695	5.36025	0.936077	5.78011			0.719565	4.42868	0.839065	5.17682	0.994738	6.1227		
0.796558	4.87186	0.344911	2.09459	0.794804	4.87373	0.875708	5.35426	0.939611	5.76875			0.72229	4.42011	0.842835	5.17035	0.997611	6.10537		
0.79893	4.86933	0.346989	2.09536	0.798669	4.86961	0.879726	5.34836	0.943157	5.75758			0.724995	4.41151	0.846612	5.16401	1.00049	6.0883		
0.801793	4.86625	0.349068	2.09612	0.802522	4.86546	0.883748	5.34255	0.946715	5.74662			0.72768	4.40288	0.850396	5.15777				
0.805143	4.86262	0.351146	2.09686	0.806363	4.86129	0.887776	5.33684	0.950286	5.73585			0.730346	4.39424	0.854185	5.15165				
0.808975	4.85842	0.353224	2.0976	0.810191	4.85708	0.891807	5.33121	0.953869	5.72528			0.732991	4.38557	0.857981	5.14562				
0.812795	4.8542	0.355303	2.09834	0.814007	4.85285	0.895843	5.32567	0.957464	5.7149			0.735618	4.37689	0.861782	5.1397				
0.816602	4.84995	0.357381	2.09906	0.81781	4.8486	0.899882	5.32022	0.961072	5.70471			0.738225	4.36819	0.865589	5.13388				
0.820396	4.84568	0.359459	2.09977	0.8216	4.84431	0.903925	5.31485	0.964692	5.69471			0.740813	4.35947	0.8694	5.12815				
0.824178	4.84137	0.361537	2.10048	0.825378	4.84	0.907972	5.30956	0.968325	5.68489			0.743383	4.35073	0.873217	5.12251				
0.827947	4.83704	0.363615	2.10118	0.829142	4.83565	0.912022	5.30434	0.97197	5.67524			0.745934	4.34199	0.877038	5.11696				
0.831702	4.83267	0.365693	2.10187	0.832894	4.83128	0.916075	5.2992	0.975628	5.66578			0.748466	4.33323	0.880864	5.11149				
0.835445	4.82828	0.36777	2.10255	0.836632	4.82688	0.920131	5.29413	0.979298	5.65649			0.75098	4.32446	0.884693	5.10611				
0.839174	4.82386	0.369848	2.10323	0.840357	4.82244	0.92419	5.28913	0.982981	5.64737			0.753477	4.31568	0.888526	5.1008				
0.84289	4.81941	0.371926	2.1039	0.844069	4.81798	0.928251	5.28419	0.986676	5.63842			0.755955	4.30689	0.892363	5.09558				
0.846592	4.81493	0.374003	2.10456	0.847767	4.81349	0.932315	5.27932	0.990384	5.62964			0.758416	4.2981	0.896203	5.09042				
0.850281	4.81042	0.376081	2.10521	0.851452	4.80898	0.93638	5.27452	0.994105	5.62102			0.760859	4.2893	0.900046	5.08534				
0.853957	4.80588	0.378159	2.10586	0.855123	4.80443	0.940448	5.26977	0.997839	5.61256			0.763286	4.28049	0.903892	5.08032				
0.857619	4.80131	0.380236	2.1065	0.85878	4.79985	0.944517	5.26509	1.00158	5.60426			0.765695	4.27168	0.90774	5.07537				
0.861267	4.79671	0.382314	2.10713	0.862424	4.79525	0.948588	5.26046					0.768087	4.26287	0.91159	5.07049				
0.864901	4.79209	0.384391	2.10776	0.866054	4.79061	0.95266	5.25589					0.770463	4.25406	0.915442	5.06566				
0.868522	4.78744	0.386468	2.10838	0.86967	4.78595	0.956733	5.25137					0.772823	4.24525	0.919296	5.06089				
0.872128	4.78275	0.388546	2.10899	0.873272	4.78126	0.960808	5.2469					0.775166	4.23644	0.923151	5.05618				
0.875721	4.77804	0.390623	2.1096	0.87686	4.77654	0.964883	5.24248					0.777494	4.22763	0.927007	5.05152				
0.8793	4.7733	0.3927	2.1102	0.880435	4.77179	0.968958	5.23811					0.779805	4.21883	0.930864	5.04692				
0.882865	4.76854	0.394777	2.11079	0.883995	4.76702	0.973034	5.23378					0.782101	4.21003	0.934722	5.04236				
0.886415	4.76374	0.396854	2.11138	0.887542	4.76221	0.977111	5.2295					0.784382	4.20124	0.93858	5.03785				
0.889952	4.75892	0.398931	2.11196	0.891074	4.75738	0.981187	5.22526					0.786648	4.19246	0.942438	5.03339				
0.893475	4.75408	0.401008	2.11254	0.894592	4.75253	0.985263	5.22106					0.788899	4.18368	0.946296	5.02897				
0.896983	4.7492	0.403085	2.11311	0.898096	4.74764	0.98934	5.21691					0.791136	4.17491	0.950154	5.0246				
0.900478	4.7443	0.405162	2.11367	0.901586	4.74273	0.993415	5.21279					0.793357	4.16615	0.954011	5.02026				
0.903958	4.73937	0.407239	2.11423	0.905062	4.7378	0.99749	5.20871					0.795565	4.1574	0.957867	5.01596				
0.907425	4.73442	0.409316	2.11478	0.908524	4.73284	1.00156	5.20466					0.797759	4.14867	0.961723	5.0117				
0.910877	4.72944	0.411393	2.11533	0.911971	4.72785							0.799938	4.13994	0.965577	5.00747				
0.914315	4.72444	0.41347	2.11587	0.915405	4.72284							0.802105	4.13124	0.969429	5.00327				
0.917739	4.71941	0.415546	2.11641	0.918824	4.7178							0.804257	4.12254	0.97328	4.99911				
0.921148	4.71435	0.417623	2.11694	0.92223	4.71274							0.806397	4.11386	0.977129	4.99497				
0.924544	4.70928	0.4197	2.11747	0.925621	4.70766							0.808523	4.1052	0.980976	4.99087				
0.927925	4.70418	0.421776	2.11799	0.928998	4.70255							0.810637	4.09655	0.98482	4.98679				
0.931293	4.69905	0.423853	2.1185	0.932361	4.69742							0.812738	4.08792	0.988662	4.98273				
0.934646	4.69391	0.425929	2.11901	0.93571	4.69226							0.814827	4.07931	0.992501	4.9787				
0.937985	4.68874	0.428006	2.11952	0.939044	4.68709							0.816904	4.07072	0.996337	4.9747				
0.941311	4.68355	0.430082	2.12002	0.942365	4.68189							0.818968	4.06215	1.00017	4.97071				
0.944622	4.67833	0.432158	2.12052	0.945672	4.67667							0.821021	4.0536						
0.947919	4.6731	0.434235	2.12101	0.948964	4.67143							0.823063	4.04507						
0.951202	4.66785	0.436311	2.1215	0.952243	4.66617							0.825092	4.03656						
0.954471	4.66257	0.438387	2.12198	0.955508	4.66089							0.827111	4.02808						
0.957727	4.65728	0.440464	2.12246	0.958759	4.65559							0.829119	4.01962						
0.960968	4.65196	0.44254	2.12293	0.961996	4.65027							0.831116	4.01118						
0.964196	4.64663	0.444616	2.1234	0.965219	4.64493							0.833102	4.00277						
0.96741	4.64128	0.446692	2.12386	0.968429	4.63957							0.835078	3.99438						
0.97061	4.63591	0.448768	2.12433	0.971624	4.6342							0.837043	3.98602						
0.973796	4.63052	0.450844	2.12478	0.974806	4.6288							0.838999	3.97768						
0.976968	4.62512	0.45292	2.12523	0.977974	4.62339							0.840944	3.96937						
0.980127	4.61969	0.454996	2.12568	0.981129	4.61797							0.84288	3.96109						
0.983273	4.61426	0.457072	2.12613	0.98427	4.61252							0.844806	3.95283						
0.986404	4.6088	0.459148	2.12657	0.987398	4.60707							0.846723	3.94461						
0.989523	4.60333	0.461224	2.127	0.990511	4.60159							0.848631	3.93641						
0.992627	4.59785	0.4633	2.12744	0.993612	4.5961							0.850529	3.92824						
0.995719	4.59235	0.465376	2.12786	0.996699	4.5906							0.852419	3.9201						
0.998797	4.58683	0.467452	2.12829	0.999773	4.58508							0.8543	3.91199						
1.00186	4.58131	0.469528	2.12871	1.00283	4.57955							0.856173	3.90391						
		0.471603	2.12913									0.858037	3.89586						
		0.473679	2.12954									0.859893	3.88784						
		0.475755	2.12995									0.861741	3.87985						
		0.47783	2.13036									0.863581	3.87189						
		0.479906	2.13076									0.865414	3.86397						
		0.481982	2.13116									0.867239	3.85607						
		0.484057	2.13156									0.869056	3.84821						
		0.486133	2.13195									0.870866	3.84038						
		0.488208	2.13234									0.872669	3.83259						
		0.490284	2.13272									0.874465	3.82482						
		0.492359	2.13311									0.876254	3.8171						
		0.494434	2.13349									0.878037	3.8094						
		0.49651	2.13386									0.879813	3.80174						
		0.498585	2.13424									0.881582	3.79411						
		0.500661	2.13461									0.883346	3.78651						
		0.502736	2.13498									0.885103	3.77895						
		0.504811	2.13534									0.886854	3.77143						
		0.506887	2.1357									0.888599	3.76394						
		0.508962	2.13606									0.890339	3.75648						
		0.511037	2.13642									0.892072	3.74906						
		0.513112	2.13677									0.893801	3.74167						
		0.515187	2.13712									0.895524	3.73432						
		0.517262	2.13746									0.897241	3.727						
		0.519338	2.13781									0.898954	3.71972						
		0.521413	2.13815									0.900661	3.71247						
		0.523488	2.13849									0.902364	3.70526						
		0.525563	2.13883									0.904061	3.69808						
		0.527638	2.13916									0.905755	3.69094						
		0.529713	2.13949									0.907443	3.68384						
		0.531788	2.13982									0.909127	3.67676						
		0.533863	2.14014									0.910806	3.66973						
		0.535938	2.14047									0.912482	3.66273						
		0.538012	2.14079									0.914153	3.65577						
		0.540087	2.14111									0.91582	3.64884						
		0.542162	2.14142									0.917483	3.64195						
		0.544237	2.14174									0.919142	3.63509						
		0.546312	2.14205									0.920798	3.62827						
		0.548387	2.14236									0.92245	3.62148						
		0.550461	2.14266									0.924098	3.61473						
		0.552536	2.14297									0.925742	3.60801						
		0.554611	2.14327									0.927384	3.60133						
		0.556685	2.14357									0.929022	3.59469						
		0.55876	2.14387									0.930656	3.58808						
		0.560835	2.14416									0.932288	3.5815						
		0.562909	2.14445									0.933916	3.57496						
		0.564984	2.14475									0.935542	3.56846						
		0.567059	2.14503									0.937164	3.56199						
		0.569133	2.14532									0.938784	3.55555						
		0.571208	2.14561									0.940401	3.54915						
		0.573282	2.14589									0.942015	3.54279						
		0.575357	2.14617									0.943627	3.53646						
		0.577431	2.14645									0.945236	3.53016						
		0.579506	2.14672									0.946842	3.5239						
		0.58158	2.147									0.948447	3.51767						
		0.583655	2.14727									0.950049	3.51148						
		0.585729	2.14754									0.951648	3.50532						
		0.587803	2.14781									0.953246	3.4992						
		0.589878	2.14808									0.954841	3.49311						
		0.591952	2.14834									0.956434	3.48705						
		0.594026	2.1486									0.958026	3.48103						
		0.596101	2.14887									0.959615	3.47504						
		0.598175	2.14912									0.961203	3.46908						
		0.600249	2.14938									0.962788	3.46316						
		0.602323	2.14964									0.964372	3.45727						
		0.604398	2.14989									0.965954	3.45141						
		0.606472	2.15014									0.967535	3.44559						
		0.608546	2.1504									0.969114	3.4398						
		0.61062	2.15064									0.970691	3.43404						
		0.612694	2.15089									0.972267	3.42832						
		0.614769	2.15114									0.973842	3.42263						
		0.616843	2.15138									0.975415	3.41697						
		0.618917	2.15162									0.976987	3.41134						
		0.620991	2.15186									0.978557	3.40574						
		0.623065	2.1521									0.980127	3.40018						
		0.625139	2.15234									0.981695	3.39465						
		0.627213	2.15258									0.983262	3.38915						
		0.629287	2.15281									0.984828	3.38368						
		0.631361	2.15304									0.986392	3.37824						
		0.633435	2.15327									0.987956	3.37283						
		0.635509	2.1535									0.989519	3.36746						
		0.637583	2.15373									0.991081	3.36211						
		0.639657	2.15396									0.992642	3.3568						
		0.641731	2.15418									0.994202	3.35152						
		0.643805	2.15441									0.995762	3.34626						
		0.645879	2.15463									0.99732	3.34104						
		0.647952	2.15485									0.998878	3.33585						
		0.650026	2.15507									1.00044	3.33069						
		0.6521	2.15529																
		0.654174	2.1555																
		0.656248	2.15572																
		0.658321	2.15593																
		0.660395	2.15615																
		0.662469	2.15636																
		0.664543	2.15657																
		0.666616	2.15678																
		0.66869	2.15698																
		0.670764	2.15719																
		0.672837	2.15739																
		0.674911	2.1576																
		0.676985	2.1578																
		0.679058	2.158																
		0.681132	2.1582																
		0.683206	2.1584																
		0.685279	2.1586																
		0.687353	2.15879																
		0.689426	2.15899																
		0.6915	2.15918																
		0.693573	2.15937																
		0.695647	2.15956																
		0.69772	2.15975																
		0.699794	2.15994																
		0.701867	2.16013																
		0.703941	2.16032																
		0.706014	2.1605																
		0.708088	2.16069																
		0.710161	2.16087																
		0.712234	2.16105																
		0.714308	2.16123																
		0.716381	2.16141																
		0.718454	2.16159																
		0.720528	2.16177																
		0.722601	2.16195																
		0.724674	2.16213																
		0.726748	2.1623																
		0.728821	2.16247																
		0.730894	2.16265																
		0.732967	2.16282																
		0.735041	2.16299																
		0.737114	2.16316																
		0.739187	2.16333																
		0.74126	2.1635																
		0.743333	2.16367																
		0.745407	2.16383																
		0.74748	2.164																
		0.749553	2.16416																
		0.751626	2.16432																
		0.753699	2.16449																
		0.755772	2.16465																
		0.757845	2.16481																
		0.759918	2.16497																
		0.761991	2.16513																
		0.764064	2.16529																
		0.766137	2.16544																
		0.76821	2.1656																
		0.770283	2.16576																
		0.772356	2.16591																
		0.774429	2.16606																
		0.776502	2.16622																
		0.778575	2.16637																
		0.780648	2.16652																
		0.782721	2.16667																
		0.784794	2.16682																
		0.786867	2.16697																
		0.78894	2.16712																
		0.791013	2.16727																
		0.793086	2.16741																
		0.795158	2.16756																
		0.797231	2.1677																
		0.799304	2.16785																
		0.801377	2.16799																
		0.80345	2.16813																
		0.805522	2.16828																
		0.807595	2.16842																
		0.809668	2.16856																
		0.811741	2.1687																
		0.813813	2.16884																
		0.815886	2.16897																
		0.817959	2.16911																
		0.820032	2.16925																
		0.822104	2.16939																
		0.824177	2.16952																
		0.82625	2.16966																
		0.828322	2.16979																
		0.830395	2.16992																
		0.832467	2.17006																
		0.83454	2.17019																
		0.836613	2.17032																
		0.838685	2.17045																
		0.840758	2.17058																
		0.84283	2.17071																
		0.844903	2.17084																
		0.846976	2.17097																
		0.849048	2.17109																
		0.851121	2.17122																
		0.853193	2.17135																
		0.855266	2.17147																
		0.857338	2.1716																
		0.859411	2.17172																
		0.861483	2.17185																
		0.863555	2.17197																
		0.865628	2.17209																
		0.8677	2.17221																
		0.869773	2.17233																
		0.871845	2.17245																
		0.873917	2.17257																
		0.87599	2.17269																
		0.878062	2.17281																
		0.880135	2.17293																
		0.882207	2.17305																
		0.884279	2.17317																
		0.886352	2.17328																
		0.888424	2.1734																
		0.890496	2.17352																
		0.892568	2.17363																
		0.894641	2.17374																
		0.896713	2.17386																
		0.898785	2.17397																
		0.900857	2.17408																
		0.90293	2.1742																
		0.905002	2.17431																
		0.907074	2.17442																
		0.909146	2.17453																
		0.911218	2.17464																
		0.913291	2.17475																
		0.915363	2.17486																
		0.917435	2.17497																
		0.919507	2.17508																
		0.921579	2.17518																
		0.923651	2.17529																
		0.925723	2.1754																
		0.927796	2.1755																
		0.929868	2.17561																
		0.93194	2.17572																
		0.934012	2.17582																
		0.936084	2.17592																
		0.938156	2.17603																
		0.940228	2.17613																
		0.9423	2.17623																
		0.944372	2.17634																
		0.946444	2.17644																
		0.948516	2.17654																
		0.950588	2.17664																
		0.95266	2.17674																
		0.954732	2.17684																
		0.956804	2.17694																
		0.958876	2.17704																
		0.960947	2.17714																
		0.963019	2.17724																
		0.965091	2.17734																
		0.967163	2.17743																
		0.969235	2.17753																
		0.971307	2.17763																
		0.973379	2.17772																
		0.975451	2.17782																
		0.977522	2.17791																
		0.979594	2.17801																
		0.981666	2.1781																
		0.983738	2.1782																
		0.98581	2.17829																
		0.987881	2.17838																
		0.989953	2.17848																
		0.992025	2.17857																
		0.994097	2.17866																
		0.996168	2.17875																
		0.99824	2.17884																
		1.00031	2.17893																
