Sym0		Asym0		Sym1		Sym2		Sym3		Asym1		Asym2		Asym3	
455  Points		492  Points		165  Points		133  Points		113  Points		298  Points		145  Points		116  Points	
Freq (MHz)	Vph (m/ms)	Freq (MHz)	Vph (m/ms)	Freq (MHz)	Vph (m/ms)	Freq (MHz)	Vph (m/ms)	Freq (MHz)	Vph (m/ms)	Freq (MHz)	Vph (m/ms)	Freq (MHz)	Vph (m/ms)	Freq (MHz)	Vph (m/ms)
0.00346454	7.75989	0.000350238	0.198094	0.279583	304.528	0.536228	892.124	0.559026	1451.22	0.139758	1146.68	0.419279	826.322	0.698774	2789.1
0.0106937	7.75936	0.000811252	0.300494	0.27981	151.266	0.536266	349.869	0.559125	424.574	0.140003	132.884	0.419392	291.427	0.698823	591.104
0.0179208	7.75841	0.00145455	0.400545	0.280189	100.734	0.536337	217.629	0.559331	248.746	0.140636	70.8399	0.419613	176.993	0.698935	330.634
0.0251446	7.75696	0.00227038	0.49755	0.280719	75.6009	0.536442	157.956	0.559645	175.973	0.14165	48.5607	0.419943	127.16	0.699112	229.546
0.0323637	7.75503	0.00324718	0.590953	0.2814	60.583	0.536583	123.984	0.560064	136.203	0.143034	37.1645	0.42038	99.2824	0.699351	175.835
0.0395766	7.75261	0.00437231	0.680355	0.28223	50.61	0.536761	102.055	0.560587	111.146	0.144775	30.2854	0.420925	81.4817	0.699655	142.525
0.0467821	7.74969	0.00563222	0.765434	0.283207	43.515	0.536979	86.7321	0.561213	93.9209	0.146858	25.7101	0.421576	69.1383	0.700022	119.852
0.0539786	7.74627	0.00701338	0.846014	0.284329	38.2165	0.537239	75.4238	0.56194	81.3572	0.149264	22.4669	0.422334	60.0822	0.700452	103.427
0.0611646	7.74233	0.00850242	0.922012	0.285594	34.1145	0.537542	66.737	0.562765	71.7925	0.151977	20.0618	0.423197	53.159	0.700945	90.9834
0.0683388	7.73788	0.0100866	0.993433	0.287001	30.8492	0.537892	59.8567	0.563687	64.271	0.154975	18.2171	0.424165	47.6984	0.701501	81.2318
0.0754995	7.7329	0.0117541	1.06036	0.288545	28.1919	0.53829	54.274	0.564703	58.2039	0.158241	16.7649	0.425237	43.284	0.70212	73.3861
0.0826451	7.72737	0.0134939	1.12293	0.290225	25.9902	0.538741	49.6548	0.565812	53.2085	0.161756	15.5977	0.426412	39.644	0.702802	66.9387
0.0897741	7.7213	0.0152961	1.18131	0.292038	24.1385	0.539245	45.7708	0.56701	49.0258	0.165501	14.6432	0.42769	36.593	0.703546	61.5479
0.0968845	7.71466	0.0171517	1.2357	0.293979	22.5615	0.539805	42.4605	0.568297	45.4738	0.169458	13.8515	0.429068	34.0005	0.704352	56.9746
0.103975	7.70743	0.0190529	1.28633	0.296047	21.2041	0.540425	39.6067	0.56967	42.4211	0.173612	13.1868	0.430546	31.7719	0.70522	53.047
0.111043	7.69962	0.0209928	1.33343	0.298238	20.0247	0.541106	37.1218	0.571128	39.7704	0.177946	12.6227	0.432122	29.8369	0.70615	49.6381
0.118087	7.69118	0.0229654	1.37722	0.300548	18.9917	0.54185	34.9396	0.572668	37.4481	0.182448	12.1397	0.433796	28.142	0.707141	46.6524
0.125105	7.68212	0.0249655	1.41794	0.302974	18.0806	0.54266	33.0088	0.57429	35.3975	0.186495	11.773	0.435566	26.6463	0.708193	44.0163
0.132095	7.6724	0.0269885	1.4558	0.305514	17.2718	0.543539	31.289	0.575992	33.5743	0.190031	11.4941	0.43743	25.3173	0.709306	41.6723
0.139055	7.66199	0.028767	1.48663	0.308162	16.5498	0.544487	29.7481	0.577772	31.9433	0.193011	11.2837	0.439388	24.1294	0.710479	39.575
0.145982	7.65089	0.0302929	1.51143	0.310917	15.9021	0.545507	28.3602	0.579629	30.4762	0.195402	11.129	0.441437	23.062	0.711712	37.6878
0.152873	7.63906	0.0315607	1.53097	0.313775	15.3183	0.546602	27.1042	0.581563	29.1498	0.197178	11.0213	0.443576	22.0982	0.713005	35.981
0.159727	7.62648	0.0325664	1.54582	0.316733	14.79	0.547773	25.9628	0.583571	27.9455	0.198322	10.9549	0.445804	21.224	0.714357	34.4304
0.16654	7.61311	0.0333076	1.55642	0.319788	14.31	0.549022	24.9215	0.585653	26.8473	0.199978	10.8626	0.448119	20.4281	0.715768	33.0158
0.17331	7.59892	0.0337827	1.56306	0.322936	13.8726	0.550351	23.9681	0.587808	25.8424	0.201791	10.7665	0.45052	19.7008	0.717237	31.7204
0.180032	7.58388	0.0344665	1.57243	0.326177	13.4726	0.551761	23.0926	0.590035	24.9196	0.20428	10.6424	0.453004	19.0339	0.718764	30.5299
0.186705	7.56795	0.0352109	1.58237	0.329506	13.1057	0.553255	22.2861	0.592333	24.0695	0.207463	10.4952	0.45557	18.4207	0.720348	29.4325
0.193325	7.55111	0.036225	1.5955	0.332923	12.7684	0.554834	21.5412	0.594701	23.2842	0.211362	10.3308	0.458217	17.855	0.72199	28.4177
0.199888	7.5333	0.0375103	1.61148	0.336424	12.4576	0.556501	20.8517	0.597139	22.5568	0.216	10.1545	0.460942	17.332	0.723688	27.477
0.20639	7.51449	0.0390679	1.62993	0.340009	12.1704	0.558255	20.2118	0.599646	21.8814	0.221404	9.97178	0.463745	16.8472	0.725442	26.6025
0.212828	7.49464	0.040899	1.65042	0.343199	11.9377	0.5601	19.6169	0.602221	21.2528	0.226887	9.80719	0.466623	16.3968	0.727252	25.7878
0.219197	7.47372	0.0430046	1.67251	0.345967	11.7511	0.562037	19.0627	0.604863	20.6665	0.232442	9.65836	0.469575	15.9774	0.729117	25.0271
0.225493	7.45166	0.0451137	1.69319	0.34829	11.6044	0.564066	18.5455	0.607573	20.1187	0.238064	9.52328	0.472599	15.5862	0.731037	24.3154
0.231711	7.42845	0.0472256	1.71256	0.350147	11.493	0.56619	18.062	0.610348	19.6057	0.243747	9.40025	0.475694	15.2206	0.73301	23.6482
0.237848	7.40403	0.0493394	1.73074	0.351525	11.4136	0.568409	17.6094	0.61319	19.1246	0.249485	9.28781	0.478857	14.8783	0.735037	23.0216
0.243898	7.37836	0.0514546	1.74782	0.352413	11.3638	0.570725	17.1851	0.616097	18.6727	0.255274	9.18474	0.482088	14.5572	0.737118	22.4322
0.249856	7.35142	0.0535707	1.76387	0.353695	11.2937	0.573139	16.7869	0.619069	18.2475	0.261108	9.08995	0.485384	14.2557	0.73925	21.8768
0.255719	7.32317	0.0556874	1.77899	0.355099	11.2193	0.57565	16.4126	0.622106	17.8469	0.266984	9.00253	0.488744	13.9721	0.741435	21.3527
0.261481	7.29357	0.0578041	1.79324	0.357024	11.1211	0.578261	16.0604	0.625207	17.469	0.272899	8.92166	0.492167	13.7049	0.743671	20.8574
0.267137	7.26261	0.0599208	1.80668	0.359485	11.0016	0.580972	15.7286	0.628373	17.1119	0.278847	8.84666	0.495651	13.4529	0.745957	20.3888
0.272684	7.23027	0.062037	1.81938	0.362501	10.8638	0.583782	15.4159	0.631601	16.7743	0.284825	8.7769	0.499194	13.2149	0.748294	19.9448
0.278117	7.19654	0.0641529	1.83139	0.366095	10.7109	0.586692	15.1207	0.634894	16.4545	0.290831	8.71186	0.502796	12.9898	0.75068	19.5235
0.283432	7.16141	0.066268	1.84276	0.370293	10.5463	0.589702	14.8419	0.63825	16.1515	0.296861	8.65105	0.506453	12.7768	0.753116	19.1235
0.288626	7.12491	0.0683825	1.85354	0.37457	10.3923	0.592812	14.5783	0.641669	15.864	0.302913	8.59406	0.510166	12.5749	0.7556	18.7431
0.293694	7.08704	0.0704962	1.86376	0.378928	10.2483	0.596022	14.3289	0.645151	15.591	0.308983	8.54051	0.513933	12.3833	0.758132	18.3811
0.298636	7.04784	0.072609	1.87347	0.383365	10.1135	0.599329	14.0928	0.648697	15.3315	0.315068	8.49008	0.517258	12.2243	0.760712	18.0363
0.303449	7.00733	0.0747209	1.88271	0.387884	9.98721	0.602734	13.869	0.652306	15.0846	0.321167	8.44247	0.520124	12.0942	0.763338	17.7074
0.308131	6.96559	0.0768319	1.89149	0.392484	9.86891	0.606236	13.6568	0.655978	14.8496	0.327277	8.39741	0.522515	11.9902	0.76601	17.3934
0.312681	6.92265	0.078942	1.89986	0.397166	9.75803	0.609833	13.4554	0.659715	14.6257	0.333395	8.35467	0.524418	11.9102	0.768728	17.0935
0.317099	6.87858	0.0810511	1.90784	0.40193	9.65408	0.613523	13.2642	0.663515	14.4122	0.33952	8.31404	0.525825	11.8526	0.771491	16.8068
0.321387	6.83347	0.0831593	1.91546	0.406775	9.5566	0.617304	13.0824	0.667379	14.2086	0.345649	8.27533	0.526729	11.8163	0.774298	16.5324
0.325543	6.7874	0.0852666	1.92274	0.411702	9.46516	0.621174	12.9095	0.671309	14.0143	0.35178	8.23835	0.528033	11.7647	0.777149	16.2696
0.329572	6.74045	0.087373	1.92969	0.416709	9.37937	0.625132	12.745	0.675303	13.8287	0.357912	8.20295	0.529455	11.7096	0.780044	16.0178
0.333473	6.69271	0.0894786	1.93635	0.421795	9.29884	0.629174	12.5883	0.679363	13.6514	0.364041	8.169	0.5314	11.6362	0.782981	15.7762
0.33725	6.64428	0.0915833	1.94273	0.426958	9.22322	0.632763	12.4577	0.68349	13.4819	0.370167	8.13636	0.533876	11.5457	0.78596	15.5445
0.340907	6.59525	0.0936871	1.94884	0.432197	9.15219	0.63587	12.3506	0.687684	13.3199	0.376287	8.1049	0.536893	11.4397	0.788981	15.3219
0.344445	6.54572	0.0957902	1.9547	0.437509	9.08543	0.638472	12.2648	0.691946	13.1649	0.3824	8.07453	0.540464	11.32	0.792043	15.108
0.347869	6.49578	0.0978924	1.96033	0.442892	9.02264	0.640549	12.1986	0.696277	13.0165	0.388504	8.04514	0.544604	11.1883	0.795145	14.9023
0.351183	6.44552	0.0999939	1.96574	0.448341	8.96353	0.642087	12.1509	0.700678	12.8745	0.394597	8.01664	0.548788	11.0625	0.798288	14.7044
0.35439	6.39503	0.102095	1.97094	0.453856	8.90784	0.643076	12.1208	0.705149	12.7386	0.400677	7.98895	0.553014	10.9422	0.801469	14.514
0.357494	6.34438	0.104195	1.97594	0.45943	8.85533	0.644505	12.0781	0.709104	12.6249	0.406743	7.96199	0.557283	10.8271	0.804689	14.3305
0.360501	6.29367	0.106294	1.98076	0.465062	8.80575	0.646066	12.0323	0.712519	12.5313	0.412793	7.93568	0.561593	10.7168	0.807948	14.1537
0.363413	6.24297	0.108393	1.9854	0.470748	8.75888	0.648203	11.9712	0.715373	12.4561	0.418825	7.90997	0.565943	10.6112	0.811244	13.9832
0.366235	6.19233	0.110491	1.98987	0.476483	8.71452	0.650929	11.8958	0.71765	12.398	0.424838	7.88479	0.570332	10.5099	0.814578	13.8187
0.368971	6.14184	0.112589	1.99418	0.482264	8.67247	0.654258	11.8073	0.719335	12.3561	0.430829	7.86007	0.574761	10.4127	0.817948	13.66
0.371624	6.09154	0.114686	1.99835	0.488087	8.63255	0.658207	11.707	0.720419	12.3296	0.436798	7.83578	0.579227	10.3195	0.821354	13.5067
0.3742	6.04149	0.116782	2.00237	0.493948	8.59459	0.662793	11.5964	0.721983	12.292	0.442743	7.81186	0.583731	10.2299	0.824796	13.3587
0.376701	5.99175	0.118878	2.00626	0.499845	8.55845	0.667434	11.4903	0.723693	12.2517	0.448662	7.78826	0.588273	10.1439	0.828273	13.2156
0.379132	5.94234	0.120973	2.01002	0.505773	8.52397	0.672126	11.3884	0.726034	12.1979	0.454553	7.76494	0.59285	10.0612	0.831785	13.0772
0.381495	5.89332	0.123068	2.01365	0.511728	8.49101	0.676865	11.2905	0.729021	12.1314	0.460415	7.74186	0.597464	9.98163	0.834873	12.9603
0.383794	5.84472	0.125163	2.01717	0.517709	8.45947	0.681648	11.1963	0.732671	12.0534	0.466247	7.71899	0.602114	9.90513	0.837526	12.8633
0.386033	5.79657	0.127257	2.02058	0.523711	8.42922	0.68647	11.1055	0.737008	11.9649	0.472046	7.69628	0.606798	9.8315	0.839733	12.7848
0.388215	5.7489	0.12935	2.02388	0.529733	8.40017	0.691328	11.018	0.742058	11.8674	0.477811	7.67371	0.611517	9.76062	0.841487	12.7238
0.390342	5.70174	0.131444	2.02708	0.53577	8.37221	0.696218	10.9336	0.747187	11.774	0.483541	7.65125	0.616271	9.69236	0.842782	12.6796
0.392418	5.65509	0.133536	2.03019	0.541821	8.34526	0.701138	10.8521	0.752396	11.6845	0.489234	7.62886	0.621059	9.6266	0.843613	12.6516
0.394445	5.60899	0.135629	2.0332	0.547882	8.31924	0.706082	10.7733	0.757685	11.5988	0.494888	7.60652	0.62588	9.56323	0.84481	12.6116
0.396425	5.56345	0.137721	2.03612	0.553952	8.29407	0.711049	10.697	0.763055	11.5168	0.500503	7.58421	0.630735	9.50214	0.846116	12.5687
0.398362	5.51848	0.139813	2.03896	0.560028	8.26969	0.716036	10.6231	0.768505	11.4382	0.506076	7.5619	0.635623	9.44323	0.847898	12.5111
0.400258	5.47409	0.141904	2.04172	0.566109	8.24603	0.72104	10.5515	0.774036	11.3629	0.511607	7.53958	0.640544	9.38641	0.850163	12.4394
0.401878	5.43589	0.143995	2.0444	0.572192	8.22304	0.726059	10.482	0.779647	11.2909	0.517093	7.51722	0.645497	9.33159	0.852917	12.3546
0.403237	5.40368	0.146086	2.04701	0.578275	8.20065	0.731091	10.4146	0.785338	11.2219	0.522534	7.4948	0.650483	9.27869	0.856171	12.2576
0.404346	5.37729	0.148176	2.04954	0.584357	8.17884	0.736133	10.3491	0.791109	11.1558	0.527928	7.47232	0.6555	9.22763	0.859933	12.1494
0.405213	5.35659	0.150267	2.05201	0.590435	8.15754	0.741185	10.2854	0.796957	11.0925	0.533275	7.44975	0.660549	9.17832	0.863726	12.0445
0.405846	5.34146	0.152357	2.05441	0.596509	8.13672	0.746244	10.2234	0.802883	11.032	0.538572	7.42709	0.66563	9.13071	0.86755	11.9426
0.406248	5.33181	0.154446	2.05675	0.602577	8.11633	0.751311	10.1631	0.808885	10.9739	0.543819	7.40431	0.670741	9.08471	0.871403	11.8437
0.406824	5.31801	0.156536	2.05903	0.608637	8.09636	0.756383	10.1044	0.814961	10.9184	0.549015	7.38142	0.675882	9.04027	0.875286	11.7478
0.407447	5.30307	0.158625	2.06124	0.614688	8.07675	0.761461	10.0471	0.82111	10.8651	0.554159	7.3584	0.681054	8.99732	0.879197	11.6545
0.408286	5.28289	0.160714	2.06341	0.620729	8.05748	0.766544	9.99138	0.827331	10.8141	0.55925	7.33525	0.686255	8.9558	0.883137	11.5639
0.409338	5.25756	0.162802	2.06552	0.626758	8.03853	0.771631	9.93701	0.833621	10.7652	0.564286	7.31196	0.691486	8.91566	0.887106	11.4759
0.410596	5.22725	0.164891	2.06758	0.632775	8.01987	0.776723	9.88399	0.839978	10.7184	0.569269	7.28853	0.696745	8.87683	0.891102	11.3903
0.412051	5.19211	0.166979	2.06958	0.638778	8.00146	0.781819	9.83227	0.846401	10.6734	0.574195	7.26494	0.702031	8.83926	0.895126	11.3071
0.413696	5.15235	0.169067	2.07154	0.644766	7.9833	0.78692	9.78181	0.852887	10.6303	0.579066	7.24121	0.707346	8.80291	0.899177	11.2261
0.415316	5.11319	0.171155	2.07345	0.650738	7.96536	0.792026	9.73255	0.859435	10.589	0.583881	7.21733	0.712687	8.76771	0.903254	11.1474
0.416913	5.07464	0.173243	2.07532	0.656693	7.94761	0.797136	9.68448	0.866042	10.5493	0.588638	7.1933	0.718054	8.73364	0.907358	11.0707
0.418487	5.03668	0.175331	2.07715	0.662631	7.93005	0.802252	9.63754	0.872706	10.5112	0.593339	7.16911	0.723446	8.70063	0.911488	10.9961
0.42004	4.99932	0.177418	2.07893	0.668549	7.91266	0.807373	9.5917	0.879425	10.4745	0.597982	7.14478	0.728863	8.66864	0.915644	10.9235
0.421573	4.96254	0.179505	2.08067	0.674448	7.8954	0.8125	9.54694	0.886197	10.4394	0.602567	7.1203	0.734304	8.63763	0.919825	10.8527
0.423088	4.92634	0.181592	2.08237	0.680326	7.87829	0.817634	9.50323	0.89302	10.4055	0.607095	7.09569	0.739767	8.60756	0.924031	10.7838
0.424585	4.89072	0.183679	2.08404	0.686182	7.86129	0.822774	9.46052	0.899892	10.373	0.611565	7.07093	0.745252	8.57839	0.928262	10.7167
0.426066	4.85566	0.185766	2.08567	0.692016	7.8444	0.827922	9.41881	0.90681	10.3417	0.615977	7.04604	0.750758	8.55008	0.932518	10.6512
0.427532	4.82117	0.187852	2.08726	0.697827	7.8276	0.833077	9.37806	0.913773	10.3115	0.620331	7.02102	0.756285	8.52258	0.936797	10.5874
0.428982	4.78723	0.189939	2.08882	0.703614	7.81088	0.83824	9.33824	0.920779	10.2825	0.624628	6.99589	0.76183	8.49587	0.941101	10.5252
0.43042	4.75384	0.192025	2.09034	0.709377	7.79423	0.843412	9.29933	0.927826	10.2545	0.628868	6.97063	0.767393	8.46991	0.945428	10.4646
0.431844	4.721	0.194111	2.09184	0.715113	7.77765	0.848592	9.26131	0.934912	10.2275	0.633051	6.94527	0.772974	8.44466	0.949778	10.4054
0.433256	4.68868	0.196197	2.0933	0.720824	7.76111	0.853782	9.22416	0.942036	10.2014	0.637177	6.91981	0.77857	8.42009	0.954151	10.3477
0.434658	4.65689	0.198283	2.09473	0.726508	7.74462	0.858982	9.18785	0.949194	10.1763	0.641247	6.89425	0.784181	8.39618	0.958547	10.2914
0.436048	4.62562	0.200369	2.09614	0.732164	7.72816	0.864191	9.15236	0.956386	10.152	0.645261	6.8686	0.789806	8.37288	0.962965	10.2364
0.437429	4.59485	0.202455	2.09751	0.737792	7.71172	0.86941	9.11767	0.96361	10.1285	0.64922	6.84288	0.795444	8.35017	0.967406	10.1828
0.438801	4.56459	0.20454	2.09886	0.743391	7.69531	0.87464	9.08376	0.970864	10.1058	0.653124	6.81708	0.801093	8.32802	0.971868	10.1304
0.440165	4.53482	0.206626	2.10018	0.74896	7.6789	0.879881	9.05061	0.978146	10.0838	0.656974	6.79122	0.806753	8.30641	0.976352	10.0793
0.44152	4.50554	0.208711	2.10147	0.7545	7.6625	0.885132	9.0182	0.985454	10.0625	0.66077	6.76531	0.812422	8.2853	0.980857	10.0293
0.442869	4.47674	0.210796	2.10275	0.760008	7.64609	0.890395	8.98652	0.992788	10.0418	0.664513	6.73934	0.8181	8.26467	0.985384	9.98052
0.44421	4.4484	0.212882	2.10399	0.765486	7.62968	0.895669	8.95554	1.00014	10.0218	0.668204	6.71334	0.823785	8.24451	0.989931	9.93284
0.445545	4.42053	0.214967	2.10521	0.770931	7.61326	0.900955	8.92524			0.671842	6.6873	0.829476	8.22477	0.994499	9.88626
0.446874	4.39311	0.217052	2.10641	0.776344	7.59682	0.906252	8.89561			0.67543	6.66124	0.835172	8.20545	0.999087	9.84072
0.448198	4.36613	0.219136	2.10759	0.781725	7.58036	0.911561	8.86663			0.678968	6.63516	0.840873	8.18652	1.0037	9.79622
0.449517	4.3396	0.221221	2.10874	0.787072	7.56387	0.916881	8.83829			0.682456	6.60907	0.846576	8.16795		
0.450832	4.31349	0.223306	2.10988	0.792385	7.54736	0.922214	8.81056			0.685894	6.58297	0.852281	8.14974		
0.452142	4.2878	0.22539	2.11099	0.797664	7.53081	0.927558	8.78343			0.689285	6.55688	0.857988	8.13186		
0.453449	4.26254	0.227475	2.11208	0.802909	7.51423	0.932913	8.75689			0.692628	6.53081	0.863694	8.11429		
0.454753	4.23767	0.229559	2.11316	0.808118	7.49761	0.93828	8.73091			0.695925	6.50474	0.869399	8.09701		
0.456053	4.21321	0.231644	2.11421	0.813292	7.48095	0.943659	8.70549			0.699176	6.47871	0.875103	8.08002		
0.457351	4.18914	0.233728	2.11525	0.818431	7.46424	0.94905	8.68061			0.702381	6.4527	0.880803	8.06329		
0.458646	4.16546	0.235812	2.11626	0.823534	7.4475	0.954451	8.65624			0.705542	6.42673	0.886499	8.0468		
0.45994	4.14216	0.237896	2.11727	0.8286	7.43071	0.959864	8.63239			0.708659	6.40081	0.892191	8.03055		
0.461231	4.11922	0.23998	2.11825	0.833631	7.41387	0.965287	8.60903			0.711734	6.37493	0.897877	8.01452		
0.462521	4.09666	0.242064	2.11922	0.838624	7.39699	0.970721	8.58615			0.714766	6.34911	0.903556	7.99869		
0.46381	4.07445	0.244148	2.12017	0.843581	7.38006	0.976166	8.56373			0.717757	6.32334	0.909228	7.98306		
0.465097	4.05259	0.246232	2.1211	0.848501	7.36309	0.981621	8.54177			0.720708	6.29764	0.914892	7.96761		
0.466384	4.03108	0.248316	2.12202	0.853383	7.34606	0.987085	8.52024			0.723618	6.27201	0.920546	7.95233		
0.46767	4.0099	0.2504	2.12292	0.858229	7.32899	0.992559	8.49914			0.72649	6.24646	0.926191	7.93721		
0.468956	3.98906	0.252483	2.12381	0.863037	7.31188	0.998042	8.47845			0.729323	6.22098	0.931825	7.92223		
0.470241	3.96854	0.254567	2.12469	0.867807	7.29471	1.00353	8.45816			0.732118	6.19559	0.937447	7.9074		
0.471527	3.94835	0.256651	2.12555	0.87254	7.2775					0.734877	6.17029	0.943057	7.89269		
0.472813	3.92846	0.258734	2.1264	0.877236	7.26025					0.737599	6.14507	0.948654	7.87811		
0.474099	3.90889	0.260818	2.12723	0.881894	7.24295					0.740287	6.11996	0.954238	7.86363		
0.475386	3.88962	0.262901	2.12805	0.886514	7.22561					0.742939	6.09494	0.959807	7.84926		
0.476673	3.87065	0.264984	2.12886	0.891098	7.20823					0.745557	6.07002	0.965361	7.83498		
0.477961	3.85196	0.267068	2.12966	0.895643	7.1908					0.748143	6.04521	0.970899	7.82079		
0.47925	3.83357	0.269151	2.13044	0.900152	7.17334					0.750695	6.02052	0.976421	7.80669		
0.48054	3.81545	0.271234	2.13121	0.904623	7.15584					0.753216	5.99593	0.981926	7.79265		
0.481831	3.79761	0.273317	2.13197	0.909057	7.13831					0.755705	5.97146	0.987414	7.77869		
0.483124	3.78004	0.2754	2.13272	0.913454	7.12074					0.758164	5.94711	0.992883	7.76478		
0.484418	3.76273	0.277483	2.13346	0.917814	7.10314					0.760593	5.92287	0.998334	7.75093		
0.485713	3.74569	0.279566	2.13419	0.922138	7.08551					0.762993	5.89876	1.00377	7.73714		
0.487011	3.7289	0.281649	2.13491	0.926425	7.06785					0.765364	5.87478				
0.488309	3.71236	0.283732	2.13561	0.930675	7.05017					0.767708	5.85092				
0.48961	3.69607	0.285815	2.13631	0.934889	7.03245					0.770024	5.8272				
0.490913	3.68003	0.287898	2.13699	0.939068	7.01472					0.772313	5.8036				
0.492218	3.66421	0.289981	2.13767	0.94321	6.99697					0.774576	5.78014				
0.493524	3.64864	0.292063	2.13834	0.947317	6.9792					0.776814	5.75681				
0.494833	3.63329	0.294146	2.139	0.951388	6.96141					0.779026	5.73362				
0.496145	3.61816	0.296229	2.13964	0.955424	6.9436					0.781215	5.71057				
0.497458	3.60326	0.298311	2.14028	0.959425	6.92578					0.783379	5.68766				
0.498774	3.58857	0.300394	2.14091	0.963391	6.90795					0.78552	5.66488				
0.500092	3.5741	0.302477	2.14154	0.967323	6.89012					0.787639	5.64225				
0.501413	3.55983	0.304559	2.14215	0.97122	6.87227					0.789735	5.61976				
0.502736	3.54577	0.306642	2.14276	0.975084	6.85442					0.79181	5.59741				
0.504062	3.53191	0.308724	2.14335	0.978914	6.83657					0.793864	5.57521				
0.50539	3.51825	0.310807	2.14394	0.98271	6.81871					0.795897	5.55316				
0.506721	3.50479	0.312889	2.14453	0.986473	6.80085					0.79791	5.53124				
0.508055	3.49151	0.314971	2.1451	0.990203	6.783					0.799904	5.50948				
0.509392	3.47843	0.317054	2.14567	0.9939	6.76515					0.801878	5.48786				
0.510731	3.46553	0.319136	2.14623	0.997565	6.74731					0.803833	5.46639				
0.512073	3.4528	0.321218	2.14678	1.0012	6.72947					0.805771	5.44506				
0.513418	3.44026	0.323301	2.14732							0.80769	5.42389				
0.514766	3.42789	0.325383	2.14786							0.809593	5.40286				
0.516117	3.4157	0.327465	2.14839							0.811478	5.38198				
0.517471	3.40367	0.329547	2.14892							0.813347	5.36125				
0.518827	3.39181	0.331629	2.14944							0.8152	5.34066				
0.520187	3.38011	0.333711	2.14995							0.817038	5.32022				
0.52155	3.36857	0.335793	2.15046							0.81886	5.29994				
0.522916	3.35719	0.337875	2.15096							0.820667	5.27979				
0.524284	3.34596	0.339957	2.15145							0.82246	5.2598				
0.525656	3.33489	0.342039	2.15194							0.824239	5.23995				
0.527031	3.32396	0.344121	2.15242							0.826004	5.22025				
0.528409	3.31319	0.346203	2.15289							0.827755	5.2007				
0.529791	3.30255	0.348285	2.15336							0.829494	5.1813				
0.531175	3.29206	0.350367	2.15383							0.83122	5.16203				
0.532562	3.28171	0.352449	2.15429							0.832933	5.14292				
0.533953	3.2715	0.354531	2.15474							0.834635	5.12395				
0.535346	3.26142	0.356613	2.15519							0.836325	5.10512				
0.536743	3.25147	0.358695	2.15564							0.838003	5.08644				
0.538143	3.24166	0.360776	2.15607							0.839671	5.0679				
0.539546	3.23197	0.362858	2.15651							0.841327	5.04951				
0.540953	3.22241	0.36494	2.15694							0.842974	5.03125				
0.542362	3.21298	0.367022	2.15736							0.84461	5.01314				
0.543775	3.20366	0.369103	2.15778							0.846236	4.99517				
0.545191	3.19447	0.371185	2.15819							0.847852	4.97734				
0.54661	3.18539	0.373267	2.1586							0.849459	4.95964				
0.548032	3.17643	0.375348	2.15901							0.851057	4.94209				
0.549457	3.16759	0.37743	2.15941							0.852646	4.92467				
0.550886	3.15886	0.379512	2.15981							0.854226	4.90739				
0.552317	3.15024	0.381593	2.1602							0.855798	4.89025				
0.553752	3.14173	0.383675	2.16059							0.857362	4.87324				
0.55519	3.13332	0.385756	2.16097							0.858918	4.85637				
0.556631	3.12502	0.387838	2.16135							0.860466	4.83962				
0.558076	3.11683	0.389919	2.16173							0.862007	4.82302				
0.559523	3.10874	0.392001	2.1621							0.863541	4.80654				
0.560974	3.10074	0.394082	2.16247							0.865067	4.7902				
0.562427	3.09285	0.396164	2.16283							0.866587	4.77398				
0.563884	3.08506	0.398245	2.16319							0.8681	4.7579				
0.565344	3.07736	0.400327	2.16355							0.869607	4.74194				
0.566807	3.06975	0.402408	2.1639							0.871107	4.72611				
0.568273	3.06224	0.40449	2.16425							0.872601	4.71041				
0.569743	3.05482	0.406571	2.1646							0.87409	4.69483				
0.571215	3.04749	0.408653	2.16494							0.875572	4.67937				
0.57269	3.04025	0.410734	2.16528							0.877049	4.66405				
0.574169	3.0331	0.412815	2.16562							0.878521	4.64884				
0.57565	3.02603	0.414897	2.16595							0.879988	4.63375				
0.577135	3.01905	0.416978	2.16628							0.881449	4.61879				
0.578622	3.01215	0.419059	2.1666							0.882906	4.60395				
0.580113	3.00533	0.42114	2.16692							0.884358	4.58922				
0.581607	2.9986	0.423222	2.16724							0.885805	4.57462				
0.583103	2.99194	0.425303	2.16756							0.887248	4.56013				
0.584603	2.98537	0.427384	2.16787							0.888687	4.54575				
0.586106	2.97887	0.429466	2.16818							0.890122	4.5315				
0.587611	2.97244	0.431547	2.16849							0.891552	4.51735				
0.58912	2.96609	0.433628	2.1688							0.892979	4.50332				
0.590631	2.95982	0.435709	2.1691							0.894402	4.4894				
0.592146	2.95362	0.43779	2.1694							0.895821	4.4756				
0.593663	2.94749	0.439872	2.16969							0.897237	4.4619				
0.595183	2.94143	0.441953	2.16998							0.89865	4.44832				
0.596706	2.93544	0.444034	2.17027							0.900059	4.43484				
0.598232	2.92952	0.446115	2.17056							0.901465	4.42147				
0.599761	2.92367	0.448196	2.17085							0.902868	4.40821				
0.601293	2.91788	0.450277	2.17113							0.904269	4.39505				
0.602827	2.91216	0.452358	2.17141							0.905666	4.382				
0.604365	2.90651	0.454439	2.17169							0.907061	4.36905				
0.605905	2.90092	0.456521	2.17196							0.908453	4.35621				
0.607448	2.89539	0.458602	2.17223							0.909843	4.34347				
0.608994	2.88992	0.460683	2.1725							0.91123	4.33083				
0.610542	2.88452	0.462764	2.17277							0.912615	4.31829				
0.612094	2.87918	0.464845	2.17304							0.913998	4.30585				
0.613648	2.87389	0.466926	2.1733							0.915378	4.29351				
0.615205	2.86866	0.469007	2.17356							0.916757	4.28127				
0.616764	2.8635	0.471088	2.17382							0.918134	4.26912				
0.618326	2.85839	0.473169	2.17407							0.919509	4.25707				
0.619891	2.85333	0.47525	2.17433							0.920882	4.24512				
0.621459	2.84833	0.477331	2.17458							0.922253	4.23326				
0.623029	2.84339	0.479412	2.17483							0.923623	4.22149				
0.624602	2.83849	0.481493	2.17507							0.924991	4.20982				
0.626178	2.83366	0.483574	2.17532							0.926358	4.19824				
0.627756	2.82887	0.485655	2.17556							0.927724	4.18675				
0.629337	2.82414	0.487736	2.1758							0.929088	4.17535				
0.63092	2.81945	0.489816	2.17604							0.930451	4.16404				
0.632506	2.81482	0.491897	2.17628							0.931812	4.15282				
0.634094	2.81024	0.493978	2.17651							0.933173	4.14168				
0.635686	2.80571	0.496059	2.17674							0.934533	4.13064				
0.637279	2.80122	0.49814	2.17698							0.935891	4.11968				
0.638875	2.79678	0.500221	2.1772							0.937249	4.1088				
0.640474	2.79239	0.502302	2.17743							0.938606	4.09801				
0.642075	2.78805	0.504383	2.17766							0.939962	4.08731				
0.643678	2.78375	0.506464	2.17788							0.941317	4.07668				
0.645285	2.77949	0.508544	2.1781							0.942672	4.06614				
0.646893	2.77528	0.510625	2.17832							0.944026	4.05569				
0.648504	2.77112	0.512706	2.17854							0.94538	4.04531				
0.650117	2.767	0.514787	2.17876							0.946733	4.03501				
0.651733	2.76292	0.516868	2.17897							0.948085	4.02479				
0.653351	2.75888	0.518948	2.17918							0.949437	4.01465				
0.654972	2.75489	0.521029	2.17939							0.950789	4.00459				
0.656595	2.75093	0.52311	2.1796							0.95214	3.99461				
0.65822	2.74702	0.525191	2.17981							0.953492	3.9847				
0.659847	2.74314	0.527272	2.18002							0.954843	3.97487				
0.661477	2.73931	0.529352	2.18022							0.956193	3.96512				
0.66311	2.73551	0.531433	2.18042							0.957544	3.95544				
0.664744	2.73176	0.533514	2.18063							0.958895	3.94583				
0.666381	2.72804	0.535595	2.18083							0.960245	3.93629				
0.66802	2.72436	0.537675	2.18102							0.961596	3.92683				
0.669661	2.72071	0.539756	2.18122							0.962946	3.91744				
0.671305	2.71711	0.541837	2.18142							0.964297	3.90813				
0.672951	2.71353	0.543917	2.18161							0.965648	3.89888				
0.674599	2.71	0.545998	2.1818							0.966999	3.8897				
0.676249	2.7065	0.548079	2.18199							0.96835	3.88059				
0.677901	2.70303	0.550159	2.18218							0.969701	3.87155				
0.679556	2.6996	0.55224	2.18237							0.971052	3.86258				
0.681213	2.6962	0.554321	2.18256							0.972404	3.85367				
0.682871	2.69284	0.556402	2.18274							0.973756	3.84484				
0.684532	2.68951	0.558482	2.18292							0.975109	3.83606				
0.686196	2.68621	0.560563	2.18311							0.976462	3.82736				
0.687861	2.68294	0.562644	2.18329							0.977815	3.81872				
0.689528	2.67971	0.564724	2.18347							0.979169	3.81014				
0.691198	2.6765	0.566805	2.18365							0.980523	3.80163				
0.692869	2.67333	0.568885	2.18382							0.981878	3.79318				
0.694543	2.67019	0.570966	2.184							0.983233	3.78479				
0.696218	2.66708	0.573047	2.18417							0.984589	3.77646				
0.697896	2.664	0.575127	2.18435							0.985945	3.7682				
0.699576	2.66094	0.577208	2.18452							0.987302	3.76				
0.701257	2.65792	0.579288	2.18469							0.988659	3.75186				
0.702941	2.65493	0.581369	2.18486							0.990018	3.74377				
0.704627	2.65196	0.58345	2.18503							0.991376	3.73575				
0.706314	2.64903	0.58553	2.18519							0.992736	3.72779				
0.708004	2.64612	0.587611	2.18536							0.994096	3.71988				
0.709695	2.64323	0.589691	2.18553							0.995458	3.71203				
0.711389	2.64038	0.591772	2.18569							0.996819	3.70424				
0.713084	2.63755	0.593852	2.18585							0.998182	3.69651				
0.714781	2.63475	0.595933	2.18601							0.999545	3.68883				
0.716481	2.63197	0.598014	2.18617							1.00091	3.6812				
0.718182	2.62922	0.600094	2.18633												
0.719885	2.6265	0.602175	2.18649												
0.721589	2.6238	0.604255	2.18665												
0.723296	2.62113	0.606336	2.1868												
0.725005	2.61848	0.608416	2.18696												
0.726715	2.61585	0.610497	2.18711												
0.728427	2.61325	0.612577	2.18727												
0.730141	2.61067	0.614658	2.18742												
0.731857	2.60812	0.616738	2.18757												
0.733574	2.60559	0.618819	2.18772												
0.735294	2.60308	0.620899	2.18787												
0.737015	2.6006	0.62298	2.18801												
0.738738	2.59813	0.62506	2.18816												
0.740462	2.59569	0.627141	2.18831												
0.742189	2.59328	0.629221	2.18845												
0.743916	2.59088	0.631301	2.18859												
0.745646	2.5885	0.633382	2.18874												
0.747378	2.58615	0.635462	2.18888												
0.749111	2.58382	0.637543	2.18902												
0.750845	2.5815	0.639623	2.18916												
0.752582	2.57921	0.641704	2.1893												
0.75432	2.57694	0.643784	2.18944												
0.75606	2.57469	0.645864	2.18958												
0.757801	2.57246	0.647945	2.18971												
0.759544	2.57025	0.650025	2.18985												
0.761289	2.56805	0.652106	2.18998												
0.763035	2.56588	0.654186	2.19012												
0.764783	2.56372	0.656267	2.19025												
0.766532	2.56159	0.658347	2.19038												
0.768283	2.55947	0.660427	2.19051												
0.770036	2.55737	0.662508	2.19064												
0.77179	2.55529	0.664588	2.19077												
0.773545	2.55323	0.666668	2.1909												
0.775303	2.55118	0.668749	2.19103												
0.777061	2.54915	0.670829	2.19116												
0.778822	2.54714	0.67291	2.19128												
0.780583	2.54515	0.67499	2.19141												
0.782346	2.54317	0.67707	2.19154												
0.784111	2.54121	0.679151	2.19166												
0.785877	2.53927	0.681231	2.19178												
0.787645	2.53734	0.683311	2.19191												
0.789414	2.53543	0.685392	2.19203												
0.791185	2.53354	0.687472	2.19215												
0.792957	2.53166	0.689552	2.19227												
0.79473	2.52979	0.691633	2.19239												
0.796505	2.52795	0.693713	2.19251												
0.798281	2.52611	0.695793	2.19263												
0.800059	2.5243	0.697874	2.19274												
0.801838	2.52249	0.699954	2.19286												
0.803618	2.52071	0.702034	2.19298												
0.8054	2.51894	0.704114	2.19309												
0.807183	2.51718	0.706195	2.19321												
0.808968	2.51543	0.708275	2.19332												
0.810754	2.51371	0.710355	2.19344												
0.812541	2.51199	0.712436	2.19355												
0.81433	2.51029	0.714516	2.19366												
0.81612	2.5086	0.716596	2.19377												
0.817911	2.50693	0.718676	2.19388												
0.819704	2.50527	0.720757	2.19399												
0.821498	2.50362	0.722837	2.1941												
0.823293	2.50199	0.724917	2.19421												
0.825089	2.50037	0.726997	2.19432												
0.826887	2.49876	0.729078	2.19443												
0.828686	2.49717	0.731158	2.19454												
0.830486	2.49559	0.733238	2.19464												
0.832288	2.49402	0.735318	2.19475												
0.834091	2.49246	0.737399	2.19485												
0.835895	2.49092	0.739479	2.19496												
0.8377	2.48939	0.741559	2.19506												
0.839507	2.48787	0.743639	2.19517												
0.841314	2.48636	0.74572	2.19527												
0.843123	2.48486	0.7478	2.19537												
0.844934	2.48338	0.74988	2.19547												
0.846745	2.48191	0.75196	2.19558												
0.848558	2.48044	0.75404	2.19568												
0.850371	2.47899	0.756121	2.19578												
0.852186	2.47756	0.758201	2.19588												
0.854002	2.47613	0.760281	2.19598												
0.85582	2.47471	0.762361	2.19607												
0.857638	2.47331	0.764441	2.19617												
0.859458	2.47191	0.766522	2.19627												
0.861278	2.47053	0.768602	2.19637												
0.8631	2.46916	0.770682	2.19646												
0.864923	2.46779	0.772762	2.19656												
0.866747	2.46644	0.774842	2.19665												
0.868572	2.4651	0.776922	2.19675												
0.870399	2.46377	0.779003	2.19684												
0.872226	2.46245	0.781083	2.19694												
0.874055	2.46114	0.783163	2.19703												
0.875884	2.45983	0.785243	2.19712												
0.877715	2.45854	0.787323	2.19722												
0.879547	2.45726	0.789403	2.19731												
0.88138	2.45599	0.791484	2.1974												
0.883213	2.45473	0.793564	2.19749												
0.885048	2.45347	0.795644	2.19758												
0.886884	2.45223	0.797724	2.19767												
0.888721	2.45099	0.799804	2.19776												
0.89056	2.44977	0.801884	2.19785												
0.892399	2.44855	0.803964	2.19794												
0.894239	2.44735	0.806044	2.19803												
0.89608	2.44615	0.808125	2.19811												
0.897922	2.44496	0.810205	2.1982												
0.899765	2.44378	0.812285	2.19829												
0.90161	2.4426	0.814365	2.19837												
0.903455	2.44144	0.816445	2.19846												
0.905301	2.44029	0.818525	2.19854												
0.907148	2.43914	0.820605	2.19863												
0.908996	2.438	0.822685	2.19871												
0.910845	2.43687	0.824765	2.1988												
0.912696	2.43575	0.826845	2.19888												
0.914547	2.43464	0.828926	2.19897												
0.916399	2.43353	0.831006	2.19905												
0.918252	2.43243	0.833086	2.19913												
0.920105	2.43134	0.835166	2.19921												
0.92196	2.43026	0.837246	2.19929												
0.923816	2.42919	0.839326	2.19938												
0.925673	2.42812	0.841406	2.19946												
0.92753	2.42706	0.843486	2.19954												
0.929389	2.42601	0.845566	2.19962												
0.931248	2.42497	0.847646	2.1997												
0.933109	2.42393	0.849726	2.19978												
0.93497	2.4229	0.851806	2.19985												
0.936832	2.42188	0.853886	2.19993												
0.938695	2.42086	0.855966	2.20001												
0.940559	2.41986	0.858046	2.20009												
0.942424	2.41886	0.860127	2.20017												
0.94429	2.41786	0.862207	2.20024												
0.946156	2.41688	0.864287	2.20032												
0.948024	2.4159	0.866367	2.2004												
0.949892	2.41493	0.868447	2.20047												
0.951761	2.41396	0.870527	2.20055												
0.953631	2.413	0.872607	2.20062												
0.955502	2.41205	0.874687	2.2007												
0.957374	2.4111	0.876767	2.20077												
0.959246	2.41016	0.878847	2.20085												
0.96112	2.40923	0.880927	2.20092												
0.962994	2.4083	0.883007	2.20099												
0.964869	2.40738	0.885087	2.20107												
0.966745	2.40647	0.887167	2.20114												
0.968622	2.40556	0.889247	2.20121												
0.970499	2.40466	0.891327	2.20128												
0.972377	2.40377	0.893407	2.20135												
0.974256	2.40288	0.895487	2.20143												
0.976136	2.40199	0.897567	2.2015												
0.978017	2.40112	0.899647	2.20157												
0.979898	2.40024	0.901727	2.20164												
0.981781	2.39938	0.903807	2.20171												
0.983664	2.39852	0.905887	2.20178												
0.985547	2.39767	0.907967	2.20185												
0.987432	2.39682	0.910047	2.20192												
0.989317	2.39598	0.912127	2.20198												
0.991203	2.39514	0.914207	2.20205												
0.99309	2.39431	0.916287	2.20212												
0.994978	2.39348	0.918367	2.20219												
0.996866	2.39266	0.920447	2.20226												
0.998755	2.39185	0.922527	2.20232												
1.00065	2.39104	0.924607	2.20239												
		0.926686	2.20246												
		0.928766	2.20252												
		0.930846	2.20259												
		0.932926	2.20265												
		0.935006	2.20272												
		0.937086	2.20278												
		0.939166	2.20285												
		0.941246	2.20291												
		0.943326	2.20298												
		0.945406	2.20304												
		0.947486	2.20311												
		0.949566	2.20317												
		0.951646	2.20323												
		0.953726	2.2033												
		0.955806	2.20336												
		0.957885	2.20342												
		0.959965	2.20348												
		0.962045	2.20354												
		0.964125	2.20361												
		0.966205	2.20367												
		0.968285	2.20373												
		0.970365	2.20379												
		0.972445	2.20385												
		0.974525	2.20391												
		0.976605	2.20397												
		0.978685	2.20403												
		0.980764	2.20409												
		0.982844	2.20415												
		0.984924	2.20421												
		0.987004	2.20426												
		0.989084	2.20432												
		0.991164	2.20438												
		0.993244	2.20444												
		0.995324	2.2045												
		0.997403	2.20455												
		0.999483	2.20461												
		1.00156	2.20467												
