Sym0		Asym0		Sym1		Sym2		Sym3		Sym4		Asym1		Asym2		Asym3	
459  Points		493  Points		191  Points		160  Points		145  Points		104  Points		307  Points		171  Points		138  Points	
Freq (MHz)	Vph (m/ms)	Freq (MHz)	Vph (m/ms)	Freq (MHz)	Vph (m/ms)	Freq (MHz)	Vph (m/ms)	Freq (MHz)	Vph (m/ms)	Freq (MHz)	Vph (m/ms)	Freq (MHz)	Vph (m/ms)	Freq (MHz)	Vph (m/ms)	Freq (MHz)	Vph (m/ms)
0.00276264	6.42566	0.000318215	0.171917	0.279552	327.399	0.504705	4352.54	0.559035	809.613	0.838542	948.133	0.139792	286.198	0.419288	541.891	0.698779	1264.58
0.00874927	6.42557	0.000715721	0.257206	0.279698	156.645	0.504721	481.764	0.559115	344.667	0.838596	461.754	0.140074	98.6339	0.419388	245.911	0.698827	470.821
0.0147351	6.42519	0.00126683	0.341061	0.279947	103.026	0.504764	255.016	0.55926	218.984	0.838688	305.221	0.140629	59.7955	0.419561	159.097	0.698918	289.291
0.0207196	6.42463	0.00196546	0.423038	0.280299	76.8166	0.504833	173.42	0.559469	160.509	0.838817	227.97	0.141453	43.0795	0.41981	117.632	0.699053	208.818
0.0267022	6.42388	0.00280438	0.502779	0.280753	61.2913	0.504929	131.398	0.559742	126.717	0.838983	181.945	0.142539	33.8153	0.420132	93.3517	0.699231	163.396
0.0326825	6.42294	0.00377538	0.579983	0.281309	51.0326	0.505052	105.783	0.560079	104.708	0.839186	151.399	0.14388	27.9545	0.420529	77.4137	0.699453	134.225
0.0386599	6.4218	0.00486968	0.654426	0.281965	43.756	0.505203	88.5369	0.56048	89.239	0.839426	129.649	0.145466	23.9308	0.420999	66.154	0.699718	113.91
0.0446337	6.42046	0.00607795	0.725912	0.282721	38.3313	0.505381	76.1366	0.560944	77.7754	0.839704	113.377	0.147287	21.0101	0.421543	57.7803	0.700027	98.9515
0.0506036	6.41893	0.00739077	0.794318	0.283576	34.1352	0.505587	66.7925	0.561472	68.9425	0.840019	100.746	0.149332	18.8028	0.42216	51.312	0.700379	87.4802
0.0565689	6.4172	0.00879899	0.859592	0.284528	30.7961	0.505822	59.5	0.562061	61.93	0.840371	90.6581	0.15159	17.0831	0.422849	46.1676	0.700774	78.4054
0.0625288	6.41526	0.0102935	0.921701	0.285577	28.0781	0.506086	53.6511	0.562713	56.2295	0.84076	82.4164	0.154049	15.7106	0.423612	41.9804	0.701213	71.0482
0.068483	6.41312	0.0118657	0.980666	0.286721	25.8249	0.50638	48.8567	0.563427	51.5056	0.841186	75.5575	0.156696	14.5939	0.424446	38.5076	0.701694	64.9643
0.0744307	6.41076	0.0135075	1.03654	0.287958	23.9283	0.506705	44.8559	0.564201	47.5283	0.841648	69.7609	0.159522	13.6708	0.425351	35.5821	0.702219	59.8503
0.0803713	6.40819	0.0152112	1.08939	0.289287	22.3114	0.507061	41.4672	0.565036	44.1347	0.842148	64.7983	0.162514	12.8974	0.426328	33.0851	0.702786	55.4921
0.0863042	6.40539	0.01697	1.13933	0.290706	20.9177	0.507449	38.5609	0.565931	41.2059	0.842685	60.5023	0.165661	12.242	0.427375	30.93	0.703396	51.7343
0.0922285	6.40237	0.0187774	1.18646	0.292214	19.7052	0.507871	36.0412	0.566885	38.6532	0.843258	56.7474	0.168955	11.6812	0.428491	29.0519	0.704048	48.4615
0.0981437	6.39912	0.0206277	1.23091	0.293808	18.6415	0.508326	33.8363	0.567898	36.4093	0.843867	53.438	0.171936	11.2555	0.429677	27.4014	0.704743	45.5859
0.104049	6.39563	0.0225156	1.2728	0.295487	17.7016	0.508816	31.8911	0.568969	34.4218	0.844514	50.4994	0.174554	10.9316	0.430931	25.9401	0.705481	43.0397
0.109944	6.3919	0.0244364	1.31227	0.29725	16.8658	0.509341	30.1627	0.570097	32.6497	0.845196	47.8731	0.17677	10.6873	0.432253	24.6379	0.70626	40.7699
0.115827	6.38791	0.026386	1.34945	0.299093	16.1183	0.509904	28.6171	0.571282	31.0602	0.845915	45.5121	0.178554	10.5076	0.433642	23.4706	0.707082	38.734
0.121697	6.38367	0.0283605	1.38446	0.301015	15.4464	0.510504	27.2271	0.572523	29.6269	0.84667	43.3783	0.179882	10.3825	0.435098	22.4189	0.707945	36.8981
0.127555	6.37916	0.0303567	1.41744	0.303014	14.8395	0.511143	25.9707	0.573819	28.3282	0.847462	41.4406	0.18074	10.3053	0.436618	21.4667	0.708849	35.2343
0.133398	6.37436	0.0323717	1.44851	0.305089	14.2891	0.511821	24.8297	0.57517	27.1463	0.848289	39.6736	0.181982	10.1982	0.438204	20.601	0.709796	33.7197
0.139226	6.36928	0.0344028	1.47779	0.307236	13.788	0.512541	23.7894	0.576576	26.0664	0.849152	38.0557	0.183346	10.0865	0.439853	19.8108	0.710783	32.3354
0.145037	6.36391	0.0361842	1.50192	0.309455	13.3302	0.513302	22.8372	0.578034	25.0761	0.85005	36.569	0.185221	9.94216	0.441565	19.0869	0.711811	31.0655
0.150832	6.35822	0.0377101	1.52155	0.311743	12.9106	0.514107	21.9626	0.579546	24.165	0.850985	35.1984	0.187627	9.77109	0.44334	18.4217	0.71288	29.8965
0.156607	6.35221	0.0389764	1.53715	0.314098	12.5249	0.514956	21.1567	0.58111	23.3241	0.851954	33.9309	0.190583	9.57978	0.445176	17.8086	0.71399	28.8171
0.162363	6.34587	0.0399804	1.5491	0.316519	12.1693	0.51585	20.4121	0.582725	22.5458	0.852959	32.7555	0.194115	9.37473	0.447072	17.2418	0.71514	27.8174
0.168098	6.33918	0.0407199	1.55767	0.319003	11.8407	0.516791	19.7223	0.58439	21.8236	0.854	31.6626	0.198248	9.16206	0.449028	16.7166	0.71633	26.8892
0.173811	6.33212	0.0411938	1.56306	0.321549	11.5362	0.517779	19.0815	0.586106	21.1517	0.855075	30.6439	0.20246	8.97046	0.451042	16.2287	0.71756	26.0252
0.1795	6.32469	0.0418758	1.57069	0.323817	11.2887	0.518817	18.4851	0.587872	20.5253	0.856185	29.6923	0.206746	8.79722	0.453114	15.7744	0.71883	25.2191
0.185163	6.31686	0.042618	1.57883	0.325785	11.0898	0.519904	17.9287	0.589686	19.94	0.857329	28.8014	0.211102	8.64002	0.455242	15.3506	0.720139	24.4653
0.190799	6.30862	0.0436289	1.58963	0.327437	10.933	0.521043	17.4086	0.591549	19.392	0.858509	27.9657	0.215522	8.49692	0.457427	14.9545	0.721487	23.7591
0.196406	6.29995	0.0449096	1.60287	0.328759	10.8138	0.522235	16.9217	0.59346	18.8781	0.859722	27.1803	0.220002	8.36625	0.459666	14.5835	0.722874	23.0961
0.201983	6.29082	0.0464615	1.61828	0.329739	10.7286	0.52348	16.465	0.595417	18.3952	0.86097	26.4409	0.224539	8.24659	0.461959	14.2354	0.724299	22.4727
0.207527	6.28123	0.0482856	1.63556	0.33037	10.6751	0.52478	16.0359	0.597421	17.9407	0.862252	25.7437	0.229128	8.13671	0.464306	13.9084	0.725763	21.8854
0.213037	6.27114	0.0503831	1.6544	0.331282	10.5998	0.526136	15.6323	0.599471	17.5123	0.863567	25.0852	0.233766	8.03555	0.466704	13.6007	0.727265	21.3314
0.218509	6.26054	0.0524843	1.67224	0.332281	10.5197	0.52755	15.2521	0.601566	17.1078	0.864916	24.4623	0.23845	7.9422	0.469153	13.3106	0.728804	20.8079
0.223943	6.24939	0.0545887	1.68914	0.333649	10.4138	0.529022	14.8935	0.603706	16.7255	0.866299	23.8723	0.243177	7.85585	0.471653	13.0369	0.730381	20.3126
0.229335	6.23769	0.0566954	1.70517	0.335399	10.2847	0.530554	14.5548	0.605891	16.3637	0.867715	23.3128	0.247943	7.77579	0.474201	12.7783	0.731995	19.8433
0.234683	6.22539	0.0588041	1.72038	0.337541	10.1353	0.532146	14.2347	0.608119	16.0207	0.869164	22.7815	0.252747	7.70141	0.476798	12.5336	0.733645	19.3982
0.239984	6.21248	0.0609143	1.73483	0.340091	9.96886	0.533801	13.9317	0.61039	15.6953	0.870646	22.2763	0.257585	7.63216	0.479442	12.3018	0.735333	18.9753
0.245236	6.19892	0.0630257	1.74857	0.343066	9.78874	0.535518	13.6448	0.612704	15.3862	0.872161	21.7955	0.262456	7.56756	0.482133	12.082	0.737056	18.5732
0.250436	6.1847	0.0651379	1.76163	0.346093	9.61937	0.537299	13.3727	0.615059	15.0922	0.873708	21.3374	0.267356	7.50718	0.484869	11.8734	0.738816	18.1905
0.25558	6.16977	0.0672506	1.77407	0.34917	9.45993	0.539146	13.1145	0.617457	14.8124	0.875287	20.9004	0.272284	7.45064	0.487649	11.6751	0.740611	17.8258
0.260666	6.15413	0.0693637	1.78592	0.352298	9.30967	0.541058	12.8694	0.619895	14.5458	0.876898	20.4832	0.277238	7.39761	0.490108	11.5102	0.742441	17.4779
0.26569	6.13774	0.0714768	1.79721	0.355476	9.16793	0.543038	12.6364	0.622374	14.2915	0.878542	20.0845	0.282216	7.34776	0.49223	11.3752	0.744306	17.1457
0.270649	6.12057	0.0735899	1.80799	0.358704	9.0341	0.545085	12.4149	0.624894	14.0488	0.880217	19.7031	0.287216	7.30084	0.494002	11.2671	0.746206	16.8283
0.275541	6.10261	0.0757028	1.81828	0.361982	8.90765	0.5472	12.2041	0.627452	13.8169	0.881923	19.338	0.292237	7.2566	0.495414	11.1839	0.74814	16.5247
0.280361	6.08382	0.0778155	1.82811	0.365311	8.78809	0.549385	12.0034	0.63005	13.5952	0.883661	18.9882	0.297276	7.21482	0.496459	11.1239	0.750108	16.2341
0.285106	6.06419	0.0799277	1.83751	0.368692	8.67497	0.55164	11.8122	0.632687	13.383	0.885429	18.6527	0.302332	7.17529	0.497131	11.086	0.75211	15.9557
0.289774	6.04371	0.0820395	1.84651	0.372124	8.56791	0.553662	11.653	0.635362	13.1799	0.887229	18.3309	0.307404	7.13783	0.498099	11.0323	0.754145	15.6888
0.294361	6.02236	0.0841507	1.85513	0.375609	8.46653	0.555429	11.5223	0.638074	12.9852	0.889059	18.0218	0.312491	7.10229	0.499157	10.9749	0.756214	15.4327
0.298865	6.00013	0.0862613	1.86338	0.379148	8.3705	0.556919	11.4176	0.640824	12.7985	0.890919	17.7247	0.31759	7.06851	0.500605	10.8983	0.758314	15.1868
0.303282	5.97701	0.0883713	1.8713	0.382741	8.27953	0.558117	11.337	0.643611	12.6193	0.89281	17.4391	0.322701	7.03636	0.502448	10.8038	0.760448	14.9506
0.307611	5.95301	0.0904807	1.8789	0.38639	8.19333	0.559008	11.2789	0.646435	12.4473	0.89473	17.1642	0.327823	7.0057	0.504698	10.693	0.762613	14.7234
0.311849	5.92814	0.0925893	1.88619	0.390096	8.11165	0.559583	11.2422	0.649294	12.282	0.89668	16.8996	0.332953	6.97644	0.507364	10.5677	0.76481	14.505
0.315994	5.90239	0.0946973	1.8932	0.39386	8.03427	0.560416	11.1901	0.652189	12.1231	0.89866	16.6446	0.338092	6.94846	0.510459	10.4298	0.767038	14.2946
0.320044	5.8758	0.0968046	1.89994	0.397683	7.96095	0.561331	11.1344	0.65512	11.9703	0.900669	16.3988	0.343237	6.92167	0.513591	10.2977	0.769297	14.092
0.324	5.84838	0.0989111	1.90643	0.401566	7.8915	0.56259	11.0601	0.657702	11.8418	0.902706	16.1618	0.348388	6.89598	0.516759	10.1713	0.771587	13.8968
0.327859	5.82015	0.101017	1.91267	0.40551	7.82572	0.564206	10.9684	0.659925	11.7356	0.904773	15.933	0.353544	6.87132	0.519964	10.05	0.773908	13.7086
0.331621	5.79116	0.103122	1.91868	0.409516	7.76344	0.566197	10.861	0.661776	11.6499	0.906868	15.7121	0.358704	6.8476	0.523203	9.93376	0.776258	13.527
0.335287	5.76144	0.105227	1.92448	0.413584	7.70448	0.568583	10.7395	0.66325	11.5836	0.908991	15.4987	0.363866	6.82476	0.526476	9.82216	0.778638	13.3517
0.338857	5.73104	0.10733	1.93006	0.417715	7.64868	0.571388	10.6059	0.664338	11.5356	0.911143	15.2925	0.369029	6.80273	0.529783	9.71499	0.781047	13.1824
0.342332	5.69999	0.109434	1.93546	0.421908	7.59587	0.574265	10.478	0.665037	11.5052	0.913322	15.093	0.374193	6.78145	0.533123	9.61202	0.783486	13.0188
0.345713	5.66835	0.111536	1.94066	0.426163	7.54591	0.577213	10.3558	0.666045	11.4619	0.915529	14.9001	0.379357	6.76088	0.536495	9.51301	0.785953	12.8607
0.349002	5.63618	0.113638	1.94569	0.430481	7.49865	0.580233	10.2388	0.667145	11.4154	0.917763	14.7133	0.38452	6.74096	0.539899	9.41778	0.788449	12.7078
0.3522	5.60351	0.115739	1.95055	0.434859	7.45395	0.583323	10.1269	0.668647	11.3532	0.920024	14.5325	0.38968	6.72163	0.543334	9.32612	0.790972	12.5599
0.35531	5.57042	0.117839	1.95525	0.439297	7.41166	0.586483	10.0197	0.670558	11.2761	0.922312	14.3574	0.394837	6.70287	0.546799	9.23787	0.793524	12.4167
0.358334	5.53694	0.119939	1.9598	0.443794	7.37165	0.589713	9.917	0.672886	11.1851	0.924627	14.1876	0.399991	6.68462	0.550294	9.15284	0.796103	12.278
0.361274	5.50314	0.122039	1.9642	0.448348	7.33379	0.593012	9.81863	0.67564	11.0813	0.926968	14.0231	0.405139	6.66685	0.553818	9.07089	0.798372	12.1608
0.364133	5.46908	0.124138	1.96846	0.452956	7.29795	0.596379	9.72436	0.678831	10.9661	0.929336	13.8635	0.410281	6.64953	0.557371	8.99186	0.800323	12.0633
0.366914	5.43479	0.126236	1.97259	0.457618	7.26401	0.599812	9.63399	0.682055	10.8548	0.931729	13.7087	0.415417	6.63261	0.560952	8.91563	0.801947	11.9844
0.369619	5.40034	0.128333	1.97659	0.46233	7.23186	0.603312	9.54733	0.68531	10.7472	0.934148	13.5584	0.420545	6.61606	0.564561	8.84205	0.803238	11.9231
0.372252	5.36577	0.130431	1.98047	0.467091	7.20138	0.606877	9.4642	0.688598	10.6433	0.936593	13.4125	0.425664	6.59987	0.568197	8.77101	0.804192	11.8785
0.374816	5.33112	0.132527	1.98423	0.471898	7.17246	0.610505	9.38443	0.691918	10.5428	0.939062	13.2708	0.430774	6.58399	0.57186	8.7024	0.804804	11.8503
0.377312	5.29645	0.134623	1.98789	0.476748	7.145	0.614196	9.30786	0.695268	10.4455	0.941557	13.1331	0.435874	6.5684	0.575549	8.6361	0.805686	11.8101
0.379745	5.26178	0.136719	1.99144	0.481639	7.11889	0.617949	9.23435	0.698651	10.3515	0.944076	12.9993	0.440963	6.55307	0.579265	8.57201	0.806648	11.7668
0.382117	5.22717	0.138814	1.99488	0.486568	7.09406	0.621761	9.16374	0.702064	10.2604	0.94662	12.8693	0.446039	6.53799	0.583006	8.51004	0.807961	11.7086
0.384431	5.19264	0.140909	1.99823	0.491533	7.0704	0.625633	9.09589	0.705509	10.1722	0.949189	12.7428	0.451103	6.52313	0.586772	8.4501	0.809631	11.6363
0.386402	5.16264	0.143004	2.00149	0.496531	7.04784	0.629561	9.03069	0.708984	10.0868	0.951781	12.6197	0.456153	6.50847	0.590564	8.3921	0.811664	11.5506
0.38805	5.13715	0.145097	2.00465	0.501559	7.0263	0.633546	8.96799	0.71249	10.0041	0.95406	12.5152	0.461188	6.49398	0.59438	8.33596	0.814066	11.4525
0.389391	5.11615	0.147191	2.00773	0.506616	7.0057	0.637585	8.90769	0.716026	9.92393	0.956016	12.4281	0.466208	6.47965	0.59822	8.28161	0.816845	11.3429
0.390438	5.09959	0.149284	2.01073	0.511699	6.98598	0.641677	8.84966	0.719593	9.84622	0.957644	12.3573	0.471211	6.46547	0.602085	8.22898	0.81965	11.2365
0.391201	5.08744	0.151377	2.01365	0.516806	6.96708	0.64582	8.79381	0.72319	9.77088	0.958937	12.3021	0.476196	6.4514	0.605974	8.17799	0.822479	11.1331
0.391686	5.07968	0.153469	2.01649	0.521934	6.94893	0.650014	8.74003	0.726818	9.69781	0.959891	12.262	0.481164	6.43744	0.609886	8.12858	0.825333	11.0326
0.392379	5.06854	0.155562	2.01926	0.527081	6.93147	0.654255	8.68821	0.730476	9.62695	0.960504	12.2366	0.486112	6.42358	0.613822	8.0807	0.82821	10.9349
0.393126	5.05646	0.157653	2.02196	0.532245	6.91467	0.658543	8.63828	0.734164	9.55819	0.961386	12.2002	0.49104	6.40978	0.617781	8.03428	0.831111	10.8398
0.394133	5.04008	0.159745	2.02459	0.537425	6.89846	0.662876	8.59014	0.737883	9.49147	0.962348	12.1611	0.495948	6.39605	0.621764	7.98926	0.834036	10.7474
0.395392	5.01944	0.161836	2.02716	0.542618	6.88281	0.667253	8.5437	0.741632	9.42672	0.963661	12.1084	0.500833	6.38237	0.625769	7.94561	0.836984	10.6574
0.396892	4.9946	0.163927	2.02966	0.547823	6.86767	0.671672	8.49889	0.745412	9.36387	0.965329	12.0428	0.505696	6.36872	0.629798	7.90326	0.839954	10.5698
0.398623	4.96565	0.166017	2.0321	0.553039	6.85301	0.67613	8.45562	0.749222	9.30286	0.967358	11.9648	0.510535	6.35509	0.633849	7.86218	0.842948	10.4846
0.400573	4.93269	0.168107	2.03448	0.558263	6.83879	0.680628	8.41383	0.753063	9.24361	0.969753	11.8752	0.515349	6.34148	0.637923	7.82231	0.845963	10.4015
0.402485	4.90001	0.170197	2.03681	0.563494	6.82497	0.685162	8.37344	0.756934	9.18608	0.972523	11.7747	0.520138	6.32786	0.642019	7.78362	0.849001	10.3207
0.404361	4.86764	0.172287	2.03908	0.56873	6.81153	0.689731	8.33439	0.760837	9.13021	0.975315	11.6768	0.524901	6.31423	0.646138	7.74606	0.852061	10.2419
0.406204	4.83559	0.174376	2.0413	0.573971	6.79844	0.694334	8.2966	0.764771	9.07594	0.978129	11.5813	0.529637	6.30059	0.65028	7.7096	0.855142	10.1651
0.408015	4.80386	0.176465	2.04347	0.579215	6.78567	0.698969	8.26003	0.768736	9.02323	0.980965	11.4882	0.534344	6.28691	0.654443	7.67419	0.858245	10.0902
0.409795	4.77247	0.178554	2.04559	0.584461	6.7732	0.703635	8.22461	0.772733	8.97203	0.983822	11.3973	0.539023	6.27319	0.658629	7.63981	0.861369	10.0172
0.411547	4.74143	0.180643	2.04766	0.589708	6.761	0.708329	8.19028	0.776762	8.92229	0.9867	11.3086	0.543672	6.25943	0.662838	7.60642	0.864514	9.94601
0.413271	4.71073	0.182731	2.04969	0.594954	6.74906	0.71305	8.15699	0.780824	8.87397	0.989599	11.222	0.548291	6.24561	0.667068	7.57398	0.86768	9.87657
0.41497	4.68039	0.18482	2.05167	0.600199	6.73735	0.717796	8.1247	0.784918	8.82704	0.992519	11.1374	0.552879	6.23173	0.67132	7.54248	0.870867	9.80881
0.416645	4.65041	0.186908	2.05361	0.605442	6.72585	0.722567	8.09334	0.789045	8.78144	0.99546	11.0548	0.557434	6.21778	0.675594	7.51186	0.874074	9.74269
0.418297	4.62079	0.188995	2.05551	0.610681	6.71456	0.727359	8.06288	0.793206	8.73715	0.998421	10.9741	0.561957	6.20376	0.67989	7.48212	0.8773	9.67816
0.419927	4.59154	0.191083	2.05736	0.615916	6.70345	0.732172	8.03326	0.7974	8.69413	1.0014	10.8953	0.566446	6.18965	0.684208	7.45322	0.880547	9.61515
0.421536	4.56266	0.19317	2.05918	0.621146	6.69251	0.737004	8.00445	0.801629	8.65234			0.570901	6.17546	0.688547	7.42513	0.883814	9.55362
0.423127	4.53415	0.195258	2.06096	0.626371	6.68172	0.741853	7.9764	0.805892	8.61175			0.575322	6.16118	0.692908	7.39783	0.8871	9.49354
0.424699	4.50601	0.197345	2.06271	0.631588	6.67108	0.746717	7.94907	0.810191	8.57234			0.579706	6.14681	0.697291	7.37129	0.890406	9.43484
0.426254	4.47824	0.199431	2.06441	0.636799	6.66057	0.751596	7.92243	0.814525	8.53407			0.584055	6.13234	0.701694	7.34549	0.893731	9.37749
0.427793	4.45084	0.201518	2.06609	0.642001	6.65018	0.756487	7.89644	0.818895	8.49692			0.588368	6.11777	0.706118	7.32041	0.897075	9.32145
0.429316	4.42381	0.203605	2.06773	0.647195	6.6399	0.761389	7.87106	0.823302	8.46085			0.592643	6.1031	0.710563	7.29602	0.900438	9.26668
0.430825	4.39715	0.205691	2.06934	0.652379	6.62971	0.766301	7.84627	0.827746	8.42585			0.59688	6.08832	0.715029	7.2723	0.903819	9.21314
0.432321	4.37085	0.207777	2.07091	0.657553	6.61962	0.771221	7.82202	0.832228	8.39188			0.60108	6.07344	0.719515	7.24923	0.907219	9.1608
0.433804	4.34492	0.209863	2.07246	0.662717	6.60961	0.776147	7.79829	0.836748	8.35892			0.605241	6.05845	0.724021	7.2268	0.910637	9.10961
0.435275	4.31934	0.211949	2.07398	0.66787	6.59967	0.781079	7.77506	0.841306	8.32696			0.609363	6.04335	0.728547	7.20496	0.914074	9.05955
0.436735	4.29413	0.214035	2.07547	0.67301	6.5898	0.786014	7.75229	0.845904	8.29596			0.613446	6.02814	0.733092	7.18372	0.917528	9.01059
0.438185	4.26927	0.21612	2.07692	0.678139	6.57999	0.790952	7.72996	0.85054	8.26591			0.61749	6.01283	0.737656	7.16305	0.921001	8.96268
0.439624	4.24477	0.218206	2.07836	0.683255	6.57023	0.795891	7.70804	0.855217	8.23677			0.621494	5.99741	0.742238	7.14292	0.924491	8.91581
0.441055	4.22061	0.220291	2.07976	0.688357	6.56052	0.80083	7.68652	0.859933	8.20854			0.625458	5.98188	0.746839	7.12333	0.927999	8.86994
0.442477	4.1968	0.222376	2.08114	0.693446	6.55085	0.805768	7.66537	0.86469	8.18118			0.629383	5.96625	0.751458	7.10426	0.931525	8.82505
0.44389	4.17333	0.224462	2.0825	0.69852	6.54121	0.810705	7.64457	0.869487	8.15468			0.633267	5.95052	0.756094	7.08568	0.935067	8.78111
0.445297	4.15019	0.226547	2.08383	0.703579	6.5316	0.815638	7.62411	0.874324	8.12902			0.637111	5.93468	0.760748	7.06757	0.938627	8.73808
0.446696	4.1274	0.228631	2.08514	0.708623	6.52202	0.820567	7.60397	0.879203	8.10418			0.640915	5.91875	0.765417	7.04993	0.942205	8.69596
0.448089	4.10493	0.230716	2.08642	0.713652	6.51245	0.825492	7.58413	0.884121	8.08012			0.644679	5.90272	0.770103	7.03274	0.945799	8.65471
0.449476	4.08279	0.232801	2.08768	0.718664	6.5029	0.830412	7.56457	0.889081	8.05684			0.648403	5.8866	0.774804	7.01597	0.949409	8.61431
0.450857	4.06097	0.234885	2.08892	0.72366	6.49336	0.835326	7.5453	0.894081	8.03432			0.652086	5.87038	0.77952	6.99962	0.953037	8.57473
0.452233	4.03946	0.23697	2.09014	0.728639	6.48383	0.840233	7.52629	0.899121	8.01253			0.65573	5.85408	0.78425	6.98367	0.956681	8.53597
0.453605	4.01827	0.239054	2.09134	0.7336	6.4743	0.845134	7.50753	0.9042	7.99144			0.659333	5.8377	0.788994	6.9681	0.960342	8.49798
0.454972	3.99739	0.241138	2.09252	0.738543	6.46478	0.850028	7.48902	0.90932	7.97105			0.662898	5.82124	0.793751	6.9529	0.964019	8.46077
0.456335	3.97681	0.243222	2.09367	0.743469	6.45524	0.854915	7.47075	0.914478	7.95133			0.666422	5.8047	0.79852	6.93806	0.967712	8.42429
0.457694	3.95653	0.245306	2.09481	0.748375	6.4457	0.859794	7.45271	0.919675	7.93225			0.669908	5.78808	0.803302	6.92356	0.971421	8.38855
0.459051	3.93655	0.24739	2.09593	0.753263	6.43615	0.864666	7.4349	0.924909	7.91381			0.673354	5.7714	0.808095	6.90939	0.975146	8.35351
0.460404	3.91686	0.249474	2.09703	0.758131	6.42659	0.86953	7.4173	0.930181	7.89597			0.676762	5.75466	0.812899	6.89553	0.978887	8.31916
0.461754	3.89746	0.251557	2.09812	0.76298	6.41701	0.874388	7.39993	0.935489	7.87872			0.680131	5.73785	0.817712	6.88197	0.982644	8.28548
0.463102	3.87834	0.253641	2.09918	0.767809	6.40741	0.879238	7.38276	0.940833	7.86203			0.683463	5.72099	0.822536	6.8687	0.986417	8.25246
0.464449	3.8595	0.255725	2.10023	0.772617	6.39779	0.884082	7.36581	0.946212	7.84589			0.686756	5.70407	0.827368	6.85572	0.990205	8.22008
0.465793	3.84093	0.257808	2.10126	0.777404	6.38815	0.888919	7.34906	0.951625	7.83028			0.690013	5.68711	0.832208	6.84299	0.994009	8.18832
0.467135	3.82263	0.259891	2.10228	0.782171	6.37849	0.893749	7.33252	0.957071	7.81518			0.693232	5.6701	0.837056	6.83053	0.997827	8.15717
0.468477	3.8046	0.261975	2.10328	0.786916	6.36879	0.898574	7.31618	0.962549	7.80057			0.696415	5.65305	0.84191	6.8183	1.00166	8.12662
0.469817	3.78683	0.264058	2.10427	0.791639	6.35907	0.903394	7.30004	0.968059	7.78643			0.699561	5.63597	0.846772	6.80632		
0.471156	3.76932	0.266141	2.10524	0.79634	6.34932	0.908209	7.28411	0.973599	7.77274			0.702672	5.61885	0.851638	6.79455		
0.472494	3.75206	0.268224	2.10619	0.80102	6.33953	0.913018	7.26837	0.979168	7.75949			0.705747	5.60171	0.85651	6.783		
0.473832	3.73505	0.270307	2.10713	0.805676	6.32971	0.917824	7.25284	0.984766	7.74665			0.708787	5.58454	0.861386	6.77165		
0.47517	3.71829	0.27239	2.10806	0.81031	6.31985	0.922626	7.2375	0.990392	7.73422			0.711793	5.56736	0.866267	6.7605		
0.476507	3.70176	0.274473	2.10897	0.814921	6.30996	0.927425	7.22236	0.996043	7.72217			0.714765	5.55015	0.87115	6.74953		
0.477844	3.68548	0.276555	2.10987	0.819508	6.30003	0.932222	7.20741	1.00172	7.71049			0.717703	5.53294	0.876036	6.73874		
0.479182	3.66943	0.278638	2.11076	0.824072	6.29007	0.937015	7.19266					0.720608	5.51572	0.880924	6.72812		
0.48052	3.6536	0.280721	2.11163	0.828612	6.28006	0.941807	7.17811					0.72348	5.49849	0.885813	6.71766		
0.481858	3.63801	0.282803	2.11249	0.833128	6.27001	0.946598	7.16375					0.72632	5.48126	0.890703	6.70736		
0.483197	3.62263	0.284886	2.11334	0.83762	6.25992	0.951387	7.14958					0.729129	5.46404	0.895593	6.6972		
0.484537	3.60748	0.286968	2.11417	0.842088	6.2498	0.956175	7.13561					0.731906	5.44682	0.900484	6.68717		
0.485877	3.59254	0.289051	2.115	0.846531	6.23962	0.960964	7.12182					0.734652	5.42961	0.905373	6.67728		
0.487219	3.57781	0.291133	2.11581	0.850949	6.22941	0.965752	7.10823					0.737368	5.41242	0.910261	6.66751		
0.488561	3.56329	0.293215	2.11661	0.855342	6.21915	0.97054	7.09482					0.740054	5.39524	0.915146	6.65787		
0.489905	3.54898	0.295297	2.1174	0.85971	6.20885	0.975329	7.0816					0.742711	5.37807	0.92003	6.64833		
0.49125	3.53486	0.29738	2.11818	0.864053	6.19851	0.980119	7.06856					0.745339	5.36094	0.92491	6.6389		
0.492597	3.52095	0.299462	2.11895	0.868371	6.18813	0.98491	7.0557					0.747939	5.34382	0.929787	6.62957		
0.493945	3.50723	0.301544	2.11971	0.872664	6.1777	0.989702	7.04302					0.75051	5.32674	0.934659	6.62033		
0.495294	3.4937	0.303626	2.12045	0.876931	6.16723	0.994495	7.03052					0.753054	5.30968	0.939528	6.61118		
0.496646	3.48035	0.305708	2.12119	0.881172	6.15672	0.99929	7.01819					0.755572	5.29266	0.944391	6.60212		
0.497999	3.4672	0.30779	2.12192	0.885387	6.14616	1.00409	7.00603					0.758062	5.27568	0.949248	6.59313		
0.499354	3.45422	0.309871	2.12264	0.889577	6.13556							0.760527	5.25874	0.9541	6.58422		
0.50071	3.44143	0.311953	2.12335	0.893741	6.12492							0.762966	5.24183	0.958945	6.57538		
0.502069	3.42881	0.314035	2.12405	0.89788	6.11425							0.765381	5.22497	0.963783	6.5666		
0.50343	3.41637	0.316117	2.12474	0.901992	6.10352							0.76777	5.20816	0.968614	6.55789		
0.504792	3.40409	0.318198	2.12542	0.906079	6.09277							0.770135	5.19139	0.973437	6.54923		
0.506157	3.39198	0.32028	2.12609	0.910139	6.08197							0.772477	5.17468	0.978251	6.54062		
0.507524	3.38004	0.322362	2.12675	0.914174	6.07113							0.774795	5.15802	0.983057	6.53207		
0.508894	3.36826	0.324443	2.12741	0.918183	6.06025							0.777091	5.14141	0.987854	6.52355		
0.510265	3.35664	0.326524	2.12806	0.922165	6.04934							0.779364	5.12486	0.992642	6.51508		
0.511639	3.34518	0.328606	2.1287	0.926122	6.03839							0.781615	5.10837	0.997419	6.50665		
0.513016	3.33387	0.330687	2.12933	0.930054	6.02741							0.783845	5.09193	1.00219	6.49825		
0.514395	3.32271	0.332769	2.12995	0.933959	6.01639							0.786054	5.07556				
0.515776	3.3117	0.33485	2.13057	0.937838	6.00534							0.788242	5.05925				
0.51716	3.30084	0.336931	2.13118	0.941692	5.99426							0.79041	5.04301				
0.518546	3.29013	0.339012	2.13178	0.945521	5.98314							0.792558	5.02683				
0.519935	3.27955	0.341094	2.13237	0.949323	5.97199							0.794686	5.01072				
0.521327	3.26912	0.343175	2.13296	0.9531	5.96082							0.796796	4.99468				
0.522721	3.25882	0.345256	2.13354	0.956852	5.94961							0.798887	4.97871				
0.524118	3.24866	0.347337	2.13411	0.960578	5.93838							0.800959	4.96281				
0.525517	3.23863	0.349418	2.13468	0.96428	5.92712							0.803014	4.94699				
0.52692	3.22873	0.351499	2.13524	0.967956	5.91584							0.805052	4.93124				
0.528325	3.21896	0.35358	2.13579	0.971607	5.90453							0.807072	4.91556				
0.529732	3.20932	0.355661	2.13634	0.975233	5.8932							0.809076	4.89996				
0.531143	3.19981	0.357742	2.13688	0.978834	5.88185							0.811063	4.88443				
0.532556	3.19041	0.359823	2.13741	0.98241	5.87047							0.813035	4.86899				
0.533972	3.18114	0.361904	2.13794	0.985962	5.85908							0.814991	4.85362				
0.535391	3.17199	0.363985	2.13847	0.989489	5.84766							0.816931	4.83833				
0.536813	3.16295	0.366065	2.13898	0.992992	5.83623							0.818857	4.82312				
0.538238	3.15403	0.368146	2.13949	0.996471	5.82478							0.820768	4.80799				
0.539665	3.14523	0.370227	2.14	0.999926	5.81331							0.822665	4.79294				
0.541095	3.13653	0.372307	2.1405	1.00336	5.80183							0.824548	4.77798				
0.542528	3.12794	0.374388	2.14099									0.826417	4.7631				
0.543964	3.11947	0.376469	2.14148									0.828273	4.74829				
0.545403	3.1111	0.378549	2.14196									0.830116	4.73358				
0.546845	3.10283	0.38063	2.14244									0.831946	4.71894				
0.54829	3.09467	0.382711	2.14291									0.833764	4.70439				
0.549738	3.08661	0.384791	2.14338									0.83557	4.68993				
0.551188	3.07865	0.386872	2.14384									0.837364	4.67555				
0.552641	3.07078	0.388952	2.1443									0.839147	4.66125				
0.554098	3.06302	0.391033	2.14476									0.840918	4.64704				
0.555557	3.05535	0.393113	2.1452									0.842678	4.63292				
0.557019	3.04777	0.395193	2.14565									0.844428	4.61888				
0.558484	3.04029	0.397274	2.14609									0.846167	4.60492				
0.559952	3.0329	0.399354	2.14652									0.847896	4.59105				
0.561423	3.0256	0.401434	2.14695									0.849616	4.57727				
0.562897	3.01838	0.403515	2.14738									0.851325	4.56357				
0.564373	3.01126	0.405595	2.1478									0.853025	4.54996				
0.565853	3.00422	0.407675	2.14822									0.854716	4.53644				
0.567335	2.99726	0.409755	2.14863									0.856398	4.523				
0.56882	2.99039	0.411836	2.14904									0.858071	4.50964				
0.570309	2.9836	0.413916	2.14944									0.859735	4.49637				
0.5718	2.97689	0.415996	2.14984									0.861392	4.48319				
0.573294	2.97026	0.418076	2.15024									0.86304	4.47009				
0.57479	2.96371	0.420156	2.15063									0.86468	4.45708				
0.57629	2.95723	0.422236	2.15102									0.866313	4.44415				
0.577792	2.95084	0.424317	2.15141									0.867938	4.43131				
0.579298	2.94451	0.426397	2.15179									0.869556	4.41855				
0.580806	2.93826	0.428477	2.15217									0.871167	4.40588				
0.582317	2.93209	0.430557	2.15254									0.872771	4.39329				
0.583831	2.92598	0.432637	2.15291									0.874368	4.38078				
0.585347	2.91995	0.434717	2.15328									0.875959	4.36836				
0.586867	2.91399	0.436797	2.15364									0.877543	4.35602				
0.588389	2.90809	0.438877	2.154									0.879121	4.34377				
0.589914	2.90226	0.440957	2.15436									0.880694	4.3316				
0.591442	2.8965	0.443036	2.15471									0.88226	4.31951				
0.592972	2.89081	0.445116	2.15506									0.883821	4.3075				
0.594505	2.88518	0.447196	2.15541									0.885376	4.29557				
0.596041	2.87961	0.449276	2.15575									0.886926	4.28373				
0.59758	2.87411	0.451356	2.1561									0.88847	4.27197				
0.599121	2.86867	0.453436	2.15643									0.89001	4.26028				
0.600666	2.86329	0.455515	2.15677									0.891545	4.24868				
0.602212	2.85797	0.457595	2.1571									0.893075	4.23716				
0.603762	2.85271	0.459675	2.15743									0.8946	4.22572				
0.605314	2.84751	0.461755	2.15775									0.896121	4.21435				
0.606869	2.84236	0.463835	2.15808									0.897637	4.20307				
0.608427	2.83728	0.465914	2.1584									0.899149	4.19186				
0.609987	2.83225	0.467994	2.15871									0.900658	4.18073				
0.61155	2.82727	0.470074	2.15903									0.902162	4.16968				
0.613115	2.82235	0.472153	2.15934									0.903662	4.15871				
0.614683	2.81749	0.474233	2.15965									0.905159	4.14781				
0.616254	2.81268	0.476313	2.15995									0.906652	4.13699				
0.617827	2.80792	0.478392	2.16026									0.908141	4.12625				
0.619403	2.80321	0.480472	2.16056									0.909627	4.11558				
0.620981	2.79855	0.482551	2.16086									0.91111	4.10498				
0.622562	2.79394	0.484631	2.16115									0.91259	4.09446				
0.624145	2.78939	0.486711	2.16145									0.914066	4.08401				
0.625731	2.78488	0.48879	2.16174									0.91554	4.07364				
0.62732	2.78042	0.49087	2.16202									0.917011	4.06334				
0.628911	2.77601	0.492949	2.16231									0.918479	4.05311				
0.630504	2.77164	0.495029	2.16259									0.919944	4.04296				
0.6321	2.76732	0.497108	2.16288									0.921407	4.03287				
0.633698	2.76305	0.499188	2.16315									0.922868	4.02286				
0.635299	2.75882	0.501267	2.16343									0.924325	4.01292				
0.636902	2.75464	0.503347	2.1637									0.925781	4.00304				
0.638508	2.7505	0.505426	2.16398									0.927234	3.99324				
0.640116	2.7464	0.507505	2.16425									0.928686	3.98351				
0.641726	2.74235	0.509585	2.16451									0.930135	3.97384				
0.643339	2.73834	0.511664	2.16478									0.931582	3.96425				
0.644954	2.73437	0.513744	2.16504									0.933028	3.95472				
0.646572	2.73044	0.515823	2.1653									0.934471	3.94526				
0.648192	2.72656	0.517902	2.16556									0.935913	3.93586				
0.649814	2.72271	0.519982	2.16582									0.937353	3.92653				
0.651438	2.7189	0.522061	2.16607									0.938792	3.91727				
0.653065	2.71513	0.52414	2.16633									0.940229	3.90807				
0.654694	2.7114	0.52622	2.16658									0.941664	3.89894				
0.656326	2.70771	0.528299	2.16683									0.943098	3.88987				
0.657959	2.70406	0.530378	2.16708									0.944531	3.88087				
0.659595	2.70044	0.532458	2.16732									0.945963	3.87193				
0.661233	2.69686	0.534537	2.16756									0.947393	3.86305				
0.662874	2.69332	0.536616	2.1678									0.948822	3.85424				
0.664516	2.68981	0.538695	2.16804									0.950251	3.84548				
0.666161	2.68634	0.540775	2.16828									0.951678	3.83679				
0.667808	2.6829	0.542854	2.16852									0.953104	3.82816				
0.669457	2.67949	0.544933	2.16875									0.954529	3.8196				
0.671108	2.67612	0.547012	2.16898									0.955954	3.81109				
0.672762	2.67279	0.549091	2.16921									0.957377	3.80264				
0.674417	2.66948	0.551171	2.16944									0.9588	3.79425				
0.676075	2.66621	0.55325	2.16967									0.960222	3.78592				
0.677735	2.66297	0.555329	2.1699									0.961644	3.77765				
0.679397	2.65977	0.557408	2.17012									0.963065	3.76943				
0.681061	2.65659	0.559487	2.17034									0.964485	3.76127				
0.682727	2.65345	0.561566	2.17056									0.965905	3.75317				
0.684395	2.65033	0.563645	2.17078									0.967324	3.74513				
0.686065	2.64725	0.565725	2.171									0.968743	3.73714				
0.687738	2.6442	0.567804	2.17121									0.970162	3.72921				
0.689412	2.64117	0.569883	2.17143									0.97158	3.72134				
0.691088	2.63818	0.571962	2.17164									0.972998	3.71352				
0.692766	2.63521	0.574041	2.17185									0.974416	3.70575				
0.694447	2.63227	0.57612	2.17206									0.975833	3.69804				
0.696129	2.62936	0.578199	2.17227									0.977251	3.69038				
0.697813	2.62648	0.580278	2.17248									0.978668	3.68277				
0.699499	2.62363	0.582357	2.17268									0.980085	3.67522				
0.701187	2.6208	0.584436	2.17288									0.981502	3.66772				
0.702878	2.618	0.586515	2.17309									0.982919	3.66027				
0.70457	2.61523	0.588594	2.17329									0.984336	3.65288				
0.706263	2.61248	0.590673	2.17349									0.985754	3.64553				
0.707959	2.60976	0.592752	2.17368									0.987171	3.63824				
0.709657	2.60706	0.594831	2.17388									0.988588	3.63099				
0.711356	2.60439	0.59691	2.17408									0.990006	3.6238				
0.713058	2.60175	0.598989	2.17427									0.991423	3.61665				
0.714761	2.59913	0.601068	2.17446									0.992841	3.60956				
0.716466	2.59653	0.603147	2.17465									0.994259	3.60251				
0.718173	2.59396	0.605226	2.17484									0.995677	3.59551				
0.719882	2.59141	0.607305	2.17503									0.997096	3.58856				
0.721593	2.58888	0.609384	2.17522									0.998515	3.58166				
0.723305	2.58638	0.611462	2.1754									0.999934	3.5748				
0.725019	2.5839	0.613541	2.17559									1.00135	3.56799				
0.726735	2.58145	0.61562	2.17577														
0.728453	2.57901	0.617699	2.17595														
0.730172	2.5766	0.619778	2.17613														
0.731893	2.57421	0.621857	2.17631														
0.733616	2.57184	0.623936	2.17649														
0.735341	2.5695	0.626015	2.17667														
0.737067	2.56717	0.628093	2.17685														
0.738795	2.56487	0.630172	2.17702														
0.740525	2.56258	0.632251	2.1772														
0.742256	2.56032	0.63433	2.17737														
0.743989	2.55808	0.636409	2.17754														
0.745724	2.55585	0.638487	2.17771														
0.74746	2.55365	0.640566	2.17788														
0.749198	2.55147	0.642645	2.17805														
0.750938	2.5493	0.644724	2.17822														
0.752679	2.54716	0.646802	2.17838														
0.754422	2.54503	0.648881	2.17855														
0.756167	2.54292	0.65096	2.17871														
0.757913	2.54083	0.653039	2.17887														
0.75966	2.53876	0.655117	2.17904														
0.761409	2.53671	0.657196	2.1792														
0.76316	2.53468	0.659275	2.17936														
0.764913	2.53266	0.661354	2.17952														
0.766666	2.53066	0.663432	2.17967														
0.768422	2.52868	0.665511	2.17983														
0.770179	2.52671	0.66759	2.17999														
0.771937	2.52476	0.669668	2.18014														
0.773697	2.52283	0.671747	2.18029														
0.775458	2.52092	0.673826	2.18045														
0.777221	2.51902	0.675904	2.1806														
0.778986	2.51713	0.677983	2.18075														
0.780751	2.51527	0.680062	2.1809														
0.782519	2.51342	0.68214	2.18105														
0.784288	2.51158	0.684219	2.1812														
0.786058	2.50976	0.686297	2.18135														
0.787829	2.50796	0.688376	2.18149														
0.789602	2.50617	0.690455	2.18164														
0.791377	2.5044	0.692533	2.18178														
0.793153	2.50264	0.694612	2.18193														
0.79493	2.50089	0.69669	2.18207														
0.796709	2.49916	0.698769	2.18221														
0.798489	2.49745	0.700848	2.18235														
0.80027	2.49575	0.702926	2.1825														
0.802053	2.49406	0.705005	2.18263														
0.803837	2.49239	0.707083	2.18277														
0.805622	2.49073	0.709162	2.18291														
0.807409	2.48908	0.71124	2.18305														
0.809197	2.48745	0.713319	2.18319														
0.810986	2.48583	0.715397	2.18332														
0.812777	2.48422	0.717476	2.18346														
0.814569	2.48263	0.719554	2.18359														
0.816363	2.48105	0.721633	2.18372														
0.818157	2.47949	0.723711	2.18386														
0.819953	2.47793	0.72579	2.18399														
0.82175	2.47639	0.727868	2.18412														
0.823549	2.47486	0.729947	2.18425														
0.825349	2.47335	0.732025	2.18438														
0.827149	2.47184	0.734104	2.18451														
0.828952	2.47035	0.736182	2.18464														
0.830755	2.46887	0.738261	2.18476														
0.83256	2.4674	0.740339	2.18489														
0.834366	2.46594	0.742418	2.18502														
0.836173	2.4645	0.744496	2.18514														
0.837981	2.46306	0.746575	2.18527														
0.839791	2.46164	0.748653	2.18539														
0.841601	2.46023	0.750731	2.18551														
0.843413	2.45883	0.75281	2.18564														
0.845226	2.45744	0.754888	2.18576														
0.84704	2.45606	0.756967	2.18588														
0.848856	2.45469	0.759045	2.186														
0.850672	2.45334	0.761123	2.18612														
0.85249	2.45199	0.763202	2.18624														
0.854309	2.45065	0.76528	2.18636														
0.856129	2.44933	0.767359	2.18647														
0.85795	2.44801	0.769437	2.18659														
0.859772	2.44671	0.771515	2.18671														
0.861595	2.44541	0.773594	2.18682														
0.86342	2.44413	0.775672	2.18694														
0.865245	2.44285	0.77775	2.18705														
0.867072	2.44159	0.779829	2.18717														
0.8689	2.44033	0.781907	2.18728														
0.870729	2.43909	0.783985	2.18739														
0.872559	2.43785	0.786064	2.18751														
0.874389	2.43662	0.788142	2.18762														
0.876221	2.43541	0.79022	2.18773														
0.878055	2.4342	0.792299	2.18784														
0.879889	2.433	0.794377	2.18795														
0.881724	2.43181	0.796455	2.18806														
0.88356	2.43063	0.798534	2.18817														
0.885397	2.42945	0.800612	2.18828														
0.887236	2.42829	0.80269	2.18838														
0.889075	2.42713	0.804768	2.18849														
0.890915	2.42599	0.806847	2.1886														
0.892757	2.42485	0.808925	2.1887														
0.894599	2.42372	0.811003	2.18881														
0.896442	2.4226	0.813081	2.18891														
0.898286	2.42149	0.81516	2.18902														
0.900132	2.42038	0.817238	2.18912														
0.901978	2.41928	0.819316	2.18922														
0.903825	2.4182	0.821394	2.18933														
0.905673	2.41712	0.823473	2.18943														
0.907523	2.41604	0.825551	2.18953														
0.909373	2.41498	0.827629	2.18963														
0.911224	2.41392	0.829707	2.18973														
0.913076	2.41287	0.831786	2.18983														
0.914929	2.41183	0.833864	2.18993														
0.916783	2.4108	0.835942	2.19003														
0.918637	2.40977	0.83802	2.19013														
0.920493	2.40875	0.840098	2.19023														
0.92235	2.40774	0.842177	2.19033														
0.924207	2.40674	0.844255	2.19042														
0.926066	2.40574	0.846333	2.19052														
0.927925	2.40475	0.848411	2.19062														
0.929786	2.40377	0.850489	2.19071														
0.931647	2.40279	0.852567	2.19081														
0.933509	2.40182	0.854646	2.1909														
0.935372	2.40086	0.856724	2.191														
0.937236	2.3999	0.858802	2.19109														
0.9391	2.39895	0.86088	2.19118														
0.940966	2.39801	0.862958	2.19128														
0.942832	2.39708	0.865036	2.19137														
0.9447	2.39615	0.867114	2.19146														
0.946568	2.39523	0.869192	2.19155														
0.948437	2.39431	0.871271	2.19164														
0.950307	2.3934	0.873349	2.19174														
0.952177	2.3925	0.875427	2.19183														
0.954049	2.3916	0.877505	2.19192														
0.955921	2.39071	0.879583	2.19201														
0.957794	2.38983	0.881661	2.19209														
0.959668	2.38895	0.883739	2.19218														
0.961543	2.38808	0.885817	2.19227														
0.963419	2.38721	0.887895	2.19236														
0.965295	2.38636	0.889973	2.19245														
0.967172	2.3855	0.892051	2.19253														
0.96905	2.38465	0.89413	2.19262														
0.970929	2.38381	0.896208	2.19271														
0.972809	2.38298	0.898286	2.19279														
0.974689	2.38214	0.900364	2.19288														
0.97657	2.38132	0.902442	2.19296														
0.978452	2.3805	0.90452	2.19305														
0.980335	2.37969	0.906598	2.19313														
0.982218	2.37888	0.908676	2.19321														
0.984102	2.37808	0.910754	2.1933														
0.985987	2.37728	0.912832	2.19338														
0.987873	2.37649	0.91491	2.19346														
0.98976	2.3757	0.916988	2.19355														
0.991647	2.37492	0.919066	2.19363														
0.993535	2.37414	0.921144	2.19371														
0.995423	2.37337	0.923222	2.19379														
0.997313	2.37261	0.9253	2.19387														
0.999203	2.37185	0.927378	2.19395														
1.00109	2.37109	0.929456	2.19403														
		0.931534	2.19411														
		0.933612	2.19419														
		0.93569	2.19427														
		0.937768	2.19435														
		0.939846	2.19443														
		0.941924	2.1945														
		0.944002	2.19458														
		0.94608	2.19466														
		0.948158	2.19474														
		0.950236	2.19481														
		0.952313	2.19489														
		0.954391	2.19496														
		0.956469	2.19504														
		0.958547	2.19511														
		0.960625	2.19519														
		0.962703	2.19526														
		0.964781	2.19534														
		0.966859	2.19541														
		0.968937	2.19549														
		0.971015	2.19556														
		0.973093	2.19563														
		0.97517	2.1957														
		0.977248	2.19578														
		0.979326	2.19585														
		0.981404	2.19592														
		0.983482	2.19599														
		0.98556	2.19606														
		0.987638	2.19613														
		0.989716	2.1962														
		0.991793	2.19627														
		0.993871	2.19634														
		0.995949	2.19641														
		0.998027	2.19648														
		1.0001	2.19655														
