Sym0		Asym0		Sym1		Sym2		Sym3		Sym4		Asym1		Asym2		Asym3	
463  Points		495  Points		219  Points		189  Points		177  Points		123  Points		318  Points		201  Points		163  Points	
Freq (MHz)	Vph (m/ms)	Freq (MHz)	Vph (m/ms)	Freq (MHz)	Vph (m/ms)	Freq (MHz)	Vph (m/ms)	Freq (MHz)	Vph (m/ms)	Freq (MHz)	Vph (m/ms)	Freq (MHz)	Vph (m/ms)	Freq (MHz)	Vph (m/ms)	Freq (MHz)	Vph (m/ms)
0.00410618	5.4174	0.000489656	0.195685	0.279521	514.176	0.4872	1148.3	0.559021	1484.88	0.838528	2094.61	0.139854	151.213	0.419269	902.021	0.698781	950.663
0.00915344	5.41734	0.00091798	0.267324	0.279598	189.517	0.487218	359.312	0.559062	427.361	0.838553	629.534	0.140157	75.4923	0.419322	300.265	0.69882	419.274
0.0142002	5.41714	0.00147502	0.337869	0.279748	116.222	0.487254	212.992	0.559148	249.635	0.838604	370.454	0.140661	50.4474	0.419428	180.151	0.698891	268.966
0.0192464	5.41686	0.00215629	0.407051	0.279968	83.8552	0.48731	151.368	0.559279	176.342	0.838682	262.464	0.141362	38.001	0.419587	128.712	0.698992	198.007
0.0242917	5.41651	0.00295651	0.474633	0.28026	65.6285	0.487384	117.412	0.559456	136.344	0.838786	203.238	0.142257	30.582	0.419799	100.153	0.699124	156.69
0.0293359	5.41609	0.00387001	0.540448	0.280623	53.9442	0.487478	95.9082	0.559677	111.158	0.838916	165.833	0.14334	25.6728	0.420064	81.9911	0.699287	129.653
0.0343788	5.41557	0.00489052	0.604333	0.281057	45.821	0.48759	81.0698	0.559943	93.8456	0.839074	140.067	0.144606	22.1957	0.420381	69.4273	0.69948	110.586
0.0394201	5.41497	0.00601137	0.666144	0.28156	39.85	0.487722	70.2148	0.560255	81.2159	0.839257	121.242	0.146047	19.6122	0.420751	60.2219	0.699704	96.419
0.0444596	5.4143	0.00722603	0.725809	0.282133	35.2791	0.487874	61.9299	0.56061	71.5974	0.839468	106.886	0.147657	17.6235	0.421173	53.1894	0.699958	85.4795
0.0494971	5.41354	0.00852772	0.783256	0.282776	31.6698	0.488045	55.3997	0.561011	64.0297	0.839704	95.5775	0.149429	16.0501	0.421647	47.6434	0.700243	76.7785
0.0545323	5.41268	0.00990986	0.838453	0.283486	28.7495	0.488237	50.1207	0.561455	57.9212	0.839967	86.4406	0.151354	14.778	0.422174	43.1593	0.700559	69.6935
0.0595649	5.41174	0.0113659	0.891383	0.284265	26.3396	0.488449	45.7652	0.561943	52.8882	0.840256	78.9049	0.153424	13.7311	0.422752	39.4599	0.700905	63.8133
0.0645947	5.41072	0.0128898	0.942058	0.28511	24.3186	0.488681	42.1109	0.562476	48.6705	0.840572	72.5841	0.155633	12.8567	0.423382	36.3569	0.701282	58.8552
0.0696215	5.40959	0.0144756	0.990506	0.286022	22.6003	0.488935	39.0015	0.563052	45.0856	0.840914	67.2067	0.157973	12.1174	0.424063	33.7177	0.701689	54.6185
0.0746449	5.40839	0.0161176	1.03677	0.286999	21.1225	0.48921	36.3239	0.56367	42.0016	0.841282	62.5765	0.160437	11.4855	0.424795	31.4464	0.702126	50.9571
0.0796646	5.40708	0.0178108	1.08091	0.28804	19.8387	0.489507	33.9942	0.564332	39.3211	0.841677	58.5484	0.162679	11.0063	0.425577	29.4716	0.702594	47.7615
0.0846805	5.40569	0.0195503	1.12297	0.289145	18.714	0.489826	31.9492	0.565037	36.9702	0.842097	55.0123	0.164656	10.6418	0.42641	27.7395	0.703091	44.9485
0.0896921	5.40419	0.0213315	1.16304	0.290312	17.7209	0.490167	30.1399	0.565784	34.892	0.842544	51.8835	0.166336	10.3669	0.427293	26.2085	0.703619	42.4535
0.0946992	5.40259	0.0231502	1.20119	0.291541	16.8383	0.490532	28.528	0.566573	33.0421	0.843017	49.0959	0.167691	10.1647	0.428226	24.8458	0.704177	40.2259
0.0997014	5.40089	0.0250028	1.23749	0.29283	16.0491	0.49092	27.083	0.567404	31.3853	0.843516	46.5966	0.168703	10.0238	0.429208	23.6257	0.704764	38.225
0.104698	5.39909	0.0268857	1.27202	0.294178	15.3397	0.491333	25.7807	0.568276	29.8929	0.844041	44.3433	0.169357	9.93691	0.430239	22.5271	0.705382	36.4182
0.10969	5.39717	0.0287957	1.30487	0.295585	14.699	0.49177	24.6009	0.569189	28.5421	0.844592	42.3017	0.170306	9.81626	0.431318	21.5332	0.706029	34.7787
0.114675	5.39515	0.03073	1.33611	0.297048	14.1176	0.492232	23.5275	0.570143	27.3139	0.845169	40.4433	0.171348	9.6905	0.432445	20.6299	0.706706	33.2844
0.119655	5.39302	0.0326859	1.36583	0.298568	13.5882	0.492719	22.5467	0.571137	26.1924	0.845771	38.7447	0.172785	9.52791	0.43362	19.8056	0.707412	31.9171
0.124627	5.39076	0.0346612	1.39409	0.300142	13.1042	0.493233	21.6473	0.572171	25.1646	0.846399	37.1864	0.174632	9.33514	0.434842	19.0507	0.708148	30.6614
0.129593	5.38839	0.0366536	1.42098	0.301769	12.6602	0.493774	20.8197	0.573244	24.2194	0.847053	35.7517	0.176909	9.11945	0.436111	18.357	0.708913	29.5043
0.13455	5.38588	0.0386613	1.44656	0.303449	12.2518	0.494341	20.0558	0.574357	23.3473	0.847733	34.4265	0.179637	8.88809	0.437426	17.7175	0.709707	28.4348
0.1395	5.38325	0.0406825	1.47091	0.30518	11.875	0.494937	19.3486	0.575508	22.5405	0.848438	33.199	0.18284	8.64793	0.438787	17.1264	0.710531	27.4434
0.144441	5.38049	0.0427156	1.49409	0.306961	11.5264	0.495562	18.6922	0.576698	21.7919	0.849169	32.0589	0.186117	8.43136	0.440193	16.5784	0.711383	26.5219
0.149374	5.37758	0.044496	1.51338	0.30879	11.2032	0.496215	18.0814	0.577926	21.0956	0.849924	30.9971	0.189462	8.23532	0.441644	16.0691	0.712264	25.6633
0.154297	5.37454	0.0460194	1.5292	0.310423	10.9401	0.496899	17.5118	0.579191	20.4464	0.850706	30.006	0.192873	8.05726	0.443139	15.5949	0.713174	24.8615
0.159209	5.37134	0.0472828	1.54186	0.311843	10.7285	0.497613	16.9794	0.580494	19.8398	0.851512	29.0789	0.196344	7.89499	0.444678	15.1522	0.714112	24.1111
0.164111	5.36799	0.0482838	1.5516	0.313036	10.5616	0.498358	16.4809	0.581834	19.2719	0.852344	28.2097	0.199873	7.74668	0.44626	14.7382	0.715079	23.4074
0.169002	5.36447	0.049021	1.55863	0.313991	10.4345	0.499134	16.0132	0.583209	18.7392	0.8532	27.3934	0.203457	7.61074	0.447884	14.3503	0.716074	22.7462
0.17388	5.36079	0.0494933	1.56306	0.314701	10.3437	0.499944	15.5736	0.584621	18.2386	0.854082	26.6252	0.207092	7.48582	0.449551	13.9862	0.717097	22.124
0.178746	5.35693	0.0501728	1.56935	0.315157	10.2867	0.500786	15.1599	0.586069	17.7673	0.854989	25.9012	0.210775	7.37072	0.451259	13.6439	0.718149	21.5373
0.183599	5.35289	0.0509123	1.57608	0.315818	10.2063	0.501662	14.7699	0.587552	17.323	0.85592	25.2176	0.214504	7.26444	0.453009	13.3215	0.719228	20.9834
0.188437	5.34866	0.0519191	1.58504	0.316541	10.1208	0.502573	14.4016	0.58907	16.9034	0.856876	24.5713	0.218276	7.16608	0.454798	13.0175	0.720334	20.4595
0.19326	5.34423	0.0531946	1.59609	0.317534	10.0078	0.503519	14.0535	0.590622	16.5066	0.857857	23.9593	0.222089	7.07486	0.456628	12.7304	0.721469	19.9635
0.198067	5.33959	0.0547397	1.60904	0.318803	9.86973	0.504501	13.724	0.592209	16.131	0.858862	23.379	0.225941	6.99009	0.458497	12.4589	0.72263	19.4931
0.202858	5.33474	0.0565556	1.62366	0.32036	9.70986	0.50552	13.4118	0.593829	15.7748	0.859891	22.8281	0.229829	6.91116	0.460405	12.2018	0.723819	19.0464
0.20763	5.32966	0.0586434	1.63974	0.322214	9.53151	0.506576	13.1157	0.595483	15.4366	0.860945	22.3044	0.233751	6.83755	0.462351	11.9581	0.725035	18.6219
0.212383	5.32434	0.060735	1.65511	0.324379	9.3382	0.50767	12.8344	0.59717	15.1153	0.862023	21.806	0.237706	6.76877	0.464335	11.7268	0.726277	18.2179
0.217117	5.31877	0.0628297	1.6698	0.326584	9.15608	0.508803	12.567	0.598889	14.8096	0.863125	21.3311	0.241692	6.7044	0.466356	11.5071	0.727547	17.8329
0.221829	5.31295	0.0649272	1.68385	0.328826	8.98427	0.509975	12.3126	0.600641	14.5184	0.864251	20.8782	0.245707	6.64407	0.468413	11.2981	0.728843	17.4658
0.226519	5.30685	0.067027	1.69729	0.331106	8.82199	0.511188	12.0704	0.602424	14.2408	0.865401	20.4458	0.24975	6.58742	0.470235	11.1242	0.730165	17.1154
0.231185	5.30046	0.0691287	1.71017	0.333422	8.66852	0.512441	11.8395	0.60424	13.9759	0.866575	20.0326	0.253819	6.53417	0.47181	10.9817	0.731514	16.7805
0.235825	5.29378	0.071232	1.7225	0.335774	8.52321	0.513736	11.6193	0.606086	13.7229	0.867772	19.6373	0.257912	6.48403	0.473127	10.8675	0.732888	16.4603
0.240439	5.28678	0.0733368	1.73432	0.338161	8.38548	0.515073	11.4091	0.607963	13.481	0.868993	19.2589	0.262029	6.43676	0.474177	10.7796	0.734288	16.1537
0.245025	5.27945	0.0754426	1.74566	0.340583	8.25481	0.516273	11.2337	0.609871	13.2496	0.870237	18.8963	0.266168	6.39214	0.474955	10.7162	0.735714	15.86
0.249581	5.27179	0.0775492	1.75653	0.343038	8.13071	0.517322	11.0895	0.611809	13.028	0.871504	18.5485	0.270328	6.34995	0.475455	10.6762	0.737165	15.5784
0.254105	5.26376	0.0796564	1.76697	0.345527	8.01276	0.518208	10.9739	0.613777	12.8156	0.872795	18.2148	0.274507	6.31003	0.476176	10.6194	0.738642	15.3082
0.258596	5.25536	0.0817642	1.777	0.348049	7.90054	0.51892	10.8846	0.615775	12.612	0.874109	17.8943	0.278706	6.2722	0.476965	10.5587	0.740144	15.0487
0.263051	5.24656	0.0838724	1.78664	0.350604	7.79371	0.519451	10.8202	0.617801	12.4165	0.875446	17.5862	0.282921	6.23631	0.478045	10.4776	0.74167	14.7994
0.267469	5.23736	0.0859806	1.79591	0.353192	7.69193	0.519793	10.7796	0.619857	12.2289	0.876805	17.2899	0.287153	6.20222	0.479421	10.3776	0.743221	14.5597
0.271848	5.22773	0.088089	1.80483	0.355812	7.59489	0.520289	10.7218	0.621941	12.0485	0.878187	17.0048	0.291401	6.16981	0.481103	10.2603	0.744797	14.329
0.276186	5.21766	0.0901974	1.81341	0.358466	7.50233	0.520835	10.6599	0.624053	11.8751	0.879592	16.7302	0.295663	6.13895	0.483098	10.1275	0.746397	14.1069
0.280479	5.20712	0.0923057	1.82167	0.361152	7.414	0.521585	10.5773	0.626193	11.7082	0.88102	16.4655	0.299939	6.10955	0.485418	9.98116	0.748021	13.893
0.284727	5.19611	0.0944137	1.82963	0.363873	7.32965	0.52255	10.4753	0.628361	11.5476	0.882469	16.2103	0.304228	6.0815	0.48777	9.84099	0.749669	13.6868
0.288927	5.1846	0.0965216	1.83731	0.366627	7.24908	0.52374	10.3555	0.630272	11.4125	0.883941	15.9642	0.308529	6.05471	0.490153	9.70661	0.751341	13.4878
0.293077	5.17258	0.0986291	1.84471	0.369415	7.17209	0.525168	10.2197	0.631918	11.3006	0.885435	15.7265	0.312842	6.0291	0.492567	9.57769	0.753036	13.2959
0.297174	5.16004	0.100736	1.85185	0.372239	7.09851	0.526851	10.0698	0.633289	11.2104	0.88695	15.497	0.317164	6.00459	0.49501	9.45394	0.754755	13.1106
0.301215	5.14695	0.102843	1.85874	0.375099	7.02818	0.528581	9.92614	0.634381	11.1405	0.888488	15.2752	0.321497	5.98112	0.497484	9.33507	0.756497	12.9315
0.3052	5.13332	0.104949	1.8654	0.377996	6.96093	0.530359	9.78827	0.635188	11.0899	0.890047	15.0608	0.325839	5.95861	0.499986	9.22082	0.758261	12.7585
0.309125	5.11912	0.107055	1.87183	0.38093	6.89664	0.532185	9.65593	0.635706	11.0578	0.891628	14.8533	0.330189	5.93701	0.502517	9.11095	0.760049	12.5912
0.312989	5.10435	0.109161	1.87805	0.383904	6.83518	0.534059	9.52886	0.636453	11.0122	0.89323	14.6526	0.334547	5.91626	0.505077	9.00524	0.761859	12.4293
0.316789	5.089	0.111266	1.88407	0.386917	6.77643	0.535982	9.4068	0.637268	10.9631	0.894853	14.4583	0.338912	5.8963	0.507663	8.90346	0.763691	12.2727
0.320524	5.07307	0.11337	1.88988	0.389972	6.72028	0.537955	9.28952	0.638383	10.8975	0.896498	14.27	0.343284	5.87709	0.510277	8.80542	0.765545	12.121
0.324192	5.05656	0.115474	1.89552	0.39307	6.66662	0.539977	9.17679	0.639801	10.816	0.898163	14.0876	0.347661	5.85858	0.512918	8.71094	0.767422	11.9741
0.327792	5.03947	0.117577	1.90097	0.396211	6.61537	0.542048	9.0684	0.641528	10.7198	0.89985	13.9108	0.352044	5.84074	0.515585	8.61984	0.76932	11.8317
0.331322	5.02181	0.11968	1.90625	0.399398	6.56642	0.544169	8.96416	0.643573	10.61	0.901557	13.7393	0.356431	5.82351	0.518278	8.53195	0.770991	11.7112
0.334781	5.00358	0.121783	1.91137	0.402631	6.5197	0.54634	8.86388	0.645943	10.488	0.903284	13.5729	0.360823	5.80686	0.520996	8.44714	0.772429	11.6109
0.337738	4.98725	0.123884	1.91634	0.405911	6.47513	0.548561	8.76739	0.648337	10.37	0.905032	13.4114	0.365218	5.79077	0.523738	8.36524	0.773626	11.5297
0.340215	4.97301	0.125986	1.92116	0.409239	6.43262	0.550832	8.67451	0.650757	10.2559	0.906801	13.2546	0.369616	5.77519	0.526505	8.28613	0.774579	11.4666
0.342234	4.96101	0.128086	1.92583	0.412617	6.3921	0.553152	8.58509	0.653201	10.1454	0.908589	13.1023	0.374016	5.76009	0.529297	8.20968	0.775283	11.4208
0.34381	4.95139	0.130187	1.93037	0.416045	6.35351	0.555523	8.49899	0.655669	10.0385	0.910398	12.9543	0.378419	5.74545	0.532111	8.13577	0.775735	11.3917
0.344959	4.94423	0.132286	1.93477	0.419524	6.31675	0.557943	8.41605	0.658161	9.93492	0.912226	12.8105	0.382822	5.73124	0.534949	8.06428	0.776386	11.3502
0.345689	4.93962	0.134385	1.93905	0.423053	6.28178	0.560412	8.33614	0.660677	9.83458	0.914075	12.6707	0.387227	5.71744	0.53781	7.99511	0.777096	11.3056
0.346732	4.93295	0.136484	1.94321	0.426634	6.2485	0.562931	8.25915	0.663216	9.73733	0.915943	12.5347	0.391632	5.70401	0.540693	7.92816	0.778067	11.2457
0.347857	4.92564	0.138582	1.94725	0.430266	6.21686	0.565499	8.18493	0.665779	9.64304	0.91783	12.4024	0.396038	5.69095	0.543598	7.86333	0.779301	11.1711
0.349373	4.9156	0.14068	1.95118	0.433949	6.18679	0.568115	8.11339	0.668364	9.55159	0.919736	12.2736	0.400442	5.67822	0.546525	7.80054	0.780804	11.0827
0.351266	4.90275	0.142777	1.95501	0.437683	6.15822	0.570779	8.04441	0.670972	9.46286	0.921662	12.1483	0.404846	5.66581	0.549473	7.73969	0.782581	10.9814
0.353519	4.88699	0.144874	1.95873	0.441466	6.13108	0.573492	7.97787	0.673602	9.37675	0.923356	12.0418	0.409248	5.65369	0.552442	7.68072	0.78464	10.8682
0.356112	4.8682	0.14697	1.96235	0.445299	6.10531	0.576251	7.91369	0.676254	9.29314	0.924811	11.9528	0.413647	5.64186	0.555431	7.62353	0.786719	10.7581
0.359024	4.84628	0.149066	1.96588	0.449179	6.08083	0.579057	7.85177	0.678929	9.21195	0.926022	11.8806	0.418045	5.63029	0.558441	7.56806	0.788817	10.6511
0.361867	4.82399	0.151162	1.96932	0.453105	6.05758	0.58191	7.79201	0.681624	9.13307	0.926985	11.8243	0.422439	5.61896	0.561471	7.51425	0.790935	10.547
0.364644	4.80138	0.153257	1.97267	0.457077	6.03551	0.584808	7.73433	0.684342	9.05642	0.927696	11.7834	0.42683	5.60787	0.564521	7.46202	0.793072	10.4458
0.367356	4.77846	0.155351	1.97593	0.461093	6.01454	0.587752	7.67864	0.687081	8.98192	0.928152	11.7574	0.431216	5.59699	0.56759	7.41131	0.795229	10.3472
0.370005	4.75528	0.157446	1.97912	0.465151	5.99461	0.59074	7.62486	0.68984	8.90948	0.928809	11.7202	0.435599	5.58631	0.570678	7.36207	0.797405	10.2512
0.372592	4.73188	0.159539	1.98222	0.469249	5.97567	0.593771	7.57292	0.692621	8.83903	0.929526	11.6802	0.439976	5.57583	0.573785	7.31424	0.799599	10.1578
0.37512	4.70827	0.161633	1.98525	0.473385	5.95766	0.596846	7.52275	0.695422	8.7705	0.930504	11.6264	0.444348	5.56552	0.576911	7.26777	0.801812	10.0667
0.37759	4.68449	0.163726	1.9882	0.477558	5.94052	0.599963	7.47427	0.698243	8.70381	0.931748	11.5593	0.448714	5.55538	0.580055	7.2226	0.804044	9.97805
0.380005	4.66058	0.165818	1.99109	0.481766	5.9242	0.603122	7.42741	0.701085	8.6389	0.933262	11.4795	0.453074	5.54538	0.583217	7.17869	0.806294	9.8916
0.382367	4.63657	0.167911	1.99391	0.486006	5.90866	0.606322	7.38212	0.703947	8.57571	0.93505	11.3878	0.457426	5.53553	0.586397	7.136	0.808562	9.80732
0.384677	4.61247	0.170003	1.99666	0.490278	5.89383	0.609562	7.33832	0.706828	8.51418	0.937118	11.2849	0.461771	5.52581	0.589595	7.09448	0.810848	9.72515
0.386938	4.58833	0.172094	1.99934	0.494579	5.87968	0.612842	7.29597	0.70973	8.45424	0.939205	11.1846	0.466109	5.51622	0.59281	7.05409	0.813152	9.645
0.389153	4.56416	0.174185	2.00197	0.498908	5.86616	0.61616	7.255	0.71265	8.39585	0.94131	11.0866	0.470438	5.50673	0.596043	7.01479	0.815473	9.56681
0.391322	4.54	0.176276	2.00454	0.503262	5.85324	0.619516	7.21536	0.71559	8.33896	0.943432	10.991	0.474758	5.49735	0.599293	6.97654	0.817812	9.49051
0.393448	4.51585	0.178367	2.00705	0.50764	5.84086	0.622909	7.177	0.718549	8.2835	0.945572	10.8976	0.479069	5.48806	0.60256	6.9393	0.820168	9.41605
0.395534	4.49175	0.180457	2.0095	0.51204	5.829	0.626339	7.13987	0.721527	8.22944	0.947729	10.8065	0.48337	5.47885	0.605844	6.90305	0.822541	9.34335
0.39758	4.46772	0.182547	2.0119	0.51646	5.81762	0.629804	7.10392	0.724524	8.17673	0.949904	10.7174	0.48766	5.46972	0.609144	6.86775	0.824931	9.27237
0.399588	4.44376	0.184637	2.01425	0.5209	5.8067	0.633303	7.0691	0.727539	8.12532	0.952095	10.6304	0.49194	5.46065	0.612462	6.83337	0.827337	9.20304
0.401562	4.41991	0.186726	2.01655	0.525358	5.79618	0.636837	7.03538	0.730573	8.07518	0.954304	10.5454	0.496208	5.45165	0.615795	6.79988	0.82976	9.13532
0.403501	4.39618	0.188816	2.0188	0.529831	5.78606	0.640404	7.00271	0.733625	8.02626	0.95653	10.4622	0.500464	5.4427	0.619145	6.76725	0.8322	9.06915
0.405408	4.37257	0.190905	2.021	0.534319	5.77631	0.644003	6.97104	0.736695	7.97852	0.958772	10.381	0.504708	5.43379	0.622512	6.73545	0.834656	9.00449
0.407285	4.34911	0.192993	2.02315	0.538821	5.76689	0.647633	6.94035	0.739784	7.93194	0.961031	10.3015	0.508939	5.42493	0.625894	6.70447	0.837128	8.94128
0.409132	4.3258	0.195082	2.02527	0.543335	5.75778	0.651295	6.91059	0.74289	7.88646	0.963306	10.2238	0.513156	5.41609	0.629293	6.67427	0.839616	8.87949
0.410952	4.30265	0.19717	2.02733	0.54786	5.74898	0.654986	6.88173	0.746014	7.84206	0.965597	10.1478	0.517359	5.40728	0.632708	6.64482	0.84212	8.81907
0.412746	4.27969	0.199258	2.02936	0.552395	5.74044	0.658707	6.85373	0.749156	7.79871	0.967905	10.0734	0.521548	5.39849	0.636139	6.61612	0.844639	8.75999
0.414515	4.2569	0.201345	2.03135	0.556939	5.73216	0.662457	6.82656	0.752315	7.75637	0.970229	10.0006	0.525722	5.38971	0.639586	6.58813	0.847174	8.70219
0.41626	4.23431	0.203433	2.0333	0.56149	5.72411	0.666234	6.8002	0.755492	7.71501	0.972568	9.92935	0.52988	5.38095	0.643049	6.56083	0.849724	8.64564
0.417983	4.21192	0.20552	2.0352	0.566048	5.71628	0.670039	6.7746	0.758686	7.67461	0.974924	9.85962	0.534022	5.37218	0.646527	6.53421	0.85229	8.59031
0.419685	4.18973	0.207607	2.03708	0.570612	5.70866	0.673869	6.74975	0.761898	7.63514	0.977295	9.79134	0.538147	5.36341	0.650022	6.50825	0.85487	8.53616
0.421366	4.16776	0.209694	2.03891	0.575181	5.70123	0.677726	6.72562	0.765126	7.59657	0.979681	9.72447	0.542255	5.35463	0.653533	6.48292	0.857466	8.48316
0.423029	4.146	0.21178	2.04071	0.579754	5.69397	0.681607	6.70217	0.768372	7.55887	0.982083	9.65899	0.546345	5.34583	0.657059	6.45821	0.860076	8.43127
0.424674	4.12445	0.213867	2.04248	0.58433	5.68688	0.685513	6.67938	0.771635	7.52202	0.9845	9.59484	0.550417	5.33702	0.660602	6.43411	0.862702	8.38046
0.426302	4.10313	0.215953	2.04422	0.588909	5.67994	0.689443	6.65723	0.774915	7.48601	0.986932	9.53199	0.55447	5.32819	0.66416	6.41059	0.865341	8.33071
0.427913	4.08204	0.218039	2.04592	0.593489	5.67314	0.693395	6.6357	0.778212	7.45079	0.98938	9.47041	0.558504	5.31933	0.667734	6.38765	0.867996	8.28198
0.42951	4.06117	0.220125	2.04759	0.598071	5.66647	0.69737	6.61476	0.781525	7.41636	0.991842	9.41005	0.562518	5.31044	0.671324	6.36526	0.870664	8.23424
0.431092	4.04054	0.22221	2.04923	0.602653	5.65991	0.701366	6.59439	0.784855	7.38269	0.994318	9.35089	0.566512	5.30151	0.674929	6.34341	0.873347	8.18747
0.43266	4.02013	0.224296	2.05084	0.607234	5.65347	0.705384	6.57457	0.788203	7.34976	0.99681	9.2929	0.570485	5.29255	0.678551	6.32209	0.876044	8.14164
0.434216	3.99996	0.226381	2.05242	0.611815	5.64714	0.709422	6.55528	0.791566	7.31756	0.999316	9.23604	0.574437	5.28354	0.682188	6.30128	0.878755	8.09673
0.43576	3.98002	0.228466	2.05398	0.616394	5.64089	0.71348	6.5365	0.794947	7.28605	1.00184	9.18028	0.578367	5.27449	0.685842	6.28097	0.88148	8.0527
0.437292	3.96032	0.230551	2.0555	0.620971	5.63474	0.717557	6.51822	0.798344	7.25524			0.582275	5.26539	0.689511	6.26115	0.884219	8.00955
0.438814	3.94085	0.232636	2.057	0.625546	5.62866	0.721652	6.50041	0.801758	7.22509			0.586161	5.25624	0.693196	6.2418	0.886971	7.96725
0.440325	3.92161	0.23472	2.05848	0.630117	5.62266	0.725766	6.48305	0.805189	7.19559			0.590023	5.24704	0.696897	6.22292	0.889738	7.92576
0.441828	3.9026	0.236805	2.05993	0.634685	5.61672	0.729897	6.46614	0.808636	7.16672			0.593862	5.23778	0.700613	6.20449	0.892518	7.88508
0.443321	3.88383	0.238889	2.06135	0.639248	5.61084	0.734045	6.44966	0.8121	7.13848			0.597676	5.22846	0.704345	6.18649	0.895311	7.84519
0.444806	3.86529	0.240973	2.06275	0.643807	5.60502	0.73821	6.43358	0.815581	7.11084			0.601467	5.21908	0.708093	6.16893	0.898118	7.80605
0.446283	3.84698	0.243057	2.06413	0.648361	5.59924	0.74239	6.4179	0.819078	7.08379			0.605232	5.20964	0.711857	6.15179	0.900937	7.76766
0.447752	3.8289	0.245141	2.06548	0.652909	5.59352	0.746586	6.4026	0.822592	7.05731			0.608973	5.20013	0.715636	6.13505	0.903771	7.72999
0.449215	3.81104	0.247225	2.06682	0.657451	5.58783	0.750796	6.38767	0.826123	7.0314			0.612688	5.19056	0.719431	6.11871	0.906617	7.69303
0.450672	3.79341	0.249309	2.06813	0.661987	5.58217	0.755021	6.37309	0.829671	7.00604			0.616378	5.18093	0.723241	6.10276	0.909476	7.65676
0.452122	3.77601	0.251392	2.06942	0.666516	5.57655	0.759259	6.35886	0.833235	6.98121			0.620042	5.17122	0.727067	6.08718	0.912349	7.62117
0.453567	3.75883	0.253476	2.07069	0.671037	5.57096	0.76351	6.34495	0.836817	6.95691			0.623679	5.16145	0.730908	6.07198	0.915234	7.58623
0.455007	3.74187	0.255559	2.07193	0.675552	5.56539	0.767774	6.33137	0.840415	6.93313			0.62729	5.15161	0.734764	6.05713	0.918133	7.55193
0.456442	3.72513	0.257642	2.07316	0.680058	5.55984	0.77205	6.31809	0.844031	6.90985			0.630874	5.1417	0.738634	6.04263	0.921044	7.51826
0.457873	3.70861	0.259725	2.07437	0.684556	5.5543	0.776337	6.3051	0.847664	6.88706			0.634431	5.13173	0.74252	6.02846	0.923968	7.4852
0.459299	3.6923	0.261808	2.07556	0.689045	5.54878	0.780636	6.2924	0.851314	6.86475			0.63796	5.12168	0.746421	6.01463	0.926904	7.45274
0.460722	3.6762	0.263891	2.07674	0.693525	5.54327	0.784945	6.27997	0.854981	6.84291			0.641463	5.11156	0.750335	6.00113	0.929853	7.42086
0.462141	3.66031	0.265973	2.07789	0.697996	5.53777	0.789265	6.26781	0.858666	6.82153			0.644938	5.10138	0.754265	5.98793	0.932815	7.38955
0.463557	3.64464	0.268056	2.07903	0.702458	5.53227	0.793594	6.2559	0.862368	6.80061			0.648385	5.09113	0.758208	5.97504	0.935789	7.3588
0.464971	3.62916	0.270139	2.08015	0.706909	5.52677	0.797932	6.24423	0.866088	6.78012			0.651805	5.08081	0.762165	5.96245	0.938776	7.32859
0.466381	3.61389	0.272221	2.08125	0.71135	5.52128	0.802279	6.23281	0.869825	6.76008			0.655197	5.07043	0.766136	5.95014	0.941776	7.29892
0.46779	3.59883	0.274303	2.08234	0.715781	5.51578	0.806634	6.22161	0.87358	6.74046			0.658561	5.05998	0.77012	5.93812	0.944787	7.26977
0.469196	3.58395	0.276385	2.08341	0.720201	5.51027	0.810996	6.21062	0.877354	6.72125			0.661897	5.04946	0.774117	5.92637	0.947811	7.24112
0.470601	3.56928	0.278467	2.08447	0.724609	5.50476	0.815366	6.19985	0.881145	6.70246			0.665205	5.03888	0.778128	5.91488	0.950847	7.21298
0.472003	3.5548	0.280549	2.08551	0.729006	5.49924	0.819743	6.18928	0.884955	6.68407			0.668485	5.02825	0.78215	5.90365	0.953896	7.18532
0.473405	3.54051	0.282631	2.08653	0.733392	5.49372	0.824125	6.17891	0.888783	6.66607			0.671738	5.01755	0.786185	5.89266	0.956957	7.15814
0.474805	3.52641	0.284713	2.08754	0.737765	5.48817	0.828514	6.16872	0.892629	6.64846			0.674962	5.00679	0.790232	5.88192	0.96003	7.13143
0.476204	3.5125	0.286795	2.08854	0.742127	5.48262	0.832908	6.15872	0.896495	6.63123			0.678159	4.99597	0.794291	5.87141	0.963115	7.10517
0.477602	3.49877	0.288877	2.08952	0.746475	5.47705	0.837307	6.14888	0.900378	6.61438			0.681328	4.9851	0.798361	5.86113	0.966212	7.07936
0.479	3.48522	0.290958	2.09049	0.750811	5.47146	0.841711	6.13922	0.904281	6.59789			0.68447	4.97418	0.802442	5.85107	0.969321	7.05399
0.480397	3.47185	0.29304	2.09144	0.755135	5.46585	0.846118	6.12971	0.908203	6.58176			0.687584	4.96321	0.806534	5.84122	0.972443	7.02904
0.481794	3.45865	0.295121	2.09238	0.759444	5.46022	0.85053	6.12036	0.912144	6.56599			0.690671	4.95218	0.810636	5.83158	0.975576	7.00452
0.483191	3.44563	0.297202	2.09331	0.763741	5.45458	0.854944	6.11115	0.916104	6.55056			0.69373	4.94111	0.814747	5.82214	0.978721	6.9804
0.484587	3.43279	0.299283	2.09423	0.768024	5.44891	0.859361	6.10209	0.920083	6.53548			0.696763	4.92999	0.818869	5.81289	0.981878	6.95669
0.485984	3.42011	0.301365	2.09513	0.772293	5.44321	0.863781	6.09316	0.924083	6.52073			0.699768	4.91883	0.822999	5.80382	0.985047	6.93338
0.487381	3.4076	0.303446	2.09602	0.776548	5.4375	0.868202	6.08436	0.928101	6.50631			0.702747	4.90763	0.827139	5.79494	0.988228	6.91045
0.488778	3.39525	0.305527	2.0969	0.780788	5.43175	0.872626	6.07569	0.93214	6.49222			0.705699	4.89639	0.831287	5.78623	0.991421	6.8879
0.490176	3.38306	0.307608	2.09777	0.785014	5.42598	0.87705	6.06714	0.936198	6.47844			0.708625	4.88511	0.835443	5.77769	0.994625	6.86572
0.491575	3.37104	0.309688	2.09863	0.789226	5.42019	0.881475	6.0587	0.940276	6.46498			0.711525	4.8738	0.839607	5.76931	0.997841	6.84391
0.492974	3.35917	0.311769	2.09947	0.793422	5.41436	0.885901	6.05038	0.944374	6.45183			0.7144	4.86246	0.843778	5.76109	1.00107	6.82245
0.494374	3.34746	0.31385	2.10031	0.797604	5.40851	0.890327	6.04216	0.948492	6.43898			0.717248	4.85108	0.847955	5.75302		
0.495775	3.3359	0.31593	2.10113	0.80177	5.40263	0.894753	6.03404	0.952631	6.42643			0.720071	4.83968	0.85214	5.74509		
0.497177	3.32449	0.318011	2.10194	0.805921	5.39672	0.899179	6.02602	0.956789	6.41416			0.722869	4.82825	0.856331	5.73731		
0.49858	3.31323	0.320092	2.10274	0.810056	5.39078	0.903604	6.0181	0.960968	6.40219			0.725642	4.8168	0.860527	5.72966		
0.499984	3.30212	0.322172	2.10354	0.814175	5.3848	0.908027	6.01027	0.965167	6.3905			0.728391	4.80532	0.864729	5.72214		
0.50139	3.29115	0.324252	2.10432	0.818279	5.3788	0.91245	6.00252	0.969386	6.37908			0.731115	4.79383	0.868935	5.71474		
0.502797	3.28033	0.326333	2.10509	0.822366	5.37276	0.916871	5.99486	0.973625	6.36793			0.733814	4.78232	0.873147	5.70747		
0.504205	3.26964	0.328413	2.10585	0.826437	5.36669	0.92129	5.98728	0.977884	6.35706			0.736491	4.77079	0.877363	5.70031		
0.505615	3.2591	0.330493	2.10661	0.830492	5.36059	0.925707	5.97978	0.982164	6.34644			0.739143	4.75925	0.881582	5.69326		
0.507027	3.24868	0.332573	2.10735	0.834531	5.35446	0.930122	5.97236	0.986464	6.33608			0.741773	4.7477	0.885805	5.68632		
0.50844	3.23841	0.334653	2.10809	0.838552	5.34829	0.934535	5.96501	0.990784	6.32596			0.744379	4.73613	0.890031	5.67948		
0.509855	3.22826	0.336734	2.10881	0.842557	5.34209	0.938945	5.95773	0.995123	6.3161			0.746963	4.72457	0.89426	5.67273		
0.511272	3.21825	0.338814	2.10953	0.846545	5.33585	0.943352	5.95051	0.999482	6.30648			0.749524	4.71299	0.898491	5.66609		
0.51269	3.20836	0.340893	2.11024	0.850516	5.32959	0.947757	5.94337	1.00386	6.29709			0.752063	4.70142	0.902724	5.65953		
0.514111	3.1986	0.342973	2.11094	0.85447	5.32328	0.952159	5.93629					0.754581	4.68984	0.906959	5.65306		
0.515533	3.18896	0.345053	2.11163	0.858407	5.31695	0.956557	5.92927					0.757077	4.67826	0.911195	5.64667		
0.516957	3.17945	0.347133	2.11231	0.862327	5.31058	0.960953	5.92231					0.759551	4.66669	0.915432	5.64036		
0.518384	3.17006	0.349213	2.11299	0.866229	5.30418	0.965345	5.91542					0.762005	4.65512	0.91967	5.63413		
0.519812	3.16078	0.351292	2.11366	0.870114	5.29774	0.969734	5.90858					0.764438	4.64355	0.923908	5.62797		
0.521243	3.15163	0.353372	2.11432	0.873981	5.29127	0.97412	5.9018					0.766851	4.63199	0.928146	5.62188		
0.522675	3.14259	0.355451	2.11497	0.877831	5.28477	0.978502	5.89507					0.769244	4.62044	0.932383	5.61585		
0.52411	3.13366	0.357531	2.11562	0.881663	5.27823	0.982882	5.8884					0.771618	4.60891	0.93662	5.60989		
0.525547	3.12484	0.35961	2.11625	0.885477	5.27166	0.987257	5.88179					0.773971	4.59738	0.940856	5.60399		
0.526986	3.11614	0.36169	2.11688	0.889274	5.26506	0.99163	5.87523					0.776306	4.58587	0.94509	5.59814		
0.528428	3.10754	0.363769	2.11751	0.893052	5.25843	0.995999	5.86872					0.778622	4.57437	0.949322	5.59235		
0.529872	3.09905	0.365849	2.11812	0.896813	5.25176	1.00036	5.86226					0.780919	4.5629	0.953553	5.58661		
0.531318	3.09067	0.367928	2.11873	0.900556	5.24506							0.783199	4.55144	0.957781	5.58092		
0.532766	3.08239	0.370007	2.11934	0.904281	5.23833							0.78546	4.54	0.962006	5.57527		
0.534217	3.07421	0.372086	2.11993	0.907988	5.23157							0.787703	4.52858	0.966229	5.56967		
0.535671	3.06614	0.374165	2.12052	0.911677	5.22478							0.78993	4.51718	0.970448	5.56411		
0.537126	3.05816	0.376245	2.1211	0.915348	5.21795							0.792139	4.50581	0.974664	5.55858		
0.538585	3.05028	0.378324	2.12168	0.919001	5.2111							0.794331	4.49446	0.978876	5.5531		
0.540045	3.0425	0.380403	2.12225	0.922636	5.20422							0.796508	4.48314	0.983084	5.54765		
0.541508	3.03481	0.382482	2.12282	0.926253	5.19731							0.798667	4.47184	0.987287	5.54223		
0.542974	3.02722	0.384561	2.12337	0.929852	5.19037							0.800811	4.46058	0.991486	5.53684		
0.544442	3.01972	0.38664	2.12393	0.933433	5.1834							0.80294	4.44934	0.995679	5.53148		
0.545912	3.01231	0.388718	2.12447	0.936996	5.1764							0.805053	4.43814	0.999868	5.52614		
0.547386	3.00499	0.390797	2.12502	0.940541	5.16938							0.80715	4.42697	1.00405	5.52083		
0.548861	2.99776	0.392876	2.12555	0.944068	5.16233							0.809234	4.41583				
0.550339	2.99061	0.394955	2.12608	0.947577	5.15525							0.811302	4.40472				
0.55182	2.98355	0.397034	2.1266	0.951068	5.14815							0.813356	4.39365				
0.553303	2.97658	0.399112	2.12712	0.954541	5.14102							0.815397	4.38261				
0.554789	2.96969	0.401191	2.12764	0.957996	5.13387							0.817423	4.37161				
0.556278	2.96288	0.403269	2.12814	0.961434	5.1267							0.819436	4.36065				
0.557769	2.95615	0.405348	2.12865	0.964854	5.1195							0.821436	4.34973				
0.559262	2.9495	0.407427	2.12915	0.968256	5.11227							0.823423	4.33884				
0.560759	2.94293	0.409505	2.12964	0.97164	5.10503							0.825398	4.328				
0.562257	2.93644	0.411584	2.13013	0.975007	5.09777							0.827359	4.31719				
0.563759	2.93002	0.413662	2.13061	0.978356	5.09048							0.829309	4.30643				
0.565263	2.92368	0.415741	2.13109	0.981687	5.08317							0.831246	4.29571				
0.566769	2.91742	0.417819	2.13156	0.985001	5.07584							0.833172	4.28503				
0.568279	2.91122	0.419897	2.13203	0.988298	5.0685							0.835087	4.27439				
0.56979	2.9051	0.421976	2.1325	0.991577	5.06113							0.83699	4.2638				
0.571305	2.89905	0.424054	2.13296	0.994839	5.05375							0.838882	4.25325				
0.572822	2.89307	0.426132	2.13341	0.998084	5.04635							0.840763	4.24275				
0.574341	2.88716	0.42821	2.13386	1.00131	5.03893							0.842634	4.23229				
0.575863	2.88132	0.430289	2.13431									0.844494	4.22188				
0.577388	2.87554	0.432367	2.13475									0.846344	4.21151				
0.578915	2.86983	0.434445	2.13519									0.848184	4.20119				
0.580445	2.86419	0.436523	2.13563									0.850015	4.19092				
0.581978	2.85861	0.438601	2.13606									0.851836	4.18069				
0.583513	2.85309	0.440679	2.13648									0.853647	4.17051				
0.58505	2.84763	0.442757	2.1369									0.85545	4.16038				
0.586591	2.84224	0.444835	2.13732									0.857244	4.1503				
0.588133	2.83691	0.446913	2.13774									0.859029	4.14026				
0.589679	2.83164	0.448991	2.13815									0.860805	4.13028				
0.591226	2.82643	0.451069	2.13855									0.862573	4.12034				
0.592777	2.82127	0.453147	2.13896									0.864333	4.11045				
0.59433	2.81617	0.455225	2.13936									0.866085	4.10062				
0.595885	2.81113	0.457303	2.13975									0.867829	4.09083				
0.597443	2.80615	0.459381	2.14015									0.869566	4.08109				
0.599004	2.80122	0.461458	2.14053									0.871295	4.0714				
0.600566	2.79635	0.463536	2.14092									0.873017	4.06177				
0.602132	2.79152	0.465614	2.1413									0.874732	4.05218				
0.6037	2.78676	0.467692	2.14168									0.876439	4.04264				
0.60527	2.78204	0.469769	2.14206									0.878141	4.03316				
0.606843	2.77738	0.471847	2.14243									0.879835	4.02372				
0.608418	2.77276	0.473925	2.1428									0.881523	4.01434				
0.609996	2.7682	0.476002	2.14316									0.883205	4.005				
0.611576	2.76369	0.47808	2.14353									0.884881	3.99572				
0.613159	2.75922	0.480158	2.14388									0.88655	3.98649				
0.614744	2.7548	0.482235	2.14424									0.888214	3.97731				
0.616332	2.75043	0.484313	2.14459									0.889872	3.96818				
0.617922	2.74611	0.48639	2.14494									0.891525	3.9591				
0.619514	2.74184	0.488468	2.14529									0.893172	3.95007				
0.621109	2.7376	0.490545	2.14564									0.894814	3.94109				
0.622706	2.73342	0.492623	2.14598									0.89645	3.93216				
0.624305	2.72928	0.4947	2.14632									0.898082	3.92329				
0.625907	2.72518	0.496778	2.14665									0.899709	3.91446				
0.627511	2.72113	0.498855	2.14698									0.901331	3.90569				
0.629117	2.71711	0.500932	2.14731									0.902948	3.89696				
0.630726	2.71314	0.50301	2.14764									0.904561	3.88829				
0.632337	2.70922	0.505087	2.14797									0.90617	3.87966				
0.633951	2.70533	0.507164	2.14829									0.907774	3.87109				
0.635566	2.70148	0.509242	2.14861									0.909374	3.86257				
0.637184	2.69768	0.511319	2.14893									0.91097	3.85409				
0.638804	2.69391	0.513396	2.14924									0.912562	3.84567				
0.640427	2.69018	0.515473	2.14955									0.91415	3.8373				
0.642052	2.68649	0.517551	2.14986									0.915734	3.82897				
0.643678	2.68284	0.519628	2.15017									0.917315	3.8207				
0.645308	2.67923	0.521705	2.15047									0.918892	3.81247				
0.646939	2.67565	0.523782	2.15078									0.920466	3.8043				
0.648573	2.67211	0.525859	2.15108									0.922037	3.79617				
0.650208	2.66861	0.527936	2.15137									0.923604	3.78809				
0.651846	2.66514	0.530014	2.15167									0.925168	3.78006				
0.653486	2.66171	0.532091	2.15196									0.926729	3.77208				
0.655129	2.65831	0.534168	2.15225									0.928287	3.76415				
0.656773	2.65494	0.536245	2.15254									0.929843	3.75626				
0.65842	2.65161	0.538322	2.15283									0.931395	3.74843				
0.660068	2.64831	0.540399	2.15311									0.932945	3.74064				
0.661719	2.64505	0.542476	2.15339									0.934492	3.7329				
0.663372	2.64182	0.544553	2.15367									0.936037	3.7252				
0.665027	2.63862	0.54663	2.15395									0.937579	3.71756				
0.666684	2.63545	0.548707	2.15422									0.939119	3.70996				
0.668343	2.63231	0.550784	2.1545									0.940656	3.7024				
0.670004	2.62921	0.552861	2.15477									0.942191	3.6949				
0.671668	2.62613	0.554937	2.15504									0.943725	3.68744				
0.673333	2.62309	0.557014	2.1553									0.945256	3.68002				
0.675	2.62008	0.559091	2.15557									0.946785	3.67265				
0.67667	2.61709	0.561168	2.15583									0.948312	3.66533				
0.678341	2.61413	0.563245	2.15609									0.949837	3.65805				
0.680014	2.61121	0.565322	2.15635									0.951361	3.65082				
0.681689	2.60831	0.567399	2.15661									0.952882	3.64363				
0.683367	2.60544	0.569475	2.15687									0.954402	3.63649				
0.685046	2.6026	0.571552	2.15712									0.955921	3.62939				
0.686727	2.59978	0.573629	2.15737									0.957438	3.62233				
0.68841	2.59699	0.575706	2.15762									0.958953	3.61532				
0.690095	2.59423	0.577782	2.15787									0.960467	3.60836				
0.691782	2.59149	0.579859	2.15812									0.96198	3.60143				
0.693471	2.58879	0.581936	2.15836									0.963491	3.59455				
0.695161	2.5861	0.584013	2.1586									0.965001	3.58772				
0.696854	2.58344	0.586089	2.15885									0.96651	3.58092				
0.698548	2.58081	0.588166	2.15909									0.968018	3.57417				
0.700245	2.5782	0.590242	2.15932									0.969524	3.56746				
0.701943	2.57562	0.592319	2.15956									0.97103	3.56079				
0.703643	2.57306	0.594396	2.15979									0.972534	3.55417				
0.705345	2.57053	0.596472	2.16003									0.974038	3.54758				
0.707048	2.56802	0.598549	2.16026									0.975541	3.54104				
0.708754	2.56553	0.600626	2.16049									0.977042	3.53454				
0.710461	2.56307	0.602702	2.16072									0.978544	3.52808				
0.71217	2.56062	0.604779	2.16094									0.980044	3.52166				
0.713881	2.55821	0.606855	2.16117									0.981543	3.51528				
0.715593	2.55581	0.608932	2.16139									0.983042	3.50894				
0.717308	2.55344	0.611008	2.16161									0.98454	3.50264				
0.719024	2.55108	0.613085	2.16183									0.986038	3.49637				
0.720741	2.54875	0.615161	2.16205									0.987535	3.49015				
0.722461	2.54644	0.617238	2.16227									0.989032	3.48397				
0.724182	2.54415	0.619314	2.16249									0.990528	3.47783				
0.725905	2.54189	0.62139	2.1627									0.992024	3.47172				
0.72763	2.53964	0.623467	2.16291									0.993519	3.46565				
0.729356	2.53741	0.625543	2.16313									0.995014	3.45962				
0.731084	2.53521	0.62762	2.16334									0.996508	3.45363				
0.732813	2.53302	0.629696	2.16355									0.998002	3.44768				
0.734545	2.53086	0.631772	2.16375									0.999497	3.44176				
0.736278	2.52871	0.633849	2.16396									1.00099	3.43588				
0.738012	2.52658	0.635925	2.16416														
0.739748	2.52447	0.638002	2.16437														
0.741486	2.52238	0.640078	2.16457														
0.743225	2.52031	0.642154	2.16477														
0.744966	2.51826	0.64423	2.16497														
0.746709	2.51623	0.646307	2.16517														
0.748453	2.51421	0.648383	2.16537														
0.750199	2.51221	0.650459	2.16556														
0.751946	2.51023	0.652536	2.16576														
0.753695	2.50827	0.654612	2.16595														
0.755445	2.50632	0.656688	2.16614														
0.757197	2.50439	0.658764	2.16633														
0.75895	2.50248	0.66084	2.16652														
0.760705	2.50058	0.662917	2.16671														
0.762461	2.4987	0.664993	2.1669														
0.764219	2.49684	0.667069	2.16708														
0.765979	2.49499	0.669145	2.16727														
0.767739	2.49316	0.671221	2.16745														
0.769502	2.49135	0.673297	2.16764														
0.771265	2.48955	0.675374	2.16782														
0.773031	2.48777	0.67745	2.168														
0.774797	2.486	0.679526	2.16818														
0.776565	2.48424	0.681602	2.16835														
0.778335	2.48251	0.683678	2.16853														
0.780106	2.48078	0.685754	2.16871														
0.781878	2.47907	0.68783	2.16888														
0.783652	2.47738	0.689906	2.16906														
0.785427	2.4757	0.691982	2.16923														
0.787203	2.47403	0.694058	2.1694														
0.788981	2.47238	0.696134	2.16957														
0.79076	2.47074	0.69821	2.16974														
0.792541	2.46912	0.700286	2.16991														
0.794323	2.46751	0.702362	2.17008														
0.796106	2.46591	0.704438	2.17024														
0.79789	2.46432	0.706514	2.17041														
0.799676	2.46275	0.70859	2.17058														
0.801463	2.46119	0.710666	2.17074														
0.803252	2.45965	0.712742	2.1709														
0.805042	2.45812	0.714818	2.17106														
0.806833	2.4566	0.716894	2.17122														
0.808625	2.45509	0.71897	2.17138														
0.810419	2.4536	0.721045	2.17154														
0.812214	2.45211	0.723121	2.1717														
0.81401	2.45064	0.725197	2.17186														
0.815807	2.44918	0.727273	2.17202														
0.817606	2.44774	0.729349	2.17217														
0.819406	2.4463	0.731425	2.17233														
0.821207	2.44488	0.733501	2.17248														
0.823009	2.44347	0.735576	2.17263														
0.824813	2.44207	0.737652	2.17278														
0.826618	2.44068	0.739728	2.17293														
0.828424	2.4393	0.741804	2.17309														
0.830231	2.43793	0.74388	2.17323														
0.832039	2.43658	0.745955	2.17338														
0.833849	2.43523	0.748031	2.17353														
0.835659	2.4339	0.750107	2.17368														
0.837471	2.43257	0.752183	2.17382														
0.839284	2.43126	0.754258	2.17397														
0.841098	2.42996	0.756334	2.17411														
0.842914	2.42866	0.75841	2.17426														
0.84473	2.42738	0.760485	2.1744														
0.846548	2.42611	0.762561	2.17454														
0.848367	2.42485	0.764637	2.17468														
0.850186	2.42359	0.766713	2.17482														
0.852007	2.42235	0.768788	2.17496														
0.853829	2.42112	0.770864	2.1751														
0.855653	2.41989	0.772939	2.17524														
0.857477	2.41868	0.775015	2.17538														
0.859302	2.41748	0.777091	2.17551														
0.861129	2.41628	0.779166	2.17565														
0.862956	2.41509	0.781242	2.17579														
0.864785	2.41392	0.783318	2.17592														
0.866614	2.41275	0.785393	2.17605														
0.868445	2.41159	0.787469	2.17619														
0.870277	2.41044	0.789544	2.17632														
0.872109	2.4093	0.79162	2.17645														
0.873943	2.40817	0.793695	2.17658														
0.875778	2.40704	0.795771	2.17671														
0.877614	2.40593	0.797846	2.17684														
0.879451	2.40482	0.799922	2.17697														
0.881288	2.40372	0.801998	2.1771														
0.883127	2.40263	0.804073	2.17723														
0.884967	2.40155	0.806149	2.17735														
0.886808	2.40048	0.808224	2.17748														
0.88865	2.39941	0.8103	2.17761														
0.890493	2.39836	0.812375	2.17773														
0.892337	2.39731	0.81445	2.17786														
0.894181	2.39626	0.816526	2.17798														
0.896027	2.39523	0.818601	2.1781														
0.897874	2.3942	0.820677	2.17822														
0.899721	2.39318	0.822752	2.17835														
0.90157	2.39217	0.824828	2.17847														
0.90342	2.39117	0.826903	2.17859														
0.90527	2.39017	0.828978	2.17871														
0.907122	2.38918	0.831054	2.17883														
0.908974	2.3882	0.833129	2.17895														
0.910827	2.38723	0.835205	2.17906														
0.912681	2.38626	0.83728	2.17918														
0.914536	2.3853	0.839355	2.1793														
0.916392	2.38435	0.841431	2.17941														
0.918249	2.3834	0.843506	2.17953														
0.920107	2.38246	0.845581	2.17965														
0.921966	2.38153	0.847657	2.17976														
0.923825	2.3806	0.849732	2.17987														
0.925686	2.37968	0.851807	2.17999														
0.927547	2.37877	0.853883	2.1801														
0.929409	2.37787	0.855958	2.18021														
0.931272	2.37697	0.858033	2.18032														
0.933136	2.37607	0.860109	2.18044														
0.935001	2.37519	0.862184	2.18055														
0.936867	2.37431	0.864259	2.18066														
0.938733	2.37343	0.866334	2.18077														
0.940601	2.37256	0.86841	2.18088														
0.942469	2.3717	0.870485	2.18098														
0.944338	2.37085	0.87256	2.18109														
0.946208	2.37	0.874635	2.1812														
0.948078	2.36916	0.87671	2.18131														
0.94995	2.36832	0.878786	2.18141														
0.951822	2.36749	0.880861	2.18152														
0.953695	2.36666	0.882936	2.18162														
0.955569	2.36584	0.885011	2.18173														
0.957444	2.36503	0.887086	2.18183														
0.959319	2.36422	0.889162	2.18194														
0.961195	2.36342	0.891237	2.18204														
0.963072	2.36262	0.893312	2.18214														
0.96495	2.36183	0.895387	2.18225														
0.966829	2.36104	0.897462	2.18235														
0.968708	2.36026	0.899537	2.18245														
0.970588	2.35949	0.901612	2.18255														
0.972469	2.35872	0.903687	2.18265														
0.974351	2.35795	0.905763	2.18275														
0.976233	2.35719	0.907838	2.18285														
0.978116	2.35644	0.909913	2.18295														
0.98	2.35569	0.911988	2.18305														
0.981885	2.35494	0.914063	2.18315														
0.98377	2.35421	0.916138	2.18325														
0.985657	2.35347	0.918213	2.18334														
0.987543	2.35274	0.920288	2.18344														
0.989431	2.35202	0.922363	2.18354														
0.991319	2.3513	0.924438	2.18363														
0.993209	2.35059	0.926513	2.18373														
0.995098	2.34988	0.928588	2.18382														
0.996989	2.34917	0.930663	2.18392														
0.99888	2.34847	0.932738	2.18401														
1.00077	2.34778	0.934813	2.18411														
		0.936888	2.1842														
		0.938963	2.18429														
		0.941038	2.18438														
		0.943113	2.18448														
		0.945188	2.18457														
		0.947263	2.18466														
		0.949338	2.18475														
		0.951413	2.18484														
		0.953488	2.18493														
		0.955563	2.18502														
		0.957638	2.18511														
		0.959713	2.1852														
		0.961787	2.18529														
		0.963862	2.18538														
		0.965937	2.18546														
		0.968012	2.18555														
		0.970087	2.18564														
		0.972162	2.18572														
		0.974237	2.18581														
		0.976312	2.1859														
		0.978386	2.18598														
		0.980461	2.18607														
		0.982536	2.18615														
		0.984611	2.18624														
		0.986686	2.18632														
		0.98876	2.1864														
		0.990835	2.18649														
		0.99291	2.18657														
		0.994985	2.18665														
		0.99706	2.18673														
		0.999134	2.18682														
		1.00121	2.1869														
